##TITLE=DWF15
##FORMAT=SPECTACLE-ASCII V-1.2
##DATA TYPE=ULTRAVIOLET SPECTRUM
##SECOND TYPE=ULTRAVIOLET SPECTRUM
##DATE=12/19/17
##TIME=15:48:09
##SPECTROMETER/DATA SYSTEM=SPECTACLE
##XUNITS=NM EM
##YUNITS=ENERGY
##YFACTOR=1
##FIRSTX=220
##LASTX=410
##NPOINTS=96
##3DDATA=Equidistant
##ZUNITS=NM EX
##FIRSTZ=210
##LASTZ=400
##ZPOINTS=39
##XYDATA=(Y..Y)
##ZVALUE=210
13.907552
12.739897
11.313558
11.708736
9.195805
10.111928
9.187460
7.363558
6.434917
3.983974
3.677607
2.730489
2.358556
2.328753
2.151728
2.124906
2.474785
2.091527
2.702475
2.918839
2.892613
3.050566
3.418922
3.936887
4.663467
6.336570
9.341836
11.449456
16.090870
19.006729
25.964975
27.971864
34.683943
36.942959
40.548444
38.962960
38.783550
38.475990
39.198995
34.996867
33.591986
33.728480
30.719638
29.192567
28.309822
27.345419
26.059747
23.241639
21.155477
20.443797
19.386411
18.213987
16.071796
15.326738
14.570951
13.177991
12.889504
12.894869
11.845827
11.944771
11.561513
10.920763
9.825826
8.782744
10.138750
8.949637
8.598566
9.488463
9.268522
9.393692
9.789467
11.005998
12.407899
13.487935
14.357567
15.134811
13.033748
13.111830
11.419654
11.629462
10.690689
10.683537
8.950830
7.498860
6.579757
6.074905
5.394816
4.857779
6.027818
7.031560
8.159876
11.493564
15.307665
19.775629
22.112727
26.591420
##ZVALUE=215
37.332773
38.275719
34.334660
23.350716
20.731688
16.921759
15.307665
14.144778
14.635921
13.185740
10.564923
8.634925
6.783605
5.601645
3.729463
3.120899
2.463460
2.210736
1.995564
2.411604
3.223419
2.588630
2.875924
3.641844
4.891753
7.436872
9.774566
15.315413
19.214749
24.837852
31.071901
34.975410
40.278435
44.074655
44.621825
45.721531
46.696663
46.811700
45.532584
43.489933
44.144988
40.630698
38.832426
34.556985
31.588674
30.747652
29.390454
25.968552
25.072694
23.735762
22.937655
21.622777
21.253824
18.094778
18.919706
16.706586
14.988780
15.717745
15.835762
15.093684
13.205409
13.565421
11.269450
11.305809
11.042953
9.746552
10.523796
9.909868
10.801554
11.081696
11.529922
12.069941
11.546612
13.434887
13.648868
13.285875
12.879968
12.629628
12.143850
12.074709
10.529757
9.945631
9.427667
8.332729
7.200837
6.679893
5.690455
5.792975
5.213618
5.108714
4.829764
5.122423
5.645752
5.805492
6.504655
10.687709
##ZVALUE=220
76.286793
79.863667
75.276494
69.135427
59.084892
44.617653
36.555529
30.038953
24.756789
25.763512
24.228692
23.215413
22.056699
15.732646
14.938712
10.461807
6.576777
4.715919
3.742576
3.261566
3.240705
3.230572
3.093481
4.209876
6.303787
8.718967
12.940764
18.712878
24.135709
29.854774
34.148693
42.246580
47.260523
52.066445
54.091811
56.751966
57.073832
56.945682
55.314898
55.260658
49.601793
51.156878
45.808554
43.637753
40.397644
37.798882
33.699870
32.793880
31.991601
28.330684
27.447939
25.482774
24.811625
22.990704
19.775629
21.268725
19.365549
18.924475
18.727779
18.324852
17.089844
15.564561
15.401840
14.108419
12.944937
14.085770
12.969971
12.604594
11.871457
12.950897
12.612939
12.793541
13.745427
14.992952
14.839768
14.254451
13.572574
13.833642
13.192892
12.964606
11.034608
10.544658
10.182858
8.412600
8.744597
6.132722
6.628633
5.977750
6.048679
5.706549
5.305409
6.172657
5.415678
5.683899
4.995465
4.964471
##ZVALUE=225
102.592707
102.908611
130.458474
139.676929
136.032701
128.016472
103.452802
85.147619
58.230758
48.013926
39.374828
37.429929
39.277673
38.403869
36.127567
32.062531
26.612878
20.437837
15.365481
9.427667
6.663799
5.072951
4.336834
5.265474
6.404519
7.834435
11.530519
16.629696
20.931959
27.942657
32.444596
39.939880
44.974685
46.665668
52.535534
53.848624
53.862929
55.134892
54.342747
52.253604
48.084855
48.854947
44.991970
40.920973
42.112470
35.895705
35.899878
33.054948
31.019449
28.275847
30.401945
27.327538
27.119517
26.042461
24.964809
23.954511
24.870634
21.842718
21.319985
21.787882
21.082759
20.120740
19.223690
17.327666
16.347766
16.681552
16.074777
15.048981
15.511513
15.208721
15.542507
15.432835
14.545918
15.124679
15.881658
14.506578
14.253855
13.585687
13.673902
11.486411
11.408925
10.280609
9.630919
10.028481
8.307695
7.852912
8.859634
7.967949
6.810427
6.669760
7.243752
7.038713
6.225705
6.619692
5.871654
6.884933
##ZVALUE=230
64.532757
71.207881
106.649995
161.345601
187.542439
226.977468
229.874849
215.077996
183.600783
138.576627
106.810927
74.642897
60.320497
52.022934
53.767562
57.095885
56.365728
51.022768
46.907663
38.162470
26.715994
16.048551
9.311438
6.305575
5.625486
4.734993
7.218719
8.498430
13.747811
15.305877
20.822883
23.414493
26.583672
31.158924
31.903982
35.018921
35.191774
35.046935
34.480691
34.012794
35.533905
32.810569
31.554699
28.722882
27.775764
26.875734
23.763776
22.308826
22.853613
19.948483
20.895600
21.648407
20.864606
22.899508
23.248792
19.316673
22.058487
19.370914
19.996762
19.012690
18.701553
18.278956
16.962886
17.215610
15.699863
15.927553
16.542673
15.358925
13.424754
13.710856
13.928413
14.495850
14.175773
13.924837
13.720989
13.439655
12.075901
11.978745
11.922717
10.953546
9.008646
8.492470
9.346604
8.126497
7.523894
5.900860
5.962849
5.488992
5.672574
5.274415
4.208684
4.900694
4.668832
3.500581
3.391504
3.484488
##ZVALUE=235
17.117858
18.038750
38.509965
90.498924
143.315792
220.810771
270.757675
344.781876
364.780426
344.898701
309.711695
258.327723
176.612735
134.817958
96.407533
80.192685
78.477859
84.989667
90.845823
88.782907
84.831715
68.580508
54.206848
39.451718
28.685927
18.380880
12.143850
10.280609
9.848475
12.116432
14.453530
15.649796
16.031861
19.101501
20.492673
19.285679
20.254850
20.721555
21.248460
21.170974
20.438433
20.001531
20.157695
21.590590
19.483566
20.416975
17.891526
18.577576
17.869473
17.059445
17.711520
20.584464
20.222664
19.235611
19.492507
18.292665
20.492673
19.423962
19.600987
20.392537
19.112825
17.993450
18.653870
18.683672
17.596483
17.435551
17.395616
17.152429
16.967654
16.030669
16.222000
15.337467
17.454624
17.236471
15.717745
16.190410
17.184615
16.620755
14.606714
13.400912
12.856722
13.118982
12.532473
12.844801
10.527968
10.337830
9.657741
8.954406
9.368658
9.278655
9.347796
8.165836
9.315610
8.776784
8.441806
8.791685
##ZVALUE=240
1.446605
1.703501
5.477667
20.172000
41.365623
96.147656
152.792931
250.757933
343.387723
430.530906
472.260714
461.544991
421.119928
327.139497
258.618593
190.469623
126.718879
100.416541
90.245605
98.442435
105.933547
113.800764
112.974644
99.126697
78.210831
58.632493
47.232509
30.069947
22.429824
13.937950
11.464953
11.002421
11.729598
12.299418
13.596416
13.894439
14.095902
15.072823
14.375448
14.500618
14.682412
16.063452
14.628768
14.402866
15.090704
14.223456
13.760924
14.162660
14.631748
13.292432
13.834834
14.455914
14.132857
14.598966
14.927983
15.696883
14.459491
15.276670
15.446544
15.275478
14.664531
15.175939
15.270710
14.785528
13.978481
14.075637
13.777614
13.830662
13.223886
14.236569
15.049577
15.118718
14.221668
15.418530
16.616583
15.727878
15.748739
14.514923
13.428926
13.493896
12.819767
12.144446
11.304617
10.477901
9.922981
11.239648
10.061860
10.518432
9.558797
9.438992
8.614659
9.295940
8.712411
8.658767
8.892417
8.978844
##ZVALUE=245
1.177788
1.176596
1.269579
1.980662
3.143549
12.023449
30.149817
83.520412
144.695640
243.523717
342.944860
460.719466
524.361730
552.627444
518.280864
425.000787
345.410705
234.065652
169.718862
108.511448
92.174411
94.029903
109.865665
118.258595
118.617415
119.842887
107.652545
88.981986
69.839954
53.277612
36.316514
24.687648
19.225478
16.210675
13.748407
15.504956
14.563799
15.554428
14.663935
15.141964
16.619563
17.178655
14.451742
16.184449
16.397834
15.656948
14.340878
14.813542
14.601946
14.655590
14.527440
14.251471
13.954639
14.110804
12.337565
13.492703
14.233589
12.486577
11.490583
12.404919
12.765527
11.870861
11.610985
13.465881
12.219548
11.846423
12.041926
11.268854
12.062788
12.109876
13.051629
12.318492
12.356639
12.976527
12.559891
13.500452
13.164878
12.474656
12.336969
11.757612
11.575818
10.348558
10.694861
9.128451
9.376407
8.448958
8.606911
8.585453
8.891821
7.919669
8.125901
7.707477
7.831454
7.393956
7.962584
7.110834
##ZVALUE=250
1.026988
1.053810
1.299977
1.257658
1.341701
1.165867
2.385974
5.722642
26.038885
54.465532
132.623911
218.241811
315.836668
462.711453
538.065434
610.270500
608.543754
540.485978
456.172824
321.960449
229.030848
151.838660
98.192692
86.607933
98.942518
113.023520
125.349760
135.923624
129.636526
120.347738
106.285810
85.054636
63.804984
43.559670
33.241510
25.210977
22.049546
21.657944
19.905567
20.144582
20.143986
20.654798
21.187663
20.369887
18.893480
19.683838
18.514991
19.001961
17.439723
17.466545
16.737580
16.526580
15.320778
15.188456
14.138818
14.385581
14.544725
13.802648
14.500618
12.677908
11.335611
13.086796
12.359619
12.037754
11.968613
11.512637
10.751486
10.564923
10.785460
10.763407
11.335611
11.422634
11.340976
11.258721
11.080503
12.383461
12.152791
11.095405
11.022687
9.880662
9.751916
9.621978
8.681417
8.186698
8.058548
7.745624
8.121729
7.281899
8.263588
7.435679
6.726980
7.693768
7.035732
7.900596
6.979704
6.582737
##ZVALUE=255
0.929832
1.005530
0.934601
1.129508
1.265407
1.243949
1.387596
1.271963
3.184676
3.173947
38.874745
43.973923
84.528923
183.754563
284.973979
443.930030
544.380546
649.411678
683.409572
643.235445
562.646985
412.518978
294.643641
190.994740
109.343529
86.126924
83.010793
99.540949
125.123858
138.991475
148.577690
145.955682
134.786963
119.701624
94.176531
77.399611
55.268407
44.075847
35.045743
29.718876
29.671788
29.674768
28.257966
26.285648
26.274920
25.340915
22.059679
22.364855
21.318793
20.483732
20.524859
19.674897
18.652678
18.992424
17.086864
17.169714
16.208887
15.157461
14.936924
15.107989
13.742447
14.196634
13.097525
11.869669
12.141466
12.216568
11.662841
11.176467
11.113882
10.920763
10.919571
11.086464
10.562539
10.491610
10.645986
10.594726
10.657907
9.710789
8.974671
8.864999
8.146763
7.454753
7.272959
7.133484
7.125735
6.712675
7.142425
6.566644
7.044673
6.865859
6.185770
6.101727
6.200671
5.975962
6.704926
5.926490
##ZVALUE=260
0.857711
0.989437
1.148582
0.904799
1.017451
1.053810
1.011491
1.090765
1.431704
1.302958
1.298785
1.840591
6.450415
25.836825
60.282946
145.236850
241.232514
391.862988
512.877703
671.342611
739.113688
749.810934
660.413504
545.917749
369.996428
258.864760
153.289437
104.427934
79.946518
90.227723
106.835961
136.820674
154.550672
169.243813
169.352889
154.292583
137.260556
110.453963
89.005828
67.490935
54.011941
45.090914
38.409829
37.181973
34.609437
32.169819
31.283498
28.118491
28.487444
26.675463
25.805831
23.335814
22.207499
20.884871
21.002889
19.104481
18.181801
17.875433
16.444921
16.510487
15.245676
15.375614
14.222860
13.450980
13.058782
12.568831
11.683702
12.266636
11.512637
11.221766
11.071563
10.937452
11.337996
11.283755
10.325909
9.945631
9.994507
9.666681
8.991957
8.179545
7.873774
7.273555
7.241964
6.650686
6.566644
6.414652
6.507635
6.083846
6.285906
6.127954
5.699992
5.630851
5.629659
5.382895
5.264878
5.586743
##ZVALUE=265
0.889897
0.786781
1.037717
1.014471
0.996590
0.958443
0.902414
1.195669
1.115799
0.867844
1.309514
1.392961
1.565814
1.835823
3.723502
18.038750
44.750571
108.479857
193.916559
363.796949
509.033799
643.106699
774.163604
801.953673
732.561946
635.996461
476.142764
346.737504
207.725763
138.866901
99.061728
89.737773
103.724599
135.495663
156.364441
178.467631
184.167624
177.118778
166.034698
140.754580
118.881464
90.868473
73.874593
57.758689
48.352480
40.043592
36.873817
33.734441
33.509731
29.684901
29.581785
27.215481
25.240779
23.945570
23.448467
21.854639
20.860434
19.160509
18.280745
18.117428
16.388893
15.692711
15.457869
14.515519
13.886690
13.393760
12.469888
12.465715
12.279749
11.703968
10.989904
10.768771
11.100769
10.980964
10.346770
9.796619
9.132624
8.779764
8.451939
8.441806
7.991791
7.194877
7.027984
6.906986
6.329417
6.244779
6.071925
5.841851
5.345941
6.136894
5.312562
5.309582
5.238652
5.091429
5.065799
5.134940
##ZVALUE=270
0.970960
0.868440
0.945926
0.962615
0.862479
0.825524
0.990629
0.980496
0.967979
1.085997
1.185536
1.274943
1.180768
1.197457
1.254678
1.397729
1.806617
8.395910
23.878813
77.346563
152.212977
267.547965
463.398695
620.658994
787.331462
854.587555
834.613442
768.146515
605.117679
465.647578
331.704617
192.995667
127.736926
92.448592
92.519522
115.327835
140.052438
165.807009
179.262757
186.830759
185.153484
165.754557
144.775510
115.630627
92.945695
68.467855
55.150986
44.840574
37.561655
32.211542
29.832721
28.256774
26.927590
25.398731
24.138689
22.707582
21.695495
21.395683
19.687414
19.169450
17.650723
16.649961
15.727878
15.278459
14.477968
14.053583
13.284683
12.870431
12.612939
11.949539
11.659861
11.420846
11.080503
10.858774
10.509491
10.275841
9.555817
8.945465
8.646846
8.349419
7.867813
7.934570
7.945895
6.804466
6.560683
5.711913
6.465912
6.064773
5.827546
5.609989
5.979538
5.188584
5.084872
4.732609
4.638433
4.746914
##ZVALUE=275
0.772476
0.773668
0.712872
0.769496
1.011491
0.815988
0.943542
0.896454
0.858903
0.925660
0.918508
0.979900
1.031756
1.060963
1.099706
1.177788
1.152754
1.409650
1.679659
3.755689
13.839602
41.211843
121.739507
221.028924
412.532687
558.691621
730.981827
835.174918
878.465772
837.544799
743.539929
563.918948
413.032770
236.303806
152.393579
92.007518
76.856613
86.554885
106.377602
132.449865
151.459575
169.657469
174.089670
169.524550
153.243542
125.420690
104.876757
80.681443
62.647462
43.475628
35.778880
28.564930
26.313663
23.723841
22.469759
20.939708
19.911528
19.344687
18.638968
18.085837
17.712712
16.655922
15.359521
15.075803
14.421940
14.087558
13.126731
12.245774
12.643933
11.694431
11.439919
11.115670
11.113882
10.595918
9.981990
9.721518
9.637475
8.513927
8.447766
8.849502
7.645488
7.007718
6.975532
7.049441
6.526709
6.103516
6.113648
5.714893
5.695820
5.320907
5.354881
5.163550
4.653931
5.075932
5.208850
4.985929
##ZVALUE=280
0.681877
0.733733
0.617504
0.799894
0.609756
0.750422
0.648499
0.847578
0.883937
0.826716
0.805855
0.773668
0.844598
0.785589
0.944734
0.889897
1.098514
1.063943
1.150966
1.478791
1.616478
1.753569
9.067655
30.205846
96.130967
174.602866
322.864056
470.575690
669.265985
796.512961
876.600742
885.404944
809.615850
624.874830
471.833944
276.432633
172.597766
89.530945
59.415698
56.670904
67.409873
91.241002
111.466646
135.556459
148.927569
155.654550
150.559545
133.565664
117.062926
88.186860
69.472790
48.674941
37.184954
26.194453
22.132993
18.140674
16.273856
15.931726
15.911460
15.500784
14.871955
14.308691
13.922453
14.217496
12.986660
12.806654
12.160540
11.973977
11.302829
11.320710
10.575652
10.610819
10.337830
9.905696
9.739995
9.262562
9.045601
8.467436
7.993579
7.692575
7.807612
6.665587
6.954670
6.825924
6.496906
6.350875
5.787611
6.137490
5.444884
5.370975
5.323887
5.298853
4.973412
5.191565
5.010962
5.145669
##ZVALUE=285
0.612736
0.719428
0.753999
0.653863
0.631809
0.750422
0.859499
0.663996
0.836849
0.794530
0.606775
0.855923
0.785589
0.887513
0.948906
1.014471
1.018643
0.988841
1.013875
1.093745
1.284480
1.135468
1.197457
1.437664
4.309416
15.186667
52.772760
110.132694
234.185457
365.938544
515.395999
715.664029
834.987760
899.277925
865.306854
719.773769
571.366549
360.194445
230.381489
113.542676
62.843561
37.452579
36.964417
54.683685
73.814988
99.934936
117.212534
134.750605
141.559839
137.986541
127.523541
105.674863
88.609457
61.988831
47.233701
30.127764
21.815896
16.424656
13.889670
12.496710
12.807846
12.223721
11.768937
11.332631
11.462569
10.854602
10.892749
10.284781
10.255575
10.154843
9.998679
10.088682
9.752512
8.687973
8.854866
8.720756
8.112788
7.792711
7.557869
7.492900
7.320642
6.919503
6.585717
6.470680
6.029606
5.989671
6.337762
5.891919
5.605817
5.756617
5.539656
5.258918
5.315542
5.028844
4.750490
4.972816
##ZVALUE=290
0.663996
0.687838
0.602603
0.617504
0.623465
0.733733
0.650883
0.673532
0.806451
0.698566
0.765920
0.941753
0.789762
0.716448
0.673532
0.714660
0.720620
0.904799
0.754595
0.963807
1.009703
1.122952
1.201630
1.220703
1.420975
1.456738
2.230406
6.285906
28.932691
68.320632
134.470463
282.013416
431.188941
651.474595
788.637996
895.074606
897.238851
785.040855
648.479462
446.218848
295.650959
151.482821
82.174540
36.425591
26.188493
33.350587
46.339631
66.872835
84.559917
110.026598
124.867558
135.514736
134.344697
120.305419
104.562640
78.227520
60.554743
40.430427
29.630661
19.543767
14.642477
10.911822
10.603666
9.915829
10.103583
9.582639
9.264946
9.194613
9.064674
9.032488
9.415746
8.699894
8.508563
8.392930
8.178949
7.825494
7.831454
7.483959
7.226467
6.940961
6.673932
6.210804
6.321669
6.629825
6.019473
5.758405
5.870461
5.557537
5.431771
5.363822
5.091429
5.133748
4.821420
4.988909
4.827976
4.959702
##ZVALUE=295
0.470877
0.501871
0.586510
0.564456
0.507832
0.563860
0.433922
0.502467
0.655651
0.482798
0.510812
0.418425
0.616908
0.649691
0.606775
0.519753
0.715852
0.635982
0.584722
0.843406
0.766516
0.906587
0.971556
1.075864
1.176000
1.296997
1.218915
1.167655
1.313686
2.443790
9.570718
41.142702
94.037652
222.671628
356.825590
577.697754
723.006725
865.880847
901.463032
844.525695
731.170774
528.932810
375.923514
201.155543
111.047626
44.489503
24.396777
20.679832
26.764870
43.306947
59.039593
82.089901
101.420879
119.095445
125.632882
125.500560
114.582777
95.846653
79.309940
55.234432
41.148663
25.514960
17.860532
12.890697
9.782910
8.628964
8.035898
7.539988
7.848740
7.414818
7.697940
7.623434
7.631779
7.071495
7.396936
7.195473
6.677508
6.714463
6.540418
6.173849
6.004572
5.949736
5.843639
5.532503
5.696416
5.092621
5.266666
4.947782
5.554557
5.044937
5.003810
4.848838
4.797578
4.764795
4.877448
4.481673
##ZVALUE=300
0.535846
0.651479
0.563860
0.660419
0.704527
0.487566
0.621676
0.526905
0.620484
0.770688
0.642538
0.702739
0.780821
0.686646
0.539422
0.733733
0.715852
0.563860
0.710487
0.941753
0.772476
0.877976
0.863671
0.846982
0.841618
0.956655
1.127720
1.178980
1.308918
1.223683
1.236796
1.707673
6.101727
21.690726
73.590875
142.320991
293.728709
445.625782
657.035708
784.326792
891.036987
892.284513
783.474445
651.456714
436.660647
286.592841
145.649910
79.232454
32.588840
17.469525
17.359853
24.122000
39.379001
52.784681
76.005459
93.656778
112.008452
119.131804
118.498802
111.960769
93.606710
77.213645
55.640936
40.081739
25.004745
16.896725
11.249781
8.729696
7.274747
6.692410
6.909966
6.951690
6.714463
6.710887
6.487966
6.450415
6.053448
6.060600
6.072521
6.062984
6.207824
5.689859
5.597472
5.767941
5.348921
5.099773
5.566478
5.153418
5.291700
4.839897
4.924536
4.934669
4.893541
4.743934
4.683733
4.724860
##ZVALUE=305
0.414848
0.510812
0.580549
0.504851
0.428557
0.605583
0.543594
0.601411
0.590682
0.689626
0.548959
0.538826
0.683665
0.705719
0.816584
0.674725
0.488758
0.608563
0.654459
0.710487
0.822544
0.720620
0.668764
0.788569
0.817776
1.005530
0.870824
0.889897
1.065731
1.121759
0.998974
1.393557
1.302958
1.607537
2.574921
13.885498
40.069818
115.237832
209.008455
386.041403
541.944504
738.793612
849.309564
894.001722
842.871666
674.452782
531.134009
342.506766
215.309858
98.796487
49.375892
18.890500
12.877584
15.723705
22.293925
36.112666
51.163435
72.348714
88.551641
106.745958
112.343431
111.792684
104.789734
88.490844
73.416829
52.460432
37.956834
23.130774
15.485883
9.748936
7.862449
6.227493
6.405711
6.338954
6.139874
5.800724
5.599856
5.565882
5.642772
5.578995
5.339980
5.447865
5.088449
5.115867
5.502701
5.445480
5.265474
4.793406
5.048513
5.056858
4.965663
4.929900
4.674792
4.767776
4.264712
4.530549
##ZVALUE=310
0.568628
0.492930
0.596642
0.473857
0.541806
0.527501
0.460744
0.564456
0.647902
0.452995
0.615716
0.482798
0.539422
0.517964
0.758767
0.651479
0.752807
0.577569
0.630617
0.495911
0.758767
0.684857
0.823736
0.735521
0.830889
0.716448
0.777841
1.009703
0.947714
0.986457
0.918508
1.083612
1.220703
1.192689
1.493692
1.454949
1.632571
5.924702
19.767880
67.764521
134.696960
280.115604
432.722569
646.745563
775.001645
881.088972
878.798962
774.904490
644.868016
441.973805
297.057629
151.597857
81.587434
30.734539
15.103817
11.010766
12.836456
20.857453
29.981732
46.100616
61.042905
81.877708
94.685555
104.463696
106.147528
98.750591
87.693930
69.860816
53.169727
34.368634
24.484992
14.950633
10.636449
7.285476
6.222725
5.759597
5.532503
5.179644
5.035996
5.427599
5.032420
4.925728
5.342960
4.957914
5.385876
5.011559
4.902482
4.946589
4.977584
4.938841
4.654527
4.764795
4.666448
4.715919
4.730821
4.450679
##ZVALUE=315
0.526905
0.618696
0.524521
0.493526
0.801682
0.516772
0.512600
0.375509
0.496507
0.482798
0.633597
0.691414
0.589490
0.647902
0.521541
0.525713
0.641942
0.789762
0.710487
0.613928
0.616908
0.630617
0.577569
0.681877
0.676513
0.702739
0.720620
0.752807
0.651479
0.901818
0.774860
0.894666
1.095533
1.129508
1.204610
1.278520
1.322627
1.355410
1.481771
2.500415
12.537837
36.039948
105.821490
195.409656
370.919704
531.661510
719.314814
829.733610
879.056454
837.469697
689.754486
543.809533
344.025493
217.520595
101.879835
49.645901
17.020702
9.870529
9.563565
12.442470
18.538833
26.584864
42.258501
55.668950
75.744987
88.713765
97.798705
99.654794
92.721581
81.240535
62.554479
49.802661
33.609867
22.886992
13.923645
9.461641
7.000566
5.598664
4.922748
5.132556
4.820824
5.013943
4.911423
4.604459
4.908442
4.924536
5.191565
4.647970
4.487634
4.927516
4.547834
4.498959
4.528761
4.489422
4.577637
4.490614
##ZVALUE=320
0.574589
0.754595
0.750422
0.518560
0.636578
0.550747
0.597835
0.711679
0.660419
0.663996
0.732541
0.596642
0.543594
0.691414
0.701547
0.668764
0.608563
0.637770
0.604987
0.496507
0.611544
0.566840
0.722408
0.616908
0.748634
0.709891
0.839829
0.692606
0.672936
0.758767
0.797510
0.774860
0.878572
0.930429
1.030564
1.096725
1.023412
1.179576
1.205802
1.241565
1.391768
1.648664
4.396439
23.705959
60.357451
158.431530
264.780521
441.924930
592.267513
773.980618
849.897861
854.045749
777.541995
604.618788
450.218916
256.784558
147.458911
65.348744
30.255914
11.020899
8.005500
8.594990
10.161996
15.729666
23.072958
38.788915
51.189661
68.256855
81.340671
91.332793
93.503594
87.669492
78.999996
61.221719
47.470927
30.578971
21.609664
13.358593
8.901954
6.122589
5.265474
5.065799
4.609823
4.590750
4.521608
4.616976
4.396439
4.403591
4.380941
4.588962
4.510880
4.383922
4.483461
4.695654
4.299879
4.195571
##ZVALUE=325
0.550747
0.383854
0.456572
0.416636
0.417829
0.557899
0.556707
0.534654
0.672936
0.559688
0.580549
0.540614
0.545979
0.545979
0.704527
0.469685
0.623465
0.679493
0.535846
0.482798
0.487566
0.452995
0.659823
0.618696
0.551939
0.571609
0.824928
0.737906
0.646710
0.731945
0.625849
0.737906
0.812411
0.837445
0.629425
0.957847
0.767708
0.836849
1.068711
0.955462
1.136661
1.378655
1.508594
1.688600
2.784729
15.120506
39.776564
108.696818
196.879506
367.447734
517.531633
708.851814
807.920694
854.531527
802.796483
644.373894
493.218899
307.855606
189.556479
83.530545
41.666627
14.485717
7.804632
6.881952
6.960630
9.651780
13.713837
23.399591
34.017563
51.430464
63.826442
78.403950
86.273551
87.019801
82.322955
68.754554
57.331920
41.898489
30.175447
18.122792
12.623668
7.956624
6.146431
5.043745
4.750490
4.620552
4.383922
4.103780
4.224777
4.130602
4.059672
3.865957
4.148483
4.001856
4.169941
4.209876
##ZVALUE=330
0.574589
0.308752
0.580549
0.548959
0.643730
0.441670
0.290871
0.237823
0.555515
0.521541
0.584722
0.419617
0.560880
0.544786
0.622869
0.648499
0.388622
0.398755
0.567436
0.543594
0.552535
0.489950
0.558496
0.595450
0.535846
0.715852
0.705719
0.603795
0.820756
0.671744
0.712872
0.707507
0.693798
0.829697
0.747442
0.801682
0.910759
0.958443
0.752807
0.943542
0.996590
0.963807
1.074672
1.233816
1.109838
1.360774
1.634955
6.807446
21.148920
69.389939
135.984421
276.038647
412.752628
608.966947
736.607909
827.267766
812.021494
697.653890
566.166639
377.169847
242.684484
114.408731
59.038997
22.073984
9.883642
6.017685
5.706549
6.866455
8.424520
14.165640
20.872951
33.179522
45.058727
61.584711
72.128773
80.051422
82.022548
75.509548
66.923499
52.543879
39.801002
26.909709
19.015670
12.021661
8.632541
5.905628
4.931688
4.447699
4.142523
4.246831
4.122853
3.986955
4.038811
3.736615
3.638864
4.080534
##ZVALUE=335
0.412464
0.435710
0.421405
0.403523
0.438690
0.540614
0.500679
0.365973
0.414848
0.598431
0.530481
0.547767
0.523925
0.504851
0.527501
0.540614
0.480413
0.506639
0.462532
0.527501
0.583529
0.668764
0.755787
0.494719
0.516772
0.589490
0.579953
0.558496
0.669956
0.629425
0.706911
0.623465
0.663996
0.712872
0.689626
0.585914
0.526905
0.805855
0.794530
0.723600
0.896454
0.770688
0.967979
0.966787
0.814795
1.135468
1.161695
1.265407
1.290441
2.948642
10.477901
42.505860
90.615749
204.022527
334.487557
532.426834
669.186711
788.619518
804.318786
732.730031
620.017648
430.472493
297.359824
159.127712
84.312558
29.325485
12.602806
6.437898
5.558729
5.339980
6.053448
8.572936
12.119412
20.880699
30.295849
44.977665
55.897832
68.414807
74.741840
75.742602
71.787834
60.133934
50.967932
38.140416
28.608441
18.712878
12.807846
8.399487
6.037951
4.577637
4.214644
3.908873
3.801584
3.891587
3.546476
3.557801
##ZVALUE=340
0.515580
0.531673
0.518560
0.432730
0.544786
0.499487
0.392795
0.468493
0.418425
0.421405
0.575781
0.506639
0.522733
0.455976
0.493526
0.586510
0.462532
0.639558
0.576973
0.500679
0.498891
0.640750
0.455976
0.480413
0.499487
0.513792
0.441670
0.499487
0.417829
0.581741
0.521541
0.597835
0.557899
0.706911
0.543594
0.652671
0.658631
0.565648
0.691414
0.624657
0.805855
0.818968
0.819564
0.877976
0.863671
1.060963
0.881553
0.941753
1.173615
1.243949
1.263618
1.768470
5.183816
25.865436
63.911676
162.836909
272.737741
446.109772
584.495664
727.652907
782.817602
749.185681
662.840605
496.797562
354.871750
186.879635
104.254484
42.439699
17.647743
6.900430
5.702972
5.192757
5.674958
5.822778
8.444786
11.751652
19.388795
28.271675
41.888952
52.414536
64.775944
69.736838
70.882440
68.021417
58.339834
49.188733
36.345720
27.253628
17.747879
12.450814
7.801652
5.818605
4.706979
4.067421
3.858805
3.599524
##ZVALUE=345
0.449419
0.314713
0.358820
0.347495
0.378489
0.537634
0.392795
0.259876
0.523925
0.431538
0.644922
0.542998
0.523925
0.527501
0.334978
0.418425
0.490546
0.474453
0.360608
0.510812
0.515580
0.498891
0.501871
0.507832
0.425577
0.624657
0.632405
0.615716
0.593662
0.709891
0.543594
0.608563
0.650883
0.818968
0.651479
0.539422
0.639558
0.674725
0.637770
0.692606
0.769496
0.651479
0.632405
0.753999
0.866652
0.771880
0.893474
0.883937
1.080632
0.976920
1.007915
1.061559
1.183748
1.454949
3.072619
10.780692
42.676926
92.421770
205.143690
319.082737
501.213670
627.039671
740.389824
758.230686
682.266951
572.524667
399.043560
268.426538
125.627518
63.281655
23.654699
9.690523
5.693436
5.115867
4.669428
5.015731
5.596876
6.930828
11.519790
16.626716
27.034879
36.380887
48.299432
56.633949
63.242912
66.004992
62.457919
57.235956
46.127439
37.620664
26.792884
19.121766
12.034774
8.115768
5.769730
4.580617
##ZVALUE=350
0.539422
0.381470
0.566840
0.395775
0.505447
0.533462
0.562668
0.749826
0.377893
0.523925
0.538826
0.468493
0.527501
0.469685
0.652671
0.542998
0.679493
0.557899
0.726581
0.493526
0.622869
0.668764
0.766516
0.603795
0.519753
0.631809
0.692606
0.490546
0.647902
0.515580
0.700951
0.623465
0.667572
0.605583
0.695586
0.708699
0.581741
0.619888
0.735521
0.716448
0.599623
0.758767
0.722408
0.716448
0.721812
0.772476
0.982881
0.822544
0.775456
0.892878
0.833869
0.877976
0.881553
1.012683
1.063943
1.229644
1.940727
5.493760
24.673939
58.002472
145.129561
245.968699
413.622856
543.217659
686.905980
736.876726
704.007745
614.308715
435.623527
297.341943
152.212977
84.743500
33.190846
13.570786
5.818605
5.074739
4.582405
4.354715
4.372597
4.898906
6.709695
9.841919
15.908480
22.035837
32.419562
41.144490
51.424503
57.257414
59.327483
57.709813
51.905513
44.799447
33.785701
26.082993
17.267466
12.562871
##ZVALUE=355
0.402927
0.380874
0.488758
0.384450
0.382662
0.454783
0.378489
0.591874
0.642538
0.577569
0.516772
0.539422
0.374913
0.388622
0.467896
0.356436
0.349879
0.508428
0.417829
0.323653
0.412464
0.594854
0.448823
0.433922
0.546575
0.515580
0.702739
0.494719
0.615716
0.598431
0.501871
0.587702
0.546575
0.493526
0.469685
0.604987
0.568628
0.596642
0.625849
0.758767
0.678897
0.705719
0.608563
0.640750
0.613928
0.620484
0.601411
0.582933
0.872612
0.860691
0.787973
0.874996
0.982881
1.020432
1.037717
0.862479
0.982881
1.104474
1.226664
2.708435
13.399720
37.535429
101.860762
183.056593
339.552760
469.052792
620.439649
696.298480
701.240897
628.985763
473.821759
349.883437
200.104713
111.735463
43.234825
19.224882
6.870627
4.759431
4.569888
4.127622
3.982782
3.771782
4.458427
5.657673
8.525848
12.664795
20.528436
26.720762
37.455559
44.941902
51.587820
53.823590
53.198934
49.022436
40.514469
33.836961
##ZVALUE=360
0.345707
0.326633
0.461936
0.354648
0.436902
0.394583
0.410676
0.446439
0.217557
0.385642
0.305772
0.176430
0.334978
0.347495
0.271797
0.389814
0.450611
0.208616
0.292659
0.297427
0.305772
0.389814
0.383854
0.277758
0.175834
0.421405
0.321865
0.472665
0.407696
0.312924
0.509620
0.563860
0.496507
0.402927
0.531673
0.581741
0.424981
0.702739
0.457764
0.409484
0.469685
0.481606
0.359416
0.373721
0.572801
0.611544
0.626445
0.707507
0.741482
0.617504
0.573993
0.729561
0.575781
0.729561
0.686646
0.727773
0.831485
0.961423
0.825524
0.955462
1.173615
1.661777
4.896522
22.790432
56.802630
143.849850
240.718722
395.911932
525.986552
655.320883
689.768791
651.232004
558.711886
388.809443
263.410807
131.080747
69.550872
26.014447
10.520816
4.857779
4.450679
3.950000
3.773570
3.552437
3.426671
3.948808
4.802942
7.046461
9.940863
16.258955
22.206903
31.763911
38.289428
45.966506
48.753619
48.422813
##ZVALUE=365
0.415444
0.498891
0.432730
0.508428
0.369549
0.526905
0.429749
0.489950
0.448823
0.551939
0.458956
0.261664
0.504851
0.448823
0.464916
0.366569
0.439882
0.513792
0.528693
0.466704
0.513792
0.364780
0.460744
0.514984
0.563860
0.439882
0.598431
0.540614
0.630617
0.589490
0.479817
0.643730
0.607967
0.415444
0.540614
0.613928
0.639558
0.578761
0.577569
0.789762
0.535846
0.560880
0.664592
0.658631
0.666976
0.827909
0.835657
0.615716
0.712872
0.684857
0.647902
0.769496
0.592470
0.865459
0.755787
0.828505
0.872612
0.923872
0.805855
0.860691
0.960827
1.136661
1.183748
1.387596
2.572536
11.849999
34.653544
97.357631
178.535581
322.542787
448.257923
591.429472
658.000708
660.219789
590.308905
438.265800
317.306519
176.409483
98.542571
37.624836
15.736818
5.792975
4.192591
3.851652
3.645420
3.485680
3.329515
3.162622
3.432631
4.233718
5.708933
9.113550
12.684464
19.376874
25.456548
33.751726
##ZVALUE=370
0.504851
0.390410
0.434518
0.481606
0.450611
0.442863
0.387430
0.470877
0.379682
0.400543
0.294447
0.399947
0.291467
0.488758
0.492930
0.534654
0.444651
0.467896
0.472665
0.524521
0.372529
0.399947
0.525713
0.453591
0.445843
0.446439
0.490546
0.446439
0.536442
0.565648
0.600815
0.532866
0.571609
0.535846
0.516772
0.449419
0.611544
0.574589
0.558496
0.673532
0.676513
0.527501
0.630617
0.671744
0.510812
0.666976
0.612736
0.583529
0.856519
0.692606
0.574589
0.669956
0.670552
0.550747
0.646710
0.719428
0.736713
0.743866
0.877976
0.799894
0.937581
1.007915
1.039505
1.086593
1.133680
1.209974
1.745820
5.113482
26.741624
65.819621
155.288577
249.629617
400.905609
519.394875
631.396770
656.404495
602.041483
500.443578
337.998867
225.035548
113.210678
58.220625
20.647645
9.104609
4.403591
3.708601
3.576875
3.340840
3.303885
2.945662
2.952814
3.031492
3.628731
4.975796
7.378459
10.890961
##ZVALUE=375
0.463724
0.514984
0.313520
0.513792
0.399947
0.326633
0.402927
0.466704
0.344515
0.389814
0.422597
0.504851
0.323653
0.464916
0.531673
0.412464
0.533462
0.439882
0.324845
0.336766
0.381470
0.401735
0.491738
0.420809
0.583529
0.512600
0.483990
0.459552
0.708699
0.609756
0.586510
0.488758
0.462532
0.800490
0.467896
0.669956
0.543594
0.570416
0.675917
0.632405
0.530481
0.780821
0.714660
0.621676
0.630617
0.709891
0.620484
0.622869
0.627637
0.652671
0.625849
0.705719
0.673532
0.656843
0.631809
0.679493
0.747442
0.786781
0.744462
0.756979
0.877976
0.773668
0.761747
0.816584
0.730753
0.806451
0.955462
1.118779
1.245737
3.231764
11.389852
41.083694
88.983774
202.685595
315.566659
478.957891
579.477549
648.506880
642.540455
545.608997
433.043838
271.677971
170.923471
80.237985
39.923787
13.036728
5.951524
3.795624
3.265738
3.450513
3.103614
2.956986
2.926588
2.627969
2.920628
3.071427
##ZVALUE=380
0.311732
0.459552
0.411868
0.379682
0.383854
0.549555
0.363588
0.347495
0.404716
0.471473
0.298619
0.424981
0.377893
0.383854
0.546575
0.346899
0.299811
0.453591
0.473857
0.475645
0.446439
0.683665
0.498891
0.480413
0.574589
0.475645
0.565648
0.568628
0.628829
0.749826
0.757575
0.802875
0.973940
0.972748
1.116991
0.896454
0.906587
0.947714
1.097918
1.094937
1.104474
0.908971
0.977516
0.948906
0.923872
0.884533
0.733733
0.700951
0.743866
0.690818
0.666976
0.705719
0.713468
0.869632
0.842810
0.714660
0.916719
0.777841
0.698566
0.679493
0.802875
0.679493
0.865459
0.760555
0.880957
0.851750
0.853539
0.965595
1.080632
1.166463
1.245737
2.001524
6.871819
30.463934
68.727732
155.865550
256.195664
419.846773
532.833934
633.483529
645.184517
570.957661
476.561785
339.410901
230.765939
114.194751
59.532523
21.173954
9.096861
4.070997
3.270507
3.197789
2.990961
2.988577
2.759695
2.665520
##ZVALUE=385
0.332594
0.333786
0.423789
0.503659
0.481606
0.321865
0.312924
0.405908
0.325441
0.478625
0.299811
0.317693
0.553727
0.435710
0.494719
0.390410
0.418425
0.468493
0.502467
0.457764
0.544786
0.457764
0.293851
0.397563
0.258684
0.577569
0.624657
0.751615
1.021624
1.065731
1.150966
1.431704
1.466870
1.742840
1.608729
1.614690
1.696944
1.443624
1.525879
1.559854
1.497865
1.278520
1.345873
1.317859
1.467466
1.151562
1.357794
1.106858
1.127720
1.150966
1.051426
0.860691
0.871420
0.907779
0.882745
0.877976
0.848770
0.730753
0.888705
0.934601
0.815988
0.882745
0.755787
0.811815
0.809431
0.877976
0.799894
0.826716
0.869632
1.069903
1.077652
1.038909
1.322627
1.250505
3.043413
16.067624
42.299628
109.297633
195.694566
347.636938
467.165709
591.394901
632.633567
608.958602
541.529655
403.766632
290.685892
161.493421
91.663003
38.258433
15.894771
5.120635
3.474951
3.142953
2.911687
2.928972
##ZVALUE=390
0.416636
0.327826
0.443459
0.309944
0.344515
0.422597
0.565648
0.388622
0.371933
0.469685
0.357628
0.375509
0.377893
0.374913
0.426769
0.553727
0.461936
0.539422
0.401735
0.424981
0.472665
0.575781
0.481606
0.350475
0.629425
0.706911
0.852942
1.031756
1.375675
1.513958
1.780987
1.869798
2.206564
2.357960
2.525449
2.601743
2.371669
2.460480
2.401471
2.416968
2.176762
2.175570
2.069473
1.834631
1.838803
1.653433
1.469851
1.580715
1.505613
1.319647
1.421571
1.056790
1.082420
0.894666
0.828505
0.968575
0.777841
0.810623
0.935793
0.889897
0.795722
0.845790
0.794530
0.687838
0.727773
0.777841
0.869632
0.989437
0.924468
1.038909
1.069903
1.085997
1.005530
1.104474
1.053810
1.041889
1.704693
8.396506
26.147962
79.534650
150.011778
287.116766
404.533744
539.861917
610.168576
634.491444
588.979721
471.006632
363.097787
224.703550
130.948424
54.375529
26.088953
8.347631
4.176497
3.359914
##ZVALUE=395
0.492930
0.272989
0.476837
0.382662
0.531673
0.404716
0.388622
0.470877
0.414848
0.415444
0.459552
0.284910
0.297427
0.443459
0.250936
0.378489
0.347495
0.484586
0.310540
0.428557
0.322461
0.554919
0.587702
0.497699
0.479817
0.780821
0.872612
1.165867
1.604557
1.678467
2.435446
2.601743
2.899766
3.184676
2.887845
3.237724
3.145933
3.043413
3.102422
3.043413
2.811551
2.803802
2.533793
2.385974
2.179742
2.036691
2.150536
2.028942
1.630783
1.679659
1.494884
1.407862
1.365542
1.349449
1.145601
1.184940
1.211762
0.992417
0.868440
1.024604
0.846982
0.876784
0.715852
0.852942
0.965595
0.939965
0.921488
0.867844
0.983477
1.088977
0.919700
0.886917
1.021624
1.148582
1.089573
1.091957
1.090765
1.196861
1.321435
4.711747
16.704798
59.214830
113.359690
218.667984
327.001810
478.820801
578.925610
641.564727
633.601546
542.789698
430.616736
272.946954
172.781944
77.234507
37.156940
12.299418
##ZVALUE=400
0.475645
0.595450
0.402927
0.316501
0.511408
0.375509
0.326633
0.459552
0.425577
0.413656
0.328422
0.362992
0.411868
0.421405
0.469685
0.572801
0.356436
0.409484
0.415444
0.422597
0.472665
0.335574
0.463724
0.507832
0.363588
0.644922
0.829697
1.059771
1.700521
1.951456
2.376437
2.785921
2.938509
3.279448
3.402829
3.499985
3.488660
3.376603
3.346801
3.189445
3.176928
2.902746
2.777576
2.516508
2.352595
2.383590
2.187490
1.998544
1.924634
1.779795
1.624823
1.549721
1.527667
1.415610
1.282692
1.309514
1.140833
1.023412
1.099706
1.046658
0.999570
0.890493
0.920892
0.870824
0.982881
0.950694
0.922680
0.880957
0.977516
0.966787
0.924468
1.062751
0.979900
0.915527
0.848770
1.020432
0.810623
1.042485
0.979900
1.084805
1.178980
2.705455
8.932948
32.949448
71.375966
162.178874
263.854861
413.489938
515.765548
607.805848
625.358820
562.244654
468.059778
315.523744
210.995674
107.183456
##END
