##TITLE=DWF20
##FORMAT=SPECTACLE-ASCII V-1.2
##DATA TYPE=ULTRAVIOLET SPECTRUM
##SECOND TYPE=ULTRAVIOLET SPECTRUM
##DATE=12/19/17
##TIME=15:51:29
##SPECTROMETER/DATA SYSTEM=SPECTACLE
##XUNITS=NM EM
##YUNITS=ENERGY
##YFACTOR=1
##FIRSTX=220
##LASTX=410
##NPOINTS=96
##3DDATA=Equidistant
##ZUNITS=NM EX
##FIRSTZ=210
##LASTZ=400
##ZPOINTS=39
##XYDATA=(Y..Y)
##ZVALUE=210
14.178753
15.080571
11.926889
9.780526
9.901524
8.860826
8.041859
8.085966
6.122589
4.830956
3.948808
2.630949
2.428889
2.199411
1.951456
2.359748
2.402663
2.345443
2.343655
2.324581
2.950430
2.996922
3.914833
5.732775
7.630587
13.413429
19.161701
28.991699
38.873553
50.026774
59.435964
70.705414
79.102516
84.604621
88.467002
91.105700
88.629723
92.833638
88.708997
87.477565
84.712505
78.816414
74.248910
70.560575
65.977573
59.573650
56.801438
52.178502
49.907565
47.564507
43.222904
38.536787
35.607815
33.180714
32.575727
29.490590
30.201674
25.368929
24.403930
24.143457
21.877885
21.781921
19.185543
20.488501
17.281771
18.135905
16.790628
17.076731
16.217828
15.369654
18.353462
18.093586
18.186569
20.245910
18.907785
19.574761
21.081567
18.413663
20.534992
18.658638
17.455816
15.110970
14.289618
11.887550
10.430813
9.560585
8.782744
7.571578
7.344484
9.035468
9.741783
13.497472
16.872883
21.389723
24.467707
30.929446
##ZVALUE=215
38.530827
38.299561
33.432841
23.555756
19.087791
16.539693
15.187860
15.547872
15.376806
13.213754
10.774732
8.748770
6.513596
4.971623
3.279448
3.605485
2.927780
2.897978
2.270937
2.653599
3.087521
3.628731
3.503561
6.436706
8.875728
14.648438
19.972920
33.220649
45.683980
58.367848
70.764422
87.969899
96.080899
102.248788
110.315681
111.461878
112.925768
113.390684
111.391544
103.673935
101.209879
96.606612
89.784861
81.279874
79.438686
70.450902
65.372586
63.118935
58.568716
54.368973
51.555634
46.260953
43.189526
41.177869
41.551590
37.094951
34.259558
33.914447
30.566454
27.258992
27.253628
25.251508
24.092793
23.345947
20.169616
19.800663
19.419789
16.580820
18.157959
18.043518
17.144680
17.299652
18.127561
18.579960
17.080903
17.706752
19.091964
17.210841
16.537905
15.650988
15.790462
13.617873
11.885762
11.028647
9.839535
8.631945
7.109642
6.759763
6.677508
6.482601
5.656481
6.352663
6.559491
8.525848
9.416938
11.305809
##ZVALUE=220
75.857639
79.767704
74.870586
67.114830
55.428743
41.541457
34.708977
25.000572
25.387406
22.482872
25.543571
25.635958
20.832419
17.859936
13.670921
11.168718
6.365776
4.839897
3.588796
3.099442
3.447533
3.562570
4.079938
6.526709
9.844899
15.838742
23.889542
37.546754
49.615502
65.925717
82.129836
98.199844
110.597610
121.161938
126.729608
131.699443
132.483840
128.210783
129.913688
123.416781
116.699934
112.311840
105.315447
97.149611
92.134476
87.292790
76.436996
74.250698
69.178939
63.569546
60.361624
53.663850
51.774979
46.544671
44.260621
40.889978
37.539601
33.480525
33.507943
32.198429
28.505921
28.206706
25.729537
25.346875
23.502707
21.297932
18.928647
19.626617
19.372702
16.858578
17.579794
16.309619
17.622709
16.516447
19.064546
17.417669
17.355680
16.818643
15.917420
14.887452
13.875961
14.246702
11.736751
11.399984
10.395646
9.082556
8.661747
8.057952
7.976890
6.934404
7.887483
6.938577
6.191730
6.960630
6.225705
5.599856
##ZVALUE=225
102.081895
109.283924
125.548840
136.954784
136.394501
126.391649
109.415650
81.526637
67.142844
51.183701
45.691729
41.944981
43.725967
43.753982
43.170452
38.504601
33.202767
28.075576
20.729899
16.394854
11.881590
11.035800
10.484457
11.184812
15.031695
20.290613
27.456880
39.298534
50.484538
65.240860
78.204870
94.812512
106.830597
115.052462
122.468472
123.502612
124.177933
125.557780
120.809674
119.877458
116.594434
108.324885
108.495951
98.185539
95.365644
87.538958
83.117485
71.582794
69.609880
66.242814
64.678788
56.687593
56.382418
51.946640
49.237609
47.394633
45.637488
41.960478
39.626956
36.691427
36.411881
35.201907
34.489632
29.376745
31.717420
27.572513
26.752949
27.206540
26.731491
24.450421
24.712682
24.147630
24.733543
23.656487
24.947524
23.825765
23.986697
22.169948
20.683408
20.754933
19.117594
17.390847
16.573668
16.335845
15.586615
15.513897
15.426874
14.442801
14.444590
13.038516
14.119744
14.437437
13.266802
12.823939
12.684464
13.761520
##ZVALUE=230
66.131949
74.017644
107.613802
158.020854
188.422799
226.828456
227.242708
208.858848
180.257559
150.409937
103.539824
78.334808
58.195591
56.771636
57.462454
57.423711
59.805512
56.734681
51.283836
40.549636
31.401515
18.536448
13.099909
8.910894
8.336902
11.777878
15.173554
23.218989
27.424693
38.698912
45.713782
54.599643
59.119463
66.745877
69.321990
75.316429
80.349445
75.994730
76.942444
74.106455
74.556470
70.077777
66.455603
60.613751
59.053898
52.249432
53.779483
47.333837
45.960546
43.198466
41.784644
39.528608
39.018989
36.656857
35.429597
34.985542
33.689737
33.298731
33.159852
28.993487
29.095411
29.754639
25.275946
27.204752
24.939775
24.269819
22.266507
21.850467
20.741820
21.911860
21.057725
18.819571
19.590855
17.709732
17.951727
18.232465
17.348528
17.139912
16.431808
14.871955
13.908744
13.745427
13.194680
12.743473
12.068748
11.257529
11.212826
9.844899
9.202957
9.849668
8.068681
8.700490
7.973909
8.599758
9.043813
8.434653
##ZVALUE=235
18.702745
19.179583
50.012469
84.822774
148.794651
207.040906
276.465416
334.213972
355.743766
344.302654
300.278664
234.811902
179.199576
117.928982
93.779564
74.997544
77.933669
83.039999
87.390542
88.170767
84.016919
71.920753
50.337911
40.307641
23.879409
18.286705
13.607740
13.863444
15.171766
19.480586
21.472573
24.002790
26.679635
31.057000
33.793449
36.475658
35.466552
38.001537
38.035512
39.787889
37.961602
38.013458
38.004518
36.149621
35.724640
33.957958
28.311610
29.212832
28.495789
27.120709
27.845502
27.190447
27.633905
27.915835
28.199553
25.863647
27.123690
26.458502
25.665760
27.332902
25.106668
24.876595
24.037957
23.884773
22.708774
22.410750
20.473599
19.240975
19.223690
21.919608
19.575953
18.711686
18.829703
20.520687
20.504594
19.160509
19.454956
17.785430
17.063618
16.214848
15.552640
13.883710
13.865829
13.387799
13.192892
12.394786
11.730790
10.859966
11.100769
11.580586
11.069775
9.442568
10.425448
10.521412
8.656979
9.926558
##ZVALUE=240
1.912713
2.129674
5.350709
20.301938
41.783452
93.032718
153.001547
260.721445
333.980918
404.945016
468.280911
461.040735
409.647822
346.929431
246.049762
180.303454
120.024681
97.648501
87.927580
99.135637
106.681585
115.785003
110.213757
95.979571
81.726909
60.231686
46.459436
32.302737
25.920868
18.456578
17.324686
16.661882
17.902851
18.315911
20.840764
22.113919
23.328662
24.102926
23.968816
24.716854
24.577975
24.488568
25.096536
23.394823
22.524595
22.158623
23.885965
21.233559
22.148490
22.671819
20.778775
21.029711
21.812916
21.011829
19.973516
20.785928
21.317601
21.002889
21.333694
18.076897
18.911958
19.540787
21.702647
19.524693
17.233491
17.810464
18.245578
17.337799
17.007589
16.562939
17.659664
18.418431
18.670559
17.675757
17.944574
16.488433
18.229485
17.768741
15.877485
15.048981
15.141964
14.415979
14.384985
12.968779
13.393760
12.158751
12.494922
11.707544
11.877418
11.651516
10.799766
11.175871
10.764599
10.929704
10.430813
10.792613
##ZVALUE=245
1.200438
1.375675
1.459718
1.757741
3.871918
11.195540
36.212802
74.076653
156.959891
234.996676
362.020731
455.719829
514.947772
535.031557
515.484810
428.436995
349.587798
231.490731
172.941685
109.721422
93.346834
91.624856
107.283592
121.633410
123.496652
121.132731
110.747814
96.959472
72.088838
58.497787
45.254827
33.622980
27.661920
25.699735
24.385452
27.468801
27.722716
26.458502
26.939511
28.817654
27.839541
27.832985
27.151704
25.831461
26.145577
25.756955
24.307966
24.659634
24.086833
24.390817
24.073720
22.069812
22.826791
21.688938
19.960999
19.935966
19.999743
19.770861
19.596815
18.251538
18.650889
18.264651
16.921759
16.607642
15.703440
15.620589
15.356541
15.196800
16.429424
15.093684
14.415979
15.533566
15.407801
15.815496
16.756654
17.357469
17.344952
14.526844
14.273524
13.504624
13.671517
12.726784
10.843873
13.141632
12.119412
11.948943
11.520982
11.411905
10.906458
10.117888
10.131598
10.271668
9.974837
9.353757
10.531545
9.757876
##ZVALUE=250
0.952482
1.030564
0.955462
1.284480
1.551509
1.275539
1.862645
6.288886
26.686788
57.029724
130.256414
216.277838
318.203568
454.147458
543.219447
607.174635
600.919724
536.109805
454.366803
318.155885
220.045447
148.512721
98.340511
84.254742
99.170804
114.860535
131.142735
140.635967
139.078498
128.262639
116.197467
96.161962
78.152418
62.381625
51.404834
45.805573
40.970445
42.051673
40.243864
40.180683
39.380789
39.438605
37.571788
38.304925
36.639571
34.488440
33.461452
32.431483
31.641722
29.586554
28.511882
27.584434
26.675463
24.879575
24.413466
24.084449
22.807717
22.003651
20.919442
20.294785
20.509958
19.513965
18.713474
17.849803
17.661452
17.476678
15.472770
15.304685
16.322732
15.148520
15.315413
15.392900
14.389753
14.810562
14.658570
13.946891
14.656782
12.694597
13.058782
12.033582
12.025833
10.726452
11.121631
11.822581
10.705590
9.775758
9.125471
9.803772
9.900928
8.441806
8.647442
9.232759
8.770823
8.909702
8.511543
8.567572
##ZVALUE=255
1.016855
1.004934
1.125932
1.311898
1.131892
1.414418
1.331568
1.644492
1.678467
3.386736
17.689466
42.346716
85.186958
184.785724
287.003517
444.962978
546.911955
646.286607
676.213503
635.113716
554.565787
441.805720
285.548568
187.272429
110.511780
87.976456
89.839697
108.193755
133.758783
152.646899
168.219805
169.370770
163.560510
143.644810
127.259493
103.272796
93.135834
74.971914
66.749454
61.266422
61.515570
55.943727
55.283904
53.685904
52.307844
48.914552
46.030879
44.103861
41.457415
38.097501
37.319660
35.723448
32.537580
32.442808
31.970739
29.591918
29.009581
26.391745
26.054978
24.685860
22.705793
22.239685
21.256804
20.946860
19.167662
18.142462
17.924905
16.881824
17.374754
15.758872
14.966726
15.357733
14.917850
14.741421
14.460683
13.710856
13.097525
13.362765
12.481809
11.146665
11.152625
10.926723
9.695888
9.758472
9.363890
9.056926
8.945465
8.271933
9.100437
8.420944
8.181930
7.655621
7.343888
8.023977
7.884502
7.485747
##ZVALUE=260
0.860691
0.952482
1.393557
1.155734
1.134872
1.006722
1.169443
1.295805
1.369715
1.547933
1.613498
2.155900
6.675720
27.040839
60.857534
144.955516
239.270926
391.187668
519.277453
662.118793
738.427639
741.413832
659.506917
543.984771
363.878608
254.076719
157.848001
116.784573
100.507736
112.875700
138.150454
169.981718
193.610787
211.450458
215.434432
202.431679
184.528828
160.479546
140.546560
114.395618
101.030469
86.247921
81.737638
76.300502
70.957541
65.565705
63.290000
58.051944
56.336522
52.610636
47.821999
45.344830
43.690801
41.986704
38.330555
35.054684
34.160614
32.639503
31.432509
27.122498
27.296543
24.992824
24.165511
23.052692
22.331476
20.745993
19.669533
18.920898
17.625690
17.035604
16.790628
15.860796
15.049577
14.061928
14.544725
13.910532
13.220906
12.057424
12.212992
11.190772
10.645986
9.837747
9.609461
9.214878
9.738803
8.329749
8.200407
7.867813
7.849932
8.447766
8.017421
7.716417
6.577969
6.874800
7.124543
7.136464
##ZVALUE=265
1.002550
0.898838
0.973940
1.212955
1.076460
1.109838
1.050830
1.000762
1.109838
1.234412
1.238585
1.473427
1.252890
1.716614
3.481507
17.732978
45.195818
109.246969
194.746852
360.897779
507.126451
647.670031
783.221722
805.917978
741.412640
642.523766
482.025743
356.640816
224.286914
161.341429
132.259727
131.592751
150.545835
189.596415
215.851665
240.275860
246.398449
240.844488
228.798985
200.784802
175.808668
147.205591
122.923851
105.841756
92.227459
82.417727
77.516437
70.014000
66.153407
61.493516
57.287812
53.787827
50.038695
46.165586
44.061542
39.809942
37.868619
35.568476
33.066869
32.146573
29.281974
28.011799
25.763512
24.212599
23.207664
21.713972
20.118952
19.578934
18.139482
17.540455
16.727448
16.426444
15.922785
13.851523
15.288591
13.659000
13.351440
12.703538
11.375546
11.242628
10.363460
10.202527
9.609461
9.574890
9.048581
8.672476
8.464456
7.712841
7.759929
7.488728
7.525682
6.768703
6.559491
7.211566
6.703734
6.915927
##ZVALUE=270
0.715852
0.961423
0.865459
1.076460
1.015663
0.884533
1.131892
1.070499
1.067519
0.968575
1.016855
1.284480
1.315475
1.320839
1.445413
1.501441
1.982450
8.103848
24.313927
78.278780
156.080723
269.584656
461.859703
621.057749
780.134797
849.033594
842.278600
767.035484
617.820621
485.695601
327.180624
234.742761
173.285007
146.023631
152.651668
180.482864
203.044415
228.630900
243.739486
250.443816
246.045589
223.734975
198.018551
164.076686
141.987801
112.804770
98.227859
80.447793
74.633956
64.918995
60.864687
54.807663
51.446557
47.846437
44.653416
39.261580
38.627982
35.402775
33.881664
31.195879
29.736757
28.218627
26.167631
24.568439
22.859573
21.456480
21.266937
19.227862
18.021464
17.509460
16.589761
16.240478
15.071630
15.294552
14.560819
13.316870
12.537837
12.189746
11.396408
10.796785
10.164976
9.511709
9.685755
9.668469
9.231567
8.131862
8.624792
8.048415
7.286668
7.291436
7.355809
6.765723
6.917715
6.429553
6.807446
6.375909
##ZVALUE=275
0.883937
0.798702
0.809431
0.856519
0.824928
0.973940
0.955462
0.989437
1.048446
1.148582
1.069903
0.974536
1.114607
1.397729
1.182556
1.279712
1.365542
1.226664
1.568794
4.063845
14.611483
42.097569
121.114850
224.822760
417.772532
561.341643
736.637712
848.075747
900.518894
860.112906
732.781887
594.972968
444.210768
271.092653
194.715858
138.178468
125.605464
136.663914
155.467987
180.697441
200.272799
214.023590
217.169523
209.124684
190.878510
163.111687
140.502453
111.421943
91.145635
70.522428
60.486794
50.204992
47.566891
41.592717
40.302873
36.398768
34.685731
31.753778
30.948520
28.024912
26.245713
24.742484
23.859739
22.751689
21.004677
19.562840
18.152595
17.914772
17.360449
16.078949
15.516877
15.664697
14.527440
13.920665
14.231801
13.278723
12.293458
12.362599
11.151433
11.163950
10.876656
9.841919
9.255409
9.252429
8.424520
8.087754
8.481741
7.517934
7.380843
7.541776
7.175803
6.630421
6.755590
6.272793
6.568432
6.435513
##ZVALUE=280
0.825524
0.872612
0.823736
0.780821
0.785589
0.913739
0.887513
0.611544
0.907779
0.761747
0.710487
0.830889
1.202822
1.097918
1.367927
0.981688
1.081824
1.257658
1.361966
1.215935
1.666546
2.152920
9.496808
30.736923
97.214580
177.475810
327.636600
479.694009
685.283542
814.728737
885.667801
895.317793
814.611912
632.639527
483.012795
295.287967
193.604827
112.647414
83.761811
80.235004
92.716813
117.201805
136.580467
158.092976
171.588659
176.785588
170.295835
154.289603
130.851865
104.307532
84.226727
62.104464
49.504638
36.605000
31.438470
28.152466
25.230646
24.172664
23.433566
22.093654
21.014810
20.897985
20.061731
19.008517
18.272996
17.001629
16.909838
15.932918
15.400648
14.531612
14.141798
13.296604
13.918877
13.416409
12.565851
11.858940
11.692643
11.239648
10.718703
10.345578
9.505749
9.153485
8.748770
8.424520
8.551478
8.469820
7.978678
7.869601
8.286834
6.981492
7.396936
6.457567
6.169677
6.551743
6.582737
6.034970
##ZVALUE=285
0.662804
0.771880
0.916719
0.927448
0.746846
0.959635
0.800490
0.752807
0.862479
0.793934
0.774860
0.869632
0.890493
0.756979
0.894666
1.123548
0.957847
1.007915
1.135468
1.230836
1.150966
1.254678
1.521707
1.737475
4.698634
15.560985
52.756667
109.149814
236.279964
369.780660
524.520874
724.518895
846.643448
909.465551
862.240791
709.003806
561.154485
355.229974
228.234529
115.977526
69.484711
43.677688
45.780540
62.672496
81.068873
109.333992
126.837492
143.818855
147.942901
143.941641
133.948922
112.244487
93.975663
67.082644
51.038861
34.643412
25.839806
20.296574
17.979741
16.919971
16.493797
16.148686
15.807748
15.350580
14.223456
14.403462
13.685822
13.454556
13.342500
13.518929
12.750626
12.604594
11.683702
11.456609
11.331439
11.154413
10.184646
10.319948
10.089874
10.067821
9.689927
9.234548
8.534789
8.392930
8.487701
8.042455
7.743835
7.280707
6.978512
7.070899
6.826520
6.933808
6.581545
6.653666
6.421804
6.262660
##ZVALUE=290
0.644922
0.795722
0.743866
0.787973
0.689626
0.590682
0.778437
0.671744
0.631809
0.736713
0.831485
0.718832
0.785589
0.756979
0.769496
0.856519
1.013875
0.901818
1.101494
1.180768
1.078844
1.259446
1.305938
1.233816
1.508594
1.712441
2.056956
6.767511
30.946732
69.942474
163.377523
281.334519
432.687998
654.390454
792.746544
895.558000
897.184610
780.342817
638.401508
434.222817
290.786624
149.366856
83.086491
38.679838
29.213428
35.631657
49.188733
69.773793
88.777542
113.849640
129.101872
139.087439
136.386752
123.790503
106.666684
81.488490
62.464476
43.111444
31.428933
21.389723
17.413497
14.271736
13.499856
12.747645
12.455583
12.404919
11.826754
11.719465
11.698604
11.511445
11.902452
11.473894
11.601448
10.957718
10.680556
10.659695
10.165572
10.161996
9.778738
9.420514
9.040833
8.880496
8.218884
8.254647
8.264780
7.777810
7.687807
7.428527
7.243752
7.316470
7.153749
6.911755
6.690621
6.475449
6.293654
6.473660
##ZVALUE=295
0.642538
0.665784
0.517964
0.758767
0.636578
0.622869
0.659823
0.559688
0.652671
0.703931
0.734925
0.736713
0.753999
0.823736
0.759959
0.788569
0.715852
0.846982
0.900626
0.778437
0.803471
0.914931
1.142621
1.273751
1.266599
1.230836
1.288652
1.623631
1.661777
3.497601
12.199879
48.419833
103.917718
230.498910
363.357663
568.735003
723.025799
868.272781
902.251005
838.850737
722.416639
522.072911
363.389850
194.494724
108.166933
44.848919
24.720430
21.635890
28.494000
44.240952
60.839653
86.175799
102.697611
122.118592
129.024982
126.627684
117.934942
97.310543
80.427527
57.300925
42.229891
27.226806
20.030737
14.548898
11.959672
10.055900
10.208488
9.995699
9.478927
9.975433
10.143518
9.806752
9.771585
9.815693
9.442568
9.283423
9.247661
9.174943
8.763671
8.003712
8.120537
8.501410
7.996559
7.809997
7.658601
7.632971
7.389784
7.193685
7.665753
7.481575
6.930828
7.009506
6.906986
6.669760
6.137490
6.488562
##ZVALUE=300
0.601411
0.645518
0.625849
0.713468
0.720620
0.740886
0.561476
0.646710
0.628829
0.667572
0.642538
0.570416
0.580549
0.686646
0.558496
0.697970
0.767708
0.708699
0.761747
0.905991
0.964999
0.744462
0.856519
0.817776
1.070499
1.116991
1.282692
1.220703
1.352429
1.566410
1.481771
1.729727
5.972981
21.247864
73.084831
145.275593
293.518901
447.927713
657.536983
790.523887
887.712836
889.371634
774.412751
637.744665
428.409576
281.893611
143.769979
77.518821
30.539632
17.520785
18.177629
24.526715
39.592981
55.220723
77.401996
94.968677
114.570856
121.998787
121.405721
112.815499
94.167590
77.696443
55.578947
41.558743
26.452541
18.500686
12.706518
10.032654
8.999705
8.523464
8.673668
8.270741
8.715987
8.644462
8.345842
8.064508
8.064508
8.032918
8.252859
7.748604
8.141994
7.725954
7.854700
7.596612
7.253885
7.196665
7.235408
6.944537
6.931424
7.040501
6.808639
6.626844
6.322861
6.339550
6.229877
5.906820
##ZVALUE=305
0.626445
0.570416
0.758767
0.636578
0.626445
0.620484
0.564456
0.594854
0.621676
0.728965
0.535846
0.528693
0.591874
0.675917
0.812411
0.652671
0.584722
0.716448
0.792742
0.735521
0.763535
0.733733
0.821948
0.896454
0.840425
0.978708
0.914931
1.278520
1.089573
1.119971
1.229644
1.329780
1.257658
1.525879
2.706647
14.733672
41.751862
115.959644
208.379626
385.796428
542.022586
736.964941
846.990943
841.718912
820.306540
701.579452
497.568846
355.495811
196.813941
110.686421
44.010878
20.783544
13.394952
15.953779
24.820566
35.121441
54.281950
71.048737
104.592443
105.586648
114.085674
114.758611
104.419589
93.410611
70.041418
54.749846
36.625862
25.537610
16.093850
12.062788
9.160638
8.518696
8.230805
7.623434
7.884502
7.410645
7.442832
7.525682
7.389784
7.669926
7.421970
7.115602
7.266998
7.130504
7.131696
7.166862
7.395744
6.935596
6.676912
6.629825
6.802678
6.392598
6.507635
6.294847
6.165504
6.385446
##ZVALUE=310
0.676513
0.546575
0.611544
0.609756
0.676513
0.639558
0.728965
0.798702
0.749826
0.651479
0.603795
0.798702
0.789762
0.639558
0.778437
0.578761
0.787973
0.754595
0.716448
0.733733
0.842810
0.851750
0.978708
1.065731
0.841618
0.920892
0.893474
0.966787
0.956655
1.171827
1.181960
1.200438
1.388788
1.471639
1.399517
1.777411
1.988411
6.319880
20.755529
69.770813
135.952830
284.125805
435.248017
641.952753
774.298906
876.842737
877.026916
771.681666
638.903975
434.330702
289.258957
144.888759
79.115629
29.459000
14.907718
11.259913
13.945699
21.923780
31.243563
47.727823
62.325001
83.495975
96.689463
106.384754
107.868910
99.797845
87.756515
69.963932
54.316521
35.965443
25.532842
16.303658
12.275577
9.201765
8.099675
7.393956
7.156730
7.172823
7.162690
6.914735
6.840825
7.104874
7.127523
7.030964
6.995797
6.682873
6.998777
7.213950
6.819963
6.474853
6.516576
6.272793
6.337762
6.448627
6.596446
6.202459
##ZVALUE=315
0.440478
0.577569
0.388622
0.671744
0.655651
0.461936
0.696778
0.668764
0.566840
0.546575
0.480413
0.495911
0.395775
0.569820
0.565648
0.521541
0.601411
0.685453
0.617504
0.715852
0.669956
0.696778
0.627637
0.667572
0.600815
0.786781
0.823736
0.948906
0.729561
0.726581
0.901818
0.882745
1.140833
1.171827
1.146793
1.438856
1.370907
1.286864
1.550913
8.698702
13.313890
35.857558
103.967786
195.106864
374.365449
534.180999
723.150969
827.536583
876.760483
833.195448
679.665804
533.701777
335.909724
211.233497
98.709464
49.117804
16.451478
9.916425
9.629726
12.305975
19.631982
27.419925
42.348504
56.401491
76.431632
89.390874
99.409819
101.278424
94.016790
82.251430
65.194964
51.240921
33.220649
23.575425
15.403628
11.313558
8.585453
7.032752
6.621480
6.662607
6.650686
6.653666
6.605983
6.704926
6.424785
6.570816
6.638765
6.628633
6.688833
6.617904
6.236434
6.616712
6.558895
5.861521
6.129742
6.207824
##ZVALUE=320
0.587702
0.410676
0.437498
0.527501
0.521541
0.511408
0.582933
0.537634
0.630617
0.566840
0.634789
0.617504
0.547767
0.551939
0.583529
0.658631
0.473857
0.418425
0.760555
0.622869
0.527501
0.640750
0.675917
0.609756
0.695586
0.801682
0.808835
0.765920
0.800490
0.758767
0.893474
0.917912
0.998974
1.227856
0.986457
0.945926
0.987649
1.271963
1.325607
1.302958
1.464486
1.659989
6.083846
20.189881
70.537925
140.757561
281.780958
421.244502
622.449517
760.273933
863.366723
862.443447
754.671693
621.330738
419.120789
272.598863
126.022696
66.787601
26.184916
12.697577
7.929802
8.532405
11.699796
23.620725
25.933981
37.396550
53.728819
69.337487
86.064935
93.634725
95.123649
90.097785
76.843500
63.449740
48.021674
35.328865
22.104979
15.549660
10.496974
8.356571
6.806850
6.565452
6.174445
6.451607
6.089807
6.353855
6.407499
6.597638
6.214976
6.330609
6.395578
6.111860
5.996823
6.184578
6.212592
6.293654
##ZVALUE=325
0.468493
0.475645
0.782609
0.558496
0.552535
0.605583
0.374913
0.476837
0.515580
0.647902
0.483990
0.554919
0.560880
0.416636
0.597835
0.535846
0.599623
0.339746
0.579953
0.533462
0.664592
0.701547
0.760555
0.784993
0.769496
0.726581
0.724792
0.838637
0.810623
0.757575
0.842810
0.826716
0.898838
0.888705
0.848770
0.947714
1.023412
0.931621
1.090765
1.052618
1.148582
1.201630
1.323819
1.595616
2.881885
15.116930
40.697455
109.012723
271.247625
348.922610
536.428690
679.420829
813.895464
849.075913
781.304836
662.328005
467.209816
321.321487
169.613957
93.663931
36.526918
15.880466
7.953644
7.144809
7.993579
10.028481
15.361905
22.848845
37.541986
50.637722
69.066882
78.892708
87.082982
89.139938
82.296729
72.970986
56.667924
43.115616
28.878450
20.957589
13.843775
9.984970
7.611513
6.793737
6.426573
6.023645
6.054640
6.259680
5.867481
5.939603
5.799532
6.084442
5.947948
5.740523
5.817413
5.927682
##ZVALUE=330
0.509620
0.505447
0.660419
0.592470
0.520945
0.431538
0.588894
0.492930
0.584722
0.527501
0.629425
0.619888
0.635982
0.543594
0.530481
0.564456
0.568628
0.450611
0.649691
0.601411
0.426769
0.641942
0.667572
0.598431
0.703931
0.784993
0.611544
0.645518
0.582933
0.660419
0.687838
0.707507
0.688434
0.925660
0.985861
0.840425
0.944734
0.940561
1.013875
0.937581
1.045465
0.919700
1.108646
1.239777
1.281500
1.302958
1.912713
5.111694
25.010705
62.317848
154.780746
262.603760
446.401834
589.080453
748.443007
817.231536
791.320801
705.877542
536.901951
395.864844
221.358538
126.441717
52.739978
24.109483
8.693933
6.240606
6.394982
7.012486
9.733438
14.306903
23.583770
32.882690
47.686696
60.124993
74.645877
81.117749
82.824826
78.187585
66.575408
55.251718
40.139556
29.776692
20.055771
14.659762
9.689927
7.762909
6.635785
6.264448
5.824566
5.877614
5.646944
5.723834
5.810857
5.687475
5.714893
5.437732
##ZVALUE=335
0.390410
0.483990
0.529885
0.361800
0.480413
0.403523
0.470877
0.404716
0.409484
0.462532
0.420809
0.481606
0.494719
0.576973
0.697970
0.684857
0.542998
0.628829
0.581741
0.640750
0.361800
0.575781
0.620484
0.619888
0.502467
0.386834
0.565648
0.554919
0.607967
0.585914
0.758767
0.694990
0.597835
0.616908
0.691414
0.695586
0.867844
0.806451
0.795722
0.732541
0.736713
0.962615
0.864863
0.976920
1.086593
1.019835
1.217723
1.241565
1.462698
2.148747
12.352467
35.288930
103.175640
191.175938
361.738801
505.384803
682.521462
768.693686
799.070001
741.539001
597.027540
455.607772
271.844864
164.464712
70.526600
33.000708
11.864901
6.801486
6.031990
5.942583
6.888509
8.668900
13.887882
20.930767
32.327771
43.112636
58.405995
67.888498
76.994896
78.463554
71.572661
63.876510
50.862432
41.041970
28.728843
20.831823
13.515949
9.968877
7.601976
6.373525
5.741715
5.719662
5.415678
5.567670
5.640984
5.505681
##ZVALUE=340
0.371933
0.375509
0.486970
0.483990
0.330806
0.584722
0.419617
0.470877
0.631809
0.536442
0.512600
0.547767
0.397563
0.387430
0.454783
0.503659
0.470877
0.499487
0.466704
0.489950
0.557899
0.559688
0.435710
0.504851
0.741482
0.555515
0.607967
0.664592
0.618696
0.630617
0.616908
0.717640
0.706911
0.699759
0.673532
0.680685
0.784993
0.785589
0.793934
0.703931
0.835657
0.792742
0.805855
0.965595
0.974536
0.891685
0.820756
0.943542
1.097918
1.194477
1.170635
1.922846
5.411506
26.598573
65.361857
160.754919
273.569822
448.427796
585.985780
728.584528
779.734850
742.538571
648.098588
483.576655
342.729688
179.635882
98.965764
40.556788
17.107725
6.915927
5.810857
5.508661
5.873442
6.741881
8.593798
13.329983
19.605756
30.388832
40.863752
55.651665
64.679980
71.751475
72.882771
68.038702
60.873628
48.817992
38.887858
27.696490
20.859838
13.558865
10.021925
7.048845
6.184578
5.459785
5.198717
5.159974
##ZVALUE=345
0.481606
0.471473
0.527501
0.509620
0.611544
0.473857
0.412464
0.483990
0.439882
0.428557
0.375509
0.470877
0.430942
0.498891
0.378489
0.431538
0.438690
0.530481
0.396967
0.694990
0.518560
0.534654
0.507832
0.506639
0.452995
0.637770
0.650883
0.585914
0.660419
0.581741
0.586510
0.689626
0.625849
0.642538
0.667572
0.761747
0.743866
0.712872
0.724792
0.655651
0.674725
0.637770
0.817776
0.717640
0.841618
0.809431
0.887513
0.799894
0.970960
0.973940
1.066923
0.956655
1.230836
1.380444
2.876520
11.463761
47.689676
96.827745
207.454562
323.704481
509.154797
632.499456
745.079517
756.157637
676.027536
564.774871
383.674502
253.426433
119.779706
58.490634
20.098686
9.666681
6.081462
5.700588
5.155802
5.292892
6.077886
7.479787
12.370944
18.268824
29.062629
38.096905
49.945712
57.919621
65.067410
67.121983
63.834786
57.985783
47.507882
38.370490
27.551651
20.124912
13.215542
9.985566
6.897449
5.917549
##ZVALUE=350
0.494719
0.560880
0.558496
0.364780
0.381470
0.392795
0.423789
0.440478
0.491738
0.443459
0.464916
0.532866
0.526905
0.517964
0.608563
0.366569
0.523925
0.517964
0.595450
0.660419
0.483990
0.486970
0.586510
0.657439
0.620484
0.484586
0.415444
0.573993
0.426769
0.481606
0.567436
0.464916
0.522733
0.597835
0.694990
0.595450
0.527501
0.668764
0.710487
0.792742
0.626445
0.721812
0.869632
0.701547
0.698566
0.661612
0.850558
0.865459
0.944734
0.863671
0.918508
1.008511
0.870824
1.033545
1.278520
1.164675
1.745820
6.036758
25.936961
60.379505
149.315596
250.978470
416.831970
547.187924
683.957934
730.959773
695.693493
601.671934
424.496531
286.899805
147.344470
81.038475
31.464696
13.333559
6.244779
5.358458
5.029440
4.960895
5.082488
5.630851
7.632971
10.636449
16.672611
23.244619
33.734441
42.146444
53.034425
58.505535
61.404705
59.514642
53.978562
46.285987
35.182834
26.935935
18.811822
13.841987
##ZVALUE=355
0.423789
0.403523
0.450611
0.553727
0.442863
0.408888
0.607967
0.504851
0.347495
0.558496
0.471473
0.546575
0.379682
0.488758
0.517964
0.480413
0.695586
0.478625
0.524521
0.527501
0.508428
0.503659
0.465512
0.557899
0.457764
0.493526
0.497699
0.522733
0.526905
0.577569
0.541806
0.714660
0.548959
0.670552
0.774860
0.742674
0.588894
0.708699
0.544786
0.685453
0.683665
0.680685
0.690818
0.675917
0.680685
0.697970
0.910759
0.827909
0.735521
0.753999
0.756979
0.971556
0.784993
0.920892
0.899434
1.040697
0.988841
1.086593
1.222491
3.487468
12.157559
46.698451
97.463727
205.544829
318.060517
492.175817
609.178543
703.122616
700.469017
609.570742
494.098663
326.372981
209.623575
94.377995
45.836568
15.065670
7.250905
5.151629
4.776716
4.536510
4.609823
4.762411
5.023479
6.765723
9.185672
14.577508
20.440817
30.290484
37.204623
46.942830
51.474571
56.385994
54.661632
49.488544
43.548942
34.706593
##ZVALUE=360
0.486970
0.381470
0.541806
0.540614
0.356436
0.435710
0.418425
0.502467
0.596642
0.605583
0.426769
0.396967
0.429749
0.470877
0.553727
0.630617
0.487566
0.496507
0.419617
0.588894
0.463724
0.616908
0.418425
0.610948
0.324845
0.594854
0.579953
0.658631
0.437498
0.438690
0.492930
0.617504
0.550747
0.630617
0.557899
0.652671
0.671744
0.860691
0.601411
0.613928
0.725985
0.562668
0.767708
0.693798
0.623465
0.739694
0.746846
0.747442
0.700951
0.734925
0.830889
0.666976
0.807643
0.841618
0.794530
0.761747
0.979900
0.936985
0.961423
1.185536
1.280904
1.668930
5.120635
24.211407
58.608651
147.495866
245.151520
402.184725
530.260801
655.140877
687.610507
644.825697
550.710559
378.592014
254.265666
124.590993
65.383911
24.353862
10.397434
5.228519
4.529953
4.548430
4.325509
4.382730
4.121661
4.783869
5.592704
7.615685
10.886788
16.716719
23.422837
32.355785
39.666891
46.908855
49.851537
50.140619
##ZVALUE=365
0.503659
0.555515
0.478625
0.525713
0.494719
0.493526
0.577569
0.338554
0.479817
0.393987
0.464916
0.670552
0.496507
0.651479
0.576973
0.450611
0.491738
0.471473
0.677705
0.600815
0.496507
0.452995
0.619888
0.435710
0.425577
0.466704
0.553727
0.551939
0.424981
0.575781
0.521541
0.548959
0.591874
0.415444
0.588894
0.659823
0.652671
0.697970
0.609756
0.654459
0.683665
0.703931
0.787973
0.709891
0.611544
0.800490
0.808835
0.746846
0.826716
0.720620
0.688434
0.746846
0.813603
0.842810
0.880957
0.773668
1.002550
0.827909
0.870824
1.035929
1.078844
1.153946
1.275539
1.436472
2.572536
13.430715
36.086440
97.476840
179.769993
335.603952
455.448627
590.558648
654.184818
652.622581
579.162836
428.461432
307.282805
169.897676
92.417598
34.193993
14.519691
5.485415
4.673600
4.223585
4.170537
4.013777
3.984571
3.840923
4.078746
4.711747
6.066561
9.369850
13.691783
21.034479
27.293563
35.480857
##ZVALUE=370
0.471473
0.355840
0.526905
0.481606
0.494719
0.415444
0.455976
0.470877
0.473857
0.599623
0.419617
0.345707
0.425577
0.565648
0.534654
0.429749
0.564456
0.411868
0.493526
0.536442
0.732541
0.400543
0.452995
0.458956
0.541806
0.460744
0.513792
0.593662
0.508428
0.701547
0.503659
0.688434
0.567436
0.539422
0.445843
0.731945
0.696778
0.601411
0.655651
0.585914
0.744462
0.670552
0.734925
0.672936
0.845790
0.770688
0.719428
0.754595
0.798702
0.511408
0.657439
0.784993
0.676513
0.594854
0.863671
0.801682
0.712872
0.788569
0.903606
0.747442
0.827909
0.963807
0.946522
0.984669
1.089573
1.129508
1.681447
7.261634
22.768974
70.741773
136.319995
263.123512
384.642482
545.446873
627.162457
652.790666
604.861975
480.224490
358.697772
205.096006
117.695928
46.915412
21.327734
7.518530
4.705787
4.084706
3.857613
3.804564
3.524423
3.480911
3.478527
3.503561
4.163980
5.649924
7.858872
12.036562
##ZVALUE=375
0.378489
0.391603
0.407696
0.416636
0.492930
0.515580
0.491738
0.481606
0.436902
0.371933
0.356436
0.376701
0.445843
0.473857
0.516772
0.454783
0.472665
0.543594
0.377893
0.576973
0.457764
0.372529
0.513792
0.430942
0.625849
0.593662
0.400543
0.569820
0.701547
0.642538
0.673532
0.834465
0.907779
0.728965
0.973940
0.853539
0.867844
0.845790
0.992417
0.843406
0.883937
0.852942
0.716448
0.719428
0.745654
0.757575
0.822544
0.822544
0.671744
0.835657
0.781417
0.710487
0.692606
0.775456
0.695586
0.776649
0.881553
0.742674
0.830889
0.780821
0.719428
0.904799
0.911951
0.812411
0.908971
1.102686
1.060963
1.155734
1.448989
3.611445
11.759996
42.557716
92.334747
206.390023
321.270823
483.074784
580.426455
646.331906
633.461475
530.481935
415.271521
255.634785
161.128640
79.971552
40.155649
13.414621
6.136894
4.032850
3.764629
3.600717
3.455877
3.151894
3.317595
3.241897
3.347993
3.630519
##ZVALUE=380
0.229478
0.234842
0.245571
0.329614
0.286698
0.416636
0.291467
0.290871
0.302792
0.241995
0.224710
0.370741
0.276566
0.091791
0.290871
0.272989
0.262856
0.357628
0.285506
0.270605
0.367761
0.325441
0.241995
0.320673
0.408888
0.491738
0.525713
0.784993
0.674725
1.092553
1.026988
1.170635
1.290441
1.313686
1.415610
1.484752
1.371503
1.508594
1.303554
1.383424
1.286864
1.286864
1.233816
1.231432
1.009703
0.883937
0.899434
1.009703
0.836849
0.768900
0.855923
0.805855
0.886917
0.839829
0.813603
0.800490
0.807643
0.857711
0.757575
0.703931
0.741482
0.846982
0.813603
0.906587
0.736713
0.792742
0.716448
0.734925
0.829697
0.909567
1.046658
1.682639
8.527637
25.514960
73.417425
140.087605
272.872448
399.267673
551.525950
625.583529
638.051629
580.481887
456.909537
342.781544
201.452971
119.247437
48.932433
22.488832
7.128716
4.027486
3.348589
3.128648
3.069639
3.027916
3.049970
2.897978
##ZVALUE=385
0.533462
0.366569
0.430942
0.388622
0.470877
0.308752
0.454783
0.421405
0.361800
0.449419
0.340939
0.431538
0.426769
0.484586
0.419617
0.405908
0.502467
0.424981
0.551939
0.413656
0.419617
0.461936
0.531673
0.611544
0.533462
0.721812
1.073480
1.259446
1.469851
1.801848
2.281666
2.600551
2.980828
2.951622
2.960563
3.072619
3.092885
3.137589
2.969503
2.950430
2.797842
2.790689
2.621412
2.447963
2.304912
2.013445
2.135634
1.889467
1.873970
1.626611
1.597404
1.704693
1.378655
1.277924
1.366735
1.353621
1.212955
1.117587
1.045465
1.235604
1.200438
1.094937
1.170635
1.137853
1.087785
0.886917
1.121759
1.099706
1.125932
1.317859
1.136661
1.288652
1.334548
1.561642
3.392696
15.777946
41.644573
112.906694
199.534893
352.219939
471.725464
592.390895
629.691482
602.650642
533.385873
394.173861
281.930566
154.810548
87.467432
35.687685
15.006661
4.950762
3.444552
3.217459
3.079772
3.250837
##ZVALUE=390
0.519753
0.370741
0.476837
0.495911
0.408888
0.344515
0.312924
0.385642
0.525713
0.547767
0.593662
0.357628
0.471473
0.411868
0.561476
0.313520
0.503659
0.371933
0.553727
0.332594
0.473857
0.445843
0.365973
0.527501
0.647902
0.913739
1.478791
1.708865
2.262592
2.874732
3.471971
3.841519
4.457831
4.649758
5.015731
5.062819
5.099773
5.182624
5.162954
4.986525
4.547834
4.327893
4.230738
3.848672
3.674626
3.216863
3.072619
2.820492
2.924800
2.631545
2.436638
2.040863
2.267957
2.004504
1.870990
1.680851
1.664758
1.639724
1.481771
1.522899
1.313686
1.339912
1.314878
1.207590
1.241565
1.171827
1.251698
1.245737
1.154542
1.210570
1.191497
1.231432
1.274943
1.279712
1.348853
1.377463
1.850724
8.666515
27.173758
84.085464
158.824921
300.723910
411.280990
537.729859
603.349805
628.355742
583.984852
464.734435
355.427861
217.722654
126.415491
51.502585
24.579763
8.086562
3.886819
3.170967
##ZVALUE=395
0.467896
0.567436
0.493526
0.376701
0.375509
0.464916
0.435710
0.428557
0.466704
0.440478
0.430942
0.396967
0.275970
0.537634
0.400543
0.452995
0.457764
0.454783
0.305772
0.482798
0.528693
0.752807
0.517964
0.657439
0.973940
1.139641
1.567602
2.156496
3.270507
3.800988
4.542470
5.392432
6.083846
6.554723
6.863475
7.356405
7.392764
7.177591
6.941557
6.645918
6.405711
6.135702
5.571842
5.384684
5.015731
4.658699
4.312992
3.931522
3.778934
3.415942
3.083944
2.920628
2.595782
2.668500
2.275705
2.321601
2.129674
1.889467
1.767874
1.700521
1.621842
1.396537
1.449585
1.409650
1.073480
1.343489
1.362562
1.316667
1.257658
1.149774
1.254678
1.249909
1.144409
1.165867
1.214743
1.123548
1.351833
1.498461
1.484752
4.096627
20.960569
51.273704
121.356845
204.939842
349.855423
465.347767
587.444901
633.218884
613.903999
540.038943
400.803685
282.765627
151.224732
81.664920
30.789971
13.652444
##ZVALUE=400
0.575781
0.458956
0.409484
0.357628
0.267625
0.379682
0.296831
0.191927
0.238419
0.428557
0.323653
0.438690
0.450611
0.481606
0.490546
0.432730
0.408888
0.449419
0.291467
0.430942
0.499487
0.513792
0.328422
0.505447
0.889897
0.936985
1.611710
2.194643
3.416538
4.226565
5.214810
6.134510
6.756783
7.323623
7.792711
7.953644
8.015633
8.068681
7.744431
7.294416
7.128716
6.897449
6.334782
5.745888
5.630851
5.144477
4.817843
4.297495
3.981590
3.810525
3.484488
3.058910
2.905726
2.637506
2.471805
2.165437
2.104640
2.012849
1.819730
1.684427
1.518726
1.609921
1.563430
1.377463
1.457930
1.474619
1.285672
1.278520
1.130700
1.144409
1.168847
1.155734
1.085997
1.132488
0.933409
1.087785
0.983477
0.982881
1.042485
1.216531
1.332760
2.922416
9.412766
33.582449
73.358417
166.498423
265.484452
412.084460
512.875915
602.381825
618.533492
552.556515
458.357930
304.787755
201.344490
100.645423
##END
