##TITLE=DWF35
##FORMAT=SPECTACLE-ASCII V-1.2
##DATA TYPE=ULTRAVIOLET SPECTRUM
##SECOND TYPE=ULTRAVIOLET SPECTRUM
##DATE=12/19/17
##TIME=16:02:01
##SPECTROMETER/DATA SYSTEM=SPECTACLE
##XUNITS=NM EM
##YUNITS=ENERGY
##YFACTOR=1
##FIRSTX=220
##LASTX=410
##NPOINTS=96
##3DDATA=Equidistant
##ZUNITS=NM EX
##FIRSTZ=210
##LASTZ=400
##ZPOINTS=39
##XYDATA=(Y..Y)
##ZVALUE=210
13.370514
13.950467
12.016892
10.956526
9.827614
9.539723
9.338856
7.544756
5.688667
4.747510
4.068613
3.223419
2.502799
2.156496
2.220869
2.340674
3.070831
2.410412
2.279878
2.897978
3.353953
4.129410
3.714561
4.031658
5.747676
9.142756
10.015965
15.407801
19.068718
25.474429
28.965473
33.182502
38.906932
43.342710
42.756796
46.053529
46.778917
44.103861
47.111511
45.655966
41.972995
39.572716
37.576556
36.883950
33.233762
33.123493
29.365420
28.394461
26.830435
25.769472
24.009943
21.196604
20.822883
18.898845
18.235445
17.745495
16.872883
16.600490
14.781952
14.848709
14.308691
12.955666
12.468696
12.833476
11.225939
10.648966
10.622740
10.702610
11.167526
12.336969
12.072921
12.704730
14.244914
14.658570
15.571713
16.827583
15.781522
16.297698
15.621781
14.855862
13.782978
11.804700
10.758638
9.907484
7.485747
6.921887
5.878806
5.908608
6.792545
8.379817
9.397864
11.060834
15.677810
18.343925
23.794770
29.052496
##ZVALUE=215
37.087798
37.162900
29.402971
23.373961
18.410683
15.797615
17.243624
14.469624
14.541745
12.569427
10.982752
10.345578
6.185770
5.425811
3.173947
2.818704
2.788901
2.348423
2.688766
2.755523
2.823472
3.120899
3.099442
4.486442
6.265640
9.044409
12.829900
17.739534
22.555590
28.735995
33.165812
40.186644
48.287511
48.564672
51.837564
56.904554
56.249499
56.289434
53.835511
52.145720
53.366423
48.766732
46.526790
43.065548
40.708780
36.715865
35.922527
32.725930
30.236840
27.656555
25.775433
24.433732
24.563670
22.510886
21.145940
20.698905
19.737482
18.500686
17.200708
16.051531
17.112494
16.326904
14.559627
13.268590
14.030933
12.181997
11.889935
12.075901
12.167692
12.287498
12.296438
12.084842
13.256669
13.853908
14.295578
14.109612
12.913942
14.867783
14.283657
13.883710
12.784600
10.843873
9.950995
9.779930
8.867979
7.009506
7.250905
6.223917
5.109906
5.359650
5.037785
4.624724
5.478859
5.880594
9.132624
10.439754
##ZVALUE=220
78.576803
78.387856
77.552795
67.757964
56.276917
44.327974
35.187602
26.970506
25.892854
24.604797
24.581552
24.721622
20.824671
17.109513
13.515949
9.915829
6.267428
4.596710
3.604889
4.324913
3.179908
3.437996
4.051924
4.752874
6.294847
10.048747
14.745593
19.566417
24.077892
34.045577
41.170716
49.430728
59.010983
60.113668
63.374639
68.075657
66.785812
68.089962
67.327619
64.858794
62.453747
55.770874
53.570867
52.942634
49.510002
43.303967
42.780638
37.277937
35.471916
32.123923
32.276511
30.796528
27.868748
29.014945
25.065541
25.069714
22.745728
23.219585
20.013452
19.603968
17.555952
18.491745
17.567873
16.403794
16.277432
15.224814
15.073419
13.090968
12.643933
13.943911
14.226437
16.022921
14.118552
15.592575
14.404655
14.534593
14.520884
14.654994
13.881922
13.889670
12.236834
10.125637
9.437799
9.064674
8.380413
7.264614
6.923676
6.049871
5.822778
6.329417
6.390810
5.811453
5.153418
5.512834
5.398989
5.731583
##ZVALUE=225
103.355646
108.032823
121.090412
138.689876
136.185884
122.916698
105.598569
77.033639
62.357783
48.328638
39.734840
37.470460
39.063692
39.401650
36.928654
32.711625
25.497675
20.453930
16.815662
9.936690
7.545948
4.789829
4.670620
4.407763
6.703734
9.090900
12.217760
19.342899
25.323629
32.127500
36.093593
44.716001
49.565434
56.706667
57.811737
61.123967
60.141683
64.771771
61.350465
55.468678
59.527755
56.064725
54.037571
51.125884
49.209595
41.573644
42.598844
38.762689
35.654902
32.219887
31.735897
29.218793
29.966831
29.301643
26.801825
24.824739
25.709867
24.704933
23.469925
25.070906
22.427440
20.625591
19.270778
19.290447
18.453598
16.307831
15.614629
15.728474
15.544891
14.670491
14.624000
14.713407
14.274716
15.191436
15.116930
15.169978
14.402866
13.913512
12.642741
12.157559
11.782646
10.697842
10.058880
9.222627
8.411407
8.232594
7.797480
6.194711
6.310940
6.562471
6.370544
6.832480
5.662441
6.377697
7.075667
6.162524
##ZVALUE=230
70.644617
78.276992
107.744932
158.998966
191.588998
218.568444
230.089426
208.109617
182.881951
149.775743
105.097890
80.132484
60.311556
55.886507
56.265593
59.611797
61.137676
54.258704
47.976971
40.709972
28.999448
19.002557
11.661649
9.262562
7.540584
7.583499
9.168983
13.508797
15.501976
21.551847
27.716756
30.651689
34.544468
36.193728
40.570498
41.463971
40.772557
43.611526
43.434501
41.207671
41.036606
40.874481
37.814975
32.777786
35.555959
32.504797
31.100512
31.248927
26.266575
25.862455
28.121471
27.824640
26.799440
24.501681
25.604963
24.662614
23.372769
23.958683
22.951961
23.926497
22.424459
20.035505
20.078421
19.810796
20.356774
17.526746
17.081499
17.117858
16.614795
16.233921
15.984774
16.333461
16.678572
16.756654
16.188622
15.793443
15.840530
13.630986
13.949871
13.531446
12.012720
11.115670
10.861754
10.410547
10.247827
8.925796
9.073615
8.837581
7.627606
7.871985
7.127523
6.950498
8.247495
6.392598
7.210970
7.554889
##ZVALUE=235
19.288659
22.833943
43.154955
97.738504
152.601004
222.099423
276.589990
334.184766
353.216529
351.738930
306.678414
246.400833
168.451667
126.685500
88.698864
80.912709
81.060529
83.805919
87.220669
86.671710
83.110929
66.504478
56.053996
34.828782
26.081800
16.506910
12.307763
10.263920
10.749698
12.211800
15.020967
17.369986
16.750693
20.338893
19.984841
24.081469
22.586584
23.723841
23.588538
24.454594
22.468567
23.394823
24.393797
22.354722
22.146702
22.173524
21.065474
19.234419
17.619729
20.896792
19.250512
20.886660
19.605756
21.042824
20.135641
19.804835
18.880963
21.664500
18.857718
20.249486
19.920468
18.873811
17.845631
17.209649
18.553734
16.429424
15.348792
17.085671
14.098883
16.366839
17.193556
14.816523
16.482472
15.654564
17.010570
15.506744
16.395450
14.891624
14.666915
15.537739
13.549924
11.395812
12.206435
11.415482
10.295510
11.260509
9.415746
9.146929
9.820461
9.091496
8.592606
8.874536
8.220673
8.321404
8.189678
8.080602
##ZVALUE=240
1.544952
2.098680
7.711649
18.659830
48.356652
90.239644
171.999931
252.330899
368.151665
435.259938
481.827855
484.348536
432.981849
343.030691
270.801783
176.725984
129.713416
101.591945
89.564919
98.663568
110.060573
116.992593
112.445951
101.971626
84.632635
64.029694
45.427680
31.887889
20.977855
16.101599
13.007522
12.331605
13.406873
13.859868
15.240908
15.836954
15.371442
15.875697
15.871525
15.663505
14.742613
16.886592
14.780760
16.147494
15.021563
14.744997
15.476942
15.086532
15.409589
13.683438
14.754534
14.809966
14.566779
14.682412
16.159415
16.607642
15.302896
14.610887
14.637709
14.082789
15.478730
14.799833
14.741421
14.596581
14.936924
13.755560
13.406873
14.274716
13.232827
13.532639
13.456941
15.093684
14.951825
15.826821
15.916824
14.772415
15.237927
14.447570
12.443662
13.549924
12.801886
11.389852
11.797547
11.393428
9.992719
10.888577
10.634661
10.060668
10.055900
9.658933
7.834435
8.544922
8.168817
8.349419
9.368658
9.050965
##ZVALUE=245
1.462698
1.470447
1.494884
1.969934
3.520846
14.322996
34.536719
83.789825
150.649548
263.487697
368.947983
492.468476
544.656515
557.565689
532.645583
462.643504
358.465910
266.248584
161.970854
120.955706
92.700720
94.301701
112.750530
124.752522
123.917460
121.138692
111.513734
87.959766
72.025657
52.386522
39.222836
26.676655
20.305514
16.301870
17.039776
16.326904
16.596913
16.254783
16.500950
17.737746
18.504858
16.075969
16.922951
16.457438
16.583800
15.317798
14.929771
14.883876
14.905930
14.563799
13.844967
15.223622
14.005899
13.689995
13.270974
13.348460
12.628436
12.561679
12.180805
13.302565
12.126565
13.252497
12.342930
11.887550
11.868477
12.047887
11.496544
12.666583
11.756420
12.216568
12.358427
12.985468
13.069510
13.310909
13.631582
13.981462
12.503862
12.358427
12.299418
10.560751
11.435747
9.975433
11.109710
9.872913
10.410547
10.697842
8.942485
7.944703
9.206533
8.620620
7.869601
8.424520
9.149909
8.023977
8.515716
7.950664
##ZVALUE=250
1.298785
1.263618
1.397729
1.781583
1.508594
1.763701
2.212524
8.842945
24.503469
64.270496
124.569535
242.413878
352.440476
485.673547
570.824742
630.560517
618.719459
551.657677
464.574695
319.808722
221.886635
156.385899
101.165771
91.104507
102.418661
117.821693
130.362511
137.824416
133.451819
125.843883
103.921890
87.667704
67.452788
46.334863
36.519766
26.913881
26.356578
22.689700
22.435784
22.844672
23.261905
21.695495
20.940900
21.299720
20.655990
20.527840
19.745827
17.275810
17.509460
17.231703
17.090440
17.006993
14.990568
15.076995
15.139580
14.741421
14.108419
13.079643
13.402700
13.092756
13.756752
12.966990
12.137890
12.371540
12.299418
12.497902
11.076927
11.450648
11.443496
10.964870
11.833906
11.267662
12.484789
11.711717
12.145638
11.776686
11.512637
10.317564
9.935498
9.698868
9.647608
9.290576
8.894801
8.623600
8.741617
7.683635
7.286668
7.725954
6.530881
7.085800
7.069707
6.641746
7.408857
7.251501
6.595850
7.040501
##ZVALUE=255
1.159906
1.026988
1.232624
1.012683
1.341701
1.536608
1.599789
1.479983
1.795888
3.519654
18.071532
44.900775
91.105700
194.934607
296.848416
462.716818
573.827624
670.597553
699.808598
663.032532
565.474629
445.721745
288.460851
188.950896
110.488534
88.437796
88.375807
102.235675
130.152702
145.498514
156.221986
153.016448
143.700838
123.345852
105.038881
79.122782
62.889457
49.788952
42.242408
34.069419
33.730865
31.961799
29.943585
28.723478
27.959943
27.679801
24.993420
23.762584
23.141503
22.436976
21.569729
20.798445
20.070672
18.827915
17.133951
18.264651
16.672611
16.731620
16.190410
14.556646
14.963746
13.321638
13.136864
13.719797
13.112426
12.606978
12.808442
11.790991
11.763573
11.511445
11.718869
10.729432
11.005998
10.916591
10.752678
10.242462
10.384917
9.959936
9.488463
8.856654
8.557439
7.494688
7.286668
7.146597
7.342696
6.430745
6.165504
6.401539
6.632805
6.658435
6.147623
6.417632
5.851984
6.115437
5.821586
5.881786
##ZVALUE=260
1.069903
1.114607
1.204610
0.966787
1.010895
1.048446
1.317859
1.103878
1.373887
1.579523
1.573563
1.999736
7.477403
27.583838
65.569878
155.241489
252.607465
407.979488
538.170934
699.359775
763.233900
770.874023
677.771568
553.382635
372.717977
258.427858
158.123970
109.740496
84.946752
96.275806
115.491748
146.813989
166.167617
179.419518
178.308487
164.199471
148.038864
118.163824
98.953843
76.678991
63.800812
51.040649
45.094490
40.901899
38.224459
37.318468
35.459995
32.518506
31.209588
29.302835
28.328896
26.789904
25.204420
23.817420
23.065805
21.077991
20.173788
19.020438
18.651485
17.603636
17.131567
15.716553
16.131997
14.381409
13.755560
13.359785
13.085604
12.277961
12.631416
11.637807
11.367798
11.176467
11.860728
10.847449
10.411739
9.757876
10.519624
9.583831
8.623600
7.839799
7.647872
6.585717
7.339716
7.135868
6.905794
6.466508
5.579591
6.175637
6.120801
5.775690
5.822778
5.468726
5.409718
5.236864
5.513430
5.448461
##ZVALUE=265
1.091957
1.271963
1.102686
1.058578
1.152754
1.162887
1.059771
1.174808
1.243949
1.324415
1.288652
1.505613
1.463890
1.807809
3.521442
19.037724
46.984553
118.352771
208.499432
383.108854
535.055995
678.860545
809.373856
839.718580
759.139657
657.736659
493.831635
353.733897
211.417675
143.137574
106.386542
98.443627
114.144683
150.506496
172.339678
194.050670
197.355747
192.413926
180.529952
151.608586
130.198598
101.441741
83.153844
65.258741
53.392649
46.300888
42.211413
38.168430
37.601590
34.121871
33.126473
31.046867
29.018521
27.361512
26.406646
24.001598
23.503900
22.054911
21.310449
20.119548
19.166470
17.757416
17.009974
15.660524
14.697909
14.714599
13.919473
13.949871
13.052821
12.122989
11.557937
11.090636
12.043715
11.138916
10.535717
10.175705
9.946823
9.615421
8.851886
8.591413
8.202791
7.689595
6.803870
7.307529
6.829500
6.672740
6.404519
6.200671
5.810857
5.512834
5.598664
5.504489
5.018711
5.029440
4.898906
5.211830
##ZVALUE=270
0.902414
1.057982
1.061559
1.066923
1.082420
1.122952
0.966787
1.139641
1.269579
0.949502
1.408458
1.358986
1.368523
1.600981
1.546741
1.577735
2.465844
6.915927
31.868815
75.647831
151.498914
318.370461
471.330881
672.164559
807.076693
879.406929
863.689780
760.012865
640.307665
452.228785
325.658917
190.607905
134.628415
102.713704
107.514858
131.401420
154.791474
185.881853
198.157430
205.224752
197.516680
178.866982
156.456828
124.437809
102.012753
75.848699
61.960816
48.708916
43.677688
37.808418
34.719706
32.276511
31.481981
28.701425
27.879477
25.247931
23.024678
22.475719
21.969676
20.704865
19.354820
18.708706
17.404556
16.444921
15.527606
14.723539
14.380813
13.869405
13.501644
12.493730
12.079477
12.152791
11.863708
11.189580
11.045933
10.166764
9.903908
9.085536
8.240938
8.301735
8.260608
7.217526
7.166862
6.538630
6.379485
6.151795
6.442666
5.647540
5.856752
5.567670
5.255938
5.506873
5.342960
5.672574
4.815459
4.913807
##ZVALUE=275
1.202822
0.972748
1.120567
1.007915
1.117587
0.966787
1.133680
1.173615
1.127720
1.308918
1.051426
1.153946
1.188517
1.105666
1.036525
1.504421
1.510978
1.574755
1.827478
4.686713
16.700625
43.563843
126.520991
238.130689
435.039997
591.271520
768.836737
874.365568
921.472907
869.992971
732.445717
585.666895
429.043770
247.370601
161.514878
100.699663
87.533593
98.484755
117.842555
146.641731
166.157484
183.616877
187.404752
179.659724
165.685415
136.480927
114.698410
85.480809
66.614747
49.040914
40.601492
31.974912
29.314756
26.971698
25.582910
23.314953
22.978783
20.951629
20.477772
19.844770
18.708706
17.325878
17.276406
16.460419
15.167594
14.672875
13.842583
13.670921
12.804866
12.527704
11.970997
11.196733
10.681748
10.625720
10.308623
10.154843
8.977652
8.426905
8.391738
8.193851
8.060932
7.755756
7.130504
6.729960
6.317496
6.175637
6.352663
5.754828
5.920529
5.500913
5.473495
5.393624
5.180836
5.161762
4.756451
4.655719
##ZVALUE=280
0.870824
0.929832
0.968575
0.958443
0.994802
0.789762
0.896454
1.056790
1.049638
1.137853
1.023412
1.120567
1.022816
0.936985
1.120567
1.239777
1.306534
1.606941
1.543760
1.626611
1.719594
2.330542
10.041595
33.766627
103.472471
186.302662
345.007777
506.804585
715.394616
839.555860
914.973617
916.383862
833.261013
642.916560
479.685664
283.295512
175.514817
94.292760
67.412853
63.305497
75.755715
99.590421
121.483803
147.461891
160.082579
162.567496
158.023834
140.544772
121.702552
93.837976
73.656440
51.446557
39.022565
27.591586
22.630692
19.388795
17.828941
17.098784
16.560555
16.438961
15.729666
15.421510
15.098453
14.119744
13.621449
13.335943
12.336969
12.108684
11.746883
11.739731
11.194944
10.854602
11.111498
9.544492
9.695888
9.559989
8.787513
8.711815
8.586645
7.792711
7.510781
7.087588
6.960630
6.622672
6.504655
6.296635
5.826950
5.570650
5.407929
5.260706
5.525947
5.176663
5.192757
5.028844
5.346537
4.356503
##ZVALUE=285
0.801682
0.626445
0.724792
0.682473
0.917912
0.959635
0.781417
1.042485
0.742674
0.844598
1.067519
1.019835
0.875592
0.975728
1.012683
1.116991
1.189709
1.106858
1.500845
1.385808
1.124740
1.426935
1.354814
1.729727
3.957748
21.398664
53.232908
134.673715
232.954025
416.175723
575.589538
778.380036
888.512731
930.302739
886.048675
731.914639
578.677654
357.626677
230.560899
113.798976
63.777566
39.792657
41.384697
59.155822
76.620579
104.361773
121.885538
141.464472
146.791935
143.707991
131.205916
108.928680
89.697838
63.993931
47.320724
30.349493
21.828413
16.660690
13.929605
13.304949
12.925863
12.550950
12.135506
11.858940
11.003613
10.930896
11.087656
10.374784
10.459423
10.706782
9.985566
10.038614
9.246469
8.866787
9.141564
8.692741
8.619428
7.710457
7.728934
7.113814
7.393956
6.669760
6.632805
5.792975
5.877614
5.740523
5.765557
5.577803
5.381703
5.807877
5.091429
4.946589
5.238652
4.586577
4.741549
4.581809
##ZVALUE=290
0.817776
0.627637
0.725985
0.888705
0.651479
0.639558
0.833869
0.684857
0.845790
0.888705
0.787973
0.645518
0.942945
0.929832
1.000762
0.957847
1.131892
1.104474
0.974536
0.939965
0.903606
1.171827
1.301765
1.386404
1.532435
1.750588
2.364516
7.172823
31.311512
74.182749
145.929456
302.284956
459.957719
688.795447
832.459927
939.154625
931.306481
806.104541
660.393834
449.097753
298.105478
152.635574
80.838799
36.574602
26.631951
34.479499
47.892928
70.248842
89.660883
116.010904
128.325820
138.901472
137.197971
125.886798
106.585622
80.530643
60.200691
41.076541
28.977990
18.901825
14.678836
11.324883
11.123419
10.277629
10.056496
9.088516
9.494424
9.626746
9.078979
9.098649
9.361506
8.634925
8.485913
8.576512
8.184910
7.526875
8.070469
7.280707
7.147789
6.822944
6.765723
6.277561
5.956888
5.920529
5.848408
5.607605
6.034970
5.568862
5.262494
5.350709
5.156994
5.250573
4.949570
4.601479
4.977584
4.845858
##ZVALUE=295
0.758767
0.690818
0.695586
0.773668
0.676513
0.714660
0.688434
0.782609
0.800490
0.864863
0.915527
0.862479
0.903606
0.973940
0.897646
0.864863
0.890493
1.006722
0.928640
1.006722
1.116991
0.955462
1.301765
1.211762
1.333952
1.389980
1.361966
1.621842
1.841784
3.119707
10.829568
46.045780
102.774501
239.408612
383.257866
603.490472
759.430528
905.781984
939.203501
865.358710
745.429993
535.312891
373.106003
199.622512
109.319687
41.870475
23.496747
20.625591
27.952790
45.164824
62.904954
87.488890
104.503632
124.720931
131.354928
130.559802
117.883682
98.824501
80.714822
55.734515
41.327477
25.886893
18.457770
12.474656
9.937882
8.529425
7.709861
7.605553
7.800460
7.492900
7.622838
7.860661
7.374883
7.631779
7.261634
7.008910
7.203817
6.551743
6.609559
6.606579
6.035566
5.858541
6.088614
5.361438
5.647540
5.312562
5.191565
5.313754
5.405545
5.244613
4.883409
4.702806
5.100965
4.566908
4.936457
4.508495
##ZVALUE=300
0.729561
0.657439
0.760555
0.718832
0.718832
0.619888
0.722408
0.716448
0.805855
0.554919
0.742674
0.737906
0.762939
0.741482
0.795722
0.890493
0.672936
0.689626
0.870824
0.964999
1.040697
0.959635
1.131892
1.067519
1.031756
1.036525
1.226664
1.174808
1.407862
1.524687
1.700521
1.874566
7.416606
24.735928
79.380870
152.638555
312.289596
472.110510
694.068670
827.546716
926.293731
927.242637
802.851915
659.109950
440.381765
288.163424
145.699978
78.091621
29.392838
17.069578
17.740726
25.205612
40.900707
55.913925
77.823997
97.715855
115.312934
124.622583
122.397542
113.147497
96.071959
78.253746
55.855513
40.399432
25.106668
17.681718
11.148453
8.496642
7.539988
7.011890
6.779432
6.653666
6.718636
6.759763
6.642938
6.554723
5.879998
6.116629
6.489754
5.660653
6.086826
5.567670
5.512834
5.448461
5.416870
5.121827
5.510449
5.125999
5.070567
5.159974
5.177855
4.817843
4.633665
4.711747
4.517436
4.609823
##ZVALUE=305
0.657439
0.878572
0.842810
0.759959
0.721812
0.723600
0.892878
0.765920
0.701547
0.625849
0.744462
0.793934
0.852942
0.818968
0.756979
0.771880
0.790954
0.923872
0.871420
0.766516
0.815988
0.769496
0.839829
1.188517
0.943542
0.771880
1.038909
1.169443
1.125932
1.285672
1.313686
1.337528
1.608729
1.665950
3.012419
16.127825
43.806434
122.442842
221.198797
411.056876
575.243831
773.942471
886.271000
925.484896
871.863961
691.816807
543.119907
346.694589
215.346813
95.571876
48.513412
18.813610
13.085604
16.450882
23.907423
38.170815
52.955747
75.594783
91.908574
109.879971
116.361976
115.082860
107.939839
90.193748
72.847605
51.376820
37.703514
23.185611
16.181469
9.729862
7.964969
6.859899
6.493926
6.261468
6.022453
5.803704
6.166697
5.675554
5.880594
5.782843
5.621910
5.530715
5.350709
5.195737
5.297661
5.245805
4.845858
5.219579
4.895926
4.862547
4.978776
4.391670
4.525781
4.468560
4.770756
4.511476
##ZVALUE=310
0.731945
0.765920
0.717640
0.644922
0.553727
0.708699
0.698566
0.651479
0.567436
0.790954
0.769496
0.690818
0.726581
0.621676
0.674725
0.695586
0.637770
0.732541
0.702739
0.931621
0.759959
0.589490
0.772476
1.097918
1.030564
1.028776
1.023412
1.024604
1.061559
1.004934
0.986457
1.130700
1.269579
1.294613
1.426935
1.539588
1.927614
5.588531
27.996898
65.865517
160.902739
277.109742
480.241776
641.812682
829.541683
911.890864
903.251767
820.831656
639.094710
470.566750
269.795656
161.985755
70.204735
33.465624
13.353825
10.963678
14.691949
20.748973
32.919645
45.154691
67.478418
82.051754
99.190474
107.847452
108.883977
102.912784
87.861419
72.729588
50.670505
36.132932
22.495985
15.469790
9.784698
7.539988
6.165504
5.860925
5.255938
5.267859
5.292892
5.376935
5.014539
5.081892
5.174875
5.184412
5.020499
4.827976
4.639626
5.035996
4.850626
4.414916
4.562736
4.466772
4.499555
4.631877
4.533529
4.525781
##ZVALUE=315
0.702739
0.621676
0.629425
0.496507
0.462532
0.681877
0.753999
0.717640
0.705719
0.660419
0.722408
0.678897
0.629425
0.586510
0.680685
0.719428
0.799894
0.740886
0.821948
0.628829
0.701547
0.629425
0.623465
0.665784
0.818968
0.807643
0.791550
0.902414
1.003742
1.033545
0.964999
0.958443
1.045465
1.159906
1.093745
1.135468
1.268983
1.305938
1.809597
2.638698
14.046431
39.809942
115.554929
210.659504
396.699905
562.132001
755.506754
861.395001
909.395814
855.713487
701.459646
547.715425
345.971584
214.526653
99.178553
48.164725
16.509891
9.917617
10.085702
12.194514
19.843578
28.292537
44.587851
58.831573
78.535676
91.028810
101.900697
103.669763
95.243454
82.436800
63.084960
49.349666
32.825470
22.761822
13.893843
9.375811
6.593466
5.723834
4.953742
4.935861
4.717708
4.764795
4.602671
4.881620
4.590750
4.779696
4.645586
4.774928
4.735589
4.736781
4.984736
4.547834
4.330873
4.371405
4.310608
4.378557
##ZVALUE=320
0.591874
0.721812
0.620484
0.568628
0.593662
0.550747
0.647902
0.586510
0.563860
0.667572
0.741482
0.904799
0.684857
0.839829
0.791550
0.828505
0.821948
0.814795
0.818968
0.777841
0.639558
0.754595
0.815988
0.847578
0.771880
0.931621
0.825524
0.833869
0.921488
0.905991
1.239777
0.975728
1.059771
0.954866
1.125932
0.982881
1.039505
1.107454
1.356602
1.636744
1.386404
1.987815
5.345941
26.891828
67.146420
173.859596
286.716819
473.033786
634.119511
811.154842
890.088677
884.038806
798.366666
612.340569
449.327826
249.700546
142.449737
61.481595
28.823614
10.886788
8.084774
8.731484
11.604428
17.022491
25.178790
40.645599
54.614544
71.724653
84.499717
95.221996
96.116662
90.644956
79.443455
61.546564
47.331452
31.080842
21.469593
13.229847
9.156466
5.969405
5.152822
4.708767
4.602671
4.658699
4.336834
4.359484
4.385710
4.246831
4.199743
4.150867
4.461408
4.311800
4.475713
4.121661
4.296899
4.179478
##ZVALUE=325
0.622869
0.647902
0.573993
0.587702
0.684857
0.521541
0.503659
0.557899
0.551939
0.681877
0.711679
0.528693
0.605583
0.766516
0.529885
0.704527
0.674725
0.860691
0.723600
0.631809
0.701547
0.757575
0.734925
0.807643
0.706911
0.665784
0.685453
0.749826
0.869632
0.862479
0.728965
0.911951
0.911951
1.139641
1.129508
0.987649
1.029968
1.140833
1.192689
1.224875
1.322627
1.276731
1.460910
1.563430
3.432631
12.699962
48.760772
102.034807
225.983858
365.476608
577.183962
713.379979
851.367712
878.316760
805.428028
682.874918
469.073653
325.202942
175.247788
95.534921
36.319494
15.944839
7.754564
7.097721
7.527471
9.980798
15.944839
23.443699
38.522482
52.055717
71.395636
80.308914
90.343952
90.645552
84.044933
74.042678
57.594776
43.908954
28.601885
19.434690
11.554956
8.031726
6.004572
4.770756
4.305840
4.064441
4.300475
4.057884
4.264712
4.107952
4.039407
4.201531
4.011989
3.907681
4.114509
4.035830
##ZVALUE=330
0.521541
0.544786
0.557899
0.497699
0.568628
0.576973
0.579953
0.631809
0.637770
0.541806
0.646710
0.673532
0.662804
0.658631
0.764728
0.724792
0.594854
0.668764
0.562668
0.574589
0.644922
0.715852
0.692606
0.750422
0.839829
0.692606
0.981688
0.817776
0.977516
0.915527
0.752807
0.726581
0.818968
0.828505
0.772476
0.913739
0.712872
0.936985
0.900626
1.108646
0.960827
1.040697
1.044869
1.258850
1.317859
1.454949
1.866817
7.463694
23.376942
77.572465
149.775743
300.592780
443.820953
644.737482
769.696832
854.449868
827.986598
704.118609
563.579798
364.500880
234.407783
111.235976
56.560636
20.348430
9.610653
6.423593
6.336570
6.889701
9.008646
14.968514
22.039413
34.671426
47.108531
64.265728
75.427890
82.844496
83.772540
77.430606
68.290830
53.103566
40.943623
26.471615
19.061565
11.848807
8.367896
5.959868
4.865527
3.927946
4.055500
3.866553
3.642440
3.787875
3.911853
3.804564
3.806949
3.712773
##ZVALUE=335
0.416636
0.488758
0.462532
0.492930
0.624657
0.535846
0.569820
0.681877
0.536442
0.680685
0.436902
0.524521
0.494719
0.550747
0.496507
0.587702
0.604987
0.627637
0.512600
0.654459
0.672936
0.591874
0.656843
0.698566
0.510812
0.489950
0.762939
0.614524
0.655651
0.714660
0.665784
0.815988
0.676513
0.816584
0.780821
0.812411
0.705719
1.007915
0.813603
0.867844
0.909567
0.910759
1.073480
0.982881
1.084805
1.118779
1.216531
1.322627
1.482964
3.485680
12.205839
47.745705
99.882483
221.820474
356.356502
560.776591
700.244904
812.720656
830.155611
742.942691
622.270703
429.280996
289.222002
150.190592
78.884959
27.286410
11.773705
6.637573
5.632639
5.562901
6.621480
9.024739
12.756586
22.501945
31.560659
47.395825
59.348941
71.362853
77.061653
78.524947
73.201656
62.261820
51.632524
38.834810
28.910637
18.270612
12.634993
8.182526
6.140471
4.753470
4.129410
3.958941
3.799796
3.643632
3.755689
3.884435
##ZVALUE=340
0.543594
0.587702
0.585914
0.513792
0.560880
0.569820
0.807643
0.432730
0.433922
0.487566
0.463724
0.557899
0.683665
0.483990
0.521541
0.614524
0.586510
0.606775
0.596642
0.725985
0.638962
0.736713
0.543594
0.601411
0.728965
0.692606
0.658631
0.728965
0.680685
0.695586
0.632405
0.537634
0.651479
0.628829
0.668764
0.748634
0.717640
0.803471
1.023412
0.813603
0.840425
0.889897
1.046658
1.018643
0.894666
1.012683
1.068711
1.151562
1.220703
1.227856
1.416802
2.159476
5.588531
28.595924
69.464445
171.268582
288.362503
473.941565
611.968637
756.600499
802.970529
766.406655
670.138597
493.310690
347.842574
180.950761
101.056695
40.939450
17.258525
6.621480
5.666614
5.247593
5.356669
6.381869
8.324981
13.663769
20.132661
31.606555
42.248964
56.631565
66.177845
72.937608
73.578954
68.879724
61.322451
48.805475
38.415790
26.606917
19.165874
12.342930
8.475780
5.521774
4.477501
3.855824
3.782511
3.412962
##ZVALUE=345
0.656843
0.748634
0.661612
0.575781
0.567436
0.707507
0.743866
0.633597
0.669956
0.553727
0.726581
0.809431
0.829697
0.694990
0.629425
0.706911
0.741482
0.570416
0.685453
0.706911
0.741482
0.727773
0.715852
0.788569
0.757575
0.757575
0.877976
0.784993
0.807643
0.839829
0.522733
0.760555
0.772476
0.887513
0.811815
0.894666
1.038909
0.969768
1.068711
0.964999
1.065731
1.088977
0.839829
1.081824
0.947714
0.928640
1.080632
1.023412
1.103878
1.056790
1.239777
1.208782
1.331568
1.577735
2.922416
16.124845
43.780804
115.973949
206.188560
376.500487
513.818860
678.796768
762.170553
770.999789
706.185699
544.758439
403.948426
240.852833
135.213733
53.890944
25.282502
9.347796
5.912781
5.329847
5.166531
5.062819
5.521774
7.916689
11.331439
18.953681
27.556419
40.633678
49.562454
59.697628
65.548420
67.337751
64.301491
56.834817
48.610568
37.059784
27.960539
17.900467
12.543797
7.919669
6.120801
4.595518
##ZVALUE=350
0.677705
0.714660
0.556707
0.613928
0.742674
0.655651
0.437498
0.672936
0.735521
0.629425
0.464916
0.707507
0.590682
0.527501
0.594854
0.734925
0.791550
0.788569
0.765920
0.639558
0.809431
0.826716
0.795722
0.782609
0.751615
0.698566
0.724792
0.620484
0.789762
0.767708
0.705719
0.763535
0.927448
0.621676
0.817776
0.838637
0.918508
0.954866
0.956655
0.816584
1.017451
1.068711
0.913739
0.916719
1.032948
0.931621
0.870824
0.884533
1.116991
1.129508
0.930429
1.165867
1.184940
1.385808
1.361966
1.477599
2.013445
8.008480
25.056601
77.607632
147.780776
291.752815
422.506928
592.504740
695.883632
756.914020
720.373988
595.461726
459.045768
273.227692
168.069005
76.758862
36.215782
11.465549
6.458759
5.052686
5.014539
4.699826
4.457831
5.217791
6.876588
11.296868
16.094446
24.871826
33.070445
44.318438
52.188635
59.549809
61.593652
60.175657
54.594874
44.575930
35.983920
25.097728
18.769503
11.960864
##ZVALUE=355
0.599623
0.645518
0.563860
0.496507
0.604987
0.526905
0.646710
0.567436
0.558496
0.444651
0.656843
0.563860
0.650883
0.702739
0.603795
0.686646
0.516772
0.815988
0.741482
0.560880
0.543594
0.698566
0.610948
0.691414
0.619888
0.558496
0.707507
0.697970
0.708699
0.641942
0.523925
0.656843
0.791550
0.695586
0.780821
0.748634
0.753999
0.784993
0.551939
0.732541
0.743866
0.869632
0.727773
0.762939
0.764728
0.846982
0.868440
0.901818
0.939965
0.892878
0.775456
0.992417
1.131892
1.163483
1.102686
1.258850
1.145601
1.356602
1.407862
4.054904
13.248920
50.577521
103.177428
215.051770
337.799788
522.295833
636.308789
723.875761
721.309781
619.626641
502.417684
335.274935
212.918520
95.499754
45.816898
14.812946
7.025599
5.021691
4.582405
4.115701
4.243851
4.338622
4.723668
6.353855
9.096861
14.318824
20.636916
30.425787
37.992001
46.834946
53.085685
56.267977
54.640770
49.068928
42.264462
33.408999
##ZVALUE=360
0.425577
0.528693
0.510812
0.582933
0.414848
0.472665
0.448823
0.502467
0.713468
0.489950
0.485778
0.424981
0.500679
0.682473
0.784993
0.652671
0.596642
0.675917
0.447631
0.500679
0.580549
0.608563
0.429749
0.593662
0.654459
0.638962
0.433922
0.631809
0.566840
0.523925
0.626445
0.627637
0.639558
0.712872
0.653863
0.637770
0.645518
0.687838
0.602603
0.583529
0.686646
0.738502
0.690818
0.803471
0.839829
0.767708
0.854731
0.761747
1.036525
1.035929
0.966787
0.900626
0.925660
0.888705
0.838637
0.967979
0.964999
1.047850
1.095533
1.295805
1.385808
1.958609
5.742908
26.149750
63.331723
156.402588
259.276628
418.486595
550.591946
675.132871
707.272887
656.086802
557.963848
382.452011
256.532431
125.882626
65.034628
23.847818
9.985566
5.099773
4.630685
4.160404
3.957748
3.858805
3.769994
4.156828
5.019903
7.542968
10.253787
16.868711
23.338795
33.220649
39.760470
47.525764
50.207973
50.267577
##ZVALUE=365
0.546575
0.628829
0.502467
0.441670
0.624657
0.448823
0.490546
0.491738
0.548959
0.541806
0.618696
0.539422
0.618696
0.519753
0.549555
0.535846
0.552535
0.419617
0.535846
0.569820
0.662804
0.636578
0.603795
0.590682
0.661612
0.574589
0.646710
0.647902
0.606775
0.629425
0.478625
0.713468
0.726581
0.591874
0.613928
0.785589
0.645518
0.752807
0.719428
0.794530
0.656843
0.681877
0.660419
0.628829
0.720620
0.794530
0.685453
0.939965
0.747442
0.723600
0.667572
0.877976
0.895858
0.998974
0.887513
0.971556
1.115799
0.921488
1.023412
1.064539
1.125932
1.272559
1.358986
1.473427
2.757907
14.601946
38.650632
101.604462
186.995864
346.193910
472.431779
611.011982
677.379966
669.626594
589.851737
434.593558
310.176611
171.376467
92.996955
34.160614
14.309883
5.505681
4.418492
4.100800
3.818870
3.732443
3.777742
3.434420
3.522635
4.524589
5.845428
9.554625
13.787746
21.116734
28.149486
35.947561
##ZVALUE=370
0.591874
0.460744
0.368953
0.468493
0.481606
0.470877
0.526905
0.536442
0.479817
0.420809
0.441670
0.544786
0.512600
0.576973
0.565648
0.480413
0.421405
0.399947
0.357628
0.436902
0.517964
0.408888
0.547767
0.512600
0.657439
0.545979
0.711679
0.475645
0.454783
0.616908
0.526905
0.522733
0.456572
0.565648
0.717640
0.503659
0.598431
0.621676
0.590682
0.563860
0.597835
0.389814
0.560880
0.533462
0.664592
0.643730
0.875592
0.677705
0.656843
0.861883
0.526905
0.642538
0.816584
0.780821
0.789762
0.734925
0.707507
0.727773
0.802875
0.729561
0.946522
0.830889
0.828505
1.012683
1.165867
1.198649
1.868606
7.144809
23.656487
76.037645
143.875480
275.814533
402.329564
565.611720
647.357702
670.838952
618.509650
487.684011
364.593863
205.072761
115.612745
46.174526
21.317601
7.768869
4.616976
3.968477
3.634691
3.555417
3.354549
3.168583
3.016591
3.095865
3.718734
5.251765
7.770658
12.171865
##ZVALUE=375
0.430942
0.283718
0.373721
0.563860
0.398755
0.605583
0.315905
0.519753
0.447631
0.515580
0.441670
0.457764
0.561476
0.474453
0.537634
0.398755
0.557899
0.520945
0.373721
0.545979
0.464916
0.500679
0.443459
0.460744
0.480413
0.506639
0.563860
0.579953
0.594854
0.617504
0.777841
0.725985
0.565648
0.687838
0.864863
0.710487
0.923872
0.914931
0.732541
0.677705
0.796914
0.753999
0.763535
0.755787
0.706911
0.752807
0.881553
0.790954
0.759959
0.660419
0.757575
0.605583
0.673532
0.733733
0.670552
0.722408
0.730753
0.759959
0.892878
0.800490
0.737906
0.711679
0.899434
0.831485
1.070499
1.061559
1.068711
1.284480
1.383424
3.899932
12.718439
45.468807
96.581578
214.352608
333.187580
499.897003
600.409508
664.810538
649.811029
541.401505
419.248939
257.261395
162.733793
79.999566
40.509701
13.256669
5.791783
4.086494
3.398657
3.386736
3.409982
3.011823
2.935529
2.812743
2.852678
3.349781
##ZVALUE=380
0.479817
0.515580
0.432730
0.395775
0.566840
0.562668
0.528693
0.528693
0.381470
0.348687
0.485778
0.587702
0.445843
0.428557
0.382662
0.402927
0.569820
0.585914
0.502467
0.521541
0.562668
0.497699
0.562668
0.554919
0.558496
0.561476
0.664592
0.626445
0.899434
0.918508
0.995994
0.973940
1.139641
1.066923
1.274943
1.202822
1.165867
1.147985
1.138449
1.010895
1.052618
1.117587
0.955462
0.962615
0.932813
1.020432
1.098514
0.893474
0.955462
0.899434
0.865459
0.887513
0.862479
0.908971
0.889897
0.901818
0.661612
0.884533
0.802875
0.791550
0.793934
0.810623
0.912547
0.936985
0.894666
0.907779
1.017451
1.218915
1.135468
1.323819
1.361966
2.301931
7.069707
32.214522
74.384809
172.005892
277.486444
431.874990
547.214746
647.555590
654.410720
578.091741
472.754836
320.698619
214.045644
106.206536
54.755807
19.269586
8.385777
3.991723
3.498793
3.183484
3.146529
2.779961
2.935529
3.047585
##ZVALUE=385
0.445843
0.493526
0.464916
0.431538
0.472665
0.544786
0.457764
0.576973
0.516772
0.737906
0.608563
0.567436
0.515580
0.585914
0.544786
0.549555
0.474453
0.395775
0.730753
0.461936
0.413656
0.429749
0.409484
0.709891
0.419617
0.611544
0.796914
0.968575
1.082420
1.147985
1.404881
1.527667
1.752973
1.702905
1.728535
1.723766
1.949668
1.910925
1.806617
1.737475
1.827478
1.759529
1.633763
1.676679
1.449585
1.406670
1.461506
1.288652
1.366735
1.184940
1.133680
0.964999
1.093745
1.165867
1.225471
1.056790
1.031756
0.973940
0.959635
0.997782
1.029968
0.829697
0.960827
0.937581
1.012683
1.044869
1.038909
1.042485
1.131892
1.214743
1.270771
1.134872
1.208782
1.682639
3.649592
18.442869
47.002435
118.553638
208.591819
364.070535
484.683514
608.560443
648.663640
610.644817
536.300540
392.838717
282.440782
164.402723
91.874003
34.337640
13.895631
4.817843
3.394485
3.093481
3.106594
3.066659
##ZVALUE=390
0.510812
0.569820
0.561476
0.569820
0.583529
0.551939
0.455976
0.525713
0.375509
0.432730
0.408888
0.592470
0.535846
0.331998
0.424981
0.617504
0.568628
0.513792
0.409484
0.620484
0.575781
0.558496
0.653863
0.550747
0.689626
0.876784
0.979900
1.209974
1.554489
1.700521
1.905560
2.144575
2.537966
2.626777
2.935529
2.962947
2.781749
2.829432
2.931952
2.871752
2.646446
2.558827
2.476573
2.176762
2.273917
2.204776
1.878738
1.855493
1.580715
1.723766
1.529455
1.560450
1.719594
1.487732
1.408458
1.261830
1.258850
1.185536
1.235604
1.101494
1.043677
1.112819
1.007915
0.970960
0.850558
0.874996
1.006722
1.036525
0.991821
1.042485
1.199841
1.349449
1.075864
1.272559
1.321435
1.325607
1.987815
9.441972
27.975440
85.361004
161.181688
304.644704
423.584580
561.089516
626.521707
642.662644
592.044592
468.117595
357.014537
217.130780
126.709938
51.214695
24.157763
7.934570
4.054904
3.233552
##ZVALUE=395
0.550747
0.458956
0.428557
0.483990
0.267625
0.385642
0.419617
0.389814
0.489950
0.430942
0.479817
0.513792
0.482798
0.575781
0.495911
0.485778
0.523925
0.511408
0.500679
0.555515
0.379682
0.516772
0.501871
0.441670
0.627637
0.706911
1.247525
1.433492
1.862645
2.256632
2.315640
3.000498
3.135800
3.509521
3.635883
3.924966
3.619790
3.784895
3.692508
3.504753
3.351569
3.288984
3.298521
2.843738
2.823472
2.623796
2.382994
2.141595
2.443790
2.024770
1.818538
1.909733
1.776814
1.540780
1.678467
1.456738
1.331568
1.145601
1.276731
1.161695
1.314878
1.111627
1.307726
1.037717
1.089573
1.050830
1.059771
1.074672
0.964999
1.008511
1.159906
1.136661
1.030564
0.963807
1.158714
0.972748
1.102686
1.239777
1.438856
5.059838
17.564893
61.479807
121.208429
239.322782
351.067781
506.491661
597.210526
652.870536
635.159612
540.672541
425.402522
262.903571
166.924000
78.159571
37.248731
12.409687
##ZVALUE=400
0.609756
0.742674
0.612736
0.520945
0.460744
0.372529
0.414848
0.370741
0.436902
0.527501
0.490546
0.384450
0.536442
0.555515
0.514984
0.655651
0.455976
0.494719
0.537634
0.523925
0.524521
0.409484
0.453591
0.559688
0.600815
0.822544
1.022816
1.417994
1.875758
2.329946
2.939701
3.105998
3.562570
3.829598
4.082918
4.119873
4.201531
4.152656
4.307628
4.022717
3.930926
3.727674
3.406405
3.303885
2.935529
2.977848
2.588630
2.462864
2.319813
2.297759
1.996756
1.943707
1.775622
1.590848
1.675487
1.673698
1.367927
1.408458
1.337528
1.331568
1.204610
1.045465
1.147985
1.124740
1.049638
1.051426
1.023412
1.141429
1.219511
1.042485
1.112819
1.245737
1.094937
1.120567
0.862479
1.007915
1.078844
1.148582
1.145601
1.219511
1.456738
2.411604
10.812879
30.600429
86.160898
158.482790
294.630527
408.648849
548.914671
615.716577
627.534986
574.112535
446.060896
330.812931
189.737678
113.692880
##END
