##TITLE=DWF30
##FORMAT=SPECTACLE-ASCII V-1.2
##DATA TYPE=ULTRAVIOLET SPECTRUM
##SECOND TYPE=ULTRAVIOLET SPECTRUM
##DATE=12/19/17
##TIME=15:58:36
##SPECTROMETER/DATA SYSTEM=SPECTACLE
##XUNITS=NM EM
##YUNITS=ENERGY
##YFACTOR=1
##FIRSTX=220
##LASTX=410
##NPOINTS=96
##3DDATA=Equidistant
##ZUNITS=NM EX
##FIRSTZ=210
##LASTZ=400
##ZPOINTS=39
##XYDATA=(Y..Y)
##ZVALUE=210
16.580820
17.584562
12.709498
11.968613
11.460781
9.334683
9.305477
8.424520
7.009506
5.401969
4.066825
2.806783
2.523661
2.484918
2.720952
2.312660
2.680421
3.008842
2.713799
3.040433
3.173947
3.447533
4.351735
4.153848
5.301833
5.782843
8.294582
9.667873
12.810826
15.706420
17.116666
21.560788
21.577477
23.823977
25.848746
25.595427
26.436448
25.917888
26.011467
26.735663
22.655725
22.737980
23.133755
21.967888
22.437572
18.940568
18.171668
17.979741
17.874837
16.401410
16.629696
16.407967
15.687943
13.574958
14.433861
12.756586
13.292432
12.515783
11.546612
11.884570
12.023449
11.004806
10.415912
10.317564
9.959936
9.537935
9.406805
10.442734
10.836720
12.459755
11.900663
13.671517
14.825463
17.013550
19.500852
18.485785
20.106435
20.422935
18.653870
17.809868
17.798543
14.103651
13.334751
11.802912
10.096431
8.640885
7.270575
7.451773
7.359982
8.778572
11.212826
13.918877
18.069744
23.901463
29.120445
35.673976
##ZVALUE=215
42.642951
44.640899
35.427809
28.905869
22.703409
19.569993
16.039610
16.495585
15.289783
13.283491
12.522936
10.320544
7.237792
5.145669
3.714561
3.244877
3.234744
3.032684
3.006458
3.223419
3.301501
3.383756
3.657937
4.369617
5.943775
5.492568
8.092523
10.321736
15.292764
17.704964
19.192696
23.190975
25.801659
30.346513
27.434826
31.574965
29.428601
30.851960
31.115413
30.496716
30.005574
26.669502
25.492907
24.698973
24.595857
24.000406
19.915700
19.852519
18.974543
21.125674
19.556880
17.055869
16.267896
16.365647
15.989542
15.226603
14.783740
15.563965
13.874769
12.198687
13.292432
12.983680
13.669729
11.677742
12.725592
11.057854
12.440681
10.980964
11.980534
12.065768
12.961626
12.867451
13.857484
14.551878
15.667677
16.489625
16.998649
15.700459
15.527606
14.235973
14.430881
11.286736
9.844899
9.778738
9.007454
6.907582
7.158518
5.924702
5.291700
5.278587
5.892515
5.532503
5.603433
6.753802
9.022951
11.441708
##ZVALUE=220
86.935759
85.682869
83.971620
73.074698
61.627626
48.816800
38.866997
29.504895
26.516914
24.073720
24.281740
23.043752
20.869970
17.531514
13.619661
10.691881
7.262826
5.238652
4.348755
3.582835
3.014803
3.332496
3.109574
3.741980
4.723668
6.973743
8.624792
13.689995
14.326572
19.436479
23.956895
26.245713
30.404925
33.625960
33.300519
38.287640
36.525726
38.137436
36.923885
35.146475
35.171509
34.758449
32.802820
29.037595
28.516650
26.920438
24.506450
23.434758
22.601485
20.554662
19.983649
19.568801
20.546913
19.145608
17.432570
17.646551
18.678904
17.838478
16.605854
14.929771
14.954805
14.967918
15.339851
14.947653
12.084842
12.681484
13.735890
12.506843
12.081861
12.697577
13.796687
13.322830
13.832450
15.548468
15.459657
14.914870
14.034510
15.075803
13.395548
13.509989
12.480617
11.257529
10.452867
8.697510
9.219646
7.690787
7.004738
6.057620
6.237626
6.323457
6.225705
5.376935
4.994869
5.023479
6.074905
4.902482
##ZVALUE=225
104.835629
103.975534
124.315619
135.255456
139.942765
124.339461
105.886459
83.043575
58.146715
50.540566
40.524602
35.540462
38.626790
38.321614
37.090778
33.519864
26.845932
19.211769
15.595555
8.452535
6.543994
4.214644
4.255772
3.980994
5.432963
6.927848
8.501410
12.208819
15.778542
16.726851
22.038817
26.851892
28.984547
31.832457
35.042763
35.014749
37.865639
39.277673
35.507679
36.867857
35.361648
34.009814
35.565495
31.264424
30.812621
26.990771
26.299953
26.839972
24.100542
23.800731
23.792982
23.056865
21.649599
21.750927
20.294785
21.388531
20.569563
21.757483
19.143820
19.212961
18.847585
16.681552
16.515851
15.983582
15.169978
14.225841
15.991926
13.603568
15.396476
14.984608
13.564825
13.919473
13.354421
14.983416
13.655424
15.947819
14.305711
12.775660
12.365580
11.226535
11.029840
10.255575
10.173917
8.566976
8.940697
7.134676
8.875728
6.522536
6.812811
6.494522
6.385446
6.344914
5.948544
7.083416
6.358624
6.510615
##ZVALUE=230
68.447590
76.357722
112.339854
162.928700
198.126435
231.370926
243.663788
230.360627
201.461911
150.520802
113.568902
81.524849
64.930916
57.044625
54.127574
61.994791
62.296987
58.411956
50.927997
40.075779
30.494928
20.567775
12.399554
7.864833
6.525517
5.978942
6.527901
9.246469
12.717843
15.068650
16.351938
21.050572
21.125674
24.478436
26.004910
27.238727
28.860569
26.882887
25.800467
26.509762
26.259422
25.219917
24.350882
24.191737
24.898648
22.172928
21.363497
20.614862
20.432472
19.557476
20.288825
20.986795
20.930767
20.097494
19.381642
21.503568
19.413829
21.217465
19.413829
21.099448
18.530488
18.828511
19.921660
19.672513
17.674565
16.728640
17.757416
16.649961
16.830564
15.708804
16.390681
16.143918
15.909672
16.514659
16.587973
15.949607
15.964508
14.335513
13.656616
11.782646
12.254715
11.489987
10.246634
9.522438
9.412766
8.960962
7.921457
8.068681
7.954836
7.154942
7.970929
6.649494
7.503629
6.942749
6.185770
6.315708
##ZVALUE=235
20.622611
21.314621
45.882463
94.074607
148.705840
218.535662
277.709961
344.731808
370.398760
357.186794
317.622423
255.264640
175.897479
127.286911
97.345710
83.489418
79.051852
87.071657
89.611411
89.252591
81.183910
67.387819
52.681565
38.247705
28.319955
16.524792
11.550784
8.224845
8.975863
10.060668
11.796951
13.013482
10.991693
14.078617
15.009642
16.665459
17.576814
17.103553
17.658472
17.950535
16.676784
16.759634
15.801787
18.211603
16.457438
15.156865
15.375614
14.963746
14.394522
14.727712
15.516877
15.685558
16.476512
16.763806
17.023683
16.282797
16.944408
16.913414
17.851591
18.100739
18.416643
16.491413
17.121434
17.835498
16.799569
16.733408
15.350580
15.795827
15.217662
14.902949
15.473962
15.658736
16.299486
16.708970
16.206503
15.210509
14.882684
15.349984
13.696551
14.388561
12.997985
12.801886
11.814833
11.079907
9.813905
8.809566
9.493828
9.232759
9.231567
8.053780
8.488894
7.793903
7.020831
6.923676
7.716417
7.936954
##ZVALUE=240
1.996756
2.274513
7.020831
17.280579
48.091412
86.999536
166.874528
248.815417
362.733603
434.494019
482.378602
489.721894
447.454453
359.954834
277.587771
179.428458
136.363506
100.079775
95.862746
100.826621
112.800002
115.612745
112.371445
97.862482
80.293417
65.842867
45.767426
32.516718
20.108819
14.798641
10.729432
10.851622
10.742545
10.414720
10.462999
10.723472
10.914803
11.124611
13.042688
10.749698
12.070537
12.333989
12.561679
11.441708
11.866689
11.714697
12.662411
11.047721
11.359453
12.131929
12.497902
11.879802
12.012720
14.144778
12.195706
13.067722
13.319850
12.603998
12.875795
13.211966
13.330579
12.378693
11.859536
12.623668
12.823939
12.539625
12.971759
12.719631
12.180805
12.612939
14.133453
13.585687
13.990998
14.187694
14.327765
14.844537
14.688969
13.334751
12.828708
13.296604
11.903644
12.656450
10.569692
10.853410
9.728670
10.386705
10.007620
10.724664
8.173585
8.632541
8.769631
7.923841
7.845759
7.719994
7.900596
6.638765
##ZVALUE=245
1.722574
1.224875
1.826882
1.649857
3.087521
13.831854
32.330751
81.989765
149.618983
230.913758
366.312861
457.046628
537.270904
555.159450
522.288680
462.619662
345.376730
256.259441
186.161995
121.413469
95.667839
97.020864
108.075738
124.843717
127.828717
117.306709
111.227632
90.299845
74.567795
50.506592
38.278699
23.276806
17.472506
13.156533
12.249947
11.743903
12.061000
12.469888
10.837913
11.368990
11.996627
12.302995
11.692643
10.915995
11.059642
11.464953
11.473894
11.393428
11.519790
10.004640
10.413527
10.915995
10.739565
10.400414
11.190772
11.021495
11.464953
11.106730
11.615753
10.713935
10.030866
10.111928
11.036992
10.665655
10.755658
10.487437
11.499524
10.076761
10.516644
11.016726
10.981560
11.115670
11.688471
11.669993
12.675524
11.848807
11.791587
11.221766
10.483861
10.038614
10.406971
10.873675
9.209514
8.303523
8.421540
8.060932
7.898808
7.786751
8.090734
7.674694
8.180737
6.623864
7.767677
7.577538
7.284880
7.189512
##ZVALUE=250
1.155734
1.386404
0.952482
1.400709
1.322627
1.444817
2.341866
6.296635
25.400519
57.771802
137.059689
226.069689
336.992741
469.604731
559.028983
624.927878
623.262525
559.230447
468.461514
329.084992
231.460929
152.051449
100.660920
91.114640
99.637508
114.179850
130.669475
134.168863
130.313635
117.653608
103.506446
80.573559
61.366558
40.082932
30.248761
21.261573
18.063784
15.588999
15.126467
14.747977
15.408993
15.715957
14.337897
14.117956
13.944507
13.771653
12.391806
13.316870
11.686683
12.943745
12.915730
11.976957
11.176467
11.637807
11.305809
10.946989
10.559559
10.772943
11.320710
11.165738
10.247827
10.582805
9.659529
10.192990
9.799600
9.622574
9.630919
10.248423
9.551644
11.201501
9.603500
10.339618
10.058880
10.732412
10.915995
9.889603
10.626912
8.966923
9.628534
9.825826
8.929968
8.063912
7.692575
7.880926
7.318854
6.921887
6.860495
7.300973
6.502867
7.142425
6.353855
6.058812
6.598830
6.415844
6.831884
6.237626
##ZVALUE=255
1.252890
1.307726
1.247525
0.942945
1.303554
1.147985
1.335740
1.837611
1.462698
3.703833
18.315911
44.170618
90.655684
191.143751
295.632482
457.504988
561.079979
672.525764
705.161691
661.884546
585.097671
458.079576
295.780897
189.459920
108.127594
86.616874
86.188912
102.964640
124.952793
140.728951
147.522688
146.161914
135.196447
110.724568
91.434717
67.538619
50.362945
34.702420
28.164983
23.219585
20.423532
21.000504
18.870831
19.114614
19.185543
16.882420
17.144680
16.502738
15.402436
14.911890
15.206933
13.819933
15.299916
12.832880
13.363957
13.061762
11.610985
12.032986
12.166500
11.725426
12.077689
10.739565
11.096597
10.328889
10.306835
10.125637
9.458661
10.109544
9.985566
9.172559
9.906888
10.401607
10.162592
9.895563
9.790659
9.872913
9.733438
8.845925
8.460879
7.994771
7.791519
7.592440
7.491708
7.126927
6.767511
6.888509
6.416440
5.915761
5.740523
6.358624
5.857944
5.495548
5.592704
5.404949
5.360842
5.209446
##ZVALUE=260
1.136661
1.024604
1.150966
1.227856
1.406670
1.067519
1.379848
1.078844
1.438856
1.348853
1.664758
2.339482
7.681847
31.355619
63.849688
151.058435
241.001844
407.676697
540.442467
699.026585
775.823593
789.365768
704.013705
587.045550
403.534770
279.769897
164.652467
108.718872
82.200766
86.080432
110.336542
130.761862
152.234435
160.891414
159.866810
145.305991
130.162835
96.609592
79.760551
57.865977
44.513941
34.559965
27.505755
25.288463
25.649667
23.659468
22.502542
21.108985
21.279454
19.682646
18.684864
18.011928
17.388463
16.885996
16.203523
15.718937
15.912652
15.327930
14.339685
14.197826
13.708472
13.345480
13.454556
13.090968
11.577606
11.160970
11.243820
10.773540
10.232925
10.408759
10.232925
10.562539
10.335445
10.088682
9.407997
9.546876
9.314418
8.570552
8.053780
7.973909
7.241964
6.592870
6.384850
6.643534
6.581545
6.256700
5.912781
6.155968
5.720854
5.831718
5.572438
4.921556
4.574656
4.908442
4.947782
4.672408
##ZVALUE=265
1.180768
1.097918
0.796914
1.030564
1.097918
1.189709
1.202822
1.107454
1.211762
1.558661
1.152754
1.227856
1.700521
1.519918
4.136562
19.029975
47.042966
113.746524
200.376511
376.713872
530.013442
673.722625
827.102661
851.523876
786.659718
684.056878
513.265729
367.947817
215.975642
139.822960
95.668435
80.758929
94.712973
124.922991
147.031546
171.149969
175.726414
168.218613
157.209635
132.480860
106.959939
80.587864
62.559843
45.912862
35.355687
29.348731
26.409626
25.864840
24.513602
23.935437
21.873713
21.275878
21.804571
19.480586
18.789768
17.540455
17.361641
16.730428
15.910864
15.331507
15.720725
14.335513
13.976693
13.092756
12.957454
12.161732
11.617541
11.309981
11.196733
11.448860
10.628700
10.330677
10.569692
9.749532
9.592772
9.494424
9.773970
8.303523
8.042455
8.651614
7.893443
6.983876
6.828904
6.542802
5.848408
6.414652
6.111860
5.415678
5.147457
5.384684
5.282760
4.963875
4.802942
4.860759
4.594922
4.434586
##ZVALUE=270
1.066923
0.972748
0.805855
1.032948
0.877976
0.881553
0.870824
0.877976
1.140833
1.308918
1.075864
1.291633
1.292825
1.376867
1.587868
1.464486
1.777411
8.209944
25.376678
80.624819
157.133937
278.245807
479.822755
641.330481
825.919509
897.674561
892.311931
819.240808
656.217933
492.505431
348.513722
194.250941
123.132467
81.556439
82.364678
107.729435
128.203630
158.224702
170.437694
179.482698
172.480941
154.757500
134.579539
106.545687
81.705451
57.756901
47.074556
35.544634
29.823780
25.551915
24.446845
22.659898
21.457672
20.872951
20.068884
18.672943
18.370748
18.435717
17.668605
16.056895
15.534759
14.948845
14.950633
14.168620
13.637543
12.942553
13.021827
11.910796
11.470914
11.365414
11.144876
10.463595
10.377765
10.008812
10.143518
9.631515
9.521842
9.352565
8.472800
7.825494
7.231832
7.046461
6.924868
6.532669
5.898476
5.888939
5.884767
5.839467
5.346537
4.782677
5.276799
4.885793
5.113482
4.868507
4.371405
4.339814
##ZVALUE=275
0.993609
0.996590
0.861883
1.048446
1.037717
1.041889
1.108646
1.094937
1.092553
1.058578
1.036525
0.976920
1.188517
1.421571
1.392961
1.501441
1.452565
1.732707
1.807809
4.234910
15.548468
42.936802
125.503540
231.540799
427.098870
575.811863
752.630830
862.003565
923.301578
879.399776
784.126520
592.215657
426.535606
242.861509
151.900649
86.571574
68.575740
78.743696
98.465681
125.884414
144.160986
164.845586
168.190002
164.671540
147.606730
122.176409
102.001429
76.778531
57.492852
40.676594
31.713843
25.025606
22.292733
19.970536
18.847585
18.393993
18.260479
17.416477
16.630888
16.561747
15.859604
15.197992
14.647841
14.389753
13.667941
13.071895
12.634993
11.888742
11.851788
11.283755
11.046529
11.398792
10.575652
10.497570
10.273457
8.982420
9.568930
8.654594
8.119941
7.661581
7.584691
7.214546
6.709695
6.331801
6.227493
6.143451
6.207824
5.741715
5.229712
5.099773
5.110502
4.888773
4.578829
4.775524
4.590750
4.513860
##ZVALUE=280
0.656843
0.944734
0.721812
0.740886
0.905991
0.918508
0.812411
0.781417
0.827909
1.035929
0.911951
0.975728
1.063943
1.089573
1.075864
1.126528
1.154542
1.210570
1.300573
1.404881
1.706481
2.275705
7.950664
37.287474
86.693764
202.232599
321.531892
514.602661
664.084554
834.050775
909.714699
897.959471
815.404654
632.824898
478.096008
286.479592
176.591873
86.825490
58.646798
54.241419
66.102743
90.528727
112.478733
137.631893
148.722529
157.338977
150.421858
132.803917
115.169883
88.374615
70.322752
48.827529
36.077499
25.043488
19.634962
16.585588
15.727878
14.658570
14.420748
14.136434
14.295578
13.613701
13.694763
13.151765
13.241768
12.555718
11.843443
11.565685
11.111498
10.667443
10.418892
10.074973
10.093451
9.731650
9.195805
8.727908
9.083748
8.293986
7.711649
7.777810
6.698966
6.745458
6.806850
6.344914
6.080866
5.587935
5.241632
5.552769
5.037785
5.019903
4.848838
4.492998
4.605651
4.289746
4.779696
4.522800
##ZVALUE=285
0.691414
0.818968
0.641942
0.716448
0.604987
0.780821
0.792742
0.856519
0.810623
0.931621
0.941753
0.831485
1.010895
1.015663
0.970960
0.921488
0.887513
0.978708
1.083612
1.057982
1.361966
1.281500
1.692772
1.639724
4.543662
15.852451
54.441690
115.083456
249.161720
386.902690
586.815476
741.728544
870.321989
933.743715
889.878869
732.025504
578.222871
363.044739
231.739879
113.857985
63.155890
36.825538
38.148761
55.469871
73.896646
99.727511
118.978620
136.697888
142.855644
138.909817
129.109621
109.193921
89.540482
63.041449
45.973659
28.722882
21.448731
15.205741
13.541579
12.494922
12.276769
11.765957
11.430979
11.656880
11.017919
10.707974
9.877682
10.276437
10.247827
10.041595
10.070801
9.460449
9.033680
8.955598
9.144545
8.441806
8.190870
7.921457
7.490516
7.039905
6.607771
6.497502
6.386638
5.928874
5.690455
5.434752
5.245805
5.181432
5.353689
5.038977
4.853606
4.448891
4.368424
4.564524
4.596710
4.002452
##ZVALUE=290
0.864863
0.735521
0.740886
0.794530
0.797510
0.803471
0.812411
0.616908
0.681877
0.920892
0.914931
0.903606
0.874996
0.909567
0.994802
0.874996
0.988841
0.953674
1.030564
1.133680
1.166463
1.222491
1.191497
1.491904
1.417994
1.655817
2.326965
5.993843
29.990673
71.900487
140.888691
296.214819
447.914004
678.458810
819.289684
924.580693
925.430655
804.595947
669.435859
454.723835
300.159454
154.022574
83.674788
35.037994
26.120543
33.339858
45.678616
68.316460
88.733435
112.625957
127.973557
136.299729
135.592818
122.322440
105.685592
78.903437
60.098767
40.703416
28.650761
18.561482
14.480948
11.006594
9.834766
9.648800
9.315610
9.377599
9.056926
9.073615
8.652806
8.884668
8.740425
8.722544
8.295774
7.993579
7.820725
7.310510
7.122755
6.756783
6.379485
6.311536
6.093979
6.044507
5.354881
5.524755
5.610585
5.060434
4.886985
5.017519
4.909635
4.735589
4.473925
4.438758
4.513860
4.230738
4.181862
4.271865
##ZVALUE=295
0.835657
0.734925
0.806451
0.698566
0.715852
0.613928
0.758767
0.803471
0.712872
0.681877
0.580549
0.555515
0.709891
0.886917
0.750422
0.838637
0.965595
0.892878
1.033545
0.943542
0.993609
1.025796
0.976920
1.011491
1.215935
1.214743
1.335740
1.514554
1.672506
3.058910
10.845661
44.247508
99.691749
231.171846
372.782946
591.035485
748.289824
895.746946
934.248567
871.044993
751.546025
541.998744
378.073454
203.943849
111.791492
42.248964
23.631454
20.216703
27.058721
44.628978
60.312748
84.445477
103.456974
122.894645
128.597617
127.127767
118.270516
99.292994
80.095530
56.110620
41.245818
26.146770
17.743707
11.594892
9.750724
8.336902
8.082986
7.051826
7.072687
7.452965
7.422566
7.027984
6.641746
7.121563
6.887913
6.794930
6.278753
6.263852
6.141663
5.461574
5.387664
5.408525
5.258918
4.786849
4.959702
4.837513
4.602671
4.647970
4.305840
4.683733
4.229546
4.342794
4.181862
4.235506
3.783703
3.970861
##ZVALUE=300
0.506639
0.664592
0.721812
0.510812
0.640750
0.797510
0.612736
0.689626
0.641942
0.732541
0.732541
0.629425
0.735521
0.562668
0.789762
0.767708
0.755787
0.839829
0.697970
0.781417
0.857711
0.966787
1.032948
1.136661
1.030564
1.045465
1.173615
1.035929
1.263618
1.310706
1.603961
1.656413
6.554723
23.118854
77.243447
150.371790
307.179689
464.460850
681.688786
815.282464
916.903019
910.370946
796.699524
665.303469
446.982980
292.639732
148.000717
80.883503
32.021403
17.335415
17.767549
23.766756
39.002895
53.936839
77.856779
95.446706
114.762783
123.192668
121.156573
113.864541
94.203949
78.171492
55.677891
40.546656
25.064945
17.129779
11.203885
8.395910
7.063746
6.210804
6.187558
6.390810
6.230474
5.853772
5.865693
5.494952
5.531907
5.252957
5.020499
5.187988
5.068779
4.848838
4.760623
4.850626
4.468560
4.582405
4.423857
4.553795
4.090667
4.202724
4.187822
4.104972
4.164577
4.080534
3.930926
3.883839
##ZVALUE=305
0.684857
0.531673
0.531673
0.733733
0.666976
0.652671
0.681877
0.704527
0.632405
0.632405
0.721812
0.647902
0.743866
0.827909
0.779629
0.851750
0.849962
0.688434
0.755787
0.602603
0.793934
0.834465
0.858903
0.804663
0.970960
1.088977
0.878572
1.015663
1.048446
1.205802
1.507998
1.368523
1.562834
1.491904
2.707839
15.363693
42.893887
119.565725
215.502977
401.932597
561.572909
760.923028
871.607661
920.449495
865.646005
694.251657
541.988015
348.264575
219.355822
99.403858
50.767660
19.079447
13.129711
16.126633
23.200512
38.207769
53.257942
73.951483
91.075897
107.157826
115.213990
115.227699
107.655525
90.634823
72.379708
51.419735
37.732720
23.515821
16.005635
9.572506
7.278919
6.153584
5.930662
5.574822
5.455613
5.318522
5.011559
4.987717
5.100965
4.900694
4.753470
4.806519
4.565716
4.484653
4.553795
4.525781
4.012585
4.396439
4.195571
4.191995
3.971457
4.177690
3.963709
4.075766
3.866553
3.786683
##ZVALUE=310
0.696778
0.681877
0.702739
0.602603
0.684857
0.594854
0.841618
0.582933
0.719428
0.865459
0.716448
0.785589
0.787973
0.816584
0.702739
0.867844
0.780821
0.796914
0.674725
0.903606
0.874996
0.877976
0.835657
0.930429
0.979900
0.927448
0.878572
0.954866
0.841618
0.996590
1.036525
1.234412
1.279712
1.292825
1.525879
1.512766
1.944900
6.612539
21.480918
71.923733
142.670870
294.349790
456.003547
675.767660
813.729763
915.758610
910.580754
800.004005
666.859746
451.690555
304.118991
151.766539
82.418919
30.674934
14.798641
11.082888
13.947487
21.928549
30.942559
48.534870
63.584447
84.762573
97.602606
107.292533
108.778477
100.975633
88.311434
70.058703
53.198934
34.767985
23.611784
13.810992
9.457469
6.625652
5.844831
5.114675
4.933476
4.642606
4.568696
4.379749
4.147887
4.320741
4.157424
4.125834
4.388690
4.037619
4.389882
4.272461
4.337430
4.053712
4.160404
3.929734
4.095435
3.844500
4.028678
3.858805
##ZVALUE=315
0.625849
0.667572
0.675917
0.678897
0.730753
0.759959
0.678897
0.755787
0.777841
0.680685
0.706911
0.867844
0.690818
0.929832
0.681877
0.846982
0.961423
0.794530
0.792742
0.844598
0.844598
0.805855
0.738502
0.841618
0.912547
0.933409
0.946522
0.911951
1.155734
0.976920
1.104474
1.077652
1.193881
1.274943
1.281500
1.390576
1.500845
1.695752
1.634955
3.254414
11.082888
44.927001
101.216435
229.079723
367.321968
584.642887
734.987855
872.525573
912.166834
850.448012
733.239651
528.393984
374.890566
199.202895
110.178590
41.764975
18.758774
9.770989
9.692907
13.547540
18.772483
30.097961
42.325854
60.302615
76.758862
93.591809
100.556612
102.590919
96.471906
81.023574
67.148805
49.068928
35.567880
21.310449
14.545918
8.799434
6.538630
5.205870
4.426837
4.192591
4.199743
4.292727
4.195571
3.938675
4.338622
3.906488
4.054904
4.170537
3.937483
3.878474
3.893971
3.914833
3.758669
3.740788
3.708601
3.739595
##ZVALUE=320
0.518560
0.621676
0.474453
0.559688
0.700951
0.436902
0.617504
0.645518
0.604987
0.525713
0.666976
0.617504
0.665784
0.588894
0.588894
0.732541
0.559688
0.646710
0.908971
0.759959
0.796914
0.787973
0.715852
0.702739
0.577569
0.816584
0.723600
0.730753
0.819564
0.876784
0.999570
0.920892
0.984669
1.014471
1.102686
0.983477
1.209974
1.187921
1.177788
1.490712
1.583695
1.840591
6.006956
20.521879
71.027875
144.568682
291.693807
433.296561
644.368529
781.925917
892.347693
887.373686
776.774883
640.053749
432.681441
283.125639
133.569837
70.995688
27.283430
12.753606
8.100867
8.300543
10.928512
15.455484
25.684834
36.599636
53.879619
68.464875
86.118579
93.822479
94.916821
89.889765
78.247786
64.151883
45.965910
33.739805
20.594597
13.548732
8.070469
5.878806
4.365444
4.209876
4.062653
3.700852
3.589988
3.599524
3.640652
3.466606
3.411770
3.719926
3.529787
3.443956
3.575683
3.751516
3.536940
3.492832
##ZVALUE=325
0.608563
0.528693
0.479817
0.385642
0.578761
0.523925
0.621676
0.599623
0.583529
0.575781
0.674725
0.512600
0.595450
0.586510
0.505447
0.612736
0.508428
0.670552
0.573993
0.601411
0.712872
0.619888
0.795722
0.746846
0.639558
0.603795
0.656843
0.723600
0.720620
0.871420
0.748634
0.795722
0.872612
0.980496
0.880957
0.926852
0.998974
0.897646
1.032948
1.215935
1.341701
1.452565
1.583695
1.319647
2.877712
15.698671
42.336583
110.348463
202.332735
337.195992
547.657609
697.857738
842.757821
880.540609
807.821751
688.520670
484.937429
333.874822
172.305703
96.555948
37.430525
16.453862
7.834435
6.998777
7.619858
9.684563
15.130639
22.192597
37.558675
50.560832
67.671537
79.217553
88.446736
89.979768
83.678961
73.357821
57.042837
43.700933
28.318763
19.323826
11.261702
7.662773
5.385876
4.438758
3.739595
3.627539
3.485680
3.519654
3.430843
3.509521
3.463626
3.323555
3.560781
3.281832
3.238916
3.273487
##ZVALUE=330
0.537634
0.470877
0.659823
0.569820
0.673532
0.700951
0.610948
0.542998
0.621676
0.520945
0.641942
0.622869
0.494719
0.507832
0.711679
0.755787
0.643730
0.523925
0.643730
0.688434
0.623465
0.586510
0.514984
0.639558
0.636578
0.646710
0.502467
0.683665
0.646710
0.677705
0.795722
0.598431
0.668764
0.809431
0.882745
0.955462
0.928640
0.934601
0.898838
0.888705
1.085997
1.146793
1.144409
1.241565
1.293421
1.443624
1.802444
7.169843
22.430420
72.878003
142.006874
288.829803
428.743958
631.286502
761.637688
853.397846
834.454894
717.376471
579.204559
377.859473
244.842768
115.309954
57.628751
20.901561
9.513497
6.281734
5.996823
6.922483
8.902550
14.941692
21.556616
33.748746
45.810938
62.855482
74.126720
82.259774
83.810687
76.714754
67.795515
51.821470
40.100813
25.620461
18.338561
11.555552
8.164644
5.347729
4.272461
3.718734
3.542900
3.278852
3.147721
3.277659
3.124475
3.075600
3.047585
2.998710
##ZVALUE=335
0.445843
0.467896
0.452995
0.529885
0.501871
0.535846
0.647902
0.603795
0.592470
0.585914
0.619888
0.600815
0.496507
0.503659
0.492930
0.643730
0.653863
0.692606
0.501871
0.613928
0.446439
0.631809
0.715852
0.627637
0.487566
0.447631
0.603795
0.678897
0.596642
0.672936
0.687838
0.706911
0.817776
0.791550
0.862479
0.789762
0.898838
0.784993
0.972748
0.941753
0.926852
0.914931
0.886917
1.157522
1.162887
1.016855
1.267791
1.409650
1.479983
3.376603
11.161566
44.827461
94.697475
215.813518
350.068808
554.744601
694.044828
808.289647
829.374790
749.961734
629.404783
431.386828
294.582844
158.585906
84.287524
29.695630
12.848973
6.406903
5.540848
5.552769
6.205440
8.766651
12.523532
21.689534
30.918717
46.840906
58.889985
70.208907
76.804757
77.609420
72.376728
61.806440
50.677657
37.517548
27.947426
17.515421
12.165904
8.251667
5.571842
3.947616
3.649592
3.243685
3.169775
3.015995
3.130436
2.976656
##ZVALUE=340
0.508428
0.543594
0.535846
0.526905
0.474453
0.573993
0.387430
0.351667
0.602603
0.584722
0.521541
0.512600
0.638962
0.646710
0.669956
0.695586
0.486970
0.709891
0.544786
0.553727
0.565648
0.582933
0.581741
0.603795
0.601411
0.716448
0.826716
0.641942
0.628829
0.735521
0.606775
0.675917
0.762939
0.589490
0.747442
0.720620
0.732541
0.846982
0.872612
0.840425
0.969768
0.978708
0.793934
1.006722
0.927448
0.919700
1.154542
1.104474
1.159906
1.388788
1.351833
1.962781
5.544424
26.836991
66.438913
164.855719
279.230475
462.071896
602.682829
751.541853
803.120732
764.886737
670.552850
500.348806
354.800820
186.683536
104.423761
42.132735
16.840696
6.721616
5.684495
5.273819
5.205870
6.075501
8.052588
13.115406
19.488931
30.324459
40.986538
55.929422
65.806508
71.970820
72.136521
67.319870
60.684681
48.512816
38.282871
25.911927
18.899441
11.878610
7.658601
5.097985
3.947616
3.179908
3.074408
2.755523
##ZVALUE=345
0.449419
0.534654
0.457764
0.468493
0.452995
0.487566
0.507832
0.469685
0.683665
0.583529
0.673532
0.626445
0.567436
0.608563
0.596642
0.591874
0.501871
0.612736
0.441670
0.622869
0.479817
0.501871
0.562668
0.587702
0.605583
0.712872
0.610948
0.575781
0.609756
0.634789
0.656843
0.622869
0.673532
0.624657
0.653863
0.705719
0.638962
0.797510
0.629425
0.627637
0.823736
0.811815
0.691414
0.873804
0.799894
0.786781
0.975728
0.825524
0.941753
0.885725
0.978708
1.158714
1.294613
1.511574
2.876520
15.095472
41.496754
110.378861
197.469592
363.711715
503.996611
676.128864
759.670734
773.879886
713.178515
557.933450
414.968729
237.079859
135.678649
57.218671
25.563836
8.998513
5.873442
5.223751
4.810691
4.689693
5.335808
7.383823
10.449886
17.785430
26.582479
39.387941
49.268603
59.293509
64.281821
67.170858
64.761639
57.293773
48.257709
36.394000
27.905703
17.564893
12.232661
7.666945
5.305409
3.869534
##ZVALUE=350
0.458956
0.572801
0.433922
0.697970
0.445843
0.666976
0.569820
0.622869
0.496507
0.438690
0.522733
0.507832
0.472665
0.597835
0.525713
0.590682
0.502467
0.640750
0.612736
0.456572
0.632405
0.546575
0.575781
0.559688
0.509620
0.435710
0.569820
0.528693
0.637770
0.600815
0.771880
0.772476
0.622869
0.686646
0.680685
0.580549
0.755787
0.727773
0.747442
0.545979
0.640750
0.674725
0.897646
0.698566
0.724792
0.781417
0.693798
0.856519
0.957847
0.941753
0.933409
0.860691
1.010895
0.994802
1.179576
1.216531
1.691580
7.648468
23.994446
72.293878
139.509439
283.017755
412.515998
578.226447
686.889887
751.691461
719.903708
602.470636
464.353561
281.495452
172.864795
79.214573
37.233829
11.401772
6.104708
4.915595
4.565716
4.247427
4.102588
4.976988
6.231666
10.675788
15.515685
23.995638
31.717420
43.473840
51.293969
58.810711
61.102509
58.856606
53.980947
43.249726
35.316944
24.193525
17.848611
11.303425
##ZVALUE=355
0.569820
0.539422
0.555515
0.565648
0.621676
0.495911
0.590682
0.493526
0.594854
0.420809
0.594854
0.592470
0.524521
0.664592
0.390410
0.462532
0.426769
0.566840
0.553727
0.559688
0.599623
0.557899
0.685453
0.646710
0.650883
0.577569
0.501871
0.648499
0.489950
0.634789
0.494719
0.582933
0.565648
0.702739
0.681877
0.735521
0.609756
0.640750
0.682473
0.683665
0.644922
0.573993
0.786781
0.780821
0.683665
0.836849
0.692606
0.801682
0.758767
0.759959
0.834465
0.904799
0.945926
1.005530
0.991821
1.105666
1.145601
1.210570
1.483560
3.478527
12.550950
47.841668
96.765757
208.121538
328.238606
515.244603
629.974604
715.754032
718.462467
620.373487
503.640771
339.181423
216.692686
96.304417
47.179461
15.023947
6.960630
4.749894
4.435778
4.097819
3.952980
3.954768
4.534721
6.235838
8.650422
14.043450
19.809604
28.772950
36.596656
46.050549
51.663518
55.405498
54.584742
49.059987
42.922497
33.899546
##ZVALUE=360
0.562668
0.525713
0.488758
0.551939
0.417829
0.433922
0.510812
0.563860
0.518560
0.443459
0.518560
0.508428
0.669956
0.392795
0.580549
0.548959
0.496507
0.482798
0.549555
0.613928
0.463724
0.494719
0.543594
0.555515
0.615716
0.650883
0.700951
0.620484
0.490546
0.586510
0.546575
0.665784
0.694990
0.670552
0.689626
0.776649
0.798702
0.693798
0.817776
0.625849
0.761747
0.715852
0.773668
0.726581
0.715852
0.820756
0.747442
0.774860
0.865459
0.793934
0.794530
0.801682
0.842810
0.838637
0.895858
1.078844
0.936985
0.993609
1.100898
1.291633
1.301765
1.904964
5.500913
24.913549
59.013963
144.769549
248.049498
418.505669
545.459986
666.308999
704.391003
656.640530
563.814044
387.953520
261.543989
127.093792
67.170858
24.862885
10.198951
4.747510
4.287958
3.982782
3.859997
3.730655
3.469586
3.828406
4.855990
7.215738
10.285974
16.681552
22.557974
32.665730
38.976669
46.355724
49.420595
50.061941
##ZVALUE=365
0.380874
0.484586
0.398755
0.461936
0.494719
0.564456
0.430942
0.419617
0.323653
0.403523
0.378489
0.414848
0.405908
0.476837
0.369549
0.401735
0.691414
0.428557
0.597835
0.520945
0.517964
0.384450
0.538826
0.510812
0.469685
0.574589
0.380874
0.566840
0.564456
0.557899
0.609756
0.527501
0.605583
0.591874
0.606775
0.591874
0.606775
0.452995
0.567436
0.520945
0.577569
0.691414
0.633597
0.702739
0.613928
0.477433
0.791550
0.524521
0.612736
0.684857
0.700951
0.703931
0.798702
0.771880
0.736713
0.888705
0.872612
0.912547
0.854731
0.997782
1.005530
1.233816
1.082420
1.319647
2.636909
13.415813
37.074685
98.304749
182.747841
340.335965
463.084579
599.987507
669.305921
662.001967
589.427948
437.166691
313.282013
174.766779
94.851851
34.530759
14.142990
5.187988
4.158616
3.797412
3.623962
3.534555
3.072619
3.149509
3.327727
3.944635
5.443692
8.822680
12.729764
19.813776
26.060939
34.188628
##ZVALUE=370
0.527501
0.451803
0.519753
0.645518
0.503659
0.389814
0.464916
0.537634
0.561476
0.398755
0.543594
0.612736
0.630617
0.556707
0.698566
0.719428
0.540614
0.524521
0.586510
0.530481
0.501871
0.568628
0.656843
0.497699
0.556707
0.531673
0.652671
0.634789
0.634789
0.669956
0.607967
0.703931
0.535846
0.539422
0.544786
0.648499
0.603795
0.607967
0.643730
0.495911
0.620484
0.551939
0.703931
0.558496
0.440478
0.703931
0.712872
0.659823
0.752807
0.865459
0.828505
0.854731
0.924468
0.679493
0.742674
0.770688
0.794530
0.822544
0.916719
0.900626
0.927448
1.060963
1.087785
1.068711
1.221895
1.308918
1.733899
6.796718
22.250414
74.026585
138.429403
264.596939
387.688875
554.292798
638.972521
669.589639
620.986819
495.791435
368.527770
208.302736
118.193626
46.767592
21.597743
8.068681
4.679561
3.927946
3.504753
3.283620
3.098845
3.022552
2.870560
3.250837
3.558993
5.168915
7.321835
11.681914
##ZVALUE=375
0.547767
0.550747
0.505447
0.680685
0.478625
0.305772
0.599623
0.437498
0.402927
0.350475
0.410676
0.369549
0.437498
0.556707
0.550747
0.526905
0.482798
0.522733
0.488758
0.456572
0.575781
0.584722
0.471473
0.510812
0.580549
0.577569
0.543594
0.602603
0.593662
0.702739
0.667572
0.612736
0.723600
0.603795
0.844598
0.678897
0.661612
0.751615
0.708699
0.696778
0.759959
0.609756
0.593662
0.801682
0.603795
0.571609
0.660419
0.780821
0.850558
0.733733
0.664592
0.650883
0.662804
0.689626
0.594854
0.669956
0.837445
0.766516
0.869632
0.808835
0.995994
0.847578
1.110435
0.880957
0.928640
0.978708
1.094937
1.168847
1.360774
3.139973
15.411973
39.698482
104.003549
187.536478
339.562893
461.637974
597.170591
653.104782
638.030767
559.651852
403.479934
286.894441
160.381794
90.946555
36.272407
15.330911
5.348921
3.610849
3.337860
3.353953
2.793670
3.005862
2.835989
2.848506
2.864599
2.923608
##ZVALUE=380
0.403523
0.589490
0.546575
0.621676
0.682473
0.473857
0.427961
0.486970
0.599623
0.454783
0.489950
0.566840
0.487566
0.535846
0.479817
0.393987
0.602603
0.538826
0.546575
0.485778
0.570416
0.528693
0.502467
0.663996
0.699759
0.768900
0.579953
0.665784
0.777841
0.886917
0.855923
0.784993
0.816584
0.798702
0.883937
0.876784
0.891685
0.802875
0.764728
0.938773
0.839829
0.804663
0.816584
0.780821
0.722408
0.862479
0.803471
0.763535
0.769496
0.811815
0.695586
0.718832
0.768900
0.838637
0.872612
0.849962
0.769496
0.760555
0.739694
0.801682
0.789762
0.837445
0.700951
0.879765
0.814795
0.957847
1.030564
1.065731
1.122952
1.173615
1.290441
1.989603
6.467700
30.369759
71.175694
166.699886
271.080732
426.753759
542.199016
641.973615
652.332902
577.100515
478.055477
325.528979
218.365788
108.428597
56.133866
19.879937
8.566976
3.890991
3.418922
3.269911
3.156662
2.887845
2.733469
2.654791
##ZVALUE=385
0.485778
0.401735
0.554919
0.345707
0.517964
0.509620
0.528693
0.572801
0.560880
0.530481
0.483990
0.444651
0.509620
0.436902
0.385642
0.392795
0.335574
0.657439
0.423789
0.284910
0.441670
0.490546
0.536442
0.431538
0.576973
0.561476
0.504851
0.730753
0.646710
1.063943
0.978708
0.914931
1.116991
1.222491
1.368523
1.201630
1.301765
1.216531
1.304746
1.160502
1.162887
1.234412
1.220703
1.022816
1.130700
1.131892
0.869632
0.917912
0.942945
0.930429
0.958443
0.814795
0.959635
0.851750
0.931621
0.787973
0.862479
0.913739
0.769496
0.829697
0.888705
0.916719
0.935793
0.852942
0.943542
0.842810
0.823736
0.991821
1.173615
1.083612
1.254678
1.228452
1.087785
1.437664
3.970861
12.795925
48.015714
102.629662
220.274925
336.331725
495.427847
587.112904
636.671782
622.025728
527.034998
419.460535
269.461870
171.431899
79.063773
38.981438
13.357997
5.511642
3.351569
3.091693
3.138781
2.939701
##ZVALUE=390
0.448823
0.442863
0.459552
0.422597
0.310540
0.480413
0.409484
0.459552
0.460744
0.332594
0.434518
0.416636
0.441670
0.620484
0.564456
0.427961
0.421405
0.481606
0.406504
0.431538
0.463724
0.487566
0.400543
0.426769
0.616908
0.588894
0.793934
0.685453
1.084805
1.227856
1.344681
1.515746
1.572967
1.720786
1.793504
1.730919
1.596808
1.761913
1.608729
1.691580
1.613498
1.486540
1.484752
1.403689
1.531839
1.503825
1.205802
1.263618
1.074672
1.085997
1.042485
0.935793
0.987649
0.965595
1.030564
1.053810
0.943542
0.926852
0.913739
0.866652
0.899434
0.810623
0.799894
0.944734
0.932813
1.058578
1.086593
0.949502
0.892878
0.924468
1.012683
1.083612
1.179576
1.105666
1.269579
1.338720
1.845956
9.400845
27.515888
80.286860
154.254436
293.789506
412.576795
548.941493
619.473457
637.383461
593.504906
482.391715
368.210673
222.047567
130.114555
54.182410
24.967790
7.402897
3.806949
3.145933
##ZVALUE=395
0.525713
0.501871
0.370741
0.478625
0.458956
0.443459
0.492930
0.592470
0.351667
0.471473
0.564456
0.473857
0.517964
0.443459
0.448823
0.467896
0.746846
0.329614
0.418425
0.586510
0.598431
0.478625
0.389814
0.501871
0.477433
0.734925
0.896454
1.120567
1.221895
1.214743
1.600981
1.669526
1.800656
1.814961
2.058744
2.262592
2.268553
2.202988
2.136827
2.135634
2.051592
1.814961
1.897812
1.868606
1.778603
1.509786
1.482964
1.534820
1.407862
1.292825
1.226664
1.372695
1.148582
1.235604
0.981688
0.943542
1.004934
1.018643
1.034737
0.901818
0.800490
0.992417
0.988841
0.981688
0.914931
0.923872
0.768900
0.967979
0.957847
1.035929
1.156926
1.021624
1.021624
1.179576
1.050830
1.015663
1.070499
1.034737
1.297593
4.683733
16.644597
59.204698
117.460489
233.383775
342.475772
495.603681
588.039756
650.328994
634.377003
542.241931
428.050756
266.082883
169.813633
80.541968
38.335919
12.865663
##ZVALUE=400
0.661612
0.743866
0.636578
0.515580
0.524521
0.470877
0.443459
0.518560
0.600815
0.537634
0.473857
0.481606
0.673532
0.545979
0.550747
0.482798
0.458956
0.504851
0.611544
0.532866
0.451803
0.510812
0.551939
0.533462
0.648499
0.713468
0.748634
0.951886
1.001954
1.368523
1.759529
1.932979
2.158880
2.283454
2.230406
2.229810
2.504587
2.316833
2.408624
2.223849
2.195835
2.094507
2.004504
1.949668
1.705885
1.856685
1.778603
1.706481
1.466870
1.501441
1.327991
1.321435
1.263618
1.332760
1.107454
1.007915
0.936985
1.034737
0.967979
0.864863
1.085997
0.711679
0.879765
0.703931
0.722408
0.871420
0.758767
0.907779
1.116991
1.058578
1.008511
0.977516
1.021624
0.776649
0.843406
1.011491
1.091957
0.994802
0.993609
1.124740
1.232624
2.761483
9.451509
34.101605
74.381828
167.902708
269.433856
423.411727
526.498556
613.476634
628.721714
558.372736
463.068485
309.917927
204.881430
103.472471
##END
