##TITLE=DWF40
##FORMAT=SPECTACLE-ASCII V-1.2
##DATA TYPE=ULTRAVIOLET SPECTRUM
##SECOND TYPE=ULTRAVIOLET SPECTRUM
##DATE=12/19/17
##TIME=16:09:32
##SPECTROMETER/DATA SYSTEM=SPECTACLE
##XUNITS=NM EM
##YUNITS=ENERGY
##YFACTOR=1
##FIRSTX=220
##LASTX=410
##NPOINTS=96
##3DDATA=Equidistant
##ZUNITS=NM EX
##FIRSTZ=210
##LASTZ=400
##ZPOINTS=39
##XYDATA=(Y..Y)
##ZVALUE=210
13.211966
13.356805
10.351539
10.446906
8.834600
9.171963
8.752942
6.455779
5.036592
4.179478
3.198981
2.984405
1.887679
1.987815
1.534820
2.028942
1.755953
1.596808
1.933575
2.404451
1.783967
2.437830
2.713799
4.345775
6.573796
9.507537
13.973713
22.328496
25.849938
32.308698
44.550896
50.336719
57.742000
59.733987
64.758658
65.888762
67.006946
66.987872
64.644814
61.217546
58.787465
59.316754
55.591464
51.894784
49.554706
45.228601
43.177605
40.111542
36.035776
32.817721
32.633543
30.888915
29.022694
27.055740
23.333430
22.194982
21.423697
19.794703
16.879439
17.887950
18.118620
16.195774
17.130971
13.534427
15.084743
14.449954
13.254881
12.424588
11.727810
11.691451
10.603666
12.857914
12.783408
13.552904
12.645721
13.213754
12.184978
11.054873
11.311769
10.450482
9.615421
7.769465
7.002950
6.915927
5.982518
5.326867
4.687905
5.367994
5.278587
5.285740
7.979870
9.255409
12.651682
15.128851
17.848611
21.192431
##ZVALUE=215
32.557845
31.835437
28.300881
20.676851
18.374920
14.901757
14.499426
13.436675
14.416575
12.751818
9.192824
8.357763
5.651712
5.075932
3.168583
2.164841
2.507567
2.391934
1.818538
2.060533
2.098680
2.911687
3.081560
4.283786
7.121563
11.255741
16.478896
24.070740
34.265518
41.352510
50.111413
59.655905
66.090822
74.321628
78.043938
82.828999
83.799958
84.475875
78.443885
79.973936
74.741840
72.057843
66.372752
62.911510
58.411956
56.548715
51.486492
44.960976
43.782592
39.712787
38.718581
36.639571
35.161972
31.265616
30.417442
26.983619
27.410984
24.475455
22.985935
21.330714
19.196868
18.983483
17.534494
16.804934
16.863942
14.804602
14.279485
14.204979
12.925863
13.028979
14.173985
13.887882
12.862682
13.460517
14.644861
13.727546
12.477636
11.975765
11.211634
10.105968
9.299517
8.536577
7.682443
6.700754
7.082820
6.262660
6.314516
4.894733
5.290508
4.614592
5.612969
4.861951
4.336834
5.683899
6.454587
9.010434
##ZVALUE=220
69.693923
75.376630
71.491599
61.460733
51.202774
40.175915
32.120943
26.475787
23.108721
23.114681
22.450686
23.050904
18.471479
16.968846
13.098717
9.737611
5.955696
3.548861
3.952980
3.081560
2.558827
2.833605
3.052950
4.748702
7.248521
13.102889
16.598701
26.492476
37.000775
49.915910
59.568882
74.655414
78.897476
92.389584
94.632506
100.692511
102.279782
97.982883
95.994473
93.727708
92.269778
83.553791
79.695582
75.006485
68.946481
63.639879
58.658719
55.970550
52.665472
47.570467
46.133995
41.499734
40.458441
36.394000
35.505891
32.855868
29.198527
28.898716
26.769638
26.894808
24.176836
21.740794
21.363497
18.967986
19.881725
18.628836
15.705824
15.446544
14.952421
14.571548
14.361739
15.240908
13.786554
14.482737
14.618635
15.120506
13.523698
14.645457
12.910962
11.683702
10.505915
8.665919
9.884834
8.314848
7.976890
7.222891
6.069541
5.436540
6.296635
5.806684
5.715489
6.143451
4.991889
4.644990
5.448461
5.117655
##ZVALUE=225
91.554523
97.851753
112.538934
122.993588
124.685764
109.203458
96.626878
73.771477
56.712627
46.828985
36.317706
34.444928
36.405921
39.470792
33.192635
31.674504
23.652911
19.396544
14.453530
9.399652
5.769730
4.134774
3.579855
3.818870
6.745458
10.586977
16.092658
24.294853
34.189820
46.984553
53.897500
63.360929
69.605708
76.613426
82.057714
85.891485
89.053512
93.237758
89.125633
86.619854
83.841681
78.668594
77.946782
74.418783
65.831542
60.092807
56.517720
53.663850
47.867894
46.949983
41.920543
40.220618
39.504766
38.506985
33.572912
32.764673
30.107498
28.855801
28.177500
26.549697
26.525855
24.481416
23.105741
22.841692
21.759868
18.994808
19.788742
18.015504
17.437935
15.803576
15.003681
15.294552
14.554858
16.293526
14.698505
15.033484
14.610887
13.718605
13.040900
12.203455
12.460947
9.893775
9.989738
8.519888
9.170771
7.034540
7.232428
8.628964
7.127523
5.804896
6.081462
7.230639
7.172823
6.015897
5.867481
4.649758
##ZVALUE=230
59.249997
65.936446
97.948909
141.589642
174.144506
204.877853
207.853913
195.446610
174.833536
140.820742
103.436708
74.698925
56.006908
54.157972
54.811835
56.055784
57.535768
56.582689
48.943758
37.347674
31.433702
17.039776
13.097525
7.663965
6.704926
8.523464
11.091828
16.162992
20.707846
27.401447
32.083988
38.014650
44.718981
51.083565
54.302812
55.800676
58.131814
60.199499
62.286854
59.417486
58.391690
55.885911
53.520799
49.824715
47.808886
42.515993
41.842461
39.840937
36.162734
34.696460
34.548640
33.629537
31.567812
32.034516
29.645562
28.300881
28.832555
26.529431
26.611686
25.955439
25.755763
25.479794
23.950934
21.413565
21.456480
19.746423
18.621683
17.720461
18.510818
17.090440
18.358827
16.585588
17.852783
15.971661
16.620755
14.890432
15.967488
16.633868
13.825893
12.539625
12.774467
11.712909
10.379553
9.571910
10.118484
9.097457
9.419918
8.037686
8.225441
8.950830
7.059574
8.087754
7.160902
7.165670
6.824732
6.645918
##ZVALUE=235
15.974641
18.301606
42.616725
82.559586
130.808949
206.080675
263.114572
315.455794
338.135958
320.641994
286.329985
220.229626
168.318748
109.304786
91.480613
74.734688
77.148676
82.257986
85.257888
87.190866
77.649951
128.603578
53.179860
40.110946
24.856925
17.280579
12.710690
10.342598
13.460517
15.463829
17.813444
19.326806
21.863580
22.572875
26.131868
27.148724
30.526519
32.381415
32.471418
28.303862
31.708479
30.908585
28.006434
28.185844
28.373599
26.247501
24.448633
25.245547
22.922754
22.103786
23.905635
21.819472
23.825765
23.963451
23.357868
21.620989
21.772981
20.425916
20.170808
20.644665
22.335649
20.338893
20.263791
18.652678
19.370914
18.511415
19.003749
17.215610
17.291903
18.150806
17.410517
17.529726
17.430782
17.634630
16.996861
15.103817
15.889406
16.054511
14.344454
14.990568
13.124943
13.152957
12.098551
11.004806
11.958480
10.833740
10.542870
9.648800
8.973479
9.273887
9.759665
9.968877
9.120703
8.884668
7.731915
8.829832
##ZVALUE=240
1.743436
1.761913
6.018877
15.976429
46.302676
86.326003
166.582465
239.735842
356.959701
424.898863
474.485755
478.051901
430.681705
349.958539
268.359780
175.902843
128.619671
100.399852
92.523694
101.638436
109.832883
112.521648
111.114979
101.541877
80.059767
62.540770
45.693517
32.818913
22.295713
18.786788
15.698671
16.062856
15.888810
16.953945
18.823743
21.028519
19.987822
21.306872
19.826889
19.829869
21.758676
22.565722
21.716952
21.959543
20.737648
20.034909
20.484924
18.487573
17.751455
16.669631
19.777417
17.651916
18.423796
17.197728
17.503500
18.006563
15.756488
17.782450
18.016696
17.760992
19.543767
17.579794
16.836524
16.869903
17.024875
16.790628
14.958978
16.793609
15.996695
14.733672
16.140938
16.181469
15.524626
17.667413
16.561747
16.419888
16.826987
16.686916
15.401840
14.219880
15.627742
13.662577
12.140870
14.585853
12.945533
11.256933
12.119412
12.221932
10.505915
12.317896
11.610985
10.509491
9.987950
9.346604
9.369850
10.114908
##ZVALUE=245
1.074672
1.237988
1.725554
1.503825
2.966523
13.336539
29.139519
80.520511
150.241852
251.264572
345.414877
463.798642
530.369878
556.289554
523.123741
442.465544
356.094837
244.751573
175.519586
110.919476
95.831752
100.070834
112.453699
122.470856
126.984715
123.487711
109.405518
94.755888
73.400736
58.245659
42.319894
30.546784
24.598837
22.758842
21.281838
20.274520
22.927523
22.289753
23.829937
23.442507
23.634434
23.494959
21.307468
20.760894
21.185875
19.731522
18.912554
19.775629
18.743873
18.760562
18.269420
17.929673
18.597841
17.234683
15.784502
17.442703
17.177463
16.019940
15.944839
15.879869
15.656948
15.700459
14.814734
14.802814
14.569759
14.655590
14.255643
12.975931
13.017654
13.831854
13.766885
13.696551
14.461875
13.930798
15.203953
14.709830
13.710856
13.708472
13.581514
11.521578
11.117458
11.786819
11.465549
11.558533
9.753704
9.991527
9.676814
10.428429
10.419488
8.255839
9.274483
8.734465
9.633899
8.426905
7.485747
8.881688
##ZVALUE=250
0.992417
1.023412
0.946522
0.910759
1.266599
1.231432
2.087951
5.947948
26.489496
55.744648
134.155750
220.193863
327.684879
465.672016
550.443530
619.280934
616.483688
545.282960
455.572605
326.519608
222.495794
157.528520
100.315809
89.147687
102.418661
119.335651
134.606957
139.844418
141.622424
128.888488
119.403005
92.600584
78.265667
57.560802
46.974421
38.243532
34.760833
35.433769
34.715533
32.267570
31.580925
31.633973
30.773878
28.840899
30.673742
28.798580
26.198626
26.991963
23.020506
23.296475
23.149848
22.748709
20.817518
20.698905
20.779967
20.827651
18.609762
18.277764
18.473864
17.811656
17.157793
15.544891
14.937520
15.100837
14.730692
15.024543
14.823675
13.697743
13.574958
12.861490
12.895465
12.766719
13.959408
13.682842
12.671947
12.201667
13.514757
11.847615
11.922717
11.044741
11.083484
10.402799
9.332895
9.843707
9.638667
9.325743
8.273721
8.349419
7.768869
7.879734
8.551478
8.082986
7.958412
7.104874
7.477999
7.491708
##ZVALUE=255
0.915527
0.790954
0.943542
1.043677
0.811815
1.090765
0.976920
1.164675
1.363754
3.425479
16.867518
42.656660
90.188980
188.597441
295.729637
450.636744
556.879640
660.841465
694.640875
646.191835
561.863780
450.485945
287.245512
188.637972
109.897852
87.727904
92.095733
110.184550
138.044953
155.291557
165.790915
169.068575
160.838962
139.427781
124.404430
95.851421
80.850720
63.741803
57.095885
50.023794
49.061775
46.771765
44.287443
43.167472
41.427612
39.070845
35.973787
36.279559
33.158660
32.364726
31.698942
28.271675
28.457642
26.341677
25.097728
24.063587
23.996830
22.000670
22.319555
20.615458
19.608736
18.570423
18.161535
16.412735
16.412735
15.799999
14.744997
14.251471
13.973713
13.379455
14.535785
13.179779
13.997555
12.944937
13.438463
12.096763
12.314916
10.802746
10.095835
10.208488
9.936690
9.266734
9.623766
8.304715
8.527637
7.745624
7.435679
7.512569
7.246733
7.570982
6.763935
6.503463
6.418824
6.657839
6.972551
7.124543
##ZVALUE=260
0.641942
0.635982
0.618696
0.801682
0.660419
0.584722
0.916719
0.942945
1.242757
1.176596
1.442432
1.766682
6.103516
28.648973
63.269734
151.810646
245.813727
401.888490
531.818867
689.061880
755.657554
756.383538
669.149756
554.834604
371.031761
258.234739
159.327984
115.063787
95.905662
106.655955
130.670667
166.049004
186.147690
204.674006
206.867456
192.272663
174.008608
145.677924
123.437643
101.632476
86.716413
74.440837
68.111420
62.389970
57.308674
53.604841
51.688552
48.164725
46.042800
42.439699
38.474798
38.143992
36.283731
33.095479
32.487512
30.442476
28.222799
27.011633
25.853515
24.071932
22.139549
22.175908
21.097660
19.652843
19.636750
18.117428
16.808510
15.772581
16.516447
15.827417
13.646483
14.256835
14.299750
12.229681
12.450814
11.765957
12.507439
10.473728
10.836720
10.617971
9.944439
9.528995
8.343458
8.091927
7.906556
7.220507
7.530451
7.426739
6.419420
6.482601
6.362796
5.929470
6.777644
5.931854
6.285906
5.789995
##ZVALUE=265
0.698566
0.611544
0.662804
0.705719
0.686646
0.815988
0.888705
0.908971
0.737906
0.842810
0.606775
0.815988
0.964999
1.375675
3.510714
17.764568
45.030713
113.540888
200.132728
370.719433
525.524616
661.588907
800.193548
819.201469
751.304030
649.119020
496.763587
359.050632
218.100548
153.853893
125.307441
120.223761
141.010880
178.302526
199.959874
225.706697
233.412981
229.004622
213.856697
187.938809
163.999796
133.613944
110.826492
90.110898
78.678727
68.358779
63.344836
58.848858
54.258704
49.673915
47.134757
45.014620
41.650534
39.098859
36.403537
34.071803
31.547546
31.173825
29.564500
26.689768
24.832487
23.523569
22.420883
21.130443
20.183921
18.865466
17.560720
17.210841
15.804768
16.099811
14.878511
14.860630
13.669729
13.539791
12.954473
11.653900
12.020469
11.248589
10.209680
9.598732
9.021759
8.599758
8.464456
7.887483
7.768869
7.152557
7.104874
7.053614
6.553531
5.726814
5.793571
5.985498
6.369948
5.823970
5.689859
5.493760
##ZVALUE=270
0.483990
0.663996
0.458956
0.597835
0.600815
0.566840
0.665784
0.586510
0.805855
0.694990
0.727773
0.788569
0.823736
0.979900
1.215935
1.057982
1.507998
8.681417
26.004910
81.628561
160.422921
317.263007
473.842621
636.079907
804.407001
871.415734
859.953761
784.817934
621.313453
485.580564
323.782563
232.443810
154.127479
132.438540
137.534738
161.556005
193.661451
211.876631
234.736800
241.884589
230.410695
215.602517
186.631680
159.122944
124.720931
105.004907
83.891749
70.159435
60.320497
55.497885
50.904751
47.561526
43.725967
40.774941
37.275553
35.034418
32.850504
30.974746
29.016733
27.724504
25.768876
24.212599
22.514462
21.310449
20.287633
18.634796
17.809868
17.159581
16.470551
15.759468
14.886856
14.371872
13.521910
13.263822
12.988448
11.870861
10.843873
10.439754
10.237694
9.747744
8.942485
8.728504
8.361936
8.151531
7.453561
7.447600
7.041693
6.474853
6.775856
6.544590
5.853772
6.073713
5.815625
5.651712
5.921721
5.464554
##ZVALUE=275
0.547767
0.566840
0.560880
0.635982
0.709891
0.645518
0.692606
0.547767
0.792742
0.959635
0.694990
0.928640
0.724792
0.952482
0.975728
1.019835
1.191497
1.319647
1.373887
3.229976
14.213920
53.436756
114.516616
250.043869
398.749709
613.126755
751.227736
883.224607
917.245746
884.438753
751.179457
614.425540
420.628786
286.453962
170.858502
130.947828
113.070607
122.922659
148.480535
170.098543
191.189647
207.613707
215.856433
204.989910
189.483762
158.311725
133.907795
103.555918
83.696842
65.666437
52.385926
45.847893
39.605498
36.211610
33.330917
32.003522
30.407906
28.364658
26.738644
24.846792
23.461580
22.851825
20.342469
19.812584
19.061565
17.396808
17.465949
16.072989
14.700890
15.346408
13.875961
13.486743
12.641549
12.173653
12.155771
11.921525
11.243820
10.077953
9.711981
9.511709
9.155869
8.754730
8.259416
8.214712
7.280707
7.602572
6.716847
6.458759
6.434917
6.357431
5.700588
5.560517
6.072521
5.702972
5.411506
5.693436
##ZVALUE=280
0.562668
0.493526
0.434518
0.548959
0.407696
0.329614
0.476837
0.573993
0.509620
0.787973
0.475645
0.814795
0.763535
0.622869
0.677705
0.724792
0.829697
0.841618
1.024604
1.113415
1.275539
1.501441
9.797812
32.599568
101.312995
182.339549
340.041518
489.445925
701.808929
828.534961
908.891559
913.237929
839.532018
653.443933
495.771766
298.710465
193.499923
106.802583
78.392625
75.293779
88.060498
114.766955
134.193897
159.651637
171.836615
178.025961
170.183778
150.732994
132.928491
104.734898
83.515644
60.180426
47.258735
33.352971
29.128790
25.032759
22.588968
21.504760
20.832419
20.225644
19.205809
18.534660
18.085837
16.607642
16.169548
15.187860
14.912486
14.275908
14.354587
12.727976
12.605786
12.501478
12.158751
11.834502
11.144876
11.118650
10.252595
9.765625
9.358525
9.101629
8.162856
8.275509
7.742643
7.862449
7.444620
6.826520
7.333755
6.476641
6.206632
6.035566
6.040931
6.238818
5.893707
5.786419
5.611777
5.171895
##ZVALUE=285
0.292659
0.251532
0.294447
0.031590
0.260472
0.498891
0.336766
0.452995
0.526905
0.583529
0.524521
0.689626
0.479817
0.618696
0.637770
0.617504
0.596642
0.813603
0.838637
0.861883
0.970960
0.986457
1.284480
1.496673
3.913641
15.903711
55.060983
113.378763
242.112875
379.774570
540.103912
749.308467
869.406462
925.670862
881.402493
722.550750
568.139553
363.384485
232.453942
117.778778
68.862438
43.583512
44.095516
62.000751
81.975460
110.193491
128.044486
144.589543
153.373480
149.054527
139.621496
115.474463
95.199943
67.967772
51.034689
33.392906
24.720430
19.145608
16.727448
15.450716
15.057921
14.698505
14.441609
13.492703
13.687611
12.697577
12.847781
11.974573
12.275577
11.834502
11.614561
11.758804
11.106730
11.003613
10.528564
9.449720
9.518862
9.195805
8.756518
8.171797
8.025765
7.780790
7.406473
7.408857
7.662773
6.916523
6.601810
6.525517
6.222725
6.101727
5.981922
5.856752
5.904436
5.555749
5.433559
5.287528
##ZVALUE=290
0.264645
0.396967
0.345707
0.246763
0.475645
0.293851
0.387430
0.510812
0.356436
0.478625
0.430942
0.484586
0.510812
0.444651
0.412464
0.546575
0.641942
0.631809
0.656843
0.707507
0.751615
0.898838
0.870824
0.890493
1.256466
1.252890
1.840591
6.797910
31.404495
72.467923
171.523690
291.325450
451.029539
680.009723
824.082494
926.289558
921.800733
801.450014
660.499930
451.200008
303.805470
153.777599
83.974004
36.451817
27.811527
36.775470
49.496889
72.165728
92.412829
120.074749
131.843686
142.563581
141.333938
128.865838
111.474991
82.370639
63.797832
43.891668
31.547546
21.115541
15.983582
13.292432
12.461543
11.317730
10.730624
10.627508
10.645986
10.531545
10.224581
9.844899
10.383725
10.246634
9.945631
9.853840
9.048581
9.321570
8.668900
8.414984
8.245707
7.792711
7.577538
7.329583
7.451773
6.874800
6.859899
6.528497
6.217957
6.407499
6.341934
6.435513
5.833507
5.782843
5.423427
5.944967
5.800724
5.294681
##ZVALUE=295
0.298619
0.365973
0.350475
0.452995
0.528693
0.395775
0.378489
0.392795
0.380874
0.490546
0.497699
0.393987
0.489950
0.472665
0.516772
0.386834
0.500679
0.351667
0.610948
0.678897
0.851750
0.643730
0.665784
0.736713
0.581741
0.912547
1.037717
1.228452
1.278520
2.832413
10.813475
45.191646
101.287961
236.126781
373.143554
594.408512
750.574470
894.900560
930.933952
861.616731
745.028853
537.977815
375.470519
204.064846
111.012459
43.728948
23.838878
21.217465
28.126836
46.057701
63.258410
88.537931
107.332468
125.556588
134.477615
132.416487
121.033788
102.078915
82.546473
58.177710
41.824579
26.751757
18.852949
13.323426
11.079907
9.419918
9.008646
8.978844
8.789897
8.793473
8.789897
8.618832
8.664727
8.517504
8.152723
7.980466
8.130670
7.465482
7.656813
7.134676
7.125735
6.708503
6.916523
6.731749
6.350875
6.213784
5.902648
6.162524
6.362796
6.122589
5.857944
5.693436
5.693436
5.659461
5.318522
5.467534
##ZVALUE=300
0.185966
0.367761
0.316501
0.439882
0.467896
0.320673
0.293851
0.385642
0.333786
0.345707
0.441670
0.425577
0.342727
0.465512
0.423789
0.503659
0.533462
0.645518
0.693798
0.496507
0.580549
0.419617
0.529885
0.547767
0.558496
0.698566
0.687838
0.915527
0.997782
1.181960
1.212955
1.387596
5.885959
22.578835
76.402426
152.579546
309.027433
468.761921
688.557029
814.301968
915.851593
909.205675
795.297027
657.253861
438.718796
288.461447
147.094727
78.423619
30.479431
17.576814
18.469691
25.168657
41.886568
56.281686
80.036521
99.383593
119.359493
126.858950
126.672983
115.819573
97.733736
79.235435
55.472851
41.485429
26.845932
18.277764
11.993647
9.505749
7.955432
7.593632
7.676482
7.571578
7.100701
7.465482
7.414818
6.920695
7.167459
7.285476
6.761551
6.713867
6.754994
6.761551
6.427765
6.229877
6.549954
6.185770
6.217957
5.869865
5.795956
5.844831
5.753636
5.058646
5.514622
5.270839
5.309582
5.243421
##ZVALUE=305
0.246763
0.278950
0.223517
0.347495
0.300407
0.413656
0.497699
0.436902
0.341535
0.267625
0.140667
0.279546
0.332594
0.444651
0.326633
0.489950
0.648499
0.388622
0.269413
0.550747
0.482798
0.625849
0.599623
0.655651
0.431538
0.526905
0.743866
0.640750
0.592470
0.993609
0.817776
0.886917
1.238585
1.264811
2.449751
15.331507
43.518543
121.412873
218.099952
402.492881
565.321445
766.826868
874.300003
916.253924
857.728720
684.268475
535.413623
342.675447
215.891600
97.243786
49.719810
19.079447
13.302565
17.031431
23.518801
40.276647
55.317879
77.051520
93.205571
111.816525
118.119717
118.453503
109.244585
92.480779
75.782537
53.487420
38.129687
24.512410
16.910434
10.597706
8.105636
7.178783
7.144809
6.887913
6.524920
6.382465
6.388426
6.192923
6.354451
5.956888
6.313920
5.974770
5.950928
5.774498
6.133914
5.961657
6.032586
5.691648
5.514622
5.545616
5.500913
5.402565
5.036592
5.274415
5.422831
5.012751
##ZVALUE=310
0.319481
0.186563
0.238419
0.221729
0.255704
0.293851
0.157952
0.361800
0.280738
0.329614
0.361800
0.184774
0.442863
0.501871
0.444651
0.345707
0.391603
0.333786
0.352859
0.459552
0.283718
0.359416
0.370741
0.458956
0.473857
0.633597
0.488758
0.614524
0.624657
0.703931
0.623465
0.850558
0.794530
0.851750
1.058578
1.232624
1.347661
6.191730
21.232963
72.990656
143.408775
296.696424
453.773737
673.318505
809.459686
906.292796
903.818607
789.361596
651.530623
439.507961
294.696689
148.905516
80.704689
30.326843
14.707446
11.440516
14.373660
22.630692
31.586885
49.584508
66.939592
87.846518
100.937486
111.649632
113.033652
103.751421
92.149973
72.256923
55.297613
36.030412
24.923682
16.293526
11.086464
7.921457
6.927848
5.942583
5.822778
5.918741
5.665421
5.935431
5.768538
5.556941
5.724430
5.523562
5.785823
5.735755
5.414486
5.618930
5.629659
5.043745
5.517602
5.193949
5.242825
5.153418
5.206466
5.038977
##ZVALUE=315
0.061989
0.151992
0.202656
0.141859
0.213981
0.214577
0.255704
0.289679
0.093579
0.076890
0.132918
0.358820
0.281930
0.242591
0.397563
0.275970
0.233650
0.265837
0.239611
0.284910
0.300407
0.235438
0.387430
0.439882
0.488758
0.461936
0.487566
0.472665
0.445843
0.544786
0.723600
0.607967
0.708699
0.809431
0.776649
0.842810
1.116991
0.948906
1.207590
2.776980
11.206865
45.848489
100.138783
227.503777
372.396708
599.026680
739.354491
868.992805
907.513499
839.579701
726.236701
524.280667
371.374488
198.200941
108.573437
41.068792
17.994642
9.862781
9.705424
13.378859
18.851757
31.305552
43.149590
63.455701
78.405738
94.996691
102.732778
105.542541
100.037456
84.110498
70.143938
50.283670
36.510825
22.252798
15.475750
9.249449
7.251501
5.918741
5.542636
5.431771
5.476475
5.429983
5.174875
5.201697
5.305409
5.434752
5.285740
5.181432
5.357862
5.153418
5.109906
4.996657
5.059838
4.923940
5.115867
5.121827
##ZVALUE=320
0.145435
0.164509
0.090599
0.231862
0.233650
0.204444
0.134706
0.163913
0.384450
0.225902
0.260472
0.237823
0.326633
0.181794
0.358820
0.324845
0.312924
0.215769
0.299811
0.347495
0.396967
0.364780
0.234842
0.316501
0.338554
0.486970
0.560880
0.570416
0.507832
0.624657
0.413656
0.413656
0.729561
0.760555
0.679493
0.612736
0.896454
0.879765
0.871420
1.012683
1.055598
1.392961
4.906654
26.399493
65.951943
165.776610
277.353525
471.268892
623.887777
798.918009
875.165462
878.418684
800.278783
617.975593
452.900529
254.751444
144.957900
59.509873
27.651787
11.279583
8.254647
8.933544
10.981560
16.913414
25.197864
40.825605
54.756999
73.738694
87.417960
98.201632
98.656416
91.817975
81.121922
61.488748
48.893690
33.362508
22.754669
13.693571
9.660721
6.893873
5.830526
5.343556
5.132556
5.060434
5.188584
4.843473
4.957914
5.170703
5.082488
4.878640
4.859567
4.993677
5.162954
4.777908
4.856586
4.849434
##ZVALUE=325
0.112653
0.163913
0.275970
0.159740
0.256896
0.211596
0.050664
0.156760
0.297427
0.172853
0.164509
0.270605
0.378489
0.328422
0.251532
0.278950
0.194907
0.389814
0.410676
0.303984
0.386834
0.379682
0.516772
0.371933
0.143647
0.476837
0.421405
0.472665
0.476837
0.425577
0.579953
0.568628
0.497699
0.482798
0.531673
0.478625
0.574589
0.782609
0.627637
0.791550
0.962615
0.859499
0.941753
1.371503
2.539754
16.014576
42.416453
115.527511
206.740499
383.515954
535.818934
729.008913
826.549530
869.726539
815.557837
652.529001
493.416786
295.129418
179.745555
82.715750
39.874911
13.406873
7.910728
6.931424
7.222891
10.428429
14.848709
25.118589
36.175847
55.220723
68.555474
83.686709
90.911984
91.500878
86.326599
72.054863
59.462786
43.874979
31.078458
18.978715
13.015866
8.275509
6.479621
5.422831
5.058646
4.903674
4.858971
4.772544
4.676580
4.728436
4.730821
4.642606
4.672408
4.374981
4.573464
4.692674
##ZVALUE=330
0.150800
0.199676
0.178814
0.106692
0.169873
0.094771
0.167489
0.302792
0.029802
0.250936
0.262856
0.223517
0.139475
0.076890
0.129938
0.155568
0.117421
0.323653
0.193715
0.230670
0.304580
0.216961
0.399947
0.332594
0.180602
0.312924
0.258684
0.265837
0.262856
0.493526
0.368953
0.574589
0.547767
0.525713
0.564456
0.490546
0.575781
0.418425
0.489950
0.625849
0.709891
0.679493
0.806451
0.878572
0.993609
1.026988
1.543760
6.586909
22.511482
76.189637
147.298574
293.501616
436.661839
634.864569
761.262774
850.632787
830.688477
709.076524
569.439530
367.491841
237.757564
110.096931
56.457520
20.182729
9.445548
6.050467
5.899668
7.114410
8.872747
15.089512
22.728443
36.266446
48.476458
66.098571
76.339841
85.650682
86.087584
80.040693
70.451498
53.922534
41.636825
28.016567
19.966960
12.417436
8.971691
6.322861
5.239844
4.785657
4.693866
4.409552
4.602671
4.332662
4.315972
4.241467
4.220605
4.403591
##ZVALUE=335
0.124574
0.219941
0.084639
0.223517
0.102520
0.122786
0.084639
0.194907
0.136495
0.318885
0.112653
0.179410
0.132918
0.247955
0.197887
0.203848
0.274777
0.183582
0.324845
0.309944
0.238419
0.162721
0.248551
0.106692
0.313520
0.315905
0.117421
0.385642
0.303984
0.418425
0.343919
0.239611
0.220537
0.207424
0.561476
0.522733
0.495911
0.491738
0.502467
0.614524
0.429749
0.631809
0.604987
0.540614
0.707507
0.792742
0.814795
1.007915
1.107454
2.352595
14.416575
39.152503
111.936927
198.119879
367.986560
517.638922
709.251761
793.762803
816.778541
762.423873
603.149533
461.500883
277.541876
168.267488
71.433783
33.166409
11.545420
6.507635
5.610585
5.355477
6.695986
8.804798
13.909936
20.908713
33.280849
45.049787
60.623884
70.977807
80.050826
79.973936
72.925687
65.589547
52.670836
41.671991
28.184652
20.803809
12.806654
9.138584
6.065965
5.242825
4.547834
4.253983
4.448891
4.393458
4.107952
4.296899
##ZVALUE=340
0.178814
-0.040531
0.090599
0.230670
0.173450
0.086427
0.022650
0.126958
0.185966
0.174642
0.079870
0.286698
0.055432
0.182986
0.164509
0.240803
0.147820
0.259876
0.283718
0.213981
0.255704
0.223517
0.220537
0.237823
0.230670
0.302792
0.244975
0.101924
0.412464
0.277758
0.111461
0.222921
0.220537
0.339746
0.328422
0.377893
0.335574
0.461936
0.439882
0.303984
0.320673
0.454783
0.421405
0.478625
0.509620
0.649691
0.587702
0.605583
0.830889
0.959635
1.008511
1.349449
5.305409
27.909875
68.887472
170.000792
285.194516
466.482639
605.584979
751.179457
800.069571
758.531690
662.962794
493.641496
348.508954
182.356834
101.156831
41.571856
17.141700
6.678700
5.529523
5.207658
5.203485
6.504655
8.272529
13.743639
20.006895
31.281710
42.591691
57.182908
67.599416
74.485540
75.394511
69.995522
62.275529
49.808621
39.970875
27.527809
19.851923
12.806654
8.900762
6.137490
4.898906
4.311800
4.132986
4.064441
##ZVALUE=345
0.102520
0.141859
0.045896
0.216961
0.269413
0.113845
0.231862
0.120997
0.148416
0.102520
0.046492
0.157952
0.241995
0.197887
0.156760
0.242591
0.348687
0.055432
0.109673
0.335574
0.045896
0.141859
0.225902
0.200868
0.199676
0.204444
0.236630
0.184774
0.324845
0.277758
0.226498
0.083447
0.255704
0.250936
0.322461
0.179410
0.479817
0.351667
0.358820
0.326633
0.480413
0.334978
0.481606
0.431538
0.476837
0.577569
0.506639
0.550747
0.505447
0.659823
0.738502
0.818968
0.930429
1.168847
2.889633
12.048483
49.948692
102.525949
216.378570
336.234570
523.912907
651.422739
757.747889
772.866607
691.766739
575.900674
393.651724
261.882544
121.109486
59.319735
19.954443
9.306669
5.646944
4.997849
4.833937
5.056858
5.618930
7.345676
12.151599
18.298626
29.965639
38.703680
51.230788
59.774518
67.692995
69.678426
65.614581
60.185790
48.323870
39.552450
27.744770
20.159483
12.640953
8.793473
6.170869
4.835725
##ZVALUE=350
0.243783
0.165701
0.049472
0.239611
0.206828
0.174642
0.304580
0.154972
0.155568
0.167489
0.094771
-0.003576
0.109673
0.127554
0.105500
0.301600
0.229478
0.113845
0.192523
0.185966
0.198483
0.206828
0.042915
0.161529
0.278950
0.188947
0.159740
0.243783
0.333786
0.308752
0.346899
0.198483
0.215769
0.390410
0.304580
0.214577
0.370741
0.262856
0.285506
0.163913
0.365973
0.323653
0.498891
0.516772
0.403523
0.489950
0.532866
0.502467
0.559688
0.535846
0.588894
0.419617
0.581741
0.758767
0.705719
0.817776
1.334548
7.305741
22.833943
72.607994
142.737627
288.195610
419.541001
585.702658
691.156983
752.884746
717.818737
589.965582
458.056927
282.604694
170.764923
75.575709
35.712719
10.880828
6.048679
5.031824
4.496574
4.292727
4.688501
5.230904
6.660819
11.250973
16.429424
25.865436
34.549832
46.057701
54.022670
60.995817
63.368678
60.701966
55.373907
44.403672
37.137866
26.884675
19.783974
12.671947
##ZVALUE=355
0.041723
0.111461
0.123978
0.240803
0.145435
-0.002980
0.075698
0.029802
0.153780
0.326633
0.198483
0.368953
0.311732
0.174642
0.130534
0.068545
0.080466
-0.021458
0.040531
0.116825
0.105500
0.104904
0.221729
0.350475
0.295639
0.149608
0.142455
0.262856
0.224710
0.291467
0.210404
0.217557
0.370741
0.248551
0.353456
0.220537
0.237823
0.250936
0.341535
0.274777
0.588894
0.410676
0.367761
0.560880
0.431538
0.248551
0.390410
0.452995
0.389814
0.503659
0.521541
0.485778
0.725985
0.579953
0.562668
0.643730
0.795722
0.800490
1.022816
3.335476
12.388825
48.613548
100.303888
212.121606
335.102677
517.988801
633.126497
720.188618
722.152591
620.037913
505.100489
333.621502
214.194655
95.696449
46.343803
14.624596
6.891489
4.942417
4.354715
4.422665
4.004836
4.073977
4.642606
6.027818
8.809566
14.381409
20.414591
30.456781
38.239956
47.746897
54.241419
57.549477
55.771470
50.229430
43.672919
34.055710
##ZVALUE=360
0.217557
0.242591
0.086427
0.092983
0.092983
0.076890
0.106692
0.043511
0.146627
0.153780
0.121593
0.182986
0.151992
0.067949
0.154972
0.155568
0.089407
0.065565
0.149608
0.017881
0.150800
0.164509
0.242591
0.178814
0.226498
0.175834
0.251532
0.194907
0.151992
0.228882
0.293851
0.193715
0.251532
0.309944
0.227690
0.343919
0.322461
0.291467
0.362992
0.266433
0.141859
0.102520
0.272989
0.306964
0.324845
0.484586
0.394583
0.468493
0.441670
0.393987
0.419617
0.332594
0.421405
0.499487
0.492930
0.624657
0.668764
0.812411
0.766516
0.937581
0.979900
1.388788
6.320477
20.689964
69.239736
135.637522
266.844630
393.964648
569.627881
665.344000
702.192783
662.541986
541.739464
413.698554
245.605707
149.764419
62.566996
28.545856
8.850694
5.064607
4.297495
4.191995
3.810525
3.871918
3.913641
4.033446
5.183816
7.051826
11.494756
16.417503
24.586916
31.741858
41.756630
48.279762
52.062869
51.996708
##ZVALUE=365
0.077486
-0.009537
0.103712
0.032783
0.256896
0.060797
0.104904
0.158548
0.166893
0.093579
0.184774
0.151992
0.225902
0.201464
0.051856
0.123978
0.109673
0.007749
0.209808
0.078678
0.122786
0.239611
0.163913
0.181794
0.268817
0.066757
0.099540
0.262856
0.078678
0.135899
0.227690
0.179410
0.383854
0.334978
0.310540
0.338554
0.380874
0.442863
0.288486
0.261664
0.343919
0.384450
0.294447
0.306964
0.175834
0.269413
0.407696
0.302792
0.483990
0.334978
0.463724
0.406504
0.379682
0.395775
0.482798
0.463724
0.468493
0.504851
0.610948
0.757575
0.858903
0.856519
0.889897
1.065731
2.907515
10.476708
40.413737
89.729428
205.264688
326.974988
496.858954
597.674847
678.458810
674.234629
579.315424
469.098687
301.732421
186.855793
82.318783
38.913488
12.365580
5.960464
4.150867
3.904700
3.602505
3.592968
3.239512
3.314614
3.593564
4.099607
6.133914
8.683801
13.878942
20.043850
28.726459
35.288930
##ZVALUE=370
0.130534
0.137687
0.128746
0.139475
0.171661
0.055432
0.000000
-0.053644
0.009537
0.056624
-0.007749
0.078678
0.182986
0.101924
0.121593
0.178814
0.196695
0.098944
0.015497
0.182986
0.147820
0.168681
0.211596
0.218749
0.206828
0.169873
0.170469
0.228882
0.272989
0.208616
0.193715
0.261664
0.477433
0.272989
0.304580
0.374913
0.262856
0.234842
0.301600
0.165701
0.431538
0.400543
0.334978
0.511408
0.174642
0.313520
0.245571
0.144839
0.282526
0.444651
0.367761
0.524521
0.528693
0.515580
0.467896
0.415444
0.475645
0.446439
0.401735
0.425577
0.568628
0.484586
0.577569
0.739694
0.811815
1.105666
1.557469
5.170703
27.868748
68.771839
164.032578
262.664557
418.137908
540.599823
652.076602
674.829483
612.889528
511.159897
344.584584
224.929452
105.268955
54.587722
20.698905
8.967519
4.324913
3.788471
3.320575
3.281832
3.110766
3.090501
2.904534
2.953410
4.009604
5.011559
8.171797
11.520982
##ZVALUE=375
0.083447
0.043511
0.216961
0.064969
0.086427
0.032783
0.056624
0.089407
0.077486
0.082850
0.103712
0.229478
0.014901
0.010729
0.039935
0.043511
0.223517
0.153780
0.097752
0.069737
-0.053644
0.153780
0.095963
0.238419
0.137687
0.250936
-0.040531
0.115633
0.276566
0.325441
0.259876
0.312924
0.275970
0.376701
0.440478
0.552535
0.415444
0.429749
0.545979
0.430942
0.357628
0.482798
0.575781
0.463724
0.382662
0.407696
0.450611
0.453591
0.450611
0.379682
0.447631
0.311732
0.423789
0.508428
0.483990
0.543594
0.438690
0.402927
0.504851
0.546575
0.399947
0.514984
0.570416
0.475645
0.485778
0.664592
0.739694
1.095533
1.093745
3.249645
11.954904
44.382811
96.377730
215.072632
332.604647
496.013761
597.423911
662.853718
645.628572
544.320941
425.755978
264.662504
165.370703
76.529980
37.893653
12.681484
5.853772
3.939867
3.553629
3.384948
3.075600
2.870560
2.789497
2.612472
2.934933
3.091693
##ZVALUE=380
0.247955
0.251532
0.247955
0.343919
0.362992
0.293851
0.148416
0.271797
0.388622
0.291467
0.279546
0.332594
0.285506
0.265837
0.267625
0.342727
0.438690
0.349879
0.185966
0.403523
0.410676
0.315905
0.380874
0.336766
0.385642
0.579953
0.546575
0.676513
0.566840
0.822544
0.922680
1.041889
1.213551
1.214743
1.210570
1.200438
1.319647
1.237988
1.174808
1.134872
1.049638
1.119971
0.948906
1.138449
1.149774
0.967979
0.922680
1.079440
0.961423
0.730753
0.908971
0.816584
0.842810
0.756979
0.856519
0.721812
0.711679
0.731945
0.743866
0.780821
0.844598
0.774860
0.721812
0.759959
0.831485
0.830889
0.731945
0.924468
1.006722
1.228452
1.232624
2.077818
7.089972
32.719970
73.563457
163.558722
266.151428
433.791876
547.774434
644.154549
653.919578
573.166013
476.531982
336.262584
226.662755
111.994743
57.781935
20.015836
8.551478
4.336834
3.586411
3.192425
2.962947
2.990961
2.932549
2.866983
##ZVALUE=385
0.150800
0.248551
0.162721
0.152588
0.123978
0.176430
0.242591
0.195503
0.247955
0.171661
0.173450
0.133514
0.231862
0.121593
0.320673
0.045896
0.228882
0.265837
0.330806
0.237823
0.337958
0.216961
0.191927
0.157952
0.353456
0.391603
0.682473
0.803471
1.056790
1.352429
1.390576
1.815557
1.988411
2.033710
2.072453
2.338886
2.257824
2.265573
2.114773
2.224445
2.114773
2.004504
1.731515
1.768470
1.565814
1.560450
1.447797
1.388788
1.456738
1.340508
1.289845
1.022816
1.051426
1.026988
1.117587
0.997782
1.032948
0.805855
1.026988
0.733733
0.804663
0.645518
0.734925
0.818968
0.873804
0.568628
0.816584
0.742674
0.905991
0.990629
0.951886
1.033545
1.054406
1.386404
3.298521
17.310977
44.351816
114.178658
203.029513
360.883474
482.712984
606.212616
643.561482
615.876913
545.054674
402.691960
286.547542
156.658888
88.429451
36.122799
14.881492
4.666448
3.378987
3.105998
2.861619
2.846718
##ZVALUE=390
-0.016689
0.013709
0.157952
-0.040531
0.151992
0.094771
0.026822
0.009537
0.166893
0.102520
0.026822
-0.043511
0.128746
-0.051856
0.029802
-0.000596
0.062585
0.023842
0.014901
0.081658
0.089407
0.021458
0.057817
0.247955
0.365973
0.396967
0.708699
1.016855
1.535416
1.948476
2.451539
2.856851
3.278852
3.525615
3.767610
3.819466
3.914833
3.799796
3.866553
3.458858
3.471971
3.234744
3.170967
2.773404
2.872944
2.460480
2.364516
2.102852
2.045631
1.893640
1.737475
1.607537
1.572967
1.350641
1.245737
1.169443
1.121759
0.920892
1.030564
0.933409
0.851750
0.784993
0.683665
0.693798
0.866652
0.851750
0.625849
0.813603
0.847578
0.860691
0.699759
0.984669
0.896454
0.801682
0.839829
1.012683
1.570582
8.646846
27.992725
86.390972
162.838697
308.383703
420.212746
548.072457
618.439913
640.852451
591.939688
466.995835
357.885957
219.121575
127.567649
52.129626
23.507476
6.863475
3.559589
2.916455
##ZVALUE=395
0.142455
0.139475
0.065565
0.000000
0.095963
0.127554
0.055432
0.121593
0.139475
0.154972
0.073910
0.144839
0.061989
-0.003576
0.173450
0.114441
0.038743
0.114441
0.331998
0.149608
0.134706
0.028610
0.072718
0.345707
0.343919
0.580549
1.070499
1.464486
2.187490
2.870560
3.356934
4.014969
4.288554
5.024672
5.306602
5.397797
5.506873
5.317926
5.291700
5.011559
5.016923
4.568696
4.312992
4.208684
3.760457
3.435612
3.239512
2.908707
2.721548
2.504587
2.299547
1.897812
1.919866
1.743436
1.613498
1.480579
1.439452
1.128912
1.176000
1.058578
0.991821
0.949502
0.906587
0.896454
0.789762
0.832677
0.792742
0.882745
0.825524
0.958443
0.947714
0.894666
0.880957
0.891685
0.743866
0.802875
0.787973
0.762939
1.020432
4.815459
17.989874
62.740445
119.305849
226.205587
337.782502
490.859747
589.130521
653.104782
638.669729
544.862747
429.651737
269.699693
171.941519
80.237985
38.194656
12.710690
##ZVALUE=400
0.265837
0.278950
0.194907
-0.008941
-0.051856
0.000000
0.103712
0.061989
0.220537
0.123978
0.126958
0.198483
0.003576
0.065565
-0.139475
-0.047684
0.047684
0.201464
0.103712
0.050664
0.160933
0.065565
0.148416
0.276566
0.463724
0.611544
1.145601
1.683831
2.646446
3.139973
3.818870
4.681945
5.206466
5.613565
5.886555
6.062984
6.221533
6.052852
6.110668
5.929470
5.611777
5.340576
4.901886
4.564524
4.274845
3.846884
3.745556
3.408790
3.042817
2.817512
2.659559
2.275705
2.132654
1.900792
1.979470
1.764894
1.616478
1.340508
1.336932
1.091957
0.936985
0.953674
1.043677
1.025796
0.888705
0.956655
0.949502
0.962615
0.902414
0.897646
0.902414
0.839829
0.766516
0.766516
0.830889
0.686646
0.725985
0.873804
0.882745
0.908971
0.872612
2.629757
9.086728
34.554601
75.178742
169.995427
272.188783
426.110625
528.085828
617.721677
632.268786
561.657548
464.956760
311.340690
205.160975
102.935433
##END
