##TITLE=DWF50
##FORMAT=SPECTACLE-ASCII V-1.2
##DATA TYPE=ULTRAVIOLET SPECTRUM
##SECOND TYPE=ULTRAVIOLET SPECTRUM
##DATE=12/19/17
##TIME=16:17:54
##SPECTROMETER/DATA SYSTEM=SPECTACLE
##XUNITS=NM EM
##YUNITS=ENERGY
##YFACTOR=1
##FIRSTX=220
##LASTX=410
##NPOINTS=96
##3DDATA=Equidistant
##ZUNITS=NM EX
##FIRSTZ=210
##LASTZ=400
##ZPOINTS=39
##XYDATA=(Y..Y)
##ZVALUE=210
13.582706
13.120770
10.577440
11.265874
9.908676
9.319782
8.646846
7.087588
5.948544
4.156828
3.592968
2.530813
2.033710
1.877546
2.083778
2.032518
1.991987
1.882911
2.152920
2.003908
2.283454
2.820492
2.821684
3.114939
4.953742
5.704761
8.541942
12.871623
15.083551
19.259453
23.242831
28.855801
29.900670
31.812787
36.454797
36.997795
35.208464
35.845637
36.112666
34.138560
31.832457
32.271743
30.210614
26.572943
25.344491
24.236441
23.468733
20.334721
20.343661
17.607808
17.948747
16.814470
15.923977
15.545487
14.952421
14.098883
14.142990
13.414621
12.508631
10.997653
10.021925
10.379553
9.939671
8.836985
9.570718
9.368658
8.958578
8.013844
10.068417
9.559989
10.160804
9.536743
11.307597
11.173487
11.845827
11.216998
11.643767
11.125803
11.619925
9.676814
8.438826
7.581711
6.989837
7.604957
5.542636
5.646944
4.968643
4.900694
4.370809
6.605983
8.126497
9.905696
12.225509
17.446876
20.838976
22.855997
##ZVALUE=215
35.220981
33.385754
29.689670
23.083687
17.576814
15.986562
14.455914
13.835430
14.681816
11.625886
10.593534
7.575750
7.873774
4.087687
3.518462
2.855659
2.529621
2.390742
2.150536
1.747608
2.738833
3.647804
3.135800
4.146695
6.142855
7.747412
8.940697
14.603734
17.910600
22.777915
27.528405
33.005476
35.190582
39.551854
42.065978
43.297410
42.629838
42.920709
45.965910
39.988756
39.948821
36.623478
35.716891
33.966899
33.574700
29.268861
28.152466
27.283430
25.100708
23.046732
22.756457
20.082593
20.478964
19.207597
17.935634
17.579794
16.738772
15.270710
15.156865
14.202595
14.779568
13.015866
12.188554
12.173653
11.410713
11.523962
11.149645
10.267496
10.295510
9.686947
10.867715
11.777878
11.799932
11.860728
12.346506
12.464523
12.962818
10.265708
10.141730
10.361671
9.281635
8.400679
7.771850
7.202625
6.780624
5.338788
5.402565
5.323887
5.512834
5.333424
4.597902
4.879832
4.505515
5.703568
6.942749
8.684993
##ZVALUE=220
72.686672
74.708462
72.294474
63.290596
55.015683
41.919947
33.657551
26.165843
23.649931
23.311973
22.198558
23.361444
22.393465
16.599894
13.144612
9.075999
6.314516
5.179644
3.359914
2.704859
2.973676
2.474785
3.191829
4.330873
5.593896
8.213520
10.320544
17.571449
22.533536
27.181506
30.766726
38.797855
42.395592
48.078895
50.980449
51.869750
50.865412
51.688552
50.191879
51.758885
49.228668
47.263503
44.384599
40.789843
39.948821
35.879612
34.140944
30.798912
28.615594
27.542710
26.438832
24.745464
25.303960
26.049614
22.404790
20.470619
21.368861
19.515753
18.913746
17.659664
16.454458
16.200542
16.507506
14.506578
14.596581
13.108850
12.406707
12.184978
11.598468
12.752414
13.001561
11.065602
13.721585
14.142990
13.213754
13.908744
11.749864
11.206865
11.566877
10.333657
10.254979
9.392500
9.334683
7.276535
7.482767
7.074475
6.410480
6.016493
4.801750
5.530715
5.341768
5.790591
5.440712
4.558563
5.219579
4.526973
##ZVALUE=225
95.798969
98.129511
113.595724
128.435493
126.773715
117.860436
98.412633
78.942776
59.061646
44.625998
37.399530
36.044717
39.094687
36.387444
35.233498
31.149983
25.468469
20.276904
13.384819
9.448528
6.522536
4.346967
3.646612
4.735589
6.180406
7.487535
11.217594
14.678836
20.893812
26.729703
31.065941
36.220551
40.510893
42.868853
46.698451
48.833489
47.711730
49.468875
48.447847
46.568513
46.334863
46.441555
44.307709
42.459965
38.432479
35.130978
34.379959
32.310486
30.501485
29.447675
26.410818
27.314425
24.890900
24.542809
23.577809
21.756887
21.291971
22.453666
21.387935
20.372868
20.247698
19.868612
18.781424
16.082525
17.056465
16.200542
15.289783
15.964508
14.330745
14.749765
14.661551
14.808774
13.339520
14.371872
14.434457
14.072657
12.712479
12.670755
11.998415
10.856986
10.358691
10.292530
9.621978
9.131432
7.574558
7.236600
6.690621
6.775856
6.254911
6.964803
6.316900
6.285906
5.752444
5.609989
5.737543
5.621910
##ZVALUE=230
67.591667
72.644949
100.566745
154.565573
185.043812
207.155943
215.894580
197.964907
176.360607
140.239000
99.373460
73.368549
55.309534
53.092837
57.349801
60.414672
59.267879
52.504539
49.356818
39.604902
30.970573
18.036962
12.532473
7.637739
7.232428
7.345676
9.207726
11.261702
13.954639
16.907454
19.832850
26.458502
29.207468
29.587746
33.004880
36.817789
34.943819
35.197735
34.842491
33.310652
32.799840
31.374693
31.822920
29.607415
28.779507
27.300715
27.693510
25.882721
24.740696
22.981763
23.936629
23.239851
22.518635
21.938682
22.229552
22.639632
22.279620
21.113753
21.198988
20.899773
20.664930
20.337701
20.769835
18.617511
18.754601
17.237663
15.764832
15.334487
14.585853
15.266538
15.814900
15.470982
16.027689
15.722513
15.648603
16.600490
12.966990
14.650822
13.283491
12.936592
11.379719
10.630488
11.411905
9.455681
9.006858
7.702708
9.491444
7.397532
7.659793
7.033944
6.993413
5.990863
7.189512
6.229877
6.434917
5.724430
##ZVALUE=235
19.745827
19.213557
47.221780
84.031820
133.814812
210.857987
256.318450
324.120522
340.200663
328.061581
290.777683
225.131512
172.684789
117.318630
89.378953
76.040626
74.914694
80.191493
86.401701
85.862875
77.021718
70.282817
49.692988
38.419962
23.607612
17.285943
11.885762
10.652542
9.622574
10.195971
12.754798
13.636947
15.776753
17.832518
17.059445
18.161535
19.205809
19.990802
20.353794
21.239519
21.407604
20.897985
19.892454
19.075871
21.479726
19.161701
17.772913
18.835664
17.413497
16.296506
17.578602
17.000437
18.628836
18.420815
18.065572
20.418763
18.229485
18.122792
19.613504
18.397570
19.710660
17.911792
18.584728
17.062426
17.234683
17.432570
16.377568
15.736818
16.219616
15.250444
17.074943
16.777515
15.172958
16.501546
16.066432
16.244650
16.332865
14.491677
14.806986
13.390779
12.616515
10.970831
12.061596
10.489821
10.309815
9.529591
9.014606
9.544492
10.112524
10.316968
9.316802
8.622408
8.287430
7.829666
8.206964
7.970929
##ZVALUE=240
1.423955
1.413822
7.621646
18.986464
49.205422
88.501573
169.074535
251.015425
360.882878
427.452922
485.568643
472.216010
435.402989
341.306925
264.282823
177.397728
129.569769
102.345943
94.467998
101.750493
108.690858
118.047595
111.273527
103.548765
84.418654
65.804720
45.045614
31.293631
20.717978
14.757514
11.729598
11.168718
11.335611
12.214780
12.279749
13.512969
13.854504
14.357567
14.894605
15.208721
16.989708
14.732480
15.247464
13.696551
15.208721
13.341904
13.909936
13.749599
14.898777
13.782978
13.948679
14.102459
14.287829
14.302731
14.153719
15.082955
15.258789
14.790893
14.646649
16.119480
14.343858
13.832450
14.252663
14.386773
12.554526
12.969971
13.761520
14.035702
14.171600
13.628602
15.060902
14.853477
15.768409
14.939904
15.798807
15.380979
15.996695
14.161468
16.082525
13.871789
13.183951
12.459755
11.867881
11.399984
11.124611
9.722710
9.259582
9.187460
10.362864
9.473562
9.325743
9.022951
9.366870
8.784533
8.972883
9.051561
##ZVALUE=245
1.228452
1.282692
1.531839
1.244545
3.721714
11.262894
36.460757
72.975755
161.541700
250.884891
375.051498
460.408926
524.371862
555.367470
526.361465
441.517830
362.862945
253.245831
173.273683
117.963552
97.405910
96.717477
114.814639
122.771859
128.094554
122.867823
111.021996
95.324516
74.849725
55.344701
41.608810
26.063919
20.347834
14.116764
13.873577
15.792847
15.248656
15.285611
14.414787
16.375780
15.234947
15.514493
15.739799
13.385415
14.331937
13.322830
13.254881
14.536977
14.255643
13.609529
12.979507
13.030767
13.025999
12.972951
13.623834
12.250543
12.084842
12.498498
13.717413
12.070537
12.925863
11.406541
11.703968
11.336803
11.169910
11.538863
11.707544
11.243820
11.989474
11.885762
12.434721
13.213754
12.877584
13.559461
14.387965
14.185905
13.743639
12.877584
11.798739
12.710690
11.334419
11.062622
10.939837
9.076595
10.307431
8.820891
10.049939
8.460879
9.175539
8.663535
7.828474
7.799864
8.139610
8.223653
7.992983
8.552670
##ZVALUE=250
0.877976
1.161695
0.986457
1.042485
1.584888
1.162887
2.314448
6.624460
27.536750
59.792995
136.888623
221.601725
328.655839
465.160608
563.007593
629.100800
621.138811
551.671982
466.419458
322.341919
229.236484
155.760646
100.627542
88.697672
103.705525
117.967725
132.577419
138.017535
133.193731
124.371648
103.399754
84.343553
65.752864
44.630766
34.070611
26.692748
22.406578
20.617843
20.583868
20.437837
20.174980
19.294620
18.688440
19.163489
18.279552
17.406940
16.598701
16.765594
16.146898
15.716553
15.734434
15.878677
15.132427
14.441609
13.984442
14.325976
13.494492
12.605786
12.103915
11.817813
12.145638
12.581944
11.343956
11.535883
11.354685
11.185408
11.003613
10.269880
11.035800
11.271834
10.861754
10.779500
11.573434
10.740757
11.412501
10.815859
11.318922
11.148453
10.217428
9.901524
9.584427
8.933544
8.956790
8.754730
8.061528
7.848740
7.002950
7.620454
7.105470
6.953478
7.168651
6.966591
7.644892
7.084608
6.802678
6.751418
##ZVALUE=255
1.118779
0.980496
1.204610
0.542998
1.048446
1.541972
1.156926
1.304746
1.347661
3.207922
15.508533
41.600466
107.406974
182.843804
311.254859
434.459448
587.511659
661.347508
698.192716
664.549470
588.387847
427.585840
306.037664
178.996921
118.827820
87.606907
88.077784
104.983449
125.658512
147.546530
152.154565
152.438879
143.529773
118.749738
100.640655
74.386597
58.779716
44.040680
35.366416
30.762553
29.266477
29.105544
26.740432
25.434494
25.598407
23.265481
24.337769
20.957589
21.014810
21.224618
19.862652
19.779801
18.019676
17.844439
17.399788
15.850663
16.173720
15.405416
14.542937
14.544725
13.470650
13.621449
13.117790
12.643933
11.268854
10.724664
10.823607
11.848807
10.989904
10.274649
11.298656
9.991527
10.303855
11.960864
10.691881
11.143684
10.202527
10.154843
9.090900
9.116530
8.180737
7.653832
7.584691
7.151961
6.373525
6.544590
6.656647
6.229877
6.913543
6.255507
6.523728
6.320477
5.978942
5.346537
5.591512
5.550981
##ZVALUE=260
0.905991
0.797510
0.730753
0.795722
1.052618
0.850558
1.090765
1.045465
1.229644
1.219511
1.333952
2.314448
6.866455
28.201938
65.092444
152.381659
248.986483
408.830643
541.763902
688.451529
767.451525
764.016509
678.168535
555.894971
372.614861
257.079601
157.042742
108.006597
83.946586
93.806982
113.558769
145.097971
163.121819
179.055929
176.581740
158.901811
141.256452
113.650560
92.767477
69.603920
55.391788
43.231845
39.854646
35.897493
34.138560
31.455755
30.123591
29.275417
26.567578
25.708675
24.590492
23.606420
23.422837
22.570491
20.913482
19.601583
18.894672
18.089414
17.767549
16.075969
15.676618
15.780926
14.352798
13.957620
13.362765
12.194514
12.553930
11.850595
11.868477
11.144876
11.088848
11.235476
10.892749
10.415912
10.983944
10.516644
10.063648
9.174943
8.857846
7.927418
8.114576
7.806420
6.784797
6.874800
6.876588
6.106496
5.981922
6.047487
6.317496
5.607605
5.170703
5.746484
5.651712
5.315542
4.749894
5.024672
##ZVALUE=265
0.719428
0.918508
0.639558
0.749826
0.753999
0.878572
0.792742
0.848770
1.071692
0.846982
0.983477
1.305938
1.248717
1.381636
3.587604
19.302964
46.552420
114.980936
205.240846
380.646586
535.643697
673.347712
807.730556
831.143856
757.539868
653.234720
495.348573
353.490710
211.621523
139.782429
100.914836
92.597008
105.786920
142.985582
165.578723
185.705423
193.939805
186.617970
173.417926
145.475864
123.961568
97.008944
76.417923
58.584809
51.015615
41.418672
37.257671
35.429001
33.658743
32.649636
30.275583
29.138923
26.959777
25.243759
24.967790
22.522807
21.435618
20.296574
19.870996
19.141436
17.601848
16.214848
15.369654
14.835000
14.594793
13.934970
13.781786
13.534427
12.918711
11.750460
11.051893
11.634827
10.686517
10.414720
10.906458
9.643435
9.825826
9.032488
9.191632
8.671880
7.568598
7.313490
7.035732
6.892681
6.264448
5.913973
6.168485
5.666614
6.049871
5.367994
5.200505
5.299449
5.235672
5.348921
5.035996
4.634857
##ZVALUE=270
0.665784
0.559688
0.542998
0.707507
0.859499
0.597835
0.831485
0.913739
0.867844
0.839829
1.000762
1.178980
1.050830
1.093745
1.145601
1.436472
2.095699
8.640885
27.238727
87.316632
164.662004
272.676945
482.304692
648.608804
818.797946
890.187025
870.444775
792.023540
615.687966
475.572944
301.845670
199.741721
130.826831
93.624592
97.773671
124.594569
147.705674
175.972581
189.705491
197.914839
196.141005
171.204805
151.534677
120.464563
95.920563
71.399808
57.729483
44.724941
39.978623
34.345984
32.132864
29.913783
28.472543
27.281642
25.550723
24.058819
23.403764
21.329522
21.039844
19.228458
19.324422
16.716719
16.643405
15.528798
14.757514
14.117956
13.545752
12.940764
13.111830
11.811852
11.684895
11.715889
11.259913
10.775924
10.484457
9.696484
9.240508
8.704662
9.386539
8.030534
7.943511
7.379651
6.938577
6.524920
6.613731
6.226897
5.966425
6.032586
5.514622
5.199909
5.595684
4.987717
4.932880
4.682541
5.114675
4.744530
##ZVALUE=275
0.534654
0.556707
0.536442
0.725985
0.651479
0.476837
0.569820
0.556707
0.568628
0.707507
0.767708
0.732541
0.593662
0.757575
0.930429
0.993609
1.047850
1.204610
1.442432
3.914833
15.257597
45.285821
129.959583
238.505602
439.117551
592.663884
768.905878
879.837871
918.398499
874.722600
767.900944
583.998561
422.325730
242.963433
156.046748
96.970797
81.294775
93.528628
113.865733
142.513514
161.748528
181.185007
188.979506
176.759958
162.320733
133.505464
113.329887
84.298849
66.083670
46.826601
37.814975
30.056834
27.519464
25.444627
22.811890
23.020506
21.447539
20.479560
19.601583
18.835664
19.131899
16.979575
15.984774
15.204549
15.054941
13.370514
13.163686
12.919903
12.215972
12.233853
11.639595
11.295676
10.808706
10.825992
10.574460
9.577870
9.153485
8.868575
8.400679
8.019805
7.696748
6.643534
6.961823
6.694794
6.496906
6.216764
5.905628
5.624890
5.436540
5.411506
5.609989
5.376935
5.355477
5.274415
4.917979
4.873872
##ZVALUE=280
0.466704
0.368953
0.519753
0.467896
0.635982
0.466704
0.675917
0.634789
0.691414
0.808835
0.563860
0.716448
0.811815
0.846982
1.046658
0.861883
0.965595
1.112819
1.223683
1.199841
1.296997
1.934767
10.396838
32.888651
102.465749
186.072588
347.690582
508.544445
714.829564
844.578743
917.035937
916.799903
839.479566
648.991466
486.735702
290.161967
182.770491
96.740723
65.948963
60.300827
74.316859
99.039674
121.193528
148.248672
160.308480
164.500475
159.252882
142.905712
122.831464
94.718933
73.130727
51.210523
39.174557
28.519630
22.950768
19.705892
18.184781
17.376542
16.471744
16.151667
15.868545
15.306473
14.574528
13.759732
13.227463
13.429523
12.334585
11.876822
11.302829
10.916591
10.924935
10.474920
10.502934
9.617805
9.991527
9.105802
8.974671
8.353591
7.978678
7.708669
7.669926
6.611943
6.692410
6.630421
6.460547
5.932450
5.590916
5.548596
5.549788
5.617738
5.431771
4.968643
5.087852
4.811883
4.937649
4.854798
##ZVALUE=285
0.460744
0.488758
0.586510
0.390410
0.577569
0.441670
0.346899
0.611544
0.558496
0.578761
0.314713
0.628829
0.565648
0.662804
0.783801
0.870824
0.834465
1.011491
0.834465
0.946522
0.802875
1.122952
1.212955
1.645684
4.781485
17.562509
57.425499
118.505955
255.416632
397.198796
596.397519
753.994584
872.820616
939.177871
897.559524
739.727616
589.025617
375.298858
238.022804
116.882920
65.635443
39.550662
42.161942
61.770678
78.597665
107.225776
127.157569
141.605735
150.257945
146.425962
135.909915
111.745596
92.964768
67.780614
48.488975
31.427741
22.959709
15.816689
14.519691
13.820529
13.352633
12.669563
12.712479
11.325479
12.011528
11.172891
11.195540
10.401607
11.231899
9.785891
9.902716
9.732842
9.076595
9.056926
8.733869
8.513927
8.195639
8.370876
7.709861
7.374883
7.126927
6.606579
6.380677
6.227493
5.844831
6.069541
5.692840
5.408525
5.761981
5.212426
4.959702
4.729629
4.877448
4.806519
4.764795
4.550815
##ZVALUE=290
0.328422
0.508428
0.385642
0.281930
0.413656
0.384450
0.507832
0.429749
0.528693
0.549555
0.537634
0.505447
0.601411
0.703931
0.649691
0.653863
0.663996
0.395775
0.623465
0.775456
0.738502
0.853539
0.916719
1.095533
1.267791
1.330972
1.792908
7.044673
34.533739
76.597929
146.660805
300.241709
461.798906
696.767569
836.080909
941.179991
933.274031
815.624595
675.233603
457.078815
304.709673
155.406594
83.890557
35.913587
27.018785
36.395788
50.010681
71.409941
93.448758
118.049979
132.105947
141.120553
139.938593
125.045776
108.913779
82.982779
62.089562
41.991472
30.310750
19.382834
15.053749
11.878610
10.652542
10.007620
9.515882
9.573698
9.279847
9.430647
9.273887
9.517670
8.785725
8.617640
8.570552
8.598566
7.779598
7.833838
7.312894
7.270575
7.169843
6.517768
6.543994
6.458759
6.206632
5.775690
5.935431
5.513430
5.419850
5.724430
5.206466
5.265474
5.058646
4.968643
4.814863
4.909635
4.773736
4.905462
##ZVALUE=295
0.455976
0.419617
0.482798
0.451803
0.502467
0.346899
0.380874
0.455976
0.425577
0.259876
0.322461
0.468493
0.391603
0.520945
0.577569
0.530481
0.490546
0.715852
0.782609
0.732541
0.653863
0.638962
0.618696
0.998974
0.723600
1.124740
1.162887
1.415610
1.328588
3.196001
16.011596
45.890808
103.871822
240.266919
384.841561
608.439445
764.674544
908.733606
947.097540
876.661539
754.747987
548.998713
379.493833
199.222565
111.599565
44.128895
23.967624
21.489859
29.254556
45.736432
64.027905
89.767575
106.701851
126.973987
136.343837
132.178664
121.235847
99.319816
81.695914
58.341622
42.791963
26.032925
18.262863
12.546778
9.449720
8.104444
8.058548
7.872581
7.852912
7.771850
7.803440
7.682443
7.135868
7.698536
7.134676
7.140636
6.920695
6.667972
6.597638
6.192923
5.719662
5.603433
5.950928
5.436540
5.526543
4.978776
5.165935
5.318522
5.307794
5.306602
5.212426
4.970431
4.824996
4.620552
5.001426
4.310608
##ZVALUE=300
0.365973
0.310540
0.279546
0.344515
0.422597
0.275970
0.198483
0.169873
0.584722
0.556707
0.422597
0.539422
0.398755
0.407696
0.396967
0.434518
0.465512
0.560880
0.598431
0.692606
0.518560
0.684857
0.722408
0.658631
0.751615
0.792742
0.840425
0.893474
1.132488
1.207590
1.275539
1.645684
7.067919
24.086833
80.130696
158.022642
318.270922
479.659438
696.951747
833.348632
936.723948
929.408669
811.231732
670.588017
447.973013
295.575857
149.294734
81.082582
31.175613
17.032623
18.494725
25.851727
41.621923
57.317615
82.582831
100.302696
120.302439
127.850771
125.656724
115.414858
97.248554
79.187751
56.338906
42.075515
25.760531
17.914772
10.844469
8.667707
7.332563
7.012486
6.765723
6.581545
6.775856
6.532669
6.475449
6.381869
6.214976
5.795956
5.647540
5.681515
5.508661
5.542636
5.193949
5.267859
5.262494
5.298853
5.044937
4.809499
5.064607
5.041957
4.443526
4.822612
4.493594
4.669428
4.682541
4.363656
##ZVALUE=305
0.238419
0.326633
0.342727
0.348687
0.322461
0.398755
0.470877
0.444651
0.390410
0.403523
0.310540
0.256896
0.219941
0.333786
0.503659
0.421405
0.459552
0.352859
0.425577
0.519753
0.451803
0.626445
0.482798
0.506639
0.516772
0.667572
0.697970
0.730753
0.903606
0.968575
1.085997
1.000762
1.214743
1.459718
2.436638
16.260743
45.201778
126.490593
226.562619
414.533615
579.530597
783.378482
897.608995
942.388773
880.723000
702.686906
552.598834
353.809595
221.727490
99.811554
49.677491
18.786788
13.727546
17.012954
24.384856
40.101409
54.874420
78.229904
95.225573
111.911893
118.706822
117.519498
111.012459
92.274547
74.213743
52.438974
38.640499
24.026632
16.082525
9.794831
7.765889
6.532669
6.082654
6.043911
6.073713
5.773902
5.878806
5.343556
5.555749
5.178452
5.586743
5.231500
4.864931
4.938841
5.285740
4.894733
4.794598
4.860759
4.671812
4.832745
4.560947
4.668832
4.784465
4.464984
4.501939
4.546642
##ZVALUE=310
0.280738
0.348687
0.395775
0.204444
0.314713
0.239611
0.211596
0.261664
0.308752
0.232458
0.394583
0.341535
0.330806
0.475645
0.463724
0.564456
0.581741
0.438690
0.602603
0.494719
0.447631
0.447631
0.467896
0.494719
0.541806
0.599623
0.774860
0.583529
0.829697
0.463724
0.633597
0.762939
0.773668
1.075864
1.073480
1.435876
1.409650
6.815791
22.424459
76.776743
151.133537
310.529470
466.663837
684.281588
829.767585
934.728980
923.081636
808.552504
670.452714
451.139808
302.238464
152.044892
81.350803
29.765964
14.481544
11.478662
14.180541
22.788644
32.851696
50.019622
66.866875
87.400675
100.858808
111.083984
111.630559
104.073882
91.747642
71.086884
54.563880
35.240650
24.261475
14.941692
10.529757
7.233620
5.999804
5.496740
5.071759
4.857779
4.759431
4.741549
4.681945
4.869699
4.936457
4.505515
4.721880
4.672408
4.501939
4.676580
4.458427
4.569888
4.633665
4.701614
4.379749
4.538894
4.272461
4.261732
##ZVALUE=315
0.153780
0.127554
0.278950
0.309944
0.319481
0.198483
0.127554
0.241995
0.155568
0.265837
0.267625
0.170469
0.188947
0.107884
0.342727
0.402927
0.428557
0.305772
0.343919
0.122786
0.150800
0.315905
0.460744
0.264645
0.468493
0.554919
0.516772
0.465512
0.667572
0.593662
0.739694
0.555515
0.690818
0.818968
0.719428
0.809431
1.031756
1.158714
1.295805
3.014803
11.400580
48.408508
105.681419
236.039758
385.940671
610.872507
754.174590
891.695619
927.523971
856.685638
738.579035
532.611609
378.001928
202.343464
111.320615
41.604638
18.097758
9.661913
10.299683
13.360977
18.733740
31.637549
44.516921
63.205957
78.507662
96.674562
104.757547
105.657578
98.642707
83.244443
68.986416
49.183965
36.211610
21.984577
14.247894
8.511543
6.225705
5.135536
4.687905
4.643798
4.489422
4.272461
4.306436
4.286766
4.552603
4.115701
4.307628
4.246831
4.288554
4.436970
4.232526
4.319549
4.253983
4.336834
4.085898
3.898740
##ZVALUE=320
0.228882
0.307560
0.265837
0.350475
0.307560
0.210404
0.309944
0.189543
0.254512
0.381470
0.524521
0.322461
0.377893
0.351667
0.385642
0.285506
0.517964
0.363588
0.345707
0.222921
0.333786
0.411868
0.563860
0.307560
0.357628
0.409484
0.556707
0.470877
0.435710
0.519753
0.522733
0.464916
0.485778
0.737906
0.826716
0.844598
0.817776
0.923872
1.029968
1.137853
1.142621
1.675487
5.093813
27.155876
68.199635
176.636577
293.427706
482.638478
639.305711
821.398497
894.629955
891.487598
809.579492
621.385574
459.900498
257.543921
147.868991
65.069795
29.355884
11.010766
8.243918
9.107590
11.136532
17.262697
25.892854
41.777492
56.380630
74.640512
87.714791
97.173452
98.857880
92.565417
83.103776
63.033700
48.240423
31.256676
22.140741
13.226867
9.050965
5.843639
4.862547
4.291534
4.539490
4.409552
4.186630
3.945827
4.301667
4.214644
4.071593
3.871918
4.032850
4.020929
4.334450
3.834963
3.930926
3.836751
##ZVALUE=325
0.227690
0.129938
0.149608
0.209808
0.151992
0.227690
0.424981
0.300407
0.147820
0.173450
0.225902
0.318885
0.304580
0.209808
0.206828
0.362992
0.383854
0.321865
0.430942
0.296831
0.474453
0.389814
0.287890
0.260472
0.417829
0.396967
0.584722
0.308752
0.276566
0.440478
0.502467
0.313520
0.596642
0.463724
0.616908
0.740886
0.729561
0.797510
0.772476
0.792742
0.975728
0.882745
1.066923
1.244545
2.690554
16.927719
45.066476
121.453404
216.758847
400.339961
557.719469
748.067498
851.282477
892.844796
837.802887
668.523908
512.150526
316.016674
193.711519
85.264444
41.167736
13.589859
7.932782
6.702542
7.316470
10.823607
15.357733
25.690794
36.943555
55.901408
68.598986
83.830953
91.739893
92.775822
86.850524
72.293878
58.838725
43.170452
30.997992
18.350482
12.345910
7.093549
5.708933
4.848838
3.917813
3.844500
3.836751
3.943443
3.655553
3.847480
3.809929
3.835559
4.120469
3.791451
3.846884
3.776550
##ZVALUE=330
0.175834
0.261664
0.184774
0.172853
0.186563
0.073910
0.253916
0.246763
0.307560
0.154972
0.137687
0.151992
0.099540
0.132918
0.181794
0.208616
0.258684
0.375509
0.452995
0.361800
0.321865
0.287890
0.390410
0.395775
0.282526
0.389814
0.395775
0.480413
0.521541
0.484586
0.533462
0.341535
0.357628
0.487566
0.507832
0.673532
0.631809
0.643730
0.634789
0.596642
0.783801
0.719428
0.820756
1.025796
0.964999
1.165867
1.544952
7.150769
23.675561
80.780983
153.962970
308.074951
451.446772
654.369593
782.876611
864.915848
843.137503
718.973875
582.688451
375.713706
242.869854
114.379525
58.178902
20.694733
9.642839
6.025434
5.819798
6.786585
8.843541
15.011430
22.405982
36.074519
48.019886
66.368580
77.459812
85.786581
86.982846
79.145432
70.533752
54.510832
41.391850
27.527809
19.042492
11.639595
8.167624
5.365610
4.516840
4.058480
3.841519
3.672838
3.828406
3.450513
3.644824
3.476739
3.538728
3.383756
##ZVALUE=335
0.355840
0.149608
0.145435
0.335574
0.235438
0.173450
0.211596
0.244975
0.299811
0.191927
0.070930
0.157952
0.183582
0.306964
0.283718
0.395775
0.401735
0.247955
0.217557
0.226498
0.214577
0.264645
0.347495
0.332594
0.475645
0.311732
0.515580
0.368953
0.461936
0.425577
0.423789
0.329614
0.526905
0.513792
0.577569
0.563860
0.558496
0.708699
0.555515
0.606775
0.593662
0.681877
0.764728
0.838637
0.829697
0.683665
1.067519
1.086593
1.333952
2.526641
15.522838
42.313933
117.836595
209.421515
385.898948
540.580750
735.126734
820.104480
841.695666
782.977939
628.172755
476.998687
288.422704
176.448822
74.121952
33.511519
11.506677
6.358624
5.470514
5.631447
6.413460
8.527637
14.152527
21.062493
33.616424
45.580864
61.484575
71.863532
80.222487
79.889894
74.649453
65.277815
52.489638
41.750669
27.922988
19.527674
12.036562
8.391738
5.651712
4.529953
3.857613
3.612638
3.577471
3.269911
3.097653
3.461838
##ZVALUE=340
0.135899
0.147820
0.155568
0.201464
0.089407
0.213981
0.146627
0.234842
0.263453
0.240803
0.399947
0.179410
0.284910
0.297427
0.246763
0.323653
0.201464
0.195503
0.110865
0.310540
0.346899
0.358820
0.168681
0.225902
0.474453
0.280738
0.125766
0.280738
0.226498
0.317693
0.433922
0.339746
0.232458
0.393987
0.360608
0.463724
0.428557
0.445843
0.532866
0.446439
0.636578
0.650883
0.598431
0.544786
0.698566
0.697970
0.788569
0.939965
0.758767
0.940561
1.325607
1.653433
7.765889
24.347901
79.785585
156.129003
320.364833
459.530950
640.891790
750.553012
818.948746
790.820718
666.353703
532.881618
336.138606
213.817954
101.209879
48.381686
14.503598
6.877780
5.445480
5.180836
5.079508
5.874634
8.279681
12.561679
20.822883
30.228496
45.117736
56.210756
68.691969
74.522495
74.033737
70.659518
61.235428
51.563978
37.508607
28.036833
17.996430
12.344718
8.263588
5.775690
4.436970
3.689528
2.956986
3.350973
##ZVALUE=345
0.244975
0.112653
0.229478
0.283718
0.236630
0.211596
0.254512
0.340939
0.371933
0.203848
0.385642
0.214577
0.269413
0.322461
0.387430
0.180602
0.249743
0.484586
0.281930
0.287890
0.327826
0.284910
0.354648
0.484586
0.430942
0.391603
0.407696
0.427961
0.369549
0.442863
0.473857
0.381470
0.418425
0.497699
0.352859
0.497699
0.363588
0.628829
0.421405
0.555515
0.634789
0.453591
0.601411
0.680685
0.723600
0.623465
0.565648
0.684857
0.752807
0.848770
0.931621
0.928640
1.051426
1.209974
2.638698
16.307831
45.413971
118.109584
209.685564
381.625891
521.672964
687.600970
769.611001
786.047578
724.852681
562.989712
425.324440
254.032612
146.176815
58.083534
26.166439
8.866787
5.667806
5.252957
4.913807
4.899502
5.599856
7.561445
11.257529
19.512773
28.170943
41.918755
51.165819
61.246753
67.501664
69.697499
66.801906
58.443546
50.074458
37.752986
28.671622
18.072724
12.562871
7.570982
5.528927
4.044771
##ZVALUE=350
0.272989
0.304580
0.154972
0.267625
0.286698
0.195503
0.255704
0.299811
0.244975
0.273585
0.101924
0.234842
0.356436
0.242591
0.097752
0.077486
0.250936
0.297427
0.131726
0.148416
0.352859
0.345707
0.244975
0.297427
0.402927
0.347495
0.340939
0.324845
0.327826
0.301600
0.389814
0.466704
0.427961
0.412464
0.407696
0.540614
0.428557
0.494719
0.561476
0.475645
0.447631
0.457764
0.473857
0.494719
0.352859
0.477433
0.558496
0.529885
0.579953
0.581741
0.622869
0.778437
0.769496
0.927448
0.953674
1.190901
1.530647
7.684827
24.907589
79.155564
150.292516
297.696590
431.411862
606.312752
712.369680
775.289536
740.548968
620.941520
482.983589
293.256640
182.107687
84.073544
40.063858
11.676550
5.950928
4.780889
4.518628
4.293919
4.352927
5.065799
6.718636
10.924935
16.153455
25.040507
33.400655
45.133829
53.165555
61.516762
63.404441
61.147809
55.031776
45.061707
36.575794
24.704933
18.401742
11.962652
##ZVALUE=355
0.192523
0.092983
0.187755
0.249743
0.217557
0.167489
0.087619
0.102520
0.193715
0.302792
0.302792
0.202656
0.148416
0.349879
0.135899
0.186563
0.127554
0.253916
0.428557
0.115633
0.218749
0.182986
0.221729
0.175834
0.229478
0.230670
0.294447
0.345707
0.282526
0.360608
0.215769
0.193715
0.337958
0.387430
0.453591
0.304580
0.397563
0.338554
0.494719
0.482798
0.491738
0.347495
0.322461
0.484586
0.491738
0.421405
0.518560
0.528693
0.490546
0.487566
0.462532
0.467896
0.594854
0.778437
0.675917
0.782609
0.706911
1.132488
1.236796
3.519654
13.696551
52.400827
107.085705
221.152902
345.437527
528.119802
651.921034
747.381449
742.956996
649.322867
530.514717
359.932780
235.454440
109.063983
53.320527
15.990734
6.969571
4.786849
4.403591
4.049540
3.744960
3.998876
4.665852
6.104708
8.754730
14.607906
20.327568
29.353499
37.998557
48.861504
54.014921
56.765676
55.932999
50.990582
44.645667
34.650564
##ZVALUE=360
0.211596
0.258684
0.126958
0.083447
0.394583
0.130534
0.049472
0.233650
0.104904
0.348687
0.227690
0.266433
0.245571
0.210404
0.121593
0.242591
0.195503
0.156760
0.190735
0.267625
0.173450
0.228882
0.237823
0.208616
0.304580
0.240803
0.314713
0.290871
0.345707
0.355840
0.400543
0.430942
0.269413
0.436902
0.321865
0.316501
0.421405
0.504851
0.392795
0.388622
0.329614
0.443459
0.489950
0.344515
0.442863
0.430942
0.384450
0.409484
0.488758
0.520945
0.530481
0.538826
0.654459
0.694990
0.692606
0.589490
0.806451
0.726581
0.983477
0.839829
1.144409
1.479983
6.702542
21.668673
72.366595
139.389634
272.852778
407.144427
586.384535
683.832765
728.603005
688.306689
568.607450
442.802906
273.201466
170.416832
74.100494
33.497810
9.350777
5.079508
4.142523
4.008412
3.587604
3.595948
3.641844
3.753901
4.947782
6.947517
11.496544
16.318560
24.793744
32.606721
41.661859
47.853589
51.365495
51.177740
##ZVALUE=365
0.249743
0.064969
0.111461
0.163913
0.255704
0.281930
0.052452
0.218749
0.191927
0.192523
0.131726
0.147820
0.265837
0.240803
0.196695
0.208616
0.232458
0.286698
0.215769
0.116825
0.097752
0.154972
0.180602
0.432730
0.301600
0.217557
0.385642
0.229478
0.235438
0.285506
0.335574
0.366569
0.290871
0.233650
0.297427
0.324845
0.368953
0.298619
0.362992
0.307560
0.256896
0.351667
0.444651
0.331998
0.462532
0.523925
0.525713
0.198483
0.365973
0.466704
0.268817
0.467896
0.570416
0.398755
0.484586
0.575781
0.515580
0.600815
0.826716
0.705719
0.818968
0.815988
0.953674
1.233816
2.633929
14.564991
40.239692
105.931759
194.011927
358.934999
486.798882
627.868772
695.163012
689.007640
614.578724
462.003946
340.679884
197.080970
111.082792
41.263700
16.282797
5.367994
4.224777
3.783703
3.351569
3.297925
3.157854
3.125668
3.233552
4.155636
5.807877
9.595752
13.685822
21.518469
28.448701
36.230683
##ZVALUE=370
0.153780
0.152588
0.255704
0.080466
0.202656
0.191927
0.182986
0.364780
0.184774
0.225902
0.287890
0.161529
0.253916
0.190735
0.208616
0.098944
0.092983
0.123978
0.245571
0.204444
0.204444
0.319481
0.179410
0.259876
0.201464
0.253916
0.176430
0.317693
0.360608
0.317693
0.184774
0.342727
0.198483
0.253916
0.405908
0.236630
0.285506
0.185966
0.342727
0.324845
0.346899
0.366569
0.317693
0.386834
0.260472
0.323653
0.327826
0.281930
0.465512
0.265837
0.280738
0.425577
0.429749
0.599623
0.490546
0.541806
0.568628
0.446439
0.553727
0.617504
0.572801
0.652671
0.670552
0.856519
0.943542
0.950694
1.624823
7.213950
24.019480
79.037547
147.869587
279.808640
407.139659
573.402643
660.925508
688.737631
642.820597
518.160462
395.111442
238.762498
144.403577
62.051415
27.819872
8.936524
4.635453
3.685951
3.431439
3.305674
3.221631
2.892613
2.799630
2.769828
3.256798
5.342960
7.416606
12.079477
##ZVALUE=375
0.157952
0.144839
0.227690
0.109673
0.281930
0.163913
0.122786
0.072718
0.168681
0.218749
0.285506
0.129938
0.035763
0.096560
0.068545
0.163913
0.184774
0.209808
0.094771
0.241995
0.395775
0.273585
0.321865
0.166893
0.285506
0.272989
0.155568
0.319481
0.239611
0.264645
0.352859
0.303984
0.432730
0.391603
0.457764
0.307560
0.479817
0.451803
0.459552
0.529885
0.371933
0.354648
0.488758
0.420809
0.366569
0.427961
0.233650
0.448823
0.432730
0.431538
0.489950
0.395775
0.473857
0.359416
0.471473
0.549555
0.393987
0.424981
0.412464
0.506639
0.619888
0.663996
0.562668
0.712872
0.752807
0.887513
0.713468
1.004934
1.137853
3.566742
13.011694
46.783686
100.426674
223.339796
343.412757
514.570475
615.512729
683.361888
668.485761
568.572879
453.991890
294.750929
192.033648
95.856786
50.167441
17.257929
6.442666
3.668666
3.294945
3.050566
2.820492
2.698898
2.670884
2.678633
2.753735
3.082752
##ZVALUE=380
0.223517
0.227690
0.121593
0.096560
0.103712
0.094771
0.113845
0.055432
0.103712
0.232458
0.148416
0.265837
0.210404
0.197887
0.351667
0.277758
0.141859
0.028610
0.106692
0.186563
0.224710
0.109673
0.172853
0.260472
0.203848
0.073910
0.231862
0.353456
0.463724
0.411868
0.665784
0.583529
0.496507
0.644922
0.662804
0.641942
0.690818
0.720620
0.767708
0.583529
0.519753
0.681877
0.618696
0.428557
0.359416
0.479817
0.544786
0.493526
0.647902
0.588894
0.431538
0.478625
0.554919
0.379682
0.505447
0.442863
0.435710
0.620484
0.382662
0.537634
0.577569
0.575781
0.558496
0.537634
0.528693
0.616908
0.778437
0.818968
1.003742
0.935793
1.091957
1.870990
8.407831
26.980639
83.227754
155.315995
296.130776
425.793529
582.653880
656.858683
666.652918
607.962608
483.400822
368.945003
223.015547
135.255456
59.791803
27.975440
7.896423
3.809929
3.235936
2.984405
2.690554
2.733469
2.605915
2.656579
##ZVALUE=385
0.064969
0.127554
0.048876
0.159740
0.064969
0.279546
0.202656
0.035763
0.154972
0.250936
0.185966
0.107884
0.075698
0.116825
0.152588
0.207424
0.333786
0.232458
0.014901
0.076890
-0.087619
0.178814
0.222921
0.209808
0.120997
0.334978
0.364780
0.433922
0.467896
0.779629
0.958443
1.043677
1.156926
1.034737
1.265407
1.405478
1.238585
1.103878
1.185536
1.187921
1.158714
1.190901
1.093745
0.916719
0.952482
1.015663
0.919700
0.908971
0.801682
0.781417
0.543594
0.827909
0.705719
0.605583
0.655651
0.435710
0.511408
0.455976
0.477433
0.577569
0.581741
0.640750
0.508428
0.596642
0.697970
0.652671
0.708699
0.636578
0.591874
0.880957
0.834465
1.034737
0.968575
1.203418
3.260970
18.632412
48.021674
120.634437
212.847590
372.345448
497.308969
621.846914
660.485625
626.748800
548.847914
403.308868
292.191505
170.048475
95.707774
36.570430
15.056729
4.584789
3.136992
2.986789
2.750754
2.839565
##ZVALUE=390
-0.034571
0.188947
0.263453
0.035763
0.257492
0.135899
0.303984
0.115633
0.035763
0.355840
0.259876
0.173450
0.024438
0.137687
0.221729
0.086427
-0.016689
0.159740
0.046492
0.074506
0.107884
0.416636
0.006557
0.247955
0.294447
0.242591
0.587702
0.739694
0.938773
1.176000
1.381636
1.564622
1.723766
1.999736
2.127886
2.103448
2.124906
2.146959
1.782775
1.805425
1.917481
1.842976
1.672506
1.641512
1.569986
1.396537
1.360774
1.290441
1.149774
1.130700
1.181960
0.935793
0.980496
0.903606
0.773668
0.785589
0.681877
0.571609
0.551939
0.630617
0.669956
0.607967
0.533462
0.603795
0.657439
0.559688
0.726581
0.593662
0.706911
0.766516
0.758767
0.856519
0.801682
0.885725
0.903606
0.932813
1.695752
9.445548
29.852986
89.524984
168.100595
316.605568
436.041951
577.698946
643.340945
661.719441
611.775517
482.100844
368.601680
224.427581
131.338835
52.589774
24.916530
7.735491
3.753901
2.947450
##ZVALUE=395
0.123978
0.188947
0.089407
0.209808
0.058413
0.230670
0.026822
0.093579
0.140667
0.202656
0.030994
0.114441
0.069737
0.109673
0.052452
0.104904
0.113845
0.146627
0.289679
0.098944
0.118613
0.184774
0.132918
0.093579
0.086427
0.332594
0.637770
0.747442
1.322627
1.425743
1.856685
2.117753
2.295971
2.712607
2.841949
2.750754
2.676845
2.898574
2.664924
2.753735
2.778769
2.424717
2.254844
2.045631
1.975894
1.978874
1.813769
1.624823
1.551509
1.552701
1.257658
1.197457
1.083612
1.050830
1.050830
0.906587
0.782609
0.879765
0.753999
0.727773
0.767708
0.637770
0.483990
0.771880
0.649691
0.763535
0.758767
0.578761
0.590682
0.769496
0.625849
0.870824
0.819564
0.863671
0.795722
0.757575
0.846982
0.770688
1.081824
5.238652
19.499660
66.653490
126.320720
239.083767
353.623629
516.307950
613.565445
677.245855
659.012794
557.768941
439.284444
270.809531
168.853998
73.434711
35.031438
11.662841
##ZVALUE=400
0.301600
0.257492
0.241995
0.260472
0.086427
0.131726
0.203848
0.197887
0.153780
0.185966
0.209808
0.189543
0.197887
0.168681
0.020862
0.337958
0.107884
0.064969
0.098944
0.260472
0.203848
0.245571
0.063777
0.076890
0.194907
0.415444
0.586510
0.920892
1.249909
1.826882
2.019405
2.289414
2.650619
2.986789
2.861619
3.019571
3.174543
3.010631
2.913475
2.793670
2.841949
2.592802
2.581477
2.428889
2.347827
1.804829
1.725554
1.896620
1.636744
1.504421
1.415610
1.385808
1.292825
1.151562
1.024604
0.981688
0.869632
0.830889
0.949502
0.775456
0.729561
0.765920
0.635982
0.665784
0.706911
0.665784
0.723600
0.685453
0.874996
0.760555
0.717640
0.696778
0.906587
0.813603
0.637770
0.811815
0.716448
0.777841
0.663996
0.917912
0.893474
2.673864
9.986758
39.559603
84.358454
184.749961
291.416645
449.619889
554.638505
643.541813
657.265782
578.636527
481.500626
331.344604
220.017433
110.917687
##END
