##TITLE=DWF5
##FORMAT=SPECTACLE-ASCII V-1.2
##DATA TYPE=ULTRAVIOLET SPECTRUM
##SECOND TYPE=ULTRAVIOLET SPECTRUM
##DATE=12/19/17
##TIME=15:41:19
##SPECTROMETER/DATA SYSTEM=SPECTACLE
##XUNITS=NM EM
##YUNITS=ENERGY
##YFACTOR=1
##FIRSTX=220
##LASTX=410
##NPOINTS=96
##3DDATA=Equidistant
##ZUNITS=NM EX
##FIRSTZ=210
##LASTZ=400
##ZPOINTS=39
##XYDATA=(Y..Y)
##ZVALUE=210
14.032722
13.887882
10.913610
11.271834
8.443594
10.120869
8.778572
7.456541
6.056428
4.941821
3.121495
2.755523
2.088547
2.126694
2.173781
1.966953
2.771616
1.885891
2.320409
2.184510
2.154708
1.943707
2.906919
3.594756
3.682971
4.395843
4.625916
5.307794
6.698966
6.940961
7.862449
8.758903
10.008812
9.754896
10.396838
10.695457
11.551976
12.020469
11.221766
10.867715
11.570454
9.415746
10.617971
10.385513
10.277629
9.071827
9.662509
8.612871
8.389950
7.795691
7.132888
7.736683
7.363558
7.939935
7.697940
8.707643
7.602572
7.269979
5.912781
7.024407
7.366538
6.753802
6.539822
6.055832
6.393790
6.876588
6.820560
7.061958
6.654859
8.240938
9.007454
9.597540
9.524822
11.889935
13.166666
12.606978
12.839437
11.973977
11.843443
10.798573
10.525584
9.281635
8.150935
7.056594
6.250739
6.666780
5.808473
6.085634
5.392432
6.982684
8.018613
11.964440
13.774633
19.080639
23.847818
26.927590
##ZVALUE=215
37.595630
37.621856
29.073954
23.044944
18.288493
15.963912
15.505552
13.913512
13.385415
15.005469
10.937452
9.104609
6.610751
4.654527
3.571510
2.649426
2.248883
2.242923
2.494454
2.500415
2.537966
2.697706
3.271699
3.525615
4.430413
5.118847
5.708933
6.454587
7.668734
9.278655
10.924935
12.311935
13.581514
14.809966
14.249682
15.550852
15.236735
15.095472
15.485883
15.166998
14.746785
14.139414
12.781620
12.781620
12.942553
12.163520
10.285974
9.444952
9.798408
10.101795
9.331703
9.291768
9.130836
9.888411
9.332895
9.505749
8.558631
8.787513
9.170771
8.477569
8.922815
8.252859
7.865429
7.730722
8.218884
6.779432
7.538795
8.791685
9.219646
9.490848
9.472966
9.852648
10.787845
11.739731
10.999441
11.688471
11.225939
11.813641
10.705590
9.307861
9.713769
9.096861
9.245872
7.297993
6.414652
5.906820
5.511642
5.407929
4.962683
5.008578
3.476739
4.683733
4.839897
6.807446
7.515550
10.687709
##ZVALUE=220
79.264641
78.442693
77.997446
66.976547
57.718754
46.733618
36.672950
27.749538
25.477409
24.261475
24.650693
22.407770
19.248724
18.801689
13.218522
8.491874
5.818605
4.444718
3.416538
2.404451
3.010631
2.782941
3.189445
4.014969
4.989505
5.817413
7.936954
9.366870
11.270642
11.911988
14.706850
17.962456
16.997457
19.805431
21.939874
20.908713
20.847917
20.053983
20.578504
20.837784
19.158721
17.668605
17.259717
16.629696
17.360449
14.557838
15.100837
14.394522
13.759732
13.103485
14.549494
12.748837
11.555552
10.591745
12.175441
12.210608
11.083484
12.354851
12.278557
10.858774
12.531877
12.722611
12.221932
11.294484
11.520982
11.126995
9.873509
10.651946
10.588765
11.253953
10.401607
11.892915
12.963414
11.819601
14.207959
12.556911
12.404919
12.217760
12.906790
11.271834
10.202527
9.911656
9.811521
8.274913
6.879568
7.294416
6.012917
5.766749
5.923510
5.054474
6.195903
5.542636
5.756617
4.968643
4.914999
5.098581
##ZVALUE=225
107.199550
107.806921
127.963424
138.777494
134.947896
121.218562
107.529759
82.231760
59.525967
44.737458
38.936734
36.117435
36.679506
35.388470
37.993789
33.720732
27.995706
22.245646
13.794899
9.365678
6.508827
3.891587
3.084540
4.331470
5.589724
6.631613
8.855462
10.602474
13.132691
15.643835
18.146634
20.888448
21.869540
21.981597
23.245811
26.348829
24.596453
24.390817
24.371743
23.586750
25.245547
23.711920
21.884441
22.335649
18.608570
16.729832
17.306805
17.257929
15.967488
16.646981
15.997887
16.779900
15.323758
17.092824
16.868711
17.163754
16.527772
15.996695
16.080737
16.546845
17.957687
16.298890
15.458465
16.232729
14.434457
13.853908
12.815595
13.914704
13.852715
14.211535
13.945699
14.105439
14.481544
15.020967
13.830662
14.802814
13.006926
13.596416
13.344884
12.093782
12.169480
10.708570
9.706616
8.701682
8.342862
8.381605
8.451939
6.772876
6.255507
7.952452
7.491708
6.262660
6.698966
6.049871
6.499887
6.441474
##ZVALUE=230
70.693493
78.751445
112.651587
165.928602
205.860734
226.128697
233.921409
215.941668
191.262960
155.263543
104.047656
80.591440
58.561563
55.568814
56.874752
60.601830
59.977770
57.902932
47.435760
40.183663
29.301643
19.613504
13.170838
9.340644
8.067489
7.166862
7.949471
10.991693
12.825727
14.785528
16.707778
20.149946
21.810532
22.893548
22.919774
24.736524
22.661686
25.195479
25.992990
23.703575
22.778511
22.685528
21.900535
20.260811
19.386411
18.740892
19.365549
16.243458
17.532706
15.559793
17.350912
19.054413
19.939542
19.806623
20.532608
17.418861
18.810630
19.888878
18.084645
19.233823
20.715594
19.110441
18.597841
18.236637
18.737912
16.177893
16.480684
16.618967
16.380548
16.535521
19.384623
19.188523
17.259717
18.129945
17.500520
16.862750
15.629530
17.332435
14.979839
15.030503
14.080405
12.018681
11.055470
10.316968
10.435581
9.810925
8.980632
9.591579
9.908676
9.596944
9.890795
7.761717
8.120537
8.963943
7.465482
7.559657
##ZVALUE=235
19.431710
23.062825
45.768619
100.096464
154.431462
226.009488
293.771625
356.992483
377.084017
359.869599
321.245790
260.752439
183.858871
135.018826
96.291900
82.381964
78.693628
86.377859
93.032718
90.062618
80.449581
71.985722
50.448775
37.497878
24.255514
17.389655
13.223886
10.432601
11.607409
13.062954
13.546944
14.825463
16.175508
18.344522
17.235875
18.775463
19.416809
17.197728
19.563437
18.065572
20.383000
19.743443
16.735792
17.327666
19.533634
16.811490
15.584826
15.850663
15.519857
15.342832
16.209483
15.101433
16.062856
18.203855
18.811822
17.050505
18.323660
19.618869
18.125772
19.339919
19.373894
18.829703
18.717647
18.636584
18.970966
18.586516
18.859506
17.132759
17.328858
19.066930
17.055869
18.467903
17.097592
18.771887
19.570589
18.669963
18.469691
16.442537
16.705990
16.242862
15.100837
13.198853
13.179779
11.110902
13.278723
11.858940
11.819601
11.104941
11.002421
11.007786
10.615587
10.264516
10.024905
10.533929
9.438992
10.249615
##ZVALUE=240
1.462698
1.491904
7.493496
19.143820
47.726631
89.171529
170.522928
254.176855
374.388695
439.596772
486.269593
478.886962
440.567732
346.175432
270.296931
177.723765
131.007433
96.330643
93.462467
96.703768
105.619431
110.935569
109.729767
96.672773
79.178810
61.579943
44.484735
30.368567
19.828677
13.643503
11.987686
10.024905
10.158420
10.693669
11.113882
11.761785
11.546612
12.179613
13.178587
13.645887
12.358427
13.889670
13.997555
13.505816
12.967587
13.437867
13.551712
12.826920
13.892651
14.707446
12.888908
13.308525
14.245510
14.431477
14.357567
13.574958
13.878942
14.809966
14.133453
13.403893
15.192628
13.838410
14.840961
14.518499
15.128851
13.303757
14.247894
14.167428
14.426708
15.900731
15.368462
16.082525
16.889572
17.252564
17.975569
17.083883
17.760992
17.650723
17.050505
15.176535
15.196800
14.384985
14.358759
12.800694
12.524724
12.478828
11.775494
11.090636
10.959506
11.415482
11.318922
9.705424
10.960698
10.097623
9.502769
9.685755
##ZVALUE=245
1.245737
1.280904
1.333952
1.992583
3.849864
9.774566
36.279559
73.644519
162.514448
249.275565
388.229489
475.893617
547.885895
571.455956
538.331866
449.404716
365.281701
251.432657
172.625780
113.933682
93.858838
92.733502
104.987621
119.655728
123.574734
116.416812
103.083849
87.579489
63.646436
49.803853
35.918951
23.305416
15.241504
10.870695
9.923577
9.946823
10.012984
10.470748
11.218786
11.864901
11.273623
12.191534
13.000965
12.156963
11.807680
12.188554
12.232661
12.127757
11.545420
11.694431
12.165904
12.673736
10.924935
12.516975
12.171865
11.624694
12.668967
11.461973
12.309551
12.519956
11.861920
13.434887
12.228489
11.608601
12.431741
10.962486
10.970831
11.728406
12.441874
12.842417
12.961626
14.440417
14.583468
13.632774
14.193654
14.115572
14.258623
13.329983
13.509989
13.071895
12.220740
13.129711
11.860728
11.296868
11.074543
10.280609
10.357499
9.740591
9.849668
10.527968
9.553432
10.097623
8.919835
8.584857
9.249449
8.682609
##ZVALUE=250
1.017451
1.162887
1.247525
1.345873
1.124740
1.427531
1.908541
6.258488
25.956631
56.944489
137.675405
228.823423
329.910517
480.480790
563.491583
631.165504
628.425479
562.518835
467.637777
329.396725
227.214694
152.752995
98.104477
84.270835
98.124743
111.638904
125.223994
130.994916
126.787424
112.745762
102.133751
74.327588
57.103634
35.613775
25.951862
17.796755
13.604760
12.091994
11.497736
11.849999
12.435913
12.574792
13.042688
13.792515
12.750626
12.891889
13.363957
12.745857
12.875795
13.429523
13.567805
11.560917
11.440516
12.625456
11.472702
11.160970
11.463761
10.896921
11.755824
11.071563
10.945797
11.035800
10.630488
10.388494
9.803772
10.355711
10.362864
10.974407
11.036992
11.428595
11.748672
12.594461
12.208819
10.768771
12.359619
12.035966
12.308955
10.867715
10.930896
11.211634
11.346936
10.198951
10.290742
9.876490
10.168552
8.843541
9.030700
8.823872
8.975863
8.702874
8.428693
8.694530
8.149743
8.559823
8.359551
8.391738
##ZVALUE=255
1.002550
0.839829
1.124740
1.293421
1.022816
1.251698
1.341701
1.473427
1.137853
3.296733
17.536879
44.035912
88.210702
191.912651
295.716524
454.950929
563.006997
678.871870
706.142783
657.236576
577.340722
459.044576
292.508602
193.970799
109.249949
85.386634
83.410740
94.458461
120.905638
132.635832
137.480497
136.788487
125.027895
101.036429
81.254840
54.640770
40.735602
27.881861
21.332502
16.961694
15.650988
14.702678
14.759898
14.462471
15.003681
13.751984
13.924837
13.395548
12.571812
13.124943
13.223886
12.759566
12.843609
11.584759
11.421442
11.750460
11.679530
11.707544
11.825562
11.312962
11.521578
11.274815
10.648966
10.565519
10.681748
9.952784
10.214448
9.883642
9.786487
10.415912
10.472536
10.841489
11.095405
11.174679
11.063814
11.202693
10.582805
10.326505
10.052919
9.207726
9.197593
9.112954
9.045601
8.316636
7.727742
8.227825
7.756948
7.367730
7.476807
7.151961
7.227659
7.749796
7.632971
7.347465
6.667972
7.499456
##ZVALUE=260
0.921488
0.937581
1.015663
1.150966
0.937581
0.963807
0.978708
1.168847
1.388788
1.425743
1.389980
2.040863
6.577969
26.789904
60.561895
147.810578
246.312618
406.651497
534.729958
696.055889
770.941973
770.607591
682.693720
564.633608
382.647514
260.236859
154.820681
101.417899
75.917840
77.209473
94.935894
123.317838
136.856437
147.989988
144.937634
129.926801
108.789802
86.321831
66.714883
45.030713
33.543706
23.551583
19.515753
17.762780
16.090870
15.960932
15.378594
14.697909
14.569759
14.444590
14.069676
13.419986
13.189912
13.429523
13.317466
12.758970
12.361407
12.148619
12.048483
11.823773
11.618733
10.735989
11.430979
10.985732
10.768771
10.530949
10.437965
10.554790
10.811687
10.668635
9.585619
9.943843
10.950565
10.523796
10.462999
9.981990
10.067821
9.467602
9.727478
9.020567
8.628964
8.333921
7.422566
6.909966
8.111596
7.962584
7.265806
7.567406
7.524490
6.855726
6.263852
6.938577
6.834865
6.859899
6.090999
6.783605
##ZVALUE=265
0.761747
0.738502
0.858903
0.799894
0.955462
0.999570
0.886917
1.129508
1.088977
1.048446
1.265407
1.134872
1.224875
1.636744
3.532767
18.354654
44.526458
114.508867
202.406645
372.159481
521.195531
669.139624
806.644559
835.624933
766.762495
665.524006
499.227643
356.428623
207.268000
129.008889
85.223913
68.507791
80.119967
108.697414
129.204988
147.057772
152.547956
145.918727
133.276582
112.573504
90.048909
63.522458
48.635602
32.473803
24.995804
19.749999
17.978549
16.265512
15.222430
15.473962
15.397668
15.283823
15.325546
14.381409
14.698505
14.444590
13.625622
13.031960
13.265610
12.493730
12.681484
12.507439
12.286901
11.577606
12.109876
11.106730
11.156797
11.115670
10.805726
10.435581
11.226535
10.710955
10.796785
10.618567
10.008812
10.349751
9.522438
9.741783
9.151697
9.094477
8.295774
7.960796
8.460879
7.369518
7.667542
6.824732
7.326603
6.936789
7.118583
6.481409
6.559491
6.354451
5.599856
6.151795
5.797744
5.817413
##ZVALUE=270
0.702739
0.966787
0.861883
0.828505
0.752807
0.964999
0.967979
0.983477
1.042485
1.062751
1.004934
1.141429
1.072884
1.275539
1.564622
1.414418
1.835823
8.498430
25.528669
78.125000
159.245729
280.320644
484.962463
644.714832
815.094709
879.946947
866.239667
781.005621
620.657802
472.898483
327.925682
178.697705
107.259750
65.780878
64.312816
85.980892
107.364655
134.191513
148.230791
153.406858
150.398612
133.171678
114.847422
86.865425
66.579580
44.080615
34.272671
24.516582
20.417571
16.446710
16.541481
16.048551
16.289949
15.390515
15.277863
14.828444
15.189648
14.503598
14.016628
13.870597
13.580918
13.302565
13.351440
12.337565
12.459755
11.468530
11.813641
11.483431
11.188984
11.080503
10.732412
10.808706
10.592937
10.475516
10.449886
10.144711
9.857416
9.754896
9.098649
8.526444
8.303523
8.344650
7.907748
7.680655
7.293820
7.541776
6.593466
6.696582
7.016659
6.571412
6.151795
6.471872
6.013513
5.887747
5.816817
5.988479
##ZVALUE=275
0.829697
0.731945
0.711679
0.700951
0.793934
0.780821
0.878572
0.816584
0.961423
0.828505
0.803471
0.882745
0.890493
1.120567
1.103878
1.307726
1.212955
1.279712
1.331568
3.628731
14.727712
42.403936
122.895837
229.905844
425.385833
576.237440
751.144886
858.410597
910.123587
868.039727
767.852664
578.392744
413.891673
229.840875
139.975548
70.711970
55.278540
64.476728
82.487464
108.744502
127.168894
145.598650
151.031613
145.474672
132.536888
106.805563
90.176463
63.481927
46.871901
31.777620
23.615956
18.472672
17.072558
14.894605
14.544725
14.740825
14.571548
13.833642
14.169812
14.281869
13.884902
13.677478
14.111996
13.097525
13.046861
11.858940
12.076497
11.753440
11.369586
11.286736
11.289716
10.734797
10.656714
10.811687
10.395646
10.211468
9.877682
9.677410
9.108782
8.929968
8.213520
7.716417
7.689595
7.342696
7.587671
7.106662
7.114410
6.866455
6.492734
6.429553
6.368756
6.194711
5.988479
6.387830
5.754828
5.772710
##ZVALUE=280
0.641942
0.550747
0.625849
0.731945
0.733733
0.675917
0.742674
0.724792
0.959635
0.775456
0.684857
1.008511
0.744462
0.924468
1.041889
0.884533
0.924468
1.106858
1.100898
1.583695
1.707673
1.950860
9.824634
31.016469
97.399950
179.888606
331.273675
487.023592
698.545575
826.254487
857.559443
914.686918
836.814642
649.666786
486.670732
284.353495
172.562003
85.250735
51.342845
43.680668
55.734515
79.109669
99.652410
126.094818
138.209462
145.091414
140.329003
123.619437
106.650591
80.511570
62.082410
42.372942
30.936599
21.945834
16.803741
14.874935
14.092922
13.821721
13.635755
12.895465
13.402700
13.041496
12.398958
12.938976
11.608601
11.943579
11.872649
11.660457
11.649728
11.015534
10.504723
10.194778
9.741783
10.324717
10.129809
9.764433
9.947419
9.204745
9.522438
8.686781
8.203983
8.273721
8.053780
7.355809
7.352829
7.230639
7.077456
6.588697
6.362796
6.160736
6.156564
6.177425
5.972981
5.998611
5.770922
6.027818
##ZVALUE=285
0.635982
0.628829
0.730753
0.509620
0.513792
0.753999
0.675917
0.796914
0.651479
0.742674
0.768900
0.651479
0.534654
0.754595
0.722408
0.692606
0.678897
0.835657
0.929832
0.968575
0.995994
1.157522
1.334548
1.384616
4.497766
15.998483
52.985549
113.552809
245.966911
380.203724
584.282875
735.551715
893.797874
938.555002
883.544683
772.585869
564.728975
396.260619
214.651823
125.631690
56.920648
35.360456
36.049485
49.256682
72.235465
92.215538
115.212798
128.417611
137.199759
134.725571
120.300651
105.604529
80.024600
62.485933
40.794611
29.862523
19.515753
15.491843
13.346672
12.492537
12.333989
11.416674
11.659861
11.481643
11.007786
11.193752
10.643601
10.752678
11.161566
10.860562
10.259748
9.959936
10.481477
9.929538
9.554625
9.521842
8.564591
8.726716
8.502603
8.534789
8.256435
7.699728
7.114410
7.405877
7.179976
7.295609
6.692410
6.668568
6.597638
6.851554
6.180406
6.348491
6.135702
5.858541
5.974770
5.401969
##ZVALUE=290
0.529885
0.468493
0.529885
0.408888
0.495911
0.574589
0.795722
0.574589
0.542998
0.661612
0.590682
0.724792
0.637770
0.585914
0.731945
0.571609
0.620484
0.513792
0.723600
0.845790
0.888705
0.798702
1.165867
1.004934
1.344681
1.430511
2.123713
6.184578
29.765964
71.927905
140.575767
293.026567
449.635983
677.676797
827.868581
940.760970
938.899517
820.104480
678.998828
463.846922
313.693881
157.819986
85.642934
34.880638
24.650693
31.499863
44.381618
65.457821
84.175467
108.613968
122.620463
131.180882
130.374432
115.774870
99.996924
76.576471
58.257580
38.835406
27.836561
18.676519
13.918877
11.288524
10.339618
9.925961
9.760857
9.571910
9.727478
9.032488
9.022951
9.193420
9.038448
9.220839
9.217858
9.062886
8.946657
8.457899
8.199811
7.801652
7.703900
7.770658
7.521510
7.047653
7.137656
6.847978
6.773472
6.564856
6.421804
6.544590
6.434917
6.561875
6.122589
5.960464
6.052852
5.968809
5.904436
5.553961
##ZVALUE=295
0.399947
0.563860
0.514984
0.501871
0.507832
0.461936
0.648499
0.727773
0.522733
0.629425
0.606775
0.672936
0.664592
0.588894
0.634789
0.751615
0.555515
0.589490
0.619888
0.654459
0.765920
0.738502
0.947714
1.103878
1.012683
1.181960
1.148582
1.384616
1.645684
2.997518
14.816523
43.373704
97.471476
228.538513
369.594693
592.612624
747.576952
900.011659
947.935581
883.211493
768.398643
560.587645
389.288664
207.028985
114.369988
45.733452
23.851991
19.657612
25.741458
42.199492
57.236552
81.357956
98.923445
117.099881
123.026967
120.958686
112.420917
93.737841
76.479912
53.134561
38.747787
25.068521
18.029809
12.239814
10.295510
8.842945
8.437634
8.140802
7.703900
8.092523
8.007884
7.863641
8.199811
8.113980
7.953644
8.028746
7.678866
7.471442
6.801486
6.923676
7.037520
6.903410
6.298423
6.886721
6.476641
6.509423
6.278753
6.567836
6.085634
5.906820
6.057620
5.775690
6.269813
5.896688
5.887747
5.659461
##ZVALUE=300
0.596642
0.580549
0.498891
0.692606
0.605583
0.657439
0.572801
0.473857
0.638962
0.603795
0.558496
0.576973
0.587702
0.758767
0.667572
0.657439
0.744462
0.657439
0.669956
0.908971
0.796914
1.005530
0.941753
0.734925
0.869632
0.924468
1.143813
1.102686
1.305938
1.277924
1.462698
1.845956
4.612803
26.003718
64.961910
165.832639
282.023549
488.532782
655.897856
842.195749
928.368568
925.596952
839.203000
654.508471
485.126972
274.754763
164.519548
75.370669
36.755800
16.207695
16.729832
25.546551
35.936832
55.202842
72.486997
95.228553
108.232498
116.180778
116.094947
105.531812
93.345642
70.210695
54.841638
36.847591
25.871992
15.936494
11.367798
8.416772
7.692575
7.281899
6.790757
7.164478
7.147789
7.137656
6.993413
7.110834
7.027984
6.622672
6.965995
6.517768
6.896853
6.742477
6.787777
6.324649
6.609559
6.309748
6.345510
6.110668
6.021857
6.379485
6.003976
6.036758
5.671978
5.805492
6.072521
5.416870
##ZVALUE=305
0.440478
0.564456
0.531673
0.474453
0.740886
0.512600
0.451803
0.761747
0.518560
0.645518
0.530481
0.638962
0.663996
0.459552
0.531673
0.584722
0.611544
0.687838
0.717640
0.624657
0.850558
0.733733
0.757575
0.789762
0.822544
0.826716
0.917912
0.894666
0.811815
1.205802
1.103878
1.212955
1.243949
1.657605
2.590418
14.783740
41.650534
117.377639
214.094520
398.636460
561.410785
766.944885
890.388489
941.433907
888.198018
718.352795
566.433668
359.455943
225.126743
107.100010
53.450465
20.231605
13.095737
15.955567
22.747517
36.802888
51.332712
73.367953
87.698698
103.379488
110.160708
109.226704
102.417469
86.910725
70.507526
49.070716
35.622716
23.298860
15.638471
10.111928
7.881522
7.015467
6.485581
6.450415
6.560683
6.581545
6.382465
6.494522
6.329417
6.186962
5.979538
6.305575
6.117821
6.239414
5.722642
6.220937
6.112456
5.866885
5.899668
5.798936
5.640984
5.989671
5.788803
5.728602
5.451441
6.030798
##ZVALUE=310
0.423789
0.389814
0.504851
0.532866
0.477433
0.523925
0.491738
0.500679
0.469685
0.461936
0.416636
0.518560
0.487566
0.685453
0.778437
0.692606
0.667572
0.598431
0.641942
0.665784
0.617504
0.637770
0.757575
0.596642
0.689626
0.809431
0.795722
0.832677
0.635982
0.922680
0.919700
0.990629
1.163483
1.073480
1.431704
1.514554
2.032518
5.107522
26.452541
62.248707
155.075788
269.889832
474.290848
635.429621
825.701952
910.067558
914.397836
838.709474
661.195517
494.445562
288.219452
175.382495
76.283813
36.759973
14.072657
10.781884
14.056563
19.427538
30.810833
42.217970
63.574910
77.171922
94.237924
103.126764
104.569793
97.803473
83.505511
69.679618
48.296452
34.886599
21.811724
15.728474
10.090470
7.879734
6.310940
6.014705
5.507469
5.832911
5.569458
5.581975
5.690455
5.714893
5.478859
5.876422
5.582571
5.505681
5.654693
6.014705
5.579591
5.676746
5.583763
5.454421
5.553961
5.519986
5.374551
5.628467
##ZVALUE=315
0.439882
0.573993
0.684857
0.447631
0.623465
0.660419
0.478625
0.624657
0.511408
0.441670
0.515580
0.401735
0.588894
0.611544
0.512600
0.625849
0.628829
0.530481
0.629425
0.540614
0.659823
0.676513
0.648499
0.655651
0.654459
0.654459
0.788569
0.711679
0.657439
0.788569
0.874996
0.884533
0.820756
0.919700
1.058578
1.089573
1.247525
1.189709
1.514554
2.891421
10.763407
43.681860
98.091960
224.712491
361.003876
590.922832
738.426447
879.876018
925.341845
867.398977
758.835673
552.521944
397.890806
216.798782
117.746592
44.808984
19.981861
9.903908
9.210706
12.809634
17.376542
28.840899
40.157437
58.044791
72.465539
89.117885
96.666813
97.005963
92.793703
77.690482
64.903498
46.695471
34.303665
20.892620
14.258623
8.965731
7.026792
6.152987
5.584955
5.162954
5.462766
5.131960
5.538464
5.066991
5.173683
5.246997
5.234480
5.164742
5.213618
5.339980
5.256534
5.409718
5.122423
5.050898
5.141497
5.109906
##ZVALUE=320
0.531673
0.527501
0.488758
0.448823
0.436902
0.450611
0.373721
0.433922
0.475645
0.378489
0.551939
0.513792
0.520945
0.422597
0.504851
0.676513
0.465512
0.479817
0.480413
0.464916
0.581741
0.688434
0.643730
0.662804
0.712872
0.607967
0.648499
0.798702
0.704527
0.829697
0.734925
0.834465
0.902414
1.044869
0.999570
0.949502
0.993609
1.171827
1.340508
1.206994
1.357794
1.791716
4.766583
24.760962
63.107610
163.930655
274.260640
459.765792
620.371699
810.633898
896.454453
897.696018
817.872882
640.881658
476.108789
270.924568
156.751871
67.886710
30.816793
11.511445
7.882714
8.437634
10.917783
16.281605
23.526549
37.708879
51.330924
68.469644
80.718994
90.831518
91.887712
86.012483
76.823831
59.220791
45.632720
30.063987
21.098852
13.036728
9.112954
6.418824
5.750656
5.019903
4.837513
4.589558
4.773736
4.840493
4.972816
4.911423
5.016923
4.709959
4.880428
4.658699
4.821420
5.071759
4.868507
4.942417
##ZVALUE=325
0.478625
0.431538
0.431538
0.540614
0.362992
0.301600
0.307560
0.466704
0.443459
0.480413
0.536442
0.562668
0.491738
0.408888
0.506639
0.436902
0.472665
0.452995
0.574589
0.502467
0.547767
0.434518
0.631809
0.568628
0.663996
0.544786
0.745654
0.778437
0.640750
0.686646
0.759959
0.737906
0.640750
0.772476
0.795722
0.853539
0.882745
0.897646
0.914931
0.930429
1.289845
1.210570
1.325607
1.554489
2.811551
15.638471
41.525960
111.013651
200.840831
382.151008
536.315441
733.139515
843.542814
895.217657
846.210718
685.867667
529.701710
328.495502
203.239918
90.454817
44.059753
15.090704
8.235574
6.540418
7.227659
10.027885
14.167428
23.255944
33.806562
51.837564
64.168572
77.852607
84.810853
86.326599
81.338882
68.037510
56.881905
40.087700
29.202700
17.796755
12.297630
7.769465
5.967617
4.935861
4.894733
4.639626
4.595518
4.668832
4.513860
4.374981
4.419684
4.467964
4.489422
4.680753
4.639626
4.657507
##ZVALUE=330
0.514984
0.584722
0.446439
0.499487
0.317693
0.510812
0.559688
0.429749
0.432730
0.409484
0.486970
0.598431
0.435710
0.610948
0.567436
0.487566
0.564456
0.472665
0.422597
0.479817
0.560880
0.480413
0.625849
0.609756
0.600815
0.587702
0.702739
0.717640
0.634789
0.719428
0.704527
0.618696
0.719428
0.628829
0.716448
0.753999
0.782609
0.863671
0.825524
0.848770
1.059771
0.948906
0.888705
1.051426
1.153946
1.159906
1.897812
5.468726
26.613474
64.785480
158.160925
265.378952
461.188555
612.198710
781.838894
861.625671
845.866799
758.852959
584.219694
434.603691
245.245695
141.083598
59.256554
26.842952
8.977652
6.291866
6.112456
6.554723
9.146929
13.585687
23.116469
32.388568
47.451854
59.868693
72.774887
78.751445
79.481602
75.343847
63.303709
51.510930
36.860704
27.165413
17.732978
12.697577
8.131862
6.250739
4.839897
4.676580
4.399419
4.300475
4.350543
4.236698
4.044771
4.195571
4.051924
4.176497
##ZVALUE=335
0.395775
0.270605
0.368953
0.430942
0.476837
0.495911
0.511408
0.419617
0.522733
0.484586
0.596642
0.469685
0.507832
0.444651
0.416636
0.406504
0.380874
0.409484
0.452995
0.513792
0.500679
0.457764
0.441670
0.642538
0.690818
0.561476
0.511408
0.506639
0.665784
0.448823
0.684857
0.685453
0.732541
0.675917
0.602603
0.647902
0.882745
0.719428
0.770688
0.725985
0.725985
0.767708
1.030564
0.888705
1.010895
1.084805
0.979900
1.246929
1.339912
2.656579
14.384985
39.401650
109.282732
198.061466
368.206501
522.880554
719.828010
816.013813
848.274827
796.931982
641.430020
495.396852
306.748748
187.914968
81.140995
37.432909
12.271404
6.614923
5.260706
5.546808
6.736517
8.011460
13.480783
19.474626
30.987859
41.919947
55.778623
66.388845
74.960589
74.830651
68.143606
60.697794
48.149824
38.389564
26.570559
19.245744
11.880994
8.584857
5.894899
4.741549
4.330873
4.146695
4.054904
4.110932
3.824830
3.920794
##ZVALUE=340
0.458956
0.349879
0.340939
0.330806
0.234842
0.405908
0.391603
0.470877
0.462532
0.287890
0.564456
0.575781
0.533462
0.447631
0.388622
0.493526
0.488758
0.335574
0.374913
0.415444
0.543594
0.359416
0.526905
0.479817
0.511408
0.484586
0.464916
0.579953
0.564456
0.514984
0.531673
0.410676
0.548959
0.682473
0.532866
0.502467
0.615716
0.559688
0.809431
0.663996
0.795722
0.782609
0.808835
0.619888
0.898838
0.916719
0.834465
0.984669
1.099706
1.241565
1.258850
1.757741
5.696416
27.367473
67.046881
167.285800
281.955600
464.195013
611.061454
764.779449
818.611979
790.566802
699.895620
527.935624
378.469825
199.988484
111.106634
46.066642
18.644929
6.697774
5.593896
5.253553
5.103946
6.082654
7.908940
12.990832
18.654466
29.114485
39.762855
53.816438
62.036514
69.407821
69.558620
64.945817
57.560802
46.185851
36.777854
25.521517
18.561482
11.867881
7.963777
5.399585
4.735589
4.001856
3.968477
3.975630
##ZVALUE=345
0.322461
0.251532
0.342727
0.236630
0.170469
0.200868
0.348687
0.543594
0.255704
0.369549
0.328422
0.244975
0.302792
0.339746
0.383854
0.436902
0.423789
0.419617
0.428557
0.380874
0.536442
0.339746
0.236630
0.533462
0.521541
0.390410
0.657439
0.426769
0.444651
0.432730
0.582933
0.365973
0.602603
0.493526
0.526905
0.521541
0.611544
0.575781
0.512600
0.580549
0.458956
0.618696
0.602603
0.738502
0.722408
0.591874
0.751615
0.734925
0.687838
0.837445
0.917912
0.756979
1.095533
1.186728
2.469420
15.165806
42.620897
116.711855
205.206871
365.985632
509.355664
682.207942
769.026875
797.117949
740.909576
582.728982
441.567898
267.660618
154.144764
61.735511
27.608871
9.365678
5.766749
5.309582
4.892945
4.683733
5.464554
7.284880
10.425448
17.957687
25.854707
38.172603
46.595931
57.163835
62.511563
64.544678
61.673522
54.277778
46.302676
35.005808
26.921630
17.113686
12.173653
7.659793
5.657673
4.257560
##ZVALUE=350
0.381470
0.283718
0.348687
0.281930
0.434518
0.468493
0.290871
0.316501
0.313520
0.292659
0.428557
0.395775
0.313520
0.467896
0.331998
0.318885
0.243783
0.481606
0.376701
0.279546
0.335574
0.454783
0.422597
0.389814
0.557899
0.419617
0.277758
0.469685
0.411868
0.611544
0.386834
0.633597
0.442863
0.398755
0.653863
0.536442
0.629425
0.546575
0.739694
0.603795
0.528693
0.682473
0.521541
0.551939
0.651479
0.624657
0.729561
0.643730
0.814795
0.832677
0.747442
0.808835
0.808835
1.098514
1.027584
1.170635
1.716614
5.847812
26.163459
61.933994
153.505802
258.299708
431.859493
571.596622
719.051957
774.610639
741.419792
653.231740
464.532971
321.189761
165.309906
91.458559
35.524964
14.567971
6.005764
4.885793
4.310608
4.248619
4.287958
4.815459
6.667972
9.796619
15.389919
21.855831
32.395720
40.830970
51.063895
56.189895
58.441758
57.475567
50.405860
43.373704
33.337474
25.505424
16.873479
12.061596
##ZVALUE=355
0.351667
0.498891
0.382662
0.333786
0.364780
0.419617
0.431538
0.418425
0.416636
0.297427
0.358820
0.396967
0.309944
0.572801
0.593662
0.370741
0.309944
0.404716
0.471473
0.589490
0.504851
0.601411
0.572801
0.535846
0.459552
0.532866
0.494719
0.490546
0.463724
0.550747
0.614524
0.563860
0.542998
0.413656
0.526905
0.602603
0.609756
0.574589
0.476837
0.583529
0.525713
0.569820
0.677705
0.673532
0.695586
0.610948
0.604987
0.722408
0.665784
0.685453
0.773668
0.904799
0.801682
0.843406
0.749826
0.946522
1.087785
1.042485
1.390576
3.451705
12.415648
48.084855
98.659992
210.063457
332.948565
524.753928
646.327734
745.629668
755.942464
658.353567
541.526675
365.932584
237.934589
107.698441
52.311420
16.563535
7.193685
5.023479
4.437566
4.225969
3.932714
4.200935
4.693866
5.861521
8.303523
13.508797
19.103885
28.792620
36.056638
44.948459
50.809979
53.128600
52.030683
47.028661
40.906668
32.157898
##ZVALUE=360
0.397563
0.453591
0.309944
0.209808
0.270605
0.574589
0.438690
0.354648
0.550747
0.479817
0.627637
0.374913
0.377893
0.512600
0.462532
0.324845
0.563860
0.361800
0.321865
0.448823
0.486970
0.478625
0.586510
0.412464
0.383854
0.605583
0.456572
0.591874
0.545979
0.529885
0.605583
0.440478
0.475645
0.521541
0.520945
0.559688
0.507832
0.590682
0.506639
0.621676
0.505447
0.518560
0.585914
0.648499
0.512600
0.627637
0.634789
0.712872
0.681877
0.542998
0.673532
0.861883
0.803471
0.792742
0.827909
0.927448
1.066923
0.845790
1.039505
1.142621
1.296997
1.781583
5.449653
24.600625
59.909821
151.677728
254.921913
421.802998
560.598969
699.046850
740.425587
697.718859
601.968765
423.146486
287.061930
144.620538
76.223612
28.124452
11.230707
4.976988
4.484653
4.221797
3.721714
3.862977
3.511906
3.957748
4.552603
7.186532
10.111928
16.086698
22.616982
31.272769
37.857890
45.424700
48.444867
48.564672
##ZVALUE=365
0.415444
0.307560
0.269413
0.265837
0.516772
0.479817
0.397563
0.444651
0.347495
0.460744
0.429749
0.402927
0.464916
0.408888
0.491738
0.376701
0.521541
0.356436
0.398755
0.510812
0.515580
0.290871
0.578761
0.306964
0.492930
0.645518
0.390410
0.531673
0.549555
0.591874
0.586510
0.512600
0.498891
0.613928
0.548959
0.604987
0.458956
0.439882
0.576973
0.589490
0.670552
0.552535
0.459552
0.525713
0.422597
0.543594
0.711679
0.699759
0.564456
0.633597
0.639558
0.811815
0.793934
0.725985
0.813603
0.852942
0.804663
0.962615
0.886917
0.983477
1.035929
1.054406
1.323819
1.463890
2.524853
12.587905
36.749840
103.826523
190.144777
344.328880
478.814840
633.502007
707.786679
708.736777
635.005832
476.955771
343.822837
192.530751
107.133985
40.684938
16.887784
5.757809
4.499555
4.108548
3.774762
3.583431
3.375411
3.366470
3.506541
4.367828
5.655885
9.089708
12.876987
19.455552
25.666952
33.759475
##ZVALUE=370
0.419617
0.344515
0.377893
0.255704
0.184774
0.303984
0.339746
0.509620
0.390410
0.473857
0.219941
0.406504
0.418425
0.441670
0.571609
0.381470
0.400543
0.358820
0.435710
0.429749
0.555515
0.434518
0.463724
0.514984
0.441670
0.423789
0.549555
0.559688
0.419617
0.397563
0.354648
0.437498
0.462532
0.359416
0.503659
0.485778
0.548959
0.375509
0.471473
0.644922
0.584722
0.559688
0.642538
0.744462
0.446439
0.587702
0.682473
0.579953
0.543594
0.613928
0.564456
0.634789
0.615716
0.560880
0.490546
0.716448
0.760555
0.631809
0.781417
0.868440
1.012683
0.893474
0.825524
1.087785
1.141429
1.341701
1.654625
7.251501
23.815632
72.894692
141.468644
280.537605
411.263704
588.402748
683.759451
721.025467
675.233603
541.433692
408.240557
237.297416
137.681961
56.018829
25.017858
7.943511
4.529953
3.801584
3.725886
3.428459
3.204942
2.980828
3.075600
3.278852
3.586411
5.118847
7.071495
11.490583
##ZVALUE=375
0.442863
0.295639
0.443459
0.482798
0.427961
0.512600
0.413656
0.485778
0.218749
0.387430
0.287890
0.389814
0.423789
0.455976
0.382662
0.590682
0.487566
0.550747
0.392795
0.442863
0.397563
0.509620
0.458956
0.425577
0.421405
0.351667
0.412464
0.512600
0.479817
0.510812
0.501871
0.389814
0.316501
0.428557
0.593662
0.381470
0.517964
0.670552
0.600815
0.526905
0.606775
0.586510
0.635982
0.537634
0.525713
0.626445
0.494719
0.560880
0.512600
0.642538
0.663996
0.704527
0.579953
0.452995
0.594854
0.569820
0.546575
0.602603
0.498891
0.639558
0.764728
0.696778
0.870824
0.775456
0.783801
0.893474
1.083612
1.116991
1.451969
3.661513
12.201667
43.810606
94.762444
213.463902
337.106586
517.406464
631.859899
717.631578
711.061954
601.023436
474.726558
295.177698
188.905597
94.081759
47.540665
15.637875
6.659627
3.917813
3.413558
3.303885
3.120899
3.121495
2.881885
2.998710
2.795458
3.318787
##ZVALUE=380
0.379682
0.476837
0.415444
0.438690
0.385642
0.426769
0.297427
0.383854
0.530481
0.357628
0.356436
0.393987
0.492930
0.413656
0.458956
0.349879
0.316501
0.413656
0.218749
0.398755
0.401735
0.433922
0.512600
0.322461
0.321865
0.434518
0.475645
0.488758
0.576973
0.513792
0.477433
0.439882
0.611544
0.472665
0.662804
0.632405
0.572801
0.721812
0.620484
0.618696
0.679493
0.645518
0.603795
0.848770
0.636578
0.648499
0.563860
0.457764
0.528693
0.431538
0.588894
0.770688
0.569820
0.636578
0.731945
0.608563
0.468493
0.565648
0.505447
0.688434
0.659823
0.755787
0.794530
0.815988
0.709891
0.697970
0.970960
1.037717
1.083612
1.156926
1.351833
2.146959
6.810427
31.149983
72.241426
170.939565
278.076530
442.937016
570.519567
691.113472
717.201829
648.381710
540.632606
373.063684
252.824426
126.596689
65.236688
23.001432
9.543896
4.128814
3.354549
3.405809
3.210902
2.944469
2.815723
2.718568
##ZVALUE=385
0.432730
0.227690
0.296831
0.268817
0.300407
0.298619
0.343919
0.411868
0.446439
0.289679
0.345707
0.237823
0.246763
0.362992
0.406504
0.367761
0.435710
0.502467
0.320673
0.489950
0.280738
0.338554
0.479817
0.510812
0.373721
0.432730
0.596642
0.487566
0.430942
0.696778
0.643730
0.815988
0.670552
0.736713
0.898838
0.776649
0.760555
0.684857
0.964999
0.794530
0.896454
0.798702
0.810623
0.823736
0.754595
0.885725
0.711679
0.652671
0.665784
0.693798
0.575781
0.620484
0.548959
0.668764
0.648499
0.484586
0.565648
0.576973
0.770688
0.548959
0.705719
0.637770
0.542998
0.734925
0.558496
0.691414
0.607967
0.839829
0.952482
0.974536
1.062751
1.044869
1.321435
1.211762
3.640652
13.157725
49.104691
104.374886
225.793719
349.280834
523.963571
627.852678
698.928833
694.170594
603.102446
489.040017
320.665836
206.305981
94.487667
46.659708
15.451908
5.982518
3.502965
3.148913
2.935529
2.897978
##ZVALUE=390
0.389814
0.409484
0.296831
0.554919
0.405908
0.548959
0.307560
0.394583
0.376701
0.316501
0.380874
0.369549
0.433922
0.278950
0.177622
0.287890
0.386834
0.395775
0.245571
0.487566
0.380874
0.381470
0.520945
0.344515
0.555515
0.560880
0.531673
0.675917
0.692606
0.806451
0.927448
0.836849
1.041889
0.927448
0.857711
0.989437
0.976920
0.958443
1.013875
1.015663
1.004934
0.851750
0.818968
0.712872
0.829697
0.756979
0.785589
0.765920
0.790954
0.890493
0.781417
0.642538
0.654459
0.591874
0.453591
0.616908
0.644922
0.528693
0.632405
0.655651
0.633597
0.658631
0.630617
0.677705
0.638962
0.719428
0.656843
0.769496
0.913739
0.992417
1.145601
0.945926
0.989437
1.074672
1.143813
1.082420
1.745820
8.884668
28.205514
86.352825
163.333416
310.415626
429.481864
571.179986
657.578707
699.313879
660.279989
540.152788
420.720577
263.971686
155.775547
65.114498
29.243827
8.176565
4.146695
3.215671
##ZVALUE=395
0.373721
0.358820
0.319481
0.440478
0.295639
0.313520
0.385642
0.317693
0.359416
0.513792
0.382662
0.433922
0.360608
0.383854
0.337958
0.204444
0.351667
0.462532
0.380874
0.380874
0.378489
0.376701
0.352859
0.573993
0.480413
0.601411
0.472665
0.657439
0.811815
0.720620
0.765920
0.893474
1.021624
1.027584
1.119971
1.153946
1.095533
1.050830
1.000762
1.089573
0.968575
1.025796
0.905991
0.996590
0.914931
0.777841
0.934601
0.775456
0.723600
0.744462
0.613928
0.504851
0.681877
0.671744
0.757575
0.555515
0.608563
0.586510
0.649691
0.484586
0.632405
0.725985
0.627637
0.636578
0.671744
0.751615
0.716448
0.620484
0.805855
0.842810
0.859499
0.761747
0.812411
0.716448
0.915527
1.067519
0.924468
1.025796
1.268983
4.944801
17.964840
62.377453
119.139552
229.378939
344.317555
510.722995
618.385673
700.189471
697.822571
611.627698
493.788719
316.967964
202.948451
90.523958
43.245554
14.349818
##ZVALUE=400
0.487566
0.629425
0.421405
0.357628
0.531673
0.359416
0.331998
0.363588
0.286698
0.349879
0.306964
0.359416
0.395775
0.191927
0.323653
0.443459
0.418425
0.240803
0.308752
0.346899
0.296831
0.255704
0.416636
0.385642
0.368953
0.481606
0.487566
0.499487
0.635982
0.667572
0.737906
0.748634
0.888705
0.864863
0.944734
1.061559
0.905991
1.000762
0.991821
0.907779
0.953674
0.874996
0.807643
0.752807
0.820756
0.872612
0.602603
0.857711
0.694990
0.724792
0.768900
0.519753
0.677705
0.532866
0.566840
0.716448
0.548959
0.812411
0.588894
0.654459
0.687838
0.645518
0.691414
0.568628
0.611544
0.651479
0.692606
0.720620
0.651479
0.972748
0.743866
0.899434
0.819564
0.851750
0.845790
0.858903
0.855923
0.834465
0.942945
1.115799
1.218915
2.773404
9.313822
34.566522
76.422691
174.314976
282.179713
447.229743
563.693643
659.515858
681.819916
616.557598
519.376993
356.307626
240.026712
124.958754
##END
