##TITLE=FSH751
##FORMAT=SPECTACLE-ASCII V-1.2
##DATA TYPE=ULTRAVIOLET SPECTRUM
##SECOND TYPE=ULTRAVIOLET SPECTRUM
##DATE=05/24/18
##TIME=15:45:37
##SPECTROMETER/DATA SYSTEM=SPECTACLE
##XUNITS=NM EM
##YUNITS=ENERGY
##YFACTOR=1
##FIRSTX=220
##LASTX=410
##NPOINTS=96
##3DDATA=Equidistant
##ZUNITS=NM EX
##FIRSTZ=210
##LASTZ=400
##ZPOINTS=39
##XYDATA=(Y..Y)
##ZVALUE=210
16.086698
15.886426
13.911724
12.327433
12.696981
12.121797
11.781454
8.720756
7.741451
6.518960
5.091429
4.347563
4.422665
4.010797
4.507899
4.116893
4.129410
4.908442
4.725456
5.077720
5.368590
4.885793
6.102920
5.982518
8.693933
10.383725
14.602542
20.335913
25.068521
28.344989
35.309792
40.496588
44.135451
49.256682
48.445463
51.032901
51.743984
50.015450
48.895478
46.567917
41.238666
42.957664
39.927959
37.098527
35.108924
31.020641
32.043457
27.335882
26.181936
24.837852
22.822618
20.924807
21.049976
19.983649
18.301606
17.059445
16.583800
15.510917
14.399886
15.116930
14.812946
12.022853
12.887716
13.195872
14.484525
13.097525
15.475750
16.788840
19.889474
22.581816
23.986697
26.174784
27.780533
30.652881
30.290484
28.852820
28.806925
27.380586
26.740432
21.658540
18.989444
18.296838
16.173720
11.156797
10.590553
11.096597
10.175705
10.417700
9.069443
10.965466
11.448860
14.909506
18.536448
22.310615
26.993752
33.647418
##ZVALUE=215
48.300624
49.895644
38.205981
28.856993
27.020574
23.195744
23.506880
19.921660
20.186901
18.808842
15.314817
11.645555
8.860826
4.955530
4.802942
4.926920
4.080534
4.120469
4.463792
4.633665
5.131960
5.244613
5.491972
6.720424
8.880496
12.830496
18.465519
23.321509
32.240748
40.683746
46.439767
52.661896
58.142543
63.154697
64.825416
67.542791
65.916777
62.764883
64.357519
58.757663
57.419538
53.670406
51.727891
47.795773
44.380426
39.611459
37.480593
35.335422
31.825900
30.132532
27.406812
27.019978
23.904443
23.077726
21.262765
20.577908
19.068718
17.247796
17.530918
15.379786
16.163588
13.975501
13.615489
14.858842
15.061498
14.157891
15.495420
15.981793
17.672777
19.330978
20.632744
22.415519
23.047924
25.138855
24.780631
23.872852
21.574497
21.527410
20.764470
16.663671
15.626550
14.745593
13.432503
12.339950
11.789799
9.814501
9.177923
9.058714
8.554459
8.385777
8.215904
9.047985
8.131862
9.303689
10.631680
12.708902
##ZVALUE=220
132.409930
130.750537
116.881728
98.769665
82.431436
60.368776
48.606992
36.483407
36.005974
37.604570
34.781694
31.685829
28.717518
22.276640
18.536448
11.663437
9.487867
6.711483
5.107522
4.177690
4.079938
5.348921
5.177855
7.419586
9.860992
12.632608
20.064712
28.329492
38.314462
46.189427
55.705905
63.088536
72.809458
76.184869
77.634454
80.236793
76.926947
76.697469
76.236725
74.125528
68.665743
64.122677
60.528517
54.662824
49.654841
48.365593
44.104457
42.230487
34.553409
34.861565
31.276941
29.604435
27.485490
25.265813
23.226738
22.402406
20.926595
20.641685
19.175410
17.068982
16.529560
16.113520
15.718937
14.299750
14.920831
16.237497
14.986992
16.326904
16.571879
16.718507
18.930435
19.561648
21.125674
20.904541
21.734834
20.823479
19.328594
21.236539
17.815828
16.753674
14.216900
13.282895
11.320710
10.648966
10.298491
9.583831
9.158850
8.504987
7.046461
8.530617
7.996559
7.573962
7.633567
8.129478
7.730722
8.780956
##ZVALUE=225
171.679854
182.593465
209.979415
224.757791
211.034417
181.546807
148.069859
105.191469
76.926947
62.671900
54.184794
51.637888
52.385926
52.509904
48.015714
39.949417
31.242967
23.599863
18.146634
10.623932
7.513762
5.333424
5.652905
6.374717
9.371638
14.558434
18.416643
26.144981
34.507513
42.541623
52.364469
60.559511
66.722631
69.834590
73.784590
74.000955
76.034665
72.436929
69.187880
66.788793
65.347552
61.050653
55.534840
52.434802
49.442649
42.910576
40.553808
35.905838
34.364462
30.569434
30.364990
28.701425
25.828481
24.498701
23.154616
21.300912
20.338893
19.648671
18.857718
16.825795
16.411543
15.591979
15.482903
14.859438
15.109777
14.173985
15.103817
15.419722
16.496778
16.386509
18.049479
18.158555
18.943548
18.661618
20.004511
18.592477
17.406940
16.042590
15.122890
14.155507
12.663603
11.124611
10.645986
10.568500
9.032488
9.498596
9.083748
8.430481
8.556843
8.829832
7.366538
8.072853
7.827878
7.996559
7.686615
7.578731
##ZVALUE=230
116.439462
126.355886
185.029507
267.712474
323.460698
348.736644
342.867970
303.395987
253.750682
183.574557
127.761960
92.139840
74.127913
69.342852
71.772933
76.873899
73.355436
66.029429
55.133700
42.207837
28.753877
20.902753
11.477470
9.788871
8.789897
11.370778
12.918711
18.496513
22.783875
28.376579
32.020807
39.132833
41.844845
44.684410
47.554970
45.710802
48.859715
47.802925
43.849945
42.971969
42.494535
38.143992
36.135912
33.521652
31.062961
30.379891
28.695464
27.212501
24.420619
23.416877
23.271441
20.814538
20.027757
19.419789
18.533468
17.776489
16.120672
15.274882
15.516877
14.945865
15.481710
14.208555
14.673471
12.532473
14.414787
13.872981
13.662577
15.914440
14.808774
15.956759
16.993880
18.614531
16.727448
17.279983
17.237663
17.735958
16.200542
15.247464
14.265776
12.732744
13.395548
11.629462
10.439754
11.083484
10.035634
10.029674
10.136962
9.440780
9.215474
9.479523
8.880496
8.780956
8.116961
9.034872
8.884668
8.592606
##ZVALUE=235
29.151440
35.888553
73.570609
160.400867
248.176455
361.666679
439.489484
516.711473
527.435541
498.761535
409.538746
318.987966
204.830766
141.156912
100.571513
85.504651
86.687803
91.014504
95.012784
90.254545
81.768632
64.936876
51.547885
32.558441
23.511648
15.065670
12.723804
12.078881
13.152957
14.806986
16.495585
18.457770
20.812750
22.031665
23.292899
23.862720
24.007559
24.001598
22.415519
22.593737
21.830797
20.567775
21.249652
20.180941
19.357800
17.733574
17.639995
16.775727
16.573668
15.058517
14.911890
14.153719
14.866590
14.381409
14.275908
13.123751
13.645887
13.269782
12.480617
12.533665
12.549758
12.770891
13.610721
12.414455
12.758970
12.599826
13.392568
13.629794
14.038682
14.567971
15.574694
15.840530
17.034411
16.348958
16.164780
16.082525
16.048551
15.204549
13.586879
13.148785
12.142658
11.844635
11.180639
10.771751
10.674000
9.377599
9.995699
10.469556
9.739995
9.214878
8.788705
9.549856
8.710623
9.002686
8.913875
9.207726
##ZVALUE=240
2.082586
2.319813
8.899570
27.362704
81.183910
147.637725
283.454657
413.099527
580.086708
679.056644
726.339817
700.893998
616.293550
473.466516
355.190635
220.283866
156.890750
108.371973
95.068812
98.446608
104.659796
108.070970
102.520585
88.689923
67.355633
53.249002
36.010742
26.966929
17.202497
13.373494
11.640787
11.106730
11.380911
12.551546
12.568831
12.866855
12.387633
13.966560
14.063716
13.644695
14.480948
14.312863
13.999939
14.108419
14.359951
13.228655
13.278723
12.860894
12.828708
12.742877
11.715889
11.883974
12.501478
12.098551
11.512637
11.304617
10.999441
10.675788
9.972453
10.406971
10.689497
10.259748
10.889769
10.336637
10.356903
10.925531
11.140704
11.402965
12.545586
13.263822
13.961792
14.624000
15.406609
15.033484
14.515519
14.106631
14.293790
13.045669
13.156533
11.796951
11.683702
10.971427
10.426641
10.640621
10.313988
9.365678
9.737611
9.780526
9.169579
9.749532
9.521842
8.876920
7.997751
8.349419
8.662939
8.376837
##ZVALUE=245
1.462698
1.261830
1.288652
1.482964
4.462600
13.648868
46.438575
98.447800
215.345621
327.902436
503.711700
619.044900
707.647800
738.505721
694.978833
575.125813
464.350581
312.551856
216.650963
129.618645
95.163584
87.812543
110.999942
113.748908
113.504529
105.026960
93.504786
73.650479
60.239434
42.564869
30.370951
20.409822
15.706420
12.687445
12.024641
12.634993
12.756586
12.624860
13.022423
14.001727
14.109612
13.689995
14.301538
14.652610
14.477968
13.570786
12.985468
13.402700
12.070537
12.828708
11.946559
11.109710
11.134744
11.024475
10.170937
10.060668
9.550452
9.678602
9.723902
9.056926
9.047985
9.361506
8.451939
8.587837
8.883476
8.668900
8.878708
9.538531
10.592937
10.760427
11.728406
11.689663
11.663437
12.165904
11.808872
12.266636
12.173653
10.650754
10.310411
10.003448
10.176897
9.440780
9.377599
8.664727
8.758903
8.593798
8.934736
8.566976
7.965565
8.031726
8.407831
7.903576
7.933974
8.065701
8.129478
8.051991
##ZVALUE=250
1.180768
1.170635
1.225471
1.237988
1.472831
1.618862
2.315640
11.154413
33.177733
90.264678
166.498423
314.672589
446.746945
619.242787
719.637871
798.074603
800.054669
709.487796
600.787997
414.421558
283.948779
162.896514
105.816722
80.207586
87.213516
103.025436
113.161802
117.225647
111.558437
103.511810
83.743930
68.872571
48.708916
36.951900
24.702549
20.544529
17.008781
16.080737
16.328692
16.238689
16.338825
15.316606
15.871525
15.531778
15.205741
14.517903
13.942719
14.340878
12.511611
12.417436
11.608601
11.579990
10.880828
9.646416
9.792447
9.593964
9.479523
9.540915
8.956790
8.737445
8.245707
8.269548
8.077621
8.057952
8.052588
8.482933
8.237958
8.582473
8.582473
8.968711
9.612441
10.278821
10.921955
10.334849
10.578632
9.684563
9.828806
9.684563
9.392500
8.861423
7.747412
7.987618
7.875562
7.516742
8.175969
7.694960
7.390976
7.072687
7.904768
7.340908
7.325411
7.620454
7.298589
7.126927
7.079840
7.096529
##ZVALUE=255
1.028776
0.903606
1.093745
1.118779
1.103878
1.308918
1.389980
1.472831
1.811981
4.875660
25.577545
62.266588
124.555826
252.504945
380.343795
567.145944
686.201453
793.583989
822.083950
764.403939
655.962825
520.943999
326.577425
207.319856
109.833479
77.228546
73.983669
85.654855
105.364919
118.998885
126.718879
123.875737
113.691688
94.387531
77.154636
55.699944
44.004917
32.035708
25.645494
22.455454
20.608902
19.369721
19.119978
18.620491
18.187761
17.003417
16.402602
15.419722
14.919639
14.145970
12.957454
12.348890
11.439919
11.311769
10.922551
10.029674
9.602904
9.632707
8.864999
8.282661
8.021593
8.057952
7.730722
7.590652
7.707477
7.549524
7.119775
7.972717
7.573962
8.046627
8.445978
8.336902
8.857846
8.757710
8.876920
8.494854
8.521676
8.062720
7.356405
7.377863
7.281899
6.606579
6.935596
6.438494
6.481409
6.630421
6.742477
6.584525
6.617904
6.323457
6.513000
6.269813
6.379485
6.193519
6.304979
6.263852
##ZVALUE=260
0.988841
0.880957
0.973940
0.846982
1.031756
1.076460
1.217723
1.174808
1.228452
1.335740
1.560450
2.132654
11.127591
31.939745
87.827444
164.828897
316.954851
451.411605
634.670854
760.513544
848.336816
834.449530
720.672607
590.159893
390.688777
264.187455
149.371624
97.126961
69.087744
73.870420
95.748901
113.824606
132.627487
137.589574
136.505961
124.424696
105.673671
88.098645
64.539909
49.233437
36.913753
30.132532
25.355816
23.025870
21.166801
19.841790
18.803477
18.063784
16.033649
15.590787
15.118718
13.923645
12.660623
11.812449
11.411905
10.531545
9.627938
9.814501
9.047985
8.783937
8.254647
8.029938
7.515550
7.463694
7.303953
7.383823
7.027984
7.280707
7.595420
7.476807
7.194877
7.677674
8.212924
7.837415
7.436872
7.213950
7.250905
6.996989
6.592870
6.721616
6.077886
6.444454
5.914569
6.034970
5.682707
5.886555
5.848408
5.926490
5.831718
5.757809
6.198883
5.768538
5.611777
5.654693
5.729795
5.541444
##ZVALUE=265
0.915527
0.922680
1.041889
0.851750
0.901818
1.016855
0.985861
0.989437
1.085997
1.071692
1.217723
1.325607
1.353621
1.677871
11.822581
19.385815
46.594739
120.595694
212.124586
396.498442
545.156002
726.038814
842.449665
848.803520
765.722990
653.389692
470.239520
335.304737
194.854736
124.380589
77.801943
70.423484
85.956454
104.781985
127.132535
137.925744
145.295858
139.917731
124.366879
108.897686
84.980726
66.656470
50.351620
35.662651
28.731823
23.198724
20.140409
19.075871
17.835498
16.220808
16.136765
14.208555
13.964772
12.974739
12.089610
11.318922
10.803938
9.898543
9.498000
9.193420
8.596778
7.996559
7.624626
7.616878
7.371902
7.340908
7.245541
7.215738
7.196665
7.724762
7.349849
7.586479
7.854700
7.599592
7.221699
7.112622
6.741881
6.900430
6.122589
6.231666
6.144643
6.192923
5.698800
5.745888
5.246997
5.422831
5.412698
5.524755
5.319715
5.348921
5.359650
5.331635
5.337000
5.419850
5.195737
5.219579
##ZVALUE=270
0.900626
0.684857
0.766516
0.656843
0.844598
0.855923
0.885725
0.939965
1.045465
0.919700
1.012683
1.035929
1.196861
1.301765
1.242757
1.402497
1.824498
7.559657
22.704601
76.329708
154.294968
273.056626
481.625795
647.261739
825.566649
884.915590
865.014791
786.944628
613.361597
460.424423
320.597887
177.254677
109.631419
70.361495
68.704486
86.254478
103.360415
125.818849
136.520863
142.198801
139.468908
124.247670
107.383728
82.571507
63.052773
43.400526
33.272505
24.532676
19.813776
16.827583
15.861988
13.987422
13.563633
12.689829
11.750460
11.601448
10.738969
10.141730
9.628534
9.198785
8.721948
8.288622
8.065701
7.845759
7.451773
7.139444
7.146597
7.209778
6.900430
7.553697
7.537603
7.239580
7.449985
7.423759
7.162690
6.991625
6.631613
6.540418
6.114841
6.102920
6.029606
5.760789
5.553961
5.561709
5.457997
5.223751
5.357862
5.356669
5.052686
5.223751
5.144477
4.735589
4.867911
4.841685
5.201697
4.752874
##ZVALUE=275
0.717640
0.878572
0.705719
0.775456
0.743866
0.741482
0.789762
0.833869
0.924468
0.953674
0.860691
0.920892
1.173615
1.085997
0.971556
1.133680
1.300573
1.266599
1.478791
3.807545
13.263822
50.257444
113.604665
216.603875
413.767695
571.878552
763.202906
876.001716
928.083658
884.367824
739.470720
593.793988
382.674932
245.509744
125.260949
75.146556
52.905679
57.621002
74.615479
91.601610
111.600757
124.793649
131.348968
129.300952
114.820004
97.757578
75.310469
58.006644
38.517714
28.565526
19.124746
15.300512
12.248755
10.657907
10.541677
9.813905
9.456873
8.987784
9.317994
8.807778
8.574724
8.282661
8.008480
7.664561
7.361770
7.581711
7.431507
7.442832
7.502437
7.344484
8.017421
7.744431
7.656813
7.733703
7.502437
7.125735
6.353855
6.078482
6.336570
6.206632
5.772710
5.622506
5.634427
5.453825
5.631447
5.105734
5.196929
5.089641
5.027652
4.931688
4.678965
4.970431
4.848838
4.714727
4.821420
4.843473
##ZVALUE=280
0.710487
0.705719
0.689626
0.746846
0.839829
0.847578
0.699759
0.734925
0.767708
0.863671
0.883937
0.894666
0.897646
1.069903
0.995994
1.034737
0.931621
1.188517
1.164675
1.364946
1.491904
2.098680
7.702708
26.474595
87.598562
165.669918
319.209695
475.316644
693.445802
823.346972
929.696560
930.305719
819.416642
677.138567
457.848907
307.623744
157.665610
85.567832
41.125417
35.151839
45.545697
60.493946
82.321763
98.054409
114.018917
120.000839
117.329955
107.414722
88.963509
72.048903
50.208569
36.191940
22.835732
16.156435
11.185408
9.378791
8.066893
8.191466
8.169413
7.810593
7.889867
7.903576
7.917881
7.817745
7.619858
7.611513
7.454753
7.580519
7.772446
7.813573
7.891655
7.969737
7.545948
7.575750
7.322431
7.254481
7.071495
6.891489
6.546974
6.472468
6.300807
6.021857
5.925894
5.984902
5.443692
5.560517
5.437732
5.317926
5.439520
5.167723
5.364418
5.212426
4.862547
4.608631
4.759431
4.818439
##ZVALUE=285
0.684857
0.706911
0.590682
0.768900
0.777841
0.845790
0.652671
0.693798
0.648499
0.668764
0.795722
0.699759
0.709891
0.957847
0.874996
0.818968
0.866652
1.032948
0.982881
1.084805
1.210570
1.346469
1.206994
1.410842
3.777742
13.369918
47.920942
101.092458
222.316980
360.481739
521.388650
743.210912
880.277753
958.600640
923.666954
771.899819
609.792471
385.057926
239.962935
113.639832
58.651567
27.598739
25.022626
36.714673
51.464438
74.718595
88.607669
105.334520
113.122463
113.763809
105.386972
88.203549
72.476864
50.555468
36.600828
21.998882
15.726686
10.753870
8.928776
8.348823
8.151531
8.252859
7.758737
8.008480
8.133650
8.190870
8.156896
8.170605
8.288622
8.607507
8.469820
8.617640
8.478761
8.208752
8.118749
7.811785
8.015633
7.453561
7.391572
6.915927
6.833673
6.634593
6.560683
6.250739
6.043911
6.141663
5.875826
5.723834
5.363822
5.504489
5.574822
5.462766
5.080700
5.023479
5.001426
4.871488
##ZVALUE=290
0.532866
0.822544
0.649691
0.564456
0.708699
0.611544
0.649691
0.619888
0.682473
0.534654
0.740886
0.825524
0.834465
0.700951
0.804663
0.739694
0.750422
0.820756
0.822544
0.957847
0.989437
1.087785
1.053810
1.207590
1.327991
1.310706
1.730919
5.300641
26.052594
62.658787
152.645707
270.474553
426.561832
671.456456
830.786824
964.989662
975.107551
870.302916
725.138783
496.689677
332.728624
167.598724
85.616708
31.281710
19.452572
23.857951
32.582879
49.016476
64.849854
85.527897
99.635720
109.758973
110.527873
101.742744
90.338588
68.876743
52.230954
34.029484
24.515986
16.229749
12.227893
9.611845
9.396672
8.948445
8.934736
8.753538
8.896589
8.972883
9.053946
9.134412
9.127855
8.986592
9.285808
8.927584
8.870959
8.279681
8.292794
7.713437
7.655621
7.462502
7.088780
6.983876
7.074475
6.705523
6.686449
6.313920
6.282926
6.133914
5.922914
6.058812
5.893707
5.366802
5.522966
5.340576
5.201697
5.094409
##ZVALUE=295
0.571609
0.510812
0.584722
0.671744
0.497699
0.678897
0.657439
0.422597
0.637770
0.755787
0.557899
0.625849
0.621676
0.677705
0.603795
0.511408
0.674725
0.781417
0.756979
0.783801
0.902414
0.921488
0.995994
0.857711
1.068711
1.169443
1.351833
1.414418
1.513958
2.265573
8.292794
37.161708
88.073611
213.822722
349.742770
581.531525
746.350884
924.029946
983.293653
933.841467
821.298957
604.777932
427.070856
230.787992
125.226974
45.274496
21.867752
15.035868
19.138455
31.628609
43.486953
62.861443
78.031421
95.402598
104.021430
105.477571
99.878907
84.982514
71.092844
50.498843
38.357973
24.685860
17.928481
12.896657
10.570884
9.862781
9.318590
9.538531
9.446740
9.445548
9.737611
9.930730
9.781718
9.364486
9.215474
8.996725
8.699894
8.651614
8.021593
7.954836
7.989407
7.391572
7.448792
7.388592
6.844997
6.720424
6.656647
6.499887
6.303787
5.953908
5.757809
5.452633
5.434752
5.318522
5.305409
5.157590
##ZVALUE=300
0.575781
0.581741
0.612736
0.458956
0.483990
0.533462
0.666976
0.550747
0.703931
0.643730
0.625849
0.647902
0.667572
0.602603
0.626445
0.811815
0.747442
0.763535
0.751615
0.576973
0.703931
0.784993
0.813603
0.804663
1.083612
0.830889
0.920892
1.205802
1.133680
1.296997
1.287460
1.665950
4.868507
18.208623
64.034462
131.412745
278.859735
437.343717
670.428872
824.175477
963.220000
985.459685
892.221928
750.495791
511.696935
339.776874
173.599720
90.939999
31.417608
15.337467
13.025999
17.563701
28.467774
39.487481
57.854652
72.553754
91.382861
98.927617
102.263689
97.667575
84.948540
70.436001
51.652789
39.924979
26.384592
19.230843
13.582706
11.441708
9.963512
10.217428
9.970665
9.593964
9.730458
9.390712
9.371638
9.034872
8.543730
8.661747
8.517504
8.167624
8.163452
7.491708
7.403493
7.293820
6.937981
6.756783
6.405711
6.505847
6.391406
6.113648
5.897880
5.808473
5.560517
5.226731
5.492568
5.181432
##ZVALUE=305
0.598431
0.608563
0.623465
0.505447
0.612736
0.522733
0.577569
0.692606
0.647902
0.610948
0.645518
0.532866
0.591874
0.546575
0.711679
0.627637
0.476837
0.619888
0.714660
0.696778
0.782609
0.798702
0.752807
0.893474
0.844598
0.893474
0.976920
1.007915
0.899434
1.143813
1.293421
1.247525
1.242757
1.349449
2.600551
10.028481
41.460991
93.502998
217.857957
351.454616
573.129654
743.342638
928.265452
995.470881
953.299999
838.049054
620.803833
445.420742
243.045688
132.455826
48.846602
21.748543
11.475682
12.532473
18.265843
26.079416
41.483641
54.059625
72.603822
84.208846
95.484853
97.779632
92.481971
83.228946
67.021847
53.262711
36.555529
26.897788
17.313957
13.286471
10.804534
9.923577
9.395480
9.108782
8.795857
8.596778
8.283854
8.115768
7.751584
7.810593
7.394552
7.203817
7.078648
6.954670
6.884933
6.728768
6.536841
6.263852
6.143451
5.743504
5.731583
5.640984
5.377531
5.394816
5.069971
4.821420
##ZVALUE=310
0.454783
0.350475
0.399947
0.344515
0.311732
0.487566
0.477433
0.254512
0.417829
0.636578
0.400543
0.402927
0.513792
0.464916
0.450611
0.477433
0.592470
0.640750
0.645518
0.528693
0.495911
0.570416
0.525713
0.624657
0.635982
0.623465
0.741482
0.870824
0.914931
0.847578
0.950694
0.976920
0.990629
0.927448
1.292825
1.226664
1.229644
5.298853
18.440485
63.068867
129.855871
279.088616
436.762571
671.319962
841.051936
991.996527
1011.672616
919.533968
780.445933
541.743636
366.933942
186.567903
99.144578
34.694672
15.311837
9.839535
11.582971
16.644001
22.963881
35.785437
47.344565
64.948797
76.256990
88.620782
92.082620
88.401437
80.041885
65.020919
52.827001
36.171675
25.968552
17.774701
13.021827
9.440780
8.370876
7.654428
7.466674
7.138848
7.131696
6.702542
6.517768
6.509423
6.266832
6.191730
6.312728
6.172657
6.037951
5.645752
5.620718
5.368590
5.302429
5.262494
5.068779
4.797578
4.577637
4.751682
##ZVALUE=315
0.414848
0.545979
0.522733
0.582933
0.476837
0.527501
0.575781
0.415444
0.423789
0.549555
0.427961
0.389814
0.544786
0.657439
0.698566
0.509620
0.512600
0.504851
0.621676
0.721812
0.612736
0.503659
0.723600
0.655651
0.715852
0.756979
0.684857
0.888705
0.901818
0.894666
0.747442
0.922680
1.065731
0.856519
0.867844
1.044869
1.124740
1.017451
1.481771
2.685785
9.230971
39.772987
93.707442
220.821500
363.505483
601.310730
772.828460
949.735641
1015.797853
987.846851
877.948999
657.371879
474.093556
258.532763
142.202973
52.231550
21.553636
9.664893
9.380579
11.187792
14.925599
22.846460
30.254722
44.905543
57.385564
73.263645
82.236528
86.247921
84.328651
73.718429
62.792897
47.976971
36.207438
22.571683
16.226768
10.741949
8.501410
7.012486
6.489754
6.015897
5.662441
5.766749
5.670786
5.676746
5.450845
5.327463
5.335808
5.288720
5.092621
5.003810
4.781485
4.826784
4.647970
4.631877
4.459620
4.617572
##ZVALUE=320
0.556707
0.437498
0.452995
0.358820
0.459552
0.494719
0.506639
0.459552
0.424981
0.532866
0.506639
0.594854
0.406504
0.596642
0.560880
0.643730
0.647902
0.632405
0.614524
0.680685
0.711679
0.569820
0.519753
0.575781
0.746846
0.671744
0.654459
0.648499
0.794530
0.708699
0.776649
0.859499
0.864863
0.950694
0.869632
0.914931
0.975728
0.963807
1.025796
1.205802
1.260638
1.612902
4.309416
22.498965
60.042739
164.922476
278.826952
482.860804
663.154721
888.003707
1001.284719
1015.796661
962.684751
769.273639
580.882430
335.045457
195.860863
82.440972
36.515594
11.938810
8.019805
8.220673
8.937716
12.335777
17.642975
28.275847
38.094521
53.160787
65.096617
76.104999
80.397725
77.800751
71.057677
56.835413
44.959784
30.330420
21.666884
13.582706
9.903908
6.765723
5.715489
5.310774
5.049706
4.858971
4.743934
4.500747
4.517436
4.635453
4.430413
4.470944
4.354715
4.250407
4.260540
4.108548
4.207492
4.139543
##ZVALUE=325
0.441670
0.518560
0.496507
0.389814
0.570416
0.649691
0.428557
0.502467
0.452995
0.361800
0.632405
0.506639
0.494719
0.566840
0.572801
0.556707
0.437498
0.485778
0.525713
0.517964
0.578761
0.508428
0.653863
0.615716
0.757575
0.654459
0.605583
0.566840
0.641942
0.575781
0.795722
0.724792
0.786781
0.675917
0.626445
0.932813
0.848770
0.860691
0.932813
1.083612
0.970960
1.000762
1.136661
1.331568
2.318621
13.667941
39.297938
114.587545
211.927891
407.277942
582.574606
810.309649
945.077538
1015.794873
983.583927
817.958713
636.530519
395.080447
248.366594
113.514662
53.786635
15.823841
7.678866
6.394982
6.384850
7.976890
10.449886
16.701818
24.523735
37.652850
48.011541
61.530471
69.203973
74.051619
71.424842
63.082576
53.534508
39.850473
29.515624
18.284917
12.308955
7.556677
6.104708
4.840493
4.414916
4.151464
3.975630
3.878474
4.089475
3.899932
3.824830
3.762841
3.577471
3.810525
3.753901
3.745556
##ZVALUE=330
0.464916
0.544786
0.492930
0.486970
0.437498
0.488758
0.479817
0.341535
0.413656
0.508428
0.536442
0.521541
0.546575
0.394583
0.605583
0.469685
0.546575
0.512600
0.589490
0.496507
0.536442
0.606775
0.649691
0.547767
0.415444
0.547767
0.489950
0.533462
0.585914
0.613928
0.616908
0.747442
0.772476
0.719428
0.765920
0.769496
0.791550
0.846982
0.832677
0.836849
0.943542
0.904799
0.880957
1.025796
1.111627
1.061559
1.716614
5.567670
19.026995
71.142912
145.394802
307.260752
469.249487
705.101490
868.594646
999.522805
1003.685594
886.597633
734.797716
495.703816
330.209732
157.909989
79.869628
26.521683
10.399818
5.795956
5.591512
5.782843
6.753802
10.427833
14.811754
23.052692
32.661557
45.896769
55.961609
65.385699
68.589449
66.531897
59.922934
48.237443
37.972927
26.014447
18.876791
12.353659
8.580685
5.661845
4.614592
3.888607
3.948808
3.707409
3.487468
3.488660
3.497601
3.352761
3.675818
3.449917
##ZVALUE=335
0.459552
0.411868
0.406504
0.388622
0.466704
0.438690
0.524521
0.497699
0.476837
0.424981
0.423789
0.437498
0.503659
0.551939
0.596642
0.513792
0.564456
0.497699
0.513792
0.675917
0.622869
0.581741
0.449419
0.694990
0.532866
0.713468
0.657439
0.551939
0.625849
0.589490
0.697970
0.723600
0.710487
0.618696
0.586510
0.711679
0.751615
0.619888
0.815988
0.737906
0.881553
0.790954
0.854731
0.991821
0.870824
1.025796
1.108646
1.274943
1.278520
2.644658
8.820891
41.162968
95.272660
228.274465
377.844572
620.165467
800.966620
971.428752
1013.671756
949.446559
826.456547
592.089891
415.687561
224.489570
118.477941
39.678812
15.308857
6.365776
5.298853
5.242825
5.748868
6.842613
9.355545
15.006661
20.998716
31.719804
40.825605
53.483844
60.122609
64.145923
62.488914
55.678487
47.750473
36.669970
28.515458
18.652678
13.155937
8.172989
5.997419
4.515648
3.842711
3.620982
3.530979
3.596544
3.514886
3.279448
##ZVALUE=340
0.451803
0.418425
0.406504
0.214577
0.453591
0.451803
0.416636
0.419617
0.405908
0.478625
0.443459
0.421405
0.373721
0.430942
0.418425
0.549555
0.496507
0.425577
0.550747
0.580549
0.545979
0.435710
0.598431
0.404716
0.472665
0.579953
0.507832
0.705719
0.676513
0.570416
0.706911
0.610948
0.798702
0.654459
0.545979
0.577569
0.656843
0.712872
0.834465
0.753999
0.595450
0.628829
0.827909
0.737906
0.883937
1.043677
0.924468
1.036525
1.088977
1.037717
1.115799
1.615882
4.273653
24.005771
66.412687
181.448460
313.739777
527.520776
700.638890
892.466903
974.645615
963.176489
875.384808
677.814484
494.978428
271.379948
152.082443
59.487820
22.635460
7.303953
5.433559
4.991889
5.014539
5.387664
6.194711
8.957982
13.000965
20.459890
28.740764
40.628910
49.004555
57.290792
59.637427
58.666468
54.096580
45.029521
36.942959
25.785565
19.147992
12.123585
8.442998
5.503893
4.298687
3.421903
3.562570
3.338456
##ZVALUE=345
0.600815
0.567436
0.457764
0.477433
0.690818
0.569820
0.380874
0.546575
0.553727
0.563860
0.548959
0.596642
0.606775
0.485778
0.498891
0.469685
0.520945
0.562668
0.577569
0.657439
0.688434
0.703931
0.752807
0.711679
0.614524
0.463724
0.532866
0.606775
0.775456
0.553727
0.593662
0.647902
0.746846
0.646710
0.827909
0.708699
0.729561
0.767708
0.809431
0.879765
0.737906
0.802875
0.773668
0.856519
0.893474
0.784993
0.865459
1.034737
1.008511
1.020432
1.088977
1.195669
1.197457
1.446605
2.320409
12.400746
39.877892
120.614767
224.310756
411.864519
579.755902
794.199705
908.979774
966.112018
920.175910
746.513605
578.090549
356.153846
206.662416
82.013607
35.262704
10.851622
6.389618
5.360842
5.225539
4.876852
4.878640
6.039739
7.833838
12.707710
18.013716
27.836561
35.429597
44.694543
50.694942
54.760575
54.299831
50.046444
44.611692
35.397410
27.153492
17.719865
12.655854
8.029938
5.828738
4.485846
##ZVALUE=350
0.522733
0.457764
0.488758
0.532866
0.452995
0.476837
0.518560
0.459552
0.690818
0.508428
0.412464
0.388622
0.568628
0.625849
0.270605
0.584722
0.521541
0.425577
0.413656
0.519753
0.576973
0.466704
0.479817
0.508428
0.416636
0.514984
0.555515
0.611544
0.492930
0.546575
0.377893
0.579953
0.648499
0.567436
0.552535
0.599623
0.550747
0.585914
0.620484
0.652671
0.512600
0.886917
0.657439
0.954866
0.752807
0.744462
0.812411
0.770688
0.904799
0.801682
0.866652
1.002550
1.043677
0.975728
1.297593
1.374483
1.328588
5.878806
19.486547
66.044927
134.030581
288.096666
443.948507
669.710636
819.079876
939.396024
941.941738
824.654698
656.874776
407.443047
255.815983
119.710565
53.123832
13.758540
6.531477
4.947782
4.596710
4.170537
4.202724
4.368424
5.302429
7.586479
10.610819
16.014576
22.049546
30.821562
37.972927
45.782924
49.504638
50.055981
47.490001
40.339828
34.136772
24.429560
18.383861
12.131929
##ZVALUE=355
0.378489
0.416636
0.447631
0.438690
0.475645
0.522733
0.447631
0.326633
0.561476
0.427961
0.401735
0.315905
0.349879
0.448823
0.448823
0.435710
0.389814
0.373721
0.540614
0.473857
0.489950
0.537634
0.449419
0.274777
0.418425
0.543594
0.495911
0.402927
0.507832
0.593662
0.471473
0.423789
0.527501
0.615716
0.637770
0.609756
0.706911
0.542998
0.668764
0.652671
0.524521
0.603795
0.648499
0.569820
0.608563
0.642538
0.602603
0.740886
0.749826
0.671744
0.859499
0.838637
0.809431
0.998974
0.789762
0.988841
0.979900
1.091957
1.369715
2.798438
9.727478
42.034984
92.214942
208.118558
346.744657
573.048592
734.663010
889.911652
934.127569
854.641795
722.827911
503.660440
330.104828
150.757432
72.113872
20.882487
8.028746
4.679561
4.451871
4.134774
3.961921
3.900528
3.933907
4.723668
5.889535
9.133816
13.103485
20.332932
26.137829
34.477711
39.859414
45.083761
45.791864
43.027997
38.866997
31.742454
##ZVALUE=360
0.443459
0.383854
0.465512
0.399947
0.504851
0.570416
0.494719
0.366569
0.414848
0.524521
0.326633
0.338554
0.254512
0.484586
0.460744
0.415444
0.354648
0.452995
0.417829
0.511408
0.546575
0.449419
0.505447
0.442863
0.528693
0.512600
0.524521
0.373721
0.546575
0.473857
0.472665
0.643730
0.612736
0.537634
0.539422
0.640750
0.563860
0.622869
0.700951
0.583529
0.454783
0.626445
0.561476
0.592470
0.652671
0.401735
0.827909
0.601411
0.618696
0.828505
0.780821
0.752807
0.750422
0.677705
0.924468
0.928640
0.903606
0.965595
1.023412
1.234412
1.170635
1.820922
4.319549
21.046996
52.955747
140.907764
255.615711
460.751653
632.159710
822.587013
907.334685
893.603563
795.660615
579.795837
402.690768
205.048919
107.893944
37.881732
13.711452
4.996657
4.376769
4.142523
3.841519
3.602505
3.529787
3.712773
3.912449
5.085468
7.059574
10.953546
15.199780
22.751689
28.214455
35.234690
39.249659
41.799545
##ZVALUE=365
0.396967
0.379682
0.422597
0.307560
0.336766
0.389814
0.434518
0.398755
0.314713
0.348687
0.528693
0.403523
0.421405
0.373721
0.523925
0.433922
0.451803
0.522733
0.537634
0.476837
0.449419
0.456572
0.440478
0.649691
0.470877
0.415444
0.461936
0.532866
0.428557
0.589490
0.483990
0.535846
0.404716
0.509620
0.503659
0.505447
0.587702
0.448823
0.429749
0.596642
0.582933
0.600815
0.716448
0.495911
0.528693
0.568628
0.490546
0.741482
0.601411
0.731945
0.620484
0.772476
0.816584
0.646710
0.837445
0.818968
0.727773
0.823736
0.880957
0.990629
1.061559
1.125932
1.152754
1.421571
2.287626
11.177659
32.505989
94.235539
184.567571
370.664597
528.613925
729.822516
853.233933
901.108980
835.366845
653.777719
486.176610
280.650854
155.730844
56.074858
21.174550
6.020665
4.210472
3.836751
3.652573
3.321767
3.225803
3.233552
3.024936
3.357530
5.340576
6.113648
10.453463
13.836622
22.769570
25.140643
##ZVALUE=370
0.368953
0.425577
0.493526
0.510812
0.371933
0.628829
0.507832
0.258684
0.473857
0.388622
0.343919
0.416636
0.395775
0.422597
0.425577
0.457764
0.531673
0.341535
0.439882
0.518560
0.485778
0.523925
0.430942
0.463724
0.528693
0.534654
0.472665
0.459552
0.506639
0.449419
0.537634
0.544786
0.522733
0.538826
0.604987
0.529885
0.492930
0.462532
0.502467
0.616908
0.593662
0.478625
0.581741
0.517964
0.654459
0.573993
0.552535
0.569820
0.576973
0.418425
0.632405
0.708699
0.572801
0.668764
0.648499
0.637770
0.727773
0.547767
0.659823
0.789762
0.961423
0.931621
0.941753
0.905991
1.024604
1.538992
1.724958
4.795790
59.903860
73.439479
208.340883
295.013785
555.078983
765.693784
872.497559
887.121558
864.264965
717.043877
394.299626
342.288017
115.078688
84.065795
15.307665
11.506677
4.750490
3.773570
3.057718
3.192425
2.998710
2.912879
2.916455
2.895594
3.136992
3.954768
5.298853
7.084608
##ZVALUE=375
0.445843
0.409484
0.385642
0.353456
0.369549
0.315905
0.335574
0.233650
0.285506
0.324845
0.416636
0.394583
0.364780
0.511408
0.313520
0.348687
0.487566
0.442863
0.329614
0.491738
0.475645
0.476837
0.356436
0.331998
0.424981
0.291467
0.377893
0.519753
0.476837
0.349879
0.363588
0.475645
0.407696
0.265837
0.588894
0.523925
0.440478
0.547767
0.436902
0.423789
0.499487
0.404716
0.352859
0.413656
0.468493
0.497699
0.449419
0.519753
0.589490
0.569820
0.408888
0.381470
0.585914
0.655651
0.533462
0.587702
0.770688
0.629425
0.724792
0.592470
0.905991
0.685453
0.588894
0.880957
0.905991
0.957847
0.975728
1.199841
1.468658
2.469420
13.123751
35.756826
101.196766
190.651417
369.438529
526.277423
722.548962
835.556984
868.417621
796.690583
608.726740
447.748899
262.374878
150.698423
58.792830
23.723841
6.381869
3.736615
3.159642
2.984405
2.729893
2.674460
2.530813
2.583861
2.426505
2.590418
##ZVALUE=380
0.238419
0.277758
0.394583
0.454783
0.165701
0.380874
0.271797
0.339746
0.263453
0.263453
0.246763
0.369549
0.466704
0.423789
0.400543
0.370741
0.282526
0.394583
0.423789
0.392795
0.383854
0.427961
0.536442
0.344515
0.374913
0.384450
0.423789
0.358820
0.450611
0.375509
0.513792
0.370741
0.497699
0.544786
0.455976
0.635982
0.600815
0.504851
0.367761
0.634789
0.556707
0.470877
0.544786
0.423789
0.590682
0.531673
0.503659
0.499487
0.556707
0.521541
0.483990
0.449419
0.522733
0.465512
0.423789
0.481606
0.529885
0.558496
0.461936
0.594854
0.689626
0.697970
0.708699
0.658631
0.758767
0.774860
0.899434
1.024604
1.199841
1.119971
1.466870
1.673698
6.346703
20.946860
71.533918
141.888857
292.528868
453.810692
669.498444
801.125765
872.843862
834.837556
695.191026
545.444489
337.444544
206.117630
87.041855
39.252639
10.070801
4.269481
3.105998
3.125668
2.673864
2.663732
2.581477
2.372861
##ZVALUE=385
0.359416
0.259876
0.252724
0.319481
0.386834
0.450611
0.329614
0.362992
0.287890
0.291467
0.252724
0.302792
0.293851
0.360608
0.288486
0.341535
0.330806
0.219941
0.215769
0.369549
0.322461
0.403523
0.485778
0.471473
0.452995
0.354648
0.522733
0.443459
0.544786
0.629425
0.729561
0.520945
0.768900
0.567436
0.809431
0.637770
0.647902
0.707507
0.660419
0.629425
0.596642
0.742674
0.652671
0.544786
0.590682
0.538826
0.517964
0.567436
0.658631
0.514984
0.521541
0.581741
0.586510
0.483990
0.547767
0.564456
0.610948
0.529885
0.608563
0.594854
0.588894
0.675917
0.576973
0.780821
0.642538
0.685453
0.913739
0.825524
1.087785
1.044869
1.017451
1.164675
1.292825
1.318455
2.375841
14.710426
41.783452
113.729835
212.664008
405.188799
569.468737
756.297708
838.415027
853.239894
788.701773
621.747971
462.474823
268.978477
157.275796
64.334869
24.968982
6.154776
3.328919
2.838969
2.719760
2.443790
##ZVALUE=390
0.100732
0.232458
0.173450
0.285506
0.221729
0.191927
0.105500
0.238419
0.182986
0.260472
0.231862
0.209808
0.250936
0.124574
0.285506
0.240803
0.213981
0.300407
0.153780
0.236630
0.200868
0.179410
0.221729
0.342727
0.204444
0.335574
0.509620
0.547767
0.590682
0.573993
0.686646
0.724792
0.584722
0.721812
0.889897
0.924468
0.789762
0.753999
0.817776
0.806451
0.657439
0.649691
0.623465
0.492930
0.618696
0.516772
0.481606
0.545979
0.580549
0.476837
0.453591
0.531673
0.340939
0.432730
0.578761
0.401735
0.581741
0.264645
0.531673
0.419617
0.545979
0.369549
0.430942
0.575781
0.564456
0.597835
0.831485
0.833869
0.866652
0.796914
0.945926
0.863671
0.877976
0.795722
1.028776
0.865459
1.152754
6.357431
22.287965
78.623891
159.467459
325.352550
469.112992
657.247901
782.870650
872.356892
849.743485
720.615983
575.678945
371.306539
226.198435
95.145702
42.413473
10.872483
4.101992
2.715588
##ZVALUE=395
0.323653
0.320673
0.326633
0.217557
0.463724
0.430942
0.381470
0.272989
0.370741
0.243783
0.331998
0.214577
0.285506
0.340939
0.287890
0.314713
0.354648
0.307560
0.350475
0.306964
0.324845
0.463724
0.360608
0.325441
0.451803
0.362992
0.508428
0.571609
0.650883
0.863671
0.860691
0.954866
1.131892
1.093745
1.129508
1.156926
1.088977
1.150966
1.233816
0.952482
0.987649
0.997782
1.035929
0.925660
0.702739
0.797510
0.781417
0.808835
0.605583
0.613928
0.779629
0.733733
0.652671
0.752807
0.599623
0.582933
0.904799
0.584722
0.492930
0.608563
0.571609
0.720620
0.498891
0.508428
0.694990
0.669956
0.660419
0.759959
0.970960
0.962615
0.882745
0.845790
0.868440
0.960827
0.767708
0.970960
0.977516
1.096725
1.230836
2.894998
16.962886
45.162439
117.803812
212.403536
391.768813
548.210740
743.110776
843.436718
878.437757
817.942023
654.247999
493.928790
291.180611
171.669722
69.852471
30.659437
##ZVALUE=400
0.382662
0.251532
0.276566
0.326633
0.278950
0.349879
0.324845
0.371933
0.344515
0.319481
0.397563
0.494719
0.363588
0.343919
0.158548
0.298619
0.379682
0.348687
0.404716
0.298619
0.339746
0.221729
0.608563
0.294447
0.338554
0.539422
0.710487
0.711679
0.799894
0.745654
0.971556
0.958443
1.068711
1.131892
1.155734
1.219511
1.162887
1.506805
1.152754
1.165867
1.001954
0.969768
1.006722
1.077652
0.916719
0.881553
0.755787
0.771880
0.862479
0.688434
0.706911
0.842810
0.773668
0.800490
0.579953
0.658631
0.573993
0.773668
0.595450
0.632405
0.520945
0.621676
0.558496
0.766516
0.689626
0.656843
0.878572
0.825524
0.922680
0.775456
1.016855
0.766516
0.845790
0.825524
0.791550
0.915527
0.835657
0.795722
0.994802
1.032948
1.129508
1.960993
6.605983
30.526519
69.869757
168.328881
281.963944
468.847752
614.030957
768.620968
831.740499
799.970627
706.350803
528.281927
373.966694
204.551816
##END
