##TITLE=FSH701
##FORMAT=SPECTACLE-ASCII V-1.2
##DATA TYPE=ULTRAVIOLET SPECTRUM
##SECOND TYPE=ULTRAVIOLET SPECTRUM
##DATE=05/24/18
##TIME=15:29:42
##SPECTROMETER/DATA SYSTEM=SPECTACLE
##XUNITS=NM EM
##YUNITS=ENERGY
##YFACTOR=1
##FIRSTX=220
##LASTX=410
##NPOINTS=96
##3DDATA=Equidistant
##ZUNITS=NM EX
##FIRSTZ=210
##LASTZ=400
##ZPOINTS=39
##XYDATA=(Y..Y)
##ZVALUE=210
2.433658
2.732873
2.491474
2.246499
2.531409
2.726912
2.612472
2.973676
2.765656
2.654791
2.578497
3.234744
3.853440
3.483891
3.380775
2.734661
4.000664
3.827810
3.811717
4.043579
4.104972
4.547834
4.423857
4.652739
4.884601
5.181432
6.462932
5.189776
5.863905
5.886555
5.349517
6.126761
6.059408
5.929470
6.608963
6.192923
6.064773
5.911589
6.344914
7.058978
6.294847
6.973743
5.328655
6.309748
7.678866
6.462932
6.155968
6.818771
6.880760
7.719994
7.926822
7.658601
7.431507
7.727742
6.364584
6.780624
7.698536
7.578731
7.262826
8.216500
6.933808
8.289814
8.057952
8.254647
8.804798
10.074973
11.616945
13.037920
15.039444
17.324686
19.546747
21.295547
23.561716
24.535656
26.180744
23.051500
24.502873
22.970438
21.629930
17.934442
16.918778
14.025569
12.978911
11.112690
10.177493
9.550452
9.056926
8.404851
9.343624
9.612441
8.797646
9.426475
10.472536
9.898543
11.911988
12.185574
##ZVALUE=215
7.437468
8.719563
6.446838
5.451441
4.358888
3.968477
4.588962
4.817843
4.833937
4.709959
4.933476
5.358458
4.820824
4.005432
3.752708
3.294945
3.568530
3.652573
3.424883
3.232956
4.713535
4.522800
4.529953
3.917813
4.555583
4.901886
5.225539
5.689859
5.130768
6.015897
6.112456
6.647706
5.778670
6.279945
6.705523
6.863475
6.544590
5.879998
7.486939
7.007718
6.317496
6.793737
6.959438
7.284880
7.017851
6.797910
6.935596
7.051826
6.981492
8.153915
7.383823
7.616878
7.546544
6.997585
6.999969
7.637739
7.442832
7.563829
6.720424
7.798672
7.387996
8.134842
7.799864
7.841587
8.722544
8.875728
10.426641
10.794997
13.154745
14.692545
16.342998
17.547607
18.546581
19.913912
19.904971
20.145774
20.479560
18.091798
18.837452
16.071796
14.687777
14.026761
11.640787
10.643601
9.820461
8.566976
9.499788
9.227991
8.706450
9.671450
9.348989
8.247495
9.328723
9.933710
9.967685
9.138584
##ZVALUE=220
33.786893
32.438636
31.182766
23.844838
22.209883
16.807914
12.499690
11.274815
9.817481
10.240674
11.020899
12.310743
10.988712
10.059476
8.041859
7.479787
5.596876
5.310774
4.637837
3.895760
3.897548
3.900528
4.072785
4.787445
4.896522
4.903674
4.788637
6.372929
5.736947
6.584525
7.353425
7.320642
6.740689
7.534623
8.324981
6.838441
7.651448
8.573532
7.313490
8.121729
7.993579
7.931590
6.842613
7.341504
7.570982
7.946491
7.638931
6.712675
7.863641
7.255673
7.436872
7.283688
7.463694
7.479787
8.111596
7.913709
7.937551
8.297563
8.272529
8.335710
7.523894
8.131862
8.504987
9.338856
9.274483
9.970665
10.483861
12.920499
12.890697
14.425516
15.838742
18.227696
18.976927
21.253824
18.951893
19.621849
20.635724
18.307567
16.452670
15.110970
14.562607
13.871789
13.139844
11.923909
11.922717
12.659431
11.147857
11.901855
10.932684
11.319518
12.055635
10.795593
10.102987
11.536479
10.394454
10.727644
##ZVALUE=225
58.450699
64.113736
78.963637
83.462000
85.007548
76.910853
63.803792
48.700571
36.788583
26.853681
25.205612
23.126602
24.875998
27.964711
26.290417
25.191903
21.874905
17.013550
11.106730
9.320974
6.004572
5.171895
3.503561
4.322529
4.613996
5.685687
5.658865
6.333590
7.191896
8.030534
8.018613
8.254647
8.776784
9.761453
9.784698
8.765459
10.408759
8.938909
10.251999
9.607673
9.424686
9.425879
8.704662
10.004640
8.842945
8.696914
8.340478
8.739829
8.412600
8.856654
9.378791
9.409785
9.389520
8.358955
8.853674
10.034442
10.454655
10.695457
10.390878
9.931922
10.477901
10.713935
11.327863
11.623502
12.537837
12.826920
13.304949
15.441775
16.095638
18.304586
20.096898
21.132827
20.713806
23.500919
22.871494
23.251772
23.395419
22.392869
21.131635
21.432638
20.230412
18.749833
19.280910
17.483830
18.304586
19.188523
18.706918
18.762946
18.407702
17.866492
18.464923
19.732714
17.839670
17.586946
18.478632
17.861724
##ZVALUE=230
47.921538
53.131580
81.826448
129.613876
164.172649
191.296935
199.602842
181.943774
165.041685
129.372478
87.385774
66.244602
48.267841
45.730472
48.066974
51.824450
54.301620
51.787496
45.042634
34.895539
25.723577
15.910864
10.644794
7.203817
6.276965
5.149841
5.827546
6.183982
6.860495
7.726550
8.357763
9.752512
10.287762
10.367632
11.174679
11.559725
10.151863
11.308789
12.050867
12.114644
10.565519
11.782646
11.200905
10.229945
10.896921
10.617971
11.096597
11.264682
10.736585
10.554790
12.105703
11.402965
11.164546
12.993813
12.757778
12.955666
13.472438
13.772845
13.763905
13.821721
14.152527
15.904903
15.435815
16.373992
17.349720
19.734502
21.255612
22.401810
23.737550
25.739670
26.022792
29.401779
28.580427
30.922890
31.018853
32.291412
31.396747
30.808449
32.092929
30.566454
30.715466
31.195879
29.637814
30.231476
29.395819
30.361414
30.390620
31.039715
31.466484
30.895472
29.704571
30.036569
29.661655
30.092001
30.518770
29.306412
##ZVALUE=235
13.685822
15.706420
35.799742
85.120797
139.095783
213.927627
276.655555
337.311625
359.111428
333.511829
290.326476
215.108991
160.474777
106.190443
82.234740
71.590543
69.035888
75.030923
81.660748
79.368949
71.669817
61.790943
43.433905
31.171441
20.232797
13.275743
7.947683
7.235408
6.717443
6.622672
7.905960
7.983446
8.381605
8.911490
8.623600
10.074973
9.427667
9.828806
10.554790
10.305643
10.698438
11.035800
11.180639
11.666417
11.735559
11.120439
12.050867
11.632442
11.914968
12.360811
12.727976
13.824701
13.390779
13.916492
14.889836
15.075803
16.220808
16.125441
17.177463
17.882586
18.105507
19.841790
20.197630
21.215677
22.356510
22.766590
25.492907
27.689934
29.562712
31.099916
33.177733
35.396814
35.279989
38.116574
37.728548
38.627982
40.794611
39.365888
38.997531
39.659739
40.348768
42.080879
41.212440
40.610433
39.956570
41.823983
41.492581
42.680502
42.086840
41.558743
41.847825
43.049455
41.950941
43.889880
42.366982
41.367412
##ZVALUE=240
1.705885
1.542568
5.747676
16.397834
47.766566
92.193484
182.794929
268.854499
387.669802
455.445647
498.473644
476.149917
424.259901
331.479907
247.944593
154.236555
112.400651
83.966851
80.239773
87.810755
97.235441
101.258755
95.267892
85.043907
66.421628
51.618814
34.634471
24.241805
15.086532
9.885430
7.740855
6.175637
6.057620
6.742477
6.997585
7.159710
7.396936
7.685423
8.000731
8.094907
8.641481
8.386970
8.584857
8.793473
9.291768
9.432435
9.196997
9.864569
10.292530
10.196567
10.864735
9.833574
10.838509
12.313724
12.140870
11.751652
12.987852
13.697743
14.309883
15.913844
16.327500
17.587543
17.583966
20.000935
21.154881
22.526979
24.419427
25.347471
26.614666
29.860735
30.838847
34.143925
36.239624
38.010478
39.223433
40.400624
41.169524
41.056871
41.994452
42.933822
42.881966
45.103431
45.463443
47.772527
46.028495
48.281550
47.003627
49.177408
46.651959
48.099756
46.303868
47.382712
46.414733
48.459768
46.697855
48.038960
##ZVALUE=245
1.397729
1.159906
1.176000
1.376867
3.571510
10.654926
39.822459
81.712604
178.985000
273.299813
411.527753
502.337813
563.398004
573.875904
535.011888
431.710482
339.524746
223.949552
152.995586
96.683502
82.470775
82.601905
97.562671
104.038715
108.716488
102.782845
90.259910
74.968934
55.281520
41.001439
28.051734
15.705824
10.319948
6.919503
6.122589
6.031990
5.584955
5.987883
6.582737
6.289482
6.712675
7.131696
6.698966
7.488728
7.194877
7.700920
7.862449
7.647872
7.628798
7.863641
8.081794
8.862615
8.900762
9.275675
9.728670
9.734631
10.273457
11.298656
11.421442
12.268424
13.175607
14.358759
15.074611
16.420484
17.392635
19.947886
20.081997
21.812916
24.475455
26.970506
28.223991
30.526519
33.241510
33.938885
34.761429
37.203431
36.981702
38.993955
38.892627
41.274428
42.179823
42.608976
43.625832
46.176910
46.476722
46.005845
46.394467
46.657920
46.468973
46.665668
47.148466
47.903657
47.385693
45.797825
45.882463
48.506856
##ZVALUE=250
1.074672
1.054406
0.824928
1.011491
1.297593
1.091957
1.966953
6.566644
28.591752
63.014627
151.003599
246.678591
353.681445
501.874685
585.078597
638.116002
621.038675
539.286733
442.262888
297.101736
199.731588
130.998492
81.933737
75.523853
84.016919
98.314881
109.931827
111.735463
106.464624
95.420480
81.486702
59.641600
43.963790
25.749803
17.376542
10.232925
7.522702
6.900430
6.572604
6.393790
6.403923
6.824732
6.894469
7.096529
7.008910
7.121563
7.674694
8.018613
7.321835
7.758737
7.997751
8.349419
8.742809
9.251833
9.440780
9.594560
9.512901
10.387897
10.955930
11.168718
12.181997
12.650490
13.199449
13.940930
15.307665
16.292930
18.142462
19.511580
21.379590
22.450686
24.550557
26.006699
28.024912
29.702783
30.520558
31.748414
33.174753
34.448504
35.677552
36.700964
37.400723
38.602948
38.485527
39.994717
41.438937
42.411685
42.581558
42.611957
43.212771
43.363571
43.025613
42.954683
44.681430
44.875741
44.322610
44.671893
##ZVALUE=255
1.023412
1.017451
1.037717
1.022816
0.993609
1.033545
1.088977
1.363754
1.489520
3.448725
17.996430
45.759678
93.702674
201.491714
309.152007
474.483967
576.568842
675.745606
698.074698
635.151863
540.324450
425.069928
261.193514
169.443488
91.228485
70.353746
69.159865
79.571605
99.255443
108.902454
115.301609
110.446811
99.778771
80.509782
63.830614
41.802526
28.709769
16.445518
11.307597
8.316636
6.908774
7.053614
7.104874
6.757975
7.040501
7.421970
7.222891
7.953644
8.073449
7.983446
8.258820
8.963943
8.569956
8.960962
9.300709
9.955764
10.507703
10.111928
10.811687
11.409521
10.983944
11.840463
12.763739
12.626648
14.064908
15.217662
16.104579
17.292500
19.463897
19.895434
21.393895
23.258924
24.826527
25.651455
27.177930
27.635694
28.692484
30.166507
31.578541
32.167435
33.804774
35.014749
34.834743
36.529899
36.449432
37.990808
38.299561
39.642453
39.873719
40.342808
40.439963
40.289760
40.257573
41.509867
41.167736
42.016506
##ZVALUE=260
0.913739
0.793934
0.866652
1.113415
1.001954
0.925660
1.017451
1.018643
1.322627
1.141429
1.271963
1.853704
6.168485
27.216673
62.702894
151.525736
248.378515
410.685539
539.819598
685.713887
751.037598
746.033788
649.741888
527.909994
348.633528
233.840942
135.611892
85.569620
59.710741
62.668920
76.552629
96.627474
108.948946
117.832422
116.102695
101.108551
85.892677
63.790679
47.153831
28.920770
19.912720
12.372732
9.474754
7.683635
7.612705
7.648468
8.124709
8.047819
8.493662
8.569956
8.992553
9.079576
9.538531
9.729862
10.492802
9.971857
10.490417
11.230707
11.142492
11.203885
12.022853
12.153983
12.612939
13.364553
14.377832
14.382601
15.483499
16.189814
18.238425
18.815994
19.980669
21.638870
23.047924
23.873448
25.274754
26.214719
27.241707
27.337670
28.530955
29.303432
30.856729
31.731725
33.152699
33.053756
34.157634
34.787655
34.776926
36.105514
35.987496
36.834478
37.056804
37.463903
38.106441
38.306713
38.677454
39.612651
##ZVALUE=265
0.791550
0.735521
0.897646
0.958443
0.901818
0.975728
1.051426
1.217723
1.032948
1.018643
1.237988
1.350641
1.125932
1.492500
3.297925
16.985536
43.986440
111.758709
198.232532
365.924835
513.984561
653.898716
784.967542
808.912516
733.834505
627.867579
461.434722
325.776935
185.215473
112.794638
70.887804
52.581429
60.257912
81.965923
100.242496
115.843415
119.336843
115.405917
103.568435
83.431602
66.308975
44.785738
30.842423
18.904805
14.015436
9.263754
8.711815
8.506775
8.840561
8.883476
9.229779
9.782910
9.844899
10.419488
10.166764
10.885596
10.906458
11.090636
11.633635
12.065768
11.870861
12.762547
12.958646
13.805628
14.233589
14.447570
15.330911
16.791821
17.868876
18.677711
19.237995
20.699501
21.702647
22.786856
23.451447
25.378466
25.654435
26.909709
26.838779
27.681589
28.350949
30.477643
30.646920
31.294823
32.521486
32.533407
32.388568
33.672452
34.827590
34.528971
34.570694
35.675764
35.155416
35.557747
36.104918
36.821961
##ZVALUE=270
0.794530
0.810623
0.828505
0.786781
0.890493
0.839829
0.756979
0.860691
1.028776
0.972748
0.886917
1.081824
1.137853
1.263618
1.211762
1.352429
2.105832
5.930662
27.433634
65.637827
162.966847
277.067423
479.335785
630.218983
725.424886
844.991803
838.256478
734.429955
610.059500
424.926877
289.329886
149.715543
87.480545
48.378706
44.273734
61.028600
77.863932
99.316835
112.672448
119.342804
116.824508
104.349852
88.422894
66.139698
48.548579
31.070709
22.041798
14.567971
11.191964
9.878874
9.598732
9.683967
9.616613
10.026693
10.528564
10.771751
10.862947
11.545420
11.722445
12.303591
12.169480
13.093948
13.640523
14.160872
14.489889
14.597774
15.797615
16.208887
17.319918
18.620491
19.540787
20.003915
21.710992
22.309422
23.554564
23.348927
24.513602
25.583506
25.902987
26.790500
27.297735
28.971434
29.492974
29.630661
30.385852
31.402707
31.786561
32.614470
32.504797
32.531619
32.535791
32.957792
33.129454
33.067465
33.283830
34.151673
##ZVALUE=275
0.711679
0.781417
0.670552
0.948906
0.740886
0.766516
0.802875
0.785589
0.769496
0.875592
0.869632
0.914931
1.017451
0.990629
1.196861
1.092553
1.198649
1.187921
1.465678
3.386736
12.835860
37.711859
113.343596
214.604735
398.465991
545.055866
719.511509
823.785663
868.682861
830.449462
734.954476
546.419621
389.856696
209.615827
120.729804
54.653883
37.365556
42.091608
55.910945
77.554584
94.233751
110.340714
116.199851
115.263462
105.573535
86.094737
68.431497
49.180984
35.937428
22.071600
16.600490
11.896491
10.812879
10.060668
10.637641
11.051893
10.872483
11.288524
11.656880
12.065768
12.891889
12.716651
13.434887
14.172792
14.312863
15.483499
15.793443
16.722679
17.428994
18.636584
19.469857
20.756721
21.450520
22.072792
22.496581
23.707747
24.520755
24.205446
25.261641
26.723742
26.935935
27.860999
28.005838
29.231906
29.330850
29.639602
30.371547
30.602813
31.159520
31.023622
31.136870
31.635761
31.548738
32.120943
31.846762
32.618642
##ZVALUE=280
0.540614
0.741482
0.658631
0.680685
0.670552
0.727773
0.686646
0.834465
0.809431
0.750422
0.818968
0.941753
0.817776
0.864863
0.796914
1.098514
1.004934
1.080632
1.189709
1.162887
1.307726
1.760721
8.131862
26.706457
87.377429
162.062645
309.017897
452.933908
655.683875
787.409544
867.773890
883.623958
805.951953
625.045896
465.238690
269.761682
161.081553
71.755648
38.870573
29.648542
38.014650
57.098866
74.796677
95.122457
108.140707
115.361810
114.194751
102.462769
89.445710
67.914724
52.193999
34.175515
25.698543
16.968846
13.581514
11.775494
11.404753
11.684895
12.082458
12.520552
12.915730
13.256669
13.730526
14.461875
14.831424
15.789866
16.146898
16.839504
18.030405
19.137859
19.805431
20.727515
21.357536
22.512674
22.922754
23.913980
24.458766
24.948716
25.364757
26.611686
27.026534
27.521849
28.589964
29.762983
29.907823
29.718876
30.023456
30.371547
30.227900
30.512810
30.591488
30.916929
30.783415
31.278729
31.394958
31.120777
##ZVALUE=285
0.636578
0.753999
0.634789
0.701547
0.768900
0.863671
0.765920
0.774860
0.656843
0.815988
0.748634
0.771880
0.780821
0.837445
0.747442
0.842810
0.846982
0.996590
1.048446
1.093745
1.021624
1.197457
1.387596
1.516938
3.573895
12.742877
45.779943
98.107457
215.466619
347.345471
483.606458
706.504583
835.824013
906.124711
878.316760
731.316805
580.241680
367.744565
234.600902
111.094713
57.607889
26.659966
24.296641
36.806464
50.921440
73.027611
88.301897
104.947686
111.562610
111.869574
105.692744
88.120699
72.390437
53.041577
39.324760
25.559664
19.099712
14.263988
12.903810
12.866855
13.163686
13.864636
14.180541
14.928579
15.712976
16.187429
17.464757
18.002987
18.541813
19.857883
20.978451
21.309853
22.521615
23.128986
24.029613
24.356842
25.579929
26.196837
26.468635
26.997924
27.734637
28.596520
28.725863
29.252768
29.751658
30.062795
29.828548
30.518770
30.105710
30.782819
30.028820
30.159950
30.558705
30.139685
30.196905
30.613542
##ZVALUE=290
0.695586
0.544786
0.563860
0.701547
0.790954
0.708699
0.654459
0.765920
0.682473
0.677705
0.844598
0.810623
0.775456
0.672936
0.810623
0.692606
0.750422
0.973940
0.880957
1.009703
1.052618
0.901818
1.101494
1.206994
1.301765
1.324415
1.739860
5.186796
25.640726
61.175823
148.091912
256.235600
453.626513
617.106557
809.016824
898.982882
910.578966
835.963488
654.280782
498.486757
297.883749
177.701712
76.236725
37.415624
19.098520
21.793842
33.313632
46.407580
66.722631
82.883835
100.054741
109.266639
110.131502
103.820562
88.399649
72.949529
52.881837
40.208697
27.274489
21.090508
16.646981
15.031695
14.797449
15.101433
15.874505
16.413927
17.642975
18.039942
19.447803
20.543933
21.405816
22.495985
23.664832
23.780465
24.720430
25.419593
26.419759
26.588440
27.297735
28.104782
28.823614
29.214621
29.528737
30.381680
30.510426
30.483603
30.687451
30.660629
31.060576
30.667782
31.130910
30.639768
30.728579
30.900836
31.024814
30.875802
##ZVALUE=295
0.615716
0.602603
0.639558
0.731945
0.566840
0.644922
0.637770
0.693798
0.582933
0.730753
0.755787
0.652671
0.762939
0.780821
0.832677
0.754595
0.877976
0.879765
0.846982
0.891685
0.823736
0.905991
0.992417
1.125932
1.113415
1.121759
1.129508
1.459718
1.605749
2.182722
8.080602
36.436915
84.443688
205.409527
338.263512
552.686453
710.606575
874.601603
930.315852
882.265568
776.342750
572.445989
407.819748
222.888589
122.358799
44.451952
22.134781
15.507936
19.681454
31.678677
43.409467
63.180923
78.386664
94.733834
103.920698
106.917620
100.638866
86.625814
73.463917
53.654909
41.456819
28.626919
22.944808
18.455982
17.251968
17.162561
17.611980
18.865466
19.324422
21.068454
21.634698
22.773743
23.677945
24.393797
25.780797
25.922656
26.784539
27.696490
28.329492
29.052496
29.936433
30.709505
30.523539
30.930638
31.162500
30.945539
31.643510
31.473637
31.549931
31.796694
31.445622
30.931830
31.018853
30.747652
30.954480
30.653477
##ZVALUE=300
0.496507
0.537634
0.699759
0.509620
0.650883
0.737906
0.604987
0.670552
0.649691
0.461936
0.756979
0.675917
0.571609
0.558496
0.409484
0.581741
0.661612
0.509620
0.595450
0.810623
0.673532
0.757575
0.863671
0.824928
0.894666
0.859499
1.108646
1.095533
1.149774
1.253486
1.149774
1.387596
5.130768
17.956495
64.440966
130.019784
271.853805
424.407721
641.315579
784.381032
911.088586
929.933786
839.544535
707.736611
485.618711
327.126980
167.883635
90.999603
33.654571
16.000867
13.164878
17.466545
28.063655
39.082766
57.218671
72.697997
90.229511
98.757744
102.748871
98.696947
86.335540
73.860884
56.581497
44.610500
32.078624
25.431514
21.230578
19.786954
19.661784
20.470619
21.877885
22.098422
23.398995
24.688840
25.426745
26.435852
27.255416
28.226972
29.259920
29.816628
30.896664
30.961633
31.364560
31.795502
32.679439
32.765865
32.619834
32.563806
32.328963
32.043457
32.224655
31.990409
31.853914
31.544566
31.629801
31.017661
##ZVALUE=305
0.614524
0.536442
0.571609
0.612736
0.601411
0.554919
0.584722
0.512600
0.457764
0.625849
0.549555
0.414848
0.556707
0.611544
0.691414
0.506639
0.675917
0.602603
0.702739
0.789762
0.629425
0.768900
0.851750
0.793934
0.764728
0.849962
0.907779
0.985861
1.048446
1.166463
1.068711
1.189709
1.173615
1.381636
2.164841
11.908412
34.759641
103.420615
190.370679
361.573696
520.302653
735.445619
864.937901
940.600634
908.179879
753.328800
602.948666
393.991470
251.543522
116.426945
56.784749
19.624829
11.235476
12.440681
16.911626
27.332902
38.419962
55.274963
69.680810
86.511970
94.268918
98.871589
94.933510
84.873438
73.292851
56.897998
44.685602
33.094883
27.827621
23.912787
22.849441
22.983551
23.497939
24.710894
25.588870
27.169585
27.276874
28.665662
29.632449
30.717850
31.492710
31.644702
32.228827
33.087730
33.515692
33.476949
33.350587
33.752918
33.839941
33.025742
32.728910
32.529831
32.768846
32.441616
32.352805
32.346845
##ZVALUE=310
0.547767
0.546575
0.648499
0.541806
0.482798
0.450611
0.444651
0.511408
0.512600
0.528693
0.559688
0.593662
0.670552
0.708699
0.684857
0.545979
0.631809
0.700951
0.622869
0.566840
0.610948
0.553727
0.602603
0.712872
0.661612
0.821948
0.758767
0.830889
0.805855
0.803471
0.917912
0.985861
0.968575
1.037717
1.046658
1.178980
1.516938
5.092621
17.442703
59.566498
121.767521
263.915658
409.861803
628.823638
790.622830
932.265520
950.940847
866.658688
736.055970
513.346791
350.954533
179.819465
96.528530
34.008622
14.850497
9.962916
11.579990
17.010570
23.283958
36.161542
48.402548
66.399574
79.475641
91.508627
95.834732
93.426704
86.954832
73.666573
61.471462
46.404600
38.145781
31.094551
28.085709
26.060939
26.484728
27.374625
27.646422
28.723478
29.655695
30.955672
31.495690
32.294989
32.577515
34.298897
33.783913
34.462810
34.606457
34.713745
34.261942
34.508705
34.315586
33.790469
33.480525
33.279657
32.837987
33.306479
##ZVALUE=315
0.464916
0.292659
0.568628
0.557899
0.595450
0.539422
0.506639
0.471473
0.615716
0.546575
0.508428
0.529885
0.561476
0.534654
0.620484
0.460744
0.528693
0.539422
0.548959
0.707507
0.589490
0.645518
0.725985
0.534654
0.535846
0.601411
0.780821
0.706911
0.781417
0.807643
0.818968
0.787973
0.881553
0.991821
1.091957
1.004934
1.150966
1.208782
1.278520
2.468824
8.864999
37.266612
83.862543
197.750926
332.674980
559.909940
716.575980
882.627964
956.366658
925.401449
826.375484
620.079637
451.923013
247.680545
137.304664
50.556660
21.775961
10.283589
9.926558
12.483597
15.564561
24.131536
32.960773
48.443675
61.231852
78.192949
87.376833
94.247460
92.239976
83.725452
75.131655
61.328411
50.599575
40.115714
34.075975
30.663610
29.123425
29.108524
29.698610
31.311512
31.536818
32.614470
33.434629
33.591986
34.206510
34.514666
34.883618
34.986734
35.189986
35.271645
34.849644
34.761429
34.280419
33.544898
34.049749
33.797622
##ZVALUE=320
0.460744
0.452995
0.464916
0.504851
0.524521
0.584722
0.597835
0.483990
0.443459
0.613928
0.639558
0.478625
0.597835
0.336766
0.609756
0.594854
0.399947
0.454783
0.534654
0.715852
0.706911
0.761747
0.716448
0.581741
0.664592
0.708699
0.676513
0.626445
0.679493
0.581741
0.601411
0.772476
0.797510
0.804663
0.744462
0.962615
0.946522
1.064539
0.928640
1.195669
1.160502
1.496673
3.764629
20.964742
54.878592
148.057938
252.524614
440.074801
605.362654
817.175508
929.625034
964.126587
902.472734
725.005865
549.819469
320.552588
187.970996
80.867410
36.303997
13.346672
9.724498
10.776520
12.821555
16.918778
22.284985
33.948421
44.996738
61.097741
73.699951
86.077452
91.269612
90.926886
85.577965
73.782802
63.906908
50.786734
43.593645
36.576986
33.662915
32.141805
31.686425
32.802820
33.256412
33.518672
33.918619
34.462810
35.103559
34.908652
35.259724
35.288930
35.107732
35.010576
34.703612
34.597516
34.293532
34.024715
##ZVALUE=325
0.511408
0.637770
0.408888
0.524521
0.585914
0.514984
0.541806
0.576973
0.571609
0.524521
0.589490
0.575781
0.686646
0.579953
0.543594
0.706911
0.543594
0.621676
0.600815
0.591874
0.471473
0.510812
0.607967
0.655651
0.736713
0.710487
0.525713
0.729561
0.559688
0.821948
1.019835
0.677705
0.728965
0.731945
0.942945
0.832677
0.823736
0.865459
1.033545
1.066923
1.190901
1.207590
1.161695
1.311898
2.355576
13.155937
35.730600
99.288821
184.900761
361.388922
522.130728
743.177533
881.325603
970.332026
943.117738
788.399577
620.645881
395.461917
247.190595
112.532973
55.100918
18.907785
11.190772
10.704994
11.546612
14.340878
17.615557
25.113821
33.753514
48.488975
59.984922
74.085593
83.354712
89.691877
89.448690
82.084537
74.359775
62.118769
52.586794
43.377876
38.395524
34.971833
34.247637
33.633709
33.741593
34.195781
34.391880
34.720898
34.947991
34.900904
34.813881
34.694672
34.809709
34.618974
34.463406
34.417510
##ZVALUE=330
0.451803
0.482798
0.419617
0.435710
0.510812
0.343919
0.357628
0.587702
0.571609
0.460744
0.472665
0.379682
0.602603
0.440478
0.456572
0.551939
0.558496
0.515580
0.616908
0.504851
0.549555
0.516772
0.475645
0.524521
0.480413
0.530481
0.650883
0.388622
0.546575
0.607967
0.681877
0.592470
0.609756
0.546575
0.703931
0.682473
0.689626
0.761747
0.894666
0.688434
0.855923
0.921488
0.881553
0.983477
1.086593
1.328588
1.438856
5.060434
17.334819
62.264800
125.440955
268.742442
414.912701
640.931726
802.657008
945.770741
958.307981
859.323740
716.297626
486.137867
325.077772
157.752633
82.211494
30.549765
15.059710
11.288524
11.806488
13.186932
15.199780
19.933581
25.151968
35.198927
45.271516
60.797930
71.684718
82.355738
87.255836
86.140633
81.669688
72.385669
62.807798
52.279830
45.077801
39.439797
36.501884
34.962893
34.065843
34.034848
34.375787
33.989549
33.975840
34.070611
34.206510
33.640862
33.919811
34.110546
##ZVALUE=335
0.403523
0.443459
0.461936
0.355840
0.464916
0.448823
0.417829
0.478625
0.450611
0.433922
0.414848
0.357628
0.559688
0.393987
0.449419
0.449419
0.557899
0.514984
0.640750
0.439882
0.340939
0.537634
0.546575
0.611544
0.393987
0.653863
0.631809
0.624657
0.615716
0.531673
0.580549
0.689626
0.643730
0.680685
0.654459
0.642538
0.792742
0.739694
0.592470
0.623465
0.590682
0.768900
0.868440
0.849962
1.048446
0.909567
1.119971
1.146793
1.173615
2.527833
8.450747
35.565495
80.984831
195.710659
330.207944
554.984808
729.310513
904.091597
959.208012
912.145972
799.275637
577.665567
409.273505
223.757625
120.372772
44.261813
20.519495
12.339950
12.289882
13.291836
14.376640
16.933680
20.160675
27.376413
34.541488
47.698617
57.747960
70.241690
78.621507
84.922910
84.171891
78.294873
72.031617
62.683821
55.262446
46.007633
40.318966
36.553741
34.704804
33.747554
32.902956
32.939911
32.972693
32.679439
32.871962
33.164620
##ZVALUE=340
0.539422
0.432730
0.413656
0.495911
0.419617
0.475645
0.316501
0.495911
0.394583
0.482798
0.505447
0.515580
0.361800
0.506639
0.354648
0.412464
0.462532
0.441670
0.533462
0.625849
0.392795
0.481606
0.508428
0.428557
0.538826
0.523925
0.581741
0.469685
0.617504
0.524521
0.503659
0.613928
0.590682
0.760555
0.538826
0.585914
0.567436
0.548959
0.836849
0.672936
0.763535
0.696778
0.837445
0.727773
0.853539
0.678897
0.995994
0.854731
0.968575
1.148582
1.230836
1.569986
3.900528
21.016598
55.813789
149.856806
267.697573
468.815565
642.622709
842.809677
936.747789
944.128036
859.005451
666.347742
487.661958
269.989967
154.598951
64.576864
28.220415
13.207793
12.445450
13.352633
14.311671
15.963912
17.627478
21.727681
26.866794
35.831928
45.185685
58.969855
68.045855
77.388883
81.185699
81.441998
77.691674
69.688559
61.690807
51.930547
45.364499
39.125681
35.853982
32.917857
32.124519
31.687617
31.631589
31.673908
##ZVALUE=345
0.468493
0.423789
0.384450
0.369549
0.535846
0.553727
0.409484
0.468493
0.482798
0.484586
0.315905
0.342727
0.371933
0.378489
0.481606
0.610948
0.421405
0.420809
0.504851
0.398755
0.524521
0.516772
0.598431
0.486970
0.516772
0.565648
0.463724
0.523925
0.509620
0.488758
0.541806
0.544786
0.618696
0.674725
0.580549
0.483990
0.687838
0.533462
0.569820
0.631809
0.597835
0.729561
0.719428
0.652671
0.674725
0.836849
0.826716
0.857711
0.847578
0.787973
1.016855
1.112819
0.946522
1.193881
2.044439
11.439919
34.767985
100.096464
190.156698
368.359685
530.802608
750.074983
876.818895
944.180489
904.772878
745.940804
573.127866
342.177749
203.557611
87.611675
40.800571
17.041564
13.119578
13.468862
13.816953
15.246868
16.122460
18.512607
21.618605
27.037859
34.075975
45.076609
53.880811
64.424872
70.816875
75.872540
76.562762
74.044466
68.923831
58.700442
51.435828
42.576790
38.193464
34.097433
31.606555
30.670762
##ZVALUE=350
0.317693
0.354648
0.412464
0.451803
0.423789
0.495911
0.424981
0.260472
0.374913
0.616908
0.440478
0.485778
0.493526
0.397563
0.531673
0.495911
0.473857
0.328422
0.533462
0.521541
0.570416
0.543594
0.646710
0.557899
0.422597
0.523925
0.444651
0.555515
0.440478
0.579953
0.529885
0.537634
0.565648
0.573993
0.628829
0.578761
0.516772
0.667572
0.535846
0.581741
0.620484
0.518560
0.651479
0.596642
0.691414
0.687838
0.676513
0.760555
0.637770
0.881553
0.856519
0.900626
0.965595
0.970960
0.952482
1.176000
1.400709
5.492568
18.928647
65.494776
132.682920
285.796523
434.683561
649.433732
800.658464
923.139453
926.207900
803.945661
646.936893
418.186784
263.611674
124.182701
59.432983
20.313859
13.086796
12.627840
13.272762
14.173985
14.893413
16.481876
18.533468
21.767616
25.973916
32.594800
39.558411
49.583912
57.027936
65.490603
69.472790
71.080923
68.823695
62.193871
57.005882
48.160553
41.992664
36.249757
##ZVALUE=355
0.439882
0.380874
0.342727
0.358820
0.343919
0.365973
0.408888
0.500679
0.414848
0.515580
0.379682
0.441670
0.336766
0.500679
0.418425
0.432730
0.583529
0.410676
0.405908
0.276566
0.589490
0.488758
0.577569
0.510812
0.493526
0.358820
0.579953
0.550747
0.555515
0.584722
0.455976
0.497699
0.483990
0.599623
0.619888
0.546575
0.550747
0.426769
0.614524
0.579953
0.542998
0.532866
0.593662
0.579953
0.708699
0.632405
0.655651
0.714660
0.701547
0.846982
0.691414
1.015663
0.788569
0.906587
1.012683
0.867844
0.936985
1.122952
1.384616
2.696514
9.550452
41.420460
91.241598
207.425952
345.738530
571.661592
732.996464
886.569619
932.382941
852.224827
722.183585
507.164598
332.797766
156.233907
78.044534
26.760697
14.367700
12.002587
12.279749
13.584495
14.303923
15.443563
15.980601
17.838478
19.988418
24.153590
28.798580
36.296844
43.006539
51.503778
58.176517
63.555837
64.987540
62.996745
59.413910
52.889585
##ZVALUE=360
0.410676
0.458956
0.449419
0.397563
0.584722
0.382662
0.431538
0.561476
0.436902
0.387430
0.488758
0.301600
0.566840
0.520945
0.449419
0.155568
0.354648
0.322461
0.587702
0.492930
0.357628
0.430942
0.491738
0.454783
0.475645
0.489950
0.603795
0.484586
0.519753
0.599623
0.507832
0.504851
0.440478
0.549555
0.499487
0.634789
0.574589
0.460744
0.585914
0.598431
0.611544
0.514984
0.656843
0.488758
0.612736
0.716448
0.751615
0.619888
0.533462
0.713468
0.709891
0.768900
0.773668
0.816584
0.970960
0.890493
1.021624
1.066923
1.040697
1.159906
1.500845
1.760721
4.041791
20.440817
53.493977
145.834684
257.548690
452.429652
628.187656
827.279687
910.848975
901.566744
801.362991
582.456589
407.661796
211.421847
113.766789
43.596625
19.576550
11.514425
11.241436
12.328625
12.684464
13.599992
14.263988
15.164614
16.093850
18.535852
20.723939
24.955869
29.855967
38.064718
44.720769
52.052736
56.501627
59.481859
##ZVALUE=365
0.537634
0.602603
0.481606
0.533462
0.597835
0.562668
0.564456
0.479817
0.717640
0.524521
0.591874
0.615716
0.574589
0.478625
0.730753
0.591874
0.677705
0.521541
0.519753
0.385642
0.502467
0.578761
0.629425
0.699759
0.600815
0.517964
0.552535
0.668764
0.467896
0.714660
0.652671
0.736713
0.598431
0.772476
0.588894
0.625849
0.489950
0.649691
0.751615
0.589490
0.524521
0.674725
0.641942
0.773668
0.680685
0.812411
0.776649
0.797510
0.744462
0.747442
0.746846
0.770688
0.931621
0.968575
0.866652
0.996590
0.786781
0.850558
0.905991
1.110435
1.162887
1.168847
1.445413
1.720786
2.533793
11.036992
32.020807
93.861818
184.535980
369.134545
530.053973
733.469725
859.071612
912.687778
846.715569
661.657453
491.238832
285.178423
159.912705
61.000586
26.805997
11.841655
10.652542
11.256933
11.610985
12.201667
12.833476
13.519526
13.952851
14.993548
16.293526
18.821955
21.764636
27.733445
32.512546
39.659739
##ZVALUE=370
0.391603
0.460744
0.487566
0.422597
0.446439
0.473857
0.408888
0.447631
0.379682
0.318885
0.359416
0.419617
0.365973
0.491738
0.449419
0.590682
0.489950
0.447631
0.436902
0.458956
0.520945
0.427961
0.500679
0.517964
0.558496
0.521541
0.523925
0.609756
0.505447
0.461936
0.511408
0.536442
0.707507
0.537634
0.594854
0.409484
0.574589
0.559688
0.489950
0.593662
0.505447
0.561476
0.748634
0.575781
0.607967
0.563860
0.622869
0.634789
0.493526
0.587702
0.636578
0.651479
0.615716
0.703931
0.676513
0.730753
0.806451
0.759959
0.877976
0.814795
0.917912
0.924468
0.928640
1.183748
1.151562
1.195669
1.586676
4.255772
23.751855
61.677694
159.196854
270.620584
467.828512
638.688803
825.627446
901.078582
874.764919
760.973692
540.919900
368.672609
183.308721
97.198486
38.414001
17.573833
10.071993
9.950995
10.214448
10.539889
11.103749
11.471510
12.075901
12.559891
13.594627
14.576912
16.718507
19.421577
##ZVALUE=375
0.387430
0.415444
0.186563
0.414848
0.431538
0.417829
0.390410
0.217557
0.282526
0.405908
0.419617
0.352859
0.394583
0.463724
0.395775
0.308752
0.408888
0.278950
0.435710
0.310540
0.304580
0.405908
0.451803
0.402927
0.392795
0.371933
0.580549
0.350475
0.410676
0.399947
0.405908
0.474453
0.368953
0.522733
0.480413
0.470877
0.547767
0.453591
0.549555
0.481606
0.523925
0.463724
0.614524
0.472665
0.513792
0.576973
0.573993
0.684857
0.560880
0.602603
0.459552
0.655651
0.521541
0.516772
0.538826
0.466704
0.483990
0.632405
0.684857
0.546575
0.732541
0.705719
0.841618
0.791550
0.923872
0.995994
1.003742
1.120567
1.371503
2.669692
9.799600
41.030645
94.893575
224.731565
362.102985
569.889545
729.910731
878.188014
903.788805
806.908011
659.819841
429.257751
282.335877
145.099759
74.001551
25.025606
11.963844
8.977652
8.822680
9.414554
9.602904
10.140538
10.461807
11.033416
11.725426
12.251735
##ZVALUE=380
0.314713
0.361800
0.352859
0.360608
0.263453
0.306964
0.337958
0.377893
0.413656
0.248551
0.454783
0.433922
0.444651
0.217557
0.455976
0.366569
0.244975
0.460744
0.445843
0.356436
0.350475
0.349879
0.431538
0.470877
0.337958
0.340939
0.462532
0.488758
0.458956
0.445843
0.436902
0.422597
0.387430
0.430942
0.404716
0.446439
0.428557
0.376701
0.483990
0.463724
0.431538
0.468493
0.394583
0.417829
0.482798
0.561476
0.496507
0.455976
0.353456
0.526905
0.404716
0.455976
0.543594
0.475645
0.633597
0.392795
0.495911
0.495911
0.696778
0.560880
0.526905
0.651479
0.687838
0.704527
0.673532
0.832677
0.920892
0.999570
1.026988
1.121759
1.296997
1.829863
4.989505
25.786757
65.238476
166.837573
286.263824
483.393669
651.243925
831.340551
890.586972
837.893486
729.917884
539.317727
377.675891
197.010636
104.362965
38.573742
16.928911
8.459687
7.817745
8.138418
8.519888
9.041429
9.441972
9.804964
##ZVALUE=385
0.496507
0.332594
0.306964
0.413656
0.453591
0.433922
0.350475
0.433922
0.369549
0.343919
0.403523
0.409484
0.398755
0.292659
0.288486
0.466704
0.327826
0.465512
0.482798
0.450611
0.318885
0.430942
0.346899
0.391603
0.382662
0.321865
0.398755
0.527501
0.493526
0.349879
0.483990
0.527501
0.483990
0.553727
0.440478
0.652671
0.373721
0.509620
0.425577
0.428557
0.531673
0.458956
0.424981
0.396967
0.314713
0.606775
0.531673
0.486970
0.561476
0.432730
0.517964
0.531673
0.450611
0.570416
0.644922
0.516772
0.574589
0.563860
0.627637
0.578761
0.485778
0.527501
0.696778
0.753999
0.713468
0.841618
0.785589
0.924468
1.025796
1.052618
1.208782
1.256466
1.251698
1.352429
2.358556
13.534427
38.634539
109.030604
207.538605
397.013426
561.775565
759.961009
852.332711
874.025822
813.632607
643.479824
481.467843
281.882882
166.072845
70.712566
29.786825
10.171533
7.461905
7.494688
7.794499
8.172989
##ZVALUE=390
0.220537
0.296831
0.327826
0.261664
0.331998
0.316501
0.273585
0.244975
0.457764
0.511408
0.360608
0.436902
0.453591
0.305772
0.458956
0.314713
0.436902
0.365973
0.208616
0.506639
0.260472
0.356436
0.311732
0.424981
0.283718
0.408888
0.255704
0.330806
0.317693
0.280738
0.464916
0.341535
0.406504
0.324845
0.450611
0.436902
0.458956
0.371933
0.353456
0.301600
0.389814
0.407696
0.370741
0.388622
0.375509
0.357628
0.402927
0.513792
0.511408
0.405908
0.497699
0.427961
0.379682
0.579953
0.562668
0.386834
0.553727
0.477433
0.367761
0.515580
0.628829
0.543594
0.504851
0.627637
0.603795
0.712872
0.871420
0.980496
0.969768
1.094937
0.976920
1.203418
0.992417
1.008511
1.104474
1.080632
1.456738
6.623864
22.767782
79.928637
161.711574
331.373811
478.284955
668.635964
800.969005
895.154476
876.784921
749.358535
603.077412
391.612649
238.753557
102.652907
48.044920
14.508963
8.059740
6.642938
##ZVALUE=395
0.309944
0.224710
0.371933
0.323653
0.307560
0.285506
0.329614
0.362992
0.212789
0.347495
0.384450
0.290871
0.312924
0.437498
0.253916
0.299811
0.207424
0.232458
0.408888
0.324845
0.424981
0.368953
0.442863
0.373721
0.488758
0.313520
0.395775
0.351667
0.492930
0.389814
0.449419
0.355840
0.464916
0.322461
0.233650
0.431538
0.324845
0.451803
0.391603
0.313520
0.460744
0.274777
0.551939
0.341535
0.506639
0.414848
0.366569
0.342727
0.395775
0.411868
0.416636
0.329614
0.512600
0.409484
0.452995
0.331998
0.521541
0.420809
0.549555
0.387430
0.510812
0.412464
0.436902
0.474453
0.523925
0.590682
0.849962
0.822544
0.734925
0.671744
0.826716
0.788569
0.831485
0.858903
0.977516
0.819564
0.938773
1.119971
1.169443
3.757477
14.002919
55.162907
113.090873
234.889388
369.784832
582.582951
736.379027
874.868631
903.826952
829.241872
692.379475
467.082858
307.039022
143.673420
70.874691
24.127960
##ZVALUE=400
0.363588
0.267625
0.241995
0.408888
0.377893
0.290871
0.262856
0.262856
0.356436
0.326633
0.239611
0.355840
0.275970
0.225902
0.500679
0.350475
0.402927
0.254512
0.450611
0.398755
0.270605
0.308752
0.396967
0.380874
0.345707
0.479817
0.289679
0.344515
0.505447
0.320673
0.471473
0.273585
0.397563
0.386834
0.434518
0.342727
0.296831
0.473857
0.491738
0.469685
0.446439
0.349879
0.476837
0.398755
0.321865
0.332594
0.538826
0.503659
0.528693
0.507832
0.492930
0.169873
0.612736
0.416636
0.434518
0.545979
0.560880
0.509620
0.494719
0.510812
0.477433
0.605583
0.603795
0.655651
0.475645
0.587702
0.684857
0.803471
0.830889
0.928640
0.768900
0.792742
0.755787
0.710487
0.783801
0.851750
0.933409
0.858903
0.961423
0.930429
1.035929
2.021790
6.977916
30.739903
71.628690
173.346996
292.480588
487.133861
640.006661
808.889866
882.753730
853.318572
752.182603
561.716557
395.198464
212.752819
##END
