##TITLE=FSH752
##FORMAT=SPECTACLE-ASCII V-1.2
##DATA TYPE=ULTRAVIOLET SPECTRUM
##SECOND TYPE=ULTRAVIOLET SPECTRUM
##DATE=05/24/18
##TIME=15:49:10
##SPECTROMETER/DATA SYSTEM=SPECTACLE
##XUNITS=NM EM
##YUNITS=ENERGY
##YFACTOR=1
##FIRSTX=220
##LASTX=410
##NPOINTS=96
##3DDATA=Equidistant
##ZUNITS=NM EX
##FIRSTZ=210
##LASTZ=400
##ZPOINTS=39
##XYDATA=(Y..Y)
##ZVALUE=210
22.390485
21.803975
18.493533
15.002489
13.274550
11.857748
11.424422
11.026859
10.556579
7.388592
6.552935
5.990863
5.289912
4.678965
5.766749
5.920529
6.670952
6.615520
7.267594
7.867813
8.903742
8.492470
9.490848
12.653470
13.945699
20.076632
27.143955
39.065480
46.774745
60.044527
70.405602
80.820918
89.932680
98.091960
101.596713
103.837848
105.339885
101.391673
98.984838
96.413493
94.773769
85.079670
83.398819
75.330734
72.860718
64.377785
60.737729
58.572888
55.615902
49.095750
48.423409
41.536689
38.420558
38.070679
35.988688
33.243895
31.619668
30.067563
26.850700
26.361942
24.802685
25.217533
22.604465
22.709966
22.713542
24.619699
25.389791
28.945804
35.104752
38.311481
43.987632
47.036409
52.240491
54.059625
55.693984
57.040453
57.295561
53.720474
44.621825
40.899515
33.573508
28.517842
24.756789
21.276474
18.138885
16.533732
16.140938
14.811754
16.324520
16.547441
21.137595
25.413632
31.542778
36.387444
46.579838
55.954456
##ZVALUE=215
85.253716
79.534650
66.184998
47.214627
33.610463
27.638674
24.950504
24.254918
22.216439
21.392703
16.786456
13.287663
10.516644
8.883476
7.963777
6.436706
6.305575
6.564856
6.216764
6.993413
7.121563
7.804632
9.383559
11.092424
14.915466
23.974776
32.297969
48.353672
58.356524
74.025989
89.666843
101.062655
119.628906
123.076439
134.040713
137.104988
132.918954
134.933591
131.244659
123.821497
118.007660
110.073686
104.320645
97.977519
90.480447
82.876682
79.158545
68.697929
67.098737
63.140988
57.682991
52.956939
48.975945
43.923855
41.692853
37.504435
34.751892
33.352971
30.813813
32.080412
27.761459
27.369857
26.894808
26.443601
24.977922
27.121902
25.879741
29.647946
31.612515
32.795668
37.148595
42.153001
44.744611
45.047998
45.550466
46.066642
46.750903
43.473840
40.265918
37.111640
29.380918
27.971864
22.576451
19.436479
18.996596
16.574860
15.349984
15.716553
13.764501
14.144778
14.794469
13.197660
14.761686
14.870763
17.989874
20.958781
##ZVALUE=220
188.542604
187.903643
167.479515
147.083998
123.194456
90.069771
68.189502
48.098564
40.084720
39.028525
35.560727
33.165812
30.791759
23.545623
19.091964
14.208555
10.808706
8.098483
6.983876
7.354617
6.798506
6.839633
7.345676
9.203553
15.415549
22.586584
33.594966
46.443939
69.292784
85.488558
108.827949
119.854808
138.484836
148.166418
157.267451
161.924958
158.760548
155.197978
153.732896
147.152543
139.057636
129.456520
118.784904
110.573769
105.729699
94.279647
87.272525
83.986521
73.518753
67.639947
60.496926
58.750510
53.517818
50.205588
46.432614
43.034554
37.497878
36.399961
32.877922
31.234622
28.336644
27.796626
27.202964
25.836825
23.649931
24.684668
23.092628
23.387671
24.804473
25.630593
29.239655
31.498671
31.687617
32.312870
33.835769
34.327507
32.243729
30.297637
28.311610
24.997592
22.104979
20.213723
17.745495
16.701818
15.524626
14.549494
12.865663
12.430549
12.006760
11.841655
11.706948
9.792447
10.583997
10.201931
10.428429
9.905696
##ZVALUE=225
208.037496
220.760703
247.740746
265.787840
251.193643
225.196481
182.837844
131.208897
95.789433
74.163675
57.660937
51.675439
55.532455
53.276420
49.771667
41.802526
32.453537
26.230812
18.816590
11.421442
8.703470
5.904436
5.556941
7.889867
11.033416
20.486712
27.150512
43.802857
55.670738
72.794557
89.638829
104.083419
116.485953
125.496984
132.291913
138.760805
136.999488
132.154822
128.731728
123.144984
118.090510
110.699534
104.969740
97.629428
90.003610
82.844496
75.217485
67.802668
66.525936
57.092905
54.166913
47.615767
45.207739
41.613579
40.284991
35.092831
33.937693
32.059550
27.870536
26.653409
24.964809
24.132729
22.480488
21.250844
21.682978
20.599961
19.687414
20.144582
20.929575
21.585822
23.026466
24.179816
23.203492
25.061965
24.143457
22.044778
22.573471
21.278858
19.195676
17.807484
16.777515
14.633536
13.369918
13.382435
10.847449
11.019707
11.766553
10.317564
10.912418
10.935664
9.426475
9.329915
9.070635
8.367896
9.508729
8.364916
##ZVALUE=230
127.905607
142.618418
223.018527
333.677530
422.393680
483.492613
504.625440
466.705561
400.252938
323.199630
202.619433
132.046938
89.189410
75.583458
76.498985
77.361465
74.915886
66.884756
59.223771
44.544935
32.564998
19.126534
14.268756
9.104609
8.939505
13.143420
15.455484
25.410652
32.083988
38.525462
48.470497
55.645704
63.700676
69.623590
73.263645
75.242519
74.487925
74.037910
72.429776
72.167516
67.088604
65.058470
60.391426
58.544874
51.843524
47.642589
44.917464
40.997863
39.712787
37.162900
34.402609
32.751560
28.981566
29.658675
27.874708
25.624633
25.200844
23.863912
20.941496
21.262765
20.532608
19.437671
18.249750
18.373728
18.052459
18.401742
17.550588
18.337965
19.040704
18.399954
20.198822
21.048784
21.209717
21.464825
22.167563
22.332668
19.625425
18.296838
16.889572
15.482903
14.419556
13.787746
12.887716
11.606812
11.415482
11.836886
11.068583
10.327697
10.240674
10.833740
9.590983
9.745955
9.148717
9.632707
9.512901
9.352565
##ZVALUE=235
28.883815
33.902526
71.324706
174.056888
275.274515
421.761870
529.647470
641.013980
671.408772
651.420951
539.767742
427.581668
281.386971
202.388763
133.543611
102.759004
88.751912
93.494654
98.085999
92.147589
83.865523
66.159964
51.258802
33.963919
23.829937
16.013980
13.723969
12.579560
14.124513
16.896725
19.439459
24.094582
25.063753
27.689934
28.960705
30.696988
30.880570
30.126572
29.769540
30.683875
29.645562
28.789639
27.006865
26.298761
25.532842
25.743842
23.675561
23.627877
21.494627
20.426512
19.874573
18.581748
18.929839
18.838644
18.144846
17.419457
16.531944
16.126633
16.744733
16.566515
16.293526
14.719963
14.728904
15.297532
14.792681
14.721751
14.379621
15.977621
14.990568
17.445683
17.884970
18.930435
19.509792
20.137429
19.650459
18.903613
17.971992
16.176701
15.060902
14.887452
14.596581
13.964772
13.129711
12.387633
11.804700
11.149645
10.810494
10.660887
10.174513
10.446906
10.642409
8.614659
9.673834
9.296536
9.327531
9.615421
##ZVALUE=240
1.822710
2.802610
7.754564
32.506585
71.118474
156.545639
255.419612
418.086648
531.005859
629.300475
694.872737
669.080615
556.407571
450.399518
307.001472
207.462907
124.796629
96.411705
89.685917
96.689463
104.463696
109.288692
101.481676
85.646510
71.205497
51.819682
37.955642
25.264621
18.895864
14.027953
13.623834
13.381839
13.518929
14.683604
15.986562
16.706586
17.590523
17.423630
18.352866
18.611550
18.886924
19.138455
18.615723
18.494725
18.618703
16.247630
17.664433
17.088652
16.583800
15.743971
14.607906
15.109777
13.755560
13.709664
14.026761
13.352633
12.464523
11.636615
11.950731
12.190938
11.871457
11.552572
12.017488
11.464953
11.232495
11.668801
11.236668
12.195706
12.773871
13.437867
14.589429
14.678836
13.745427
15.489459
14.376640
14.267564
14.177561
13.290644
12.508631
11.812449
11.214614
11.215806
11.347532
9.657741
10.341406
9.411573
10.044575
9.520650
9.272695
9.872913
9.594560
9.943843
9.171963
8.739829
9.201765
8.526444
##ZVALUE=245
1.554489
1.291633
1.522899
1.555681
4.126430
18.814802
48.331618
122.432709
208.908916
347.180963
463.854671
589.875579
643.230677
639.540553
584.525466
472.413898
365.013480
233.353972
160.357952
101.467967
87.790489
84.719658
99.469423
109.170675
112.181902
109.903812
94.658732
80.799460
59.743524
45.433640
33.908486
26.440620
19.515753
18.469691
17.566681
19.492507
19.472837
20.009875
20.860434
21.092892
21.152496
19.820929
20.210743
19.331574
18.900633
19.438863
18.054843
17.688870
16.305447
16.686916
16.036630
14.579892
14.527440
13.567805
13.356805
12.732744
11.961460
11.527538
11.081696
10.550618
10.826588
10.458827
10.148883
10.508895
10.232925
10.000467
10.437965
10.084510
11.397600
11.634827
11.625886
11.873841
11.900663
12.948513
12.213588
11.989474
11.831522
11.653900
10.986924
10.322928
9.630919
9.140968
9.178519
9.601712
8.346438
9.012818
9.494424
8.990765
8.767843
8.695722
8.580685
8.785725
8.914471
8.430481
8.941889
8.169413
##ZVALUE=250
1.040697
1.116991
1.320839
1.435876
1.449585
1.251698
2.734661
10.225773
42.218566
84.412694
187.209845
289.535522
406.754017
551.515818
639.206767
689.951777
664.146543
574.015975
468.701720
314.256549
206.900835
136.766434
86.133480
77.018738
89.245439
101.767778
113.215446
119.500756
116.151571
107.432604
95.398426
75.570941
61.508417
46.225786
37.920475
31.246543
29.048920
28.378963
28.572679
28.364658
28.035641
27.183890
26.523471
24.689436
24.283528
23.748875
22.511482
20.478964
20.150542
18.974543
17.730594
16.729832
16.302466
15.119910
14.102459
13.586879
12.732744
11.964440
11.046529
11.564493
11.006594
9.765625
9.902716
9.208918
9.402633
9.296536
9.979606
9.503961
9.983778
10.069609
10.543466
10.424852
10.561943
10.352731
10.715723
10.410547
10.007620
9.383559
9.582639
8.932948
8.696914
8.339882
8.451939
8.176565
7.865429
7.864833
7.776618
7.912517
7.474422
7.553697
7.335544
7.215738
7.882714
7.904768
7.833838
6.993413
##ZVALUE=255
1.148582
1.073480
1.105666
1.111627
1.068711
1.094937
1.329780
1.328588
1.799464
4.750490
25.518537
59.035420
115.823746
235.008001
352.872610
523.620844
630.794764
738.997459
757.827759
692.473650
586.148500
456.127524
278.669000
178.855658
97.509623
76.062679
76.052547
90.745687
113.884807
127.871633
136.493444
136.485696
130.541921
113.684535
97.615719
76.963902
63.569546
52.139759
44.449568
41.041970
38.259625
37.029982
34.931898
34.000874
32.226443
30.168891
28.314590
26.498437
25.283694
23.482442
22.203922
20.694733
19.235611
18.164515
17.079711
15.524626
14.340878
13.499856
12.697577
12.261868
11.614561
10.967851
10.855794
10.018945
9.585619
9.438992
9.106994
9.716749
9.422898
9.734631
10.157824
10.076761
9.697676
9.740591
9.276867
9.040833
9.143949
8.256435
8.495450
7.810593
7.782578
7.631779
7.539988
7.545948
7.099509
7.146597
6.841421
6.835461
6.710887
7.065535
6.877780
6.984472
6.920695
7.016659
6.635785
6.768703
##ZVALUE=260
0.900626
0.825524
1.103878
0.970960
1.108646
1.107454
1.160502
1.298785
1.349449
1.636744
1.684427
2.234578
12.043715
32.749772
88.936687
170.348883
353.129506
516.047478
678.468943
914.000869
1013.403535
997.215509
876.854658
654.524565
467.341542
262.510777
168.446898
99.447966
82.140565
89.777708
109.834671
138.081908
153.873563
165.268779
163.192749
153.962970
138.380527
114.019513
96.387863
76.380968
64.827800
54.089427
50.404668
44.488907
42.076707
38.874745
36.196709
33.734441
31.152964
28.525591
27.571917
25.270581
23.184419
20.751953
20.037889
18.375516
17.037988
15.785694
14.390945
13.970733
13.111830
11.897683
11.435747
10.644794
10.470748
9.828806
10.221601
10.082722
9.943843
9.743571
10.150671
10.067821
9.763837
9.873509
9.743571
9.516478
8.968711
8.208752
8.508563
7.877946
7.568598
7.182956
7.096529
7.270575
7.175803
6.881952
6.825924
6.795526
6.400943
6.307960
6.474853
6.470680
6.224513
6.472468
6.354451
6.326437
##ZVALUE=265
0.969768
1.055598
1.065731
1.105666
1.242757
1.181960
1.200438
1.239777
0.937581
1.363754
1.233816
1.351833
1.566410
1.648664
4.140735
23.332834
58.988929
146.272779
272.451639
528.395772
754.446983
975.518823
1015.794873
1015.794873
1015.794873
865.088701
607.050657
414.370894
232.256651
152.598619
108.725429
98.307729
110.931993
140.075684
158.224702
177.572966
184.088945
177.502632
166.085958
142.669678
122.723579
98.062754
80.512762
63.645840
55.727959
47.025681
42.908788
39.236546
36.888719
32.660961
30.605793
28.114915
25.976896
23.685694
22.309422
20.064712
18.906593
16.657710
16.046762
14.597774
13.705492
12.819767
12.354851
11.470914
10.750890
10.181665
9.931922
10.124445
9.962916
9.905696
9.953976
9.753704
9.760857
9.779930
9.627938
9.327531
8.363724
8.240938
7.923841
7.359982
7.141829
6.484985
6.711483
6.775856
6.417632
6.382465
6.457567
6.314516
6.165504
6.225705
5.958676
5.704761
6.113648
5.832911
5.880594
5.898476
##ZVALUE=270
1.014471
0.964999
0.916719
0.976920
0.833869
0.847578
0.985861
0.926852
1.006722
1.015663
1.100898
1.089573
1.184940
1.050830
1.406670
1.515746
1.952648
9.316802
29.543638
92.919469
185.447931
325.819850
570.972562
762.996674
968.020558
1015.794873
991.842747
882.856846
669.876933
505.882502
383.309722
211.951733
145.228505
105.571747
103.955865
123.105645
140.535831
161.176920
173.336864
178.516507
174.086690
156.306624
138.757825
110.118985
89.369416
68.713427
55.088997
45.148730
38.517714
32.845736
30.324459
27.988553
26.209950
23.754835
21.263957
20.253658
18.706918
16.854405
15.645623
14.607906
13.600588
12.845993
12.206435
11.283755
10.661483
10.516644
9.890795
10.189414
9.365678
9.412766
9.773970
9.760857
9.022951
8.926988
8.986592
8.466840
8.127689
7.872581
7.429719
7.013679
6.775856
6.719828
6.473660
6.198883
6.022453
6.260872
6.102920
5.990863
5.829930
5.966425
6.009936
5.453825
5.477667
5.730987
5.389452
5.139709
##ZVALUE=275
0.748634
0.779629
0.784993
0.942945
0.717640
0.818968
0.736713
0.708699
0.860691
0.846982
1.022816
0.991821
1.012683
0.937581
1.072884
1.125932
1.349449
1.362562
1.628995
3.766418
15.951991
46.861768
134.276748
243.016481
440.036654
592.522621
773.386955
882.514715
936.881900
897.980928
801.710486
607.111454
447.531939
258.937478
167.216659
99.759698
81.299543
85.595846
97.347498
118.788481
134.271979
149.315000
154.398680
148.081779
137.489438
112.894773
95.706582
71.187615
55.712461
39.855838
31.197667
24.924874
21.326542
19.133687
17.945766
16.492605
15.267730
14.359951
13.677478
13.020635
12.040734
11.562705
10.623932
10.182858
10.250807
9.357929
9.115934
8.811951
8.708835
8.749962
8.782744
9.022951
8.215904
8.311868
8.321404
8.119941
7.736683
7.306933
6.693602
6.640553
6.322861
5.940795
6.167889
6.516576
6.009936
5.716681
5.763769
5.653501
5.276799
5.379915
5.293489
5.341768
5.330443
5.061626
5.144477
5.059838
##ZVALUE=280
0.751615
0.612736
0.795722
0.554919
0.832677
0.831485
0.591874
0.769496
0.842810
0.908971
0.853539
1.027584
0.925660
0.900626
0.935793
0.955462
1.146793
0.982881
1.294613
1.356602
1.504421
1.853704
8.828640
31.949878
101.808906
185.987949
344.464779
502.897501
712.087750
843.737721
943.922997
947.111845
869.078636
680.102706
513.077974
303.046703
188.142657
93.152523
57.467818
45.599937
53.168535
72.423816
87.787509
109.839439
121.317506
128.341913
125.595927
113.872886
99.123716
75.503588
59.124827
39.303899
29.532909
19.398928
15.014410
12.307763
11.273623
10.612607
10.239482
10.041595
9.640455
9.495616
9.258986
8.823872
8.818507
8.507967
8.379817
8.635521
8.302927
8.565784
8.139610
8.146763
8.316636
7.801652
7.642508
7.386804
7.353425
7.109642
6.674528
6.618500
6.534457
6.049871
6.192923
6.099939
5.836487
5.901456
5.704761
5.375743
5.344748
5.378723
5.346537
5.350709
5.154610
5.288720
5.324483
4.887581
##ZVALUE=285
0.718832
0.706911
0.758767
0.814795
0.636578
0.838637
0.595450
0.625849
0.811815
1.020432
0.840425
0.759959
0.937581
0.848770
0.900626
0.948906
0.846982
1.157522
1.032948
1.161695
1.099706
1.225471
1.436472
1.585484
4.057884
15.011430
55.494905
114.026666
246.901512
389.299989
553.228855
781.238675
920.594931
1005.398631
970.294476
814.933777
645.122528
410.074592
260.566473
123.078823
63.652992
29.872656
27.754903
39.316416
53.367615
76.649785
91.473460
107.486844
115.199685
114.762783
107.132792
89.716911
74.411631
52.577853
38.470626
23.687482
16.634464
11.761785
9.326935
8.710623
8.442998
8.207560
8.281469
8.007884
8.287430
8.176565
8.188486
8.480549
8.182526
8.369684
8.350611
8.341670
8.079410
8.472800
7.783771
7.802844
7.289648
7.443428
7.018447
6.782413
6.544590
6.528497
6.274581
6.102920
6.425977
6.091595
5.945563
5.863905
5.616546
5.412698
5.399585
5.281568
5.315542
5.393624
5.039573
5.189776
##ZVALUE=290
0.696778
0.681877
0.747442
0.624657
0.707507
0.772476
0.683665
0.727773
0.628829
0.726581
0.710487
0.708699
0.725985
0.805855
0.924468
1.071692
0.805855
0.980496
0.943542
1.031756
1.035929
0.988841
1.258850
1.131892
1.166463
1.638532
2.048612
5.919933
29.336810
70.545673
169.245005
296.356678
464.317799
718.907714
884.635448
1015.794873
1015.794873
923.565030
768.049955
522.278547
350.521803
176.320672
90.861917
34.046769
20.729899
23.990870
32.875538
50.048828
65.626502
86.765885
99.122524
109.752417
110.763907
103.128552
90.424418
69.358945
53.379536
34.994483
25.037527
16.051531
12.224913
9.516478
8.848906
8.350611
8.151531
8.203983
8.438826
8.706450
8.381605
8.795857
8.898973
8.783937
8.629560
8.452535
8.407831
8.230805
8.013844
7.881522
7.570982
7.314682
7.027984
6.834865
6.780624
6.318688
6.414652
6.353855
6.457567
6.054640
6.009936
5.556941
5.639791
5.451441
5.491972
5.289912
5.432963
5.185604
##ZVALUE=295
0.600815
0.609756
0.716448
0.807643
0.724792
0.558496
0.521541
0.589490
0.604987
0.657439
0.824928
0.602603
0.603795
0.628829
0.769496
0.680685
0.874996
0.849962
0.866652
0.902414
0.996590
0.978708
0.990629
1.128912
1.047850
1.225471
1.208782
1.356602
1.575947
2.403855
8.448958
41.682720
97.726583
234.088898
382.239819
625.180006
799.298882
982.604027
1015.795469
988.169909
862.764716
631.558895
442.810655
241.785645
131.632686
47.353506
23.401976
15.721917
19.481778
31.316876
42.594671
62.496662
78.705549
95.783472
103.328824
105.283856
100.421906
84.901452
70.240498
50.715804
37.805438
24.416447
17.271638
12.113452
10.265708
8.622408
8.889437
8.764863
8.708835
8.917451
8.835793
9.171963
9.078979
8.753538
8.722544
8.183718
8.246899
8.003712
7.757545
7.734895
7.206798
7.308722
7.033944
6.973743
6.750822
6.403923
6.332994
6.261468
6.094575
6.038547
5.825758
5.673766
5.582571
5.444884
5.218983
5.355477
##ZVALUE=300
0.499487
0.560880
0.608563
0.598431
0.581741
0.542998
0.589490
0.506639
0.756979
0.578761
0.607967
0.666976
0.778437
0.586510
0.649691
0.734925
0.808835
0.730753
0.804663
0.879765
0.836849
0.799894
1.011491
1.058578
1.138449
0.966787
1.153946
1.113415
1.307726
1.258850
1.461506
1.917481
5.445480
19.987822
72.563887
145.195723
305.647850
474.069715
716.652870
877.391696
1008.460522
1015.794873
931.839943
780.423880
532.584786
355.224013
180.513859
96.128583
34.902692
16.011000
13.045669
17.619729
27.781725
38.529634
57.030916
72.205663
90.056658
98.151565
101.568699
96.662641
83.591938
71.301460
52.412748
39.547682
25.588870
18.684864
12.766719
10.533929
9.466410
9.431839
9.127855
9.242892
9.037852
8.785725
8.759499
8.636713
8.330941
7.951856
8.012652
7.788539
7.773638
7.332563
7.535815
7.226467
7.030964
6.707907
6.651878
6.857514
6.119609
6.247759
5.966425
5.827546
5.686879
5.615950
5.437732
5.504489
##ZVALUE=305
0.501871
0.626445
0.522733
0.444651
0.420809
0.597835
0.690818
0.725985
0.531673
0.658631
0.644922
0.703931
0.583529
0.732541
0.660419
0.603795
0.641942
0.674725
0.791550
0.539422
0.787973
0.655651
0.816584
0.851750
0.849962
0.916719
0.985861
0.948906
1.104474
1.190901
1.160502
1.336932
1.281500
1.405478
2.498627
10.207891
45.930743
102.481842
234.454870
374.498963
596.689582
770.499706
948.937535
1012.257934
969.485641
852.043033
631.348491
454.427004
249.509811
137.244463
51.702857
22.390485
11.030436
11.774898
17.465949
24.873614
40.000677
53.301454
71.037412
83.483458
94.036460
96.342564
91.957450
82.997680
66.757798
52.777529
36.402941
26.539564
17.051697
12.872815
10.161996
9.464622
9.002686
8.875728
8.449554
8.324981
8.021593
7.934570
7.594824
7.816553
7.595420
7.274747
7.299781
7.205606
7.006526
6.847978
6.719828
6.419420
6.323457
6.251931
5.939603
5.680919
5.877614
5.326867
5.443692
5.090833
##ZVALUE=310
0.624657
0.498891
0.497699
0.532866
0.545979
0.488758
0.604987
0.410676
0.599623
0.524521
0.438690
0.547767
0.555515
0.520945
0.581741
0.653863
0.592470
0.625849
0.560880
0.720620
0.620484
0.731945
0.768900
0.874996
0.833869
0.844598
0.792742
0.877976
0.852942
0.956655
0.824928
1.078844
1.154542
1.099706
1.335740
1.294613
1.535416
5.210638
18.387437
65.752864
134.198666
287.137628
442.806482
674.690604
842.220783
987.515450
1007.506847
917.426944
780.110955
542.833805
370.442867
191.870928
102.066994
36.228895
15.620589
9.793639
11.088848
15.964508
22.188425
34.690499
46.351552
64.502954
76.027513
87.365508
91.709495
88.191628
80.007911
65.230727
52.215457
35.762787
26.179552
17.267466
12.897849
9.571910
8.511543
7.529855
7.575750
7.422566
7.321835
7.216930
6.895661
6.926656
6.711483
6.600618
6.747842
6.475449
6.473660
6.246567
6.291866
5.966425
5.891919
5.588531
5.504489
5.339980
5.347729
5.085468
##ZVALUE=315
0.541806
0.474453
0.525713
0.459552
0.599623
0.507832
0.448823
0.441670
0.470877
0.544786
0.622869
0.422597
0.411868
0.669956
0.594854
0.561476
0.563860
0.449419
0.591874
0.480413
0.776649
0.729561
0.623465
0.708699
0.569820
0.664592
0.689626
0.653863
0.730753
0.822544
0.856519
0.837445
0.909567
0.913739
0.927448
1.218915
1.295805
1.282692
1.336932
2.503991
8.926988
40.120482
91.410875
213.594437
357.037783
596.932769
757.761598
929.299593
999.693871
968.559980
861.235857
645.491481
469.523668
258.970857
143.442750
53.619742
22.263527
9.688735
8.977652
10.802746
13.858676
21.942854
30.062795
43.994784
57.276487
72.950721
81.221461
85.981488
84.151626
73.673725
63.322783
47.783852
36.251545
23.029447
16.727448
10.805726
8.402467
7.505417
6.746650
6.581545
6.419420
6.153584
6.328821
6.250739
5.905628
5.953908
5.842447
5.802512
5.665421
5.693436
5.540848
5.547404
5.334616
5.154610
5.207658
4.959702
##ZVALUE=320
0.416636
0.515580
0.596642
0.441670
0.543594
0.522733
0.514984
0.448823
0.456572
0.470877
0.446439
0.548959
0.596642
0.614524
0.608563
0.680685
0.482798
0.601411
0.637770
0.614524
0.588894
0.757575
0.592470
0.730753
0.536442
0.774860
0.750422
0.628829
0.677705
0.873804
0.632405
0.746846
0.681877
0.817776
0.932813
0.971556
0.915527
1.047850
1.023412
1.094937
1.381636
1.629591
4.174709
21.892786
58.147907
154.515505
264.941454
462.934971
636.611581
850.899816
966.371894
1000.643969
940.514803
754.505992
576.579571
335.147977
197.302699
85.058808
38.037896
12.285709
8.044839
7.863641
8.888841
12.176633
17.230511
27.656555
37.335753
52.305460
64.088702
76.181889
79.991817
78.539848
71.849823
58.110952
46.053529
31.215549
22.632480
14.560819
10.461807
7.334948
6.456971
5.725622
5.628467
5.556941
5.321503
5.411506
5.232692
5.131960
5.234480
5.116463
5.049706
5.257726
4.991889
4.821420
4.786849
4.954934
##ZVALUE=325
0.657439
0.524521
0.444651
0.431538
0.474453
0.439882
0.489950
0.466704
0.527501
0.590682
0.411868
0.520945
0.603795
0.549555
0.500679
0.531673
0.506639
0.454783
0.544786
0.505447
0.525713
0.534654
0.466704
0.647902
0.635982
0.682473
0.689626
0.567436
0.560880
0.713468
0.706911
0.693798
0.740886
0.794530
0.720620
0.858903
0.756979
0.921488
0.936985
1.097918
1.103878
1.204610
1.358986
1.407862
2.247691
12.980700
36.115646
103.134513
192.967653
379.175544
546.039939
770.511627
910.514593
1001.285911
971.933007
816.280842
644.657612
411.913991
258.026719
116.175413
55.114627
16.743541
7.827878
6.321669
6.298423
7.761717
10.521412
17.202497
24.300814
37.561655
48.141479
61.248541
69.757700
74.141622
72.501898
63.817501
54.971576
40.543675
30.500889
19.675493
13.776422
8.731484
6.918907
5.596876
5.259514
4.877448
4.913807
4.823804
4.814863
4.747510
4.681945
4.554987
4.597902
4.581809
4.444718
4.538894
##ZVALUE=330
0.514984
0.366569
0.402927
0.378489
0.558496
0.554919
0.440478
0.457764
0.538826
0.465512
0.392795
0.594854
0.588894
0.503659
0.446439
0.473857
0.488758
0.506639
0.433922
0.611544
0.670552
0.540614
0.552535
0.619888
0.572801
0.597835
0.611544
0.723600
0.654459
0.637770
0.578761
0.654459
0.566840
0.697970
0.551939
0.766516
0.724792
0.856519
0.891685
0.830889
0.901818
0.934601
0.963807
1.033545
1.151562
1.326799
1.547933
5.313754
17.842650
65.315962
133.386850
284.354687
435.896516
667.922497
832.657814
973.131657
988.017917
884.439945
736.095905
501.182675
334.728956
163.323879
82.925558
28.183460
10.834932
5.806684
5.590916
5.752444
6.937981
10.300875
14.504790
23.278594
32.600760
46.161413
56.962967
65.703988
69.645643
67.204833
60.888529
49.445629
39.459467
26.874542
19.963980
13.269782
9.485483
6.442666
5.360842
4.734993
4.573464
4.475713
4.308820
4.412532
4.268885
4.290938
4.131794
4.257560
##ZVALUE=335
0.538826
0.397563
0.415444
0.538826
0.494719
0.589490
0.571609
0.616908
0.481606
0.467896
0.545979
0.566840
0.518560
0.568628
0.763535
0.588894
0.553727
0.542998
0.567436
0.558496
0.526905
0.627637
0.827909
0.578761
0.682473
0.640750
0.701547
0.563860
0.623465
0.570416
0.657439
0.613928
0.585914
0.743866
0.798702
0.608563
0.702739
0.641942
0.907779
0.786781
0.883937
0.924468
1.017451
1.015663
0.905991
0.979900
1.232624
1.242757
1.417994
2.579689
8.616447
38.554668
87.476969
207.827687
349.105597
581.446886
752.430558
922.704935
981.214643
932.749510
816.257596
588.724613
416.537523
226.042867
120.360851
40.664673
15.976429
6.814599
5.478859
5.594492
5.837679
6.875992
9.034872
14.651418
21.085739
32.435656
41.366816
53.147674
59.956908
64.650774
63.421726
56.658983
48.671961
37.380457
28.865933
19.593835
14.101863
8.994937
6.725788
5.244613
4.710555
4.528761
4.339814
4.063845
4.088879
4.178882
##ZVALUE=340
0.552535
0.459552
0.425577
0.436902
0.484586
0.438690
0.431538
0.602603
0.451803
0.394583
0.498891
0.555515
0.655651
0.545979
0.685453
0.504851
0.648499
0.566840
0.528693
0.604987
0.514984
0.367761
0.518560
0.622869
0.592470
0.499487
0.551939
0.500679
0.647902
0.705719
0.706911
0.558496
0.669956
0.756979
0.665784
0.600815
0.709891
0.646710
0.788569
0.704527
0.946522
0.828505
0.816584
0.839829
0.972748
0.893474
1.092553
1.041889
1.153946
1.236796
1.337528
1.730919
4.256964
22.114515
58.899522
159.997940
280.395746
485.900640
660.719872
859.379768
951.789618
954.972506
871.996880
677.804947
495.852828
273.633599
155.837536
62.355995
23.951530
7.264614
5.589724
5.365610
5.341768
5.752444
6.418824
9.356737
13.021827
20.582676
28.836727
40.915608
48.746467
57.185888
60.352683
59.031844
55.058599
45.888424
37.535429
26.969910
20.331740
13.224483
9.274483
6.357431
5.202889
4.627705
4.199743
4.174709
##ZVALUE=345
0.504851
0.503659
0.406504
0.383854
0.425577
0.511408
0.351667
0.278950
0.414848
0.453591
0.482798
0.514984
0.519753
0.582933
0.539422
0.514984
0.603795
0.456572
0.601411
0.500679
0.446439
0.507832
0.586510
0.428557
0.510812
0.526905
0.443459
0.571609
0.587702
0.522733
0.528693
0.680685
0.656843
0.564456
0.445843
0.542998
0.607967
0.596642
0.772476
0.647902
0.561476
0.805855
0.646710
0.764728
0.701547
0.728965
0.930429
0.877976
0.857711
1.030564
0.933409
1.111627
1.038909
1.376867
1.954436
11.950731
35.813451
106.459856
200.701952
384.963751
550.113916
775.256753
896.385908
962.457657
918.644667
749.302506
580.492616
357.582569
209.887624
84.934831
36.851764
11.496544
6.290674
5.347729
5.159974
5.113482
4.902482
5.951524
7.897615
12.660623
18.412471
27.726889
35.530925
44.578910
51.206946
55.566430
55.347681
51.382780
45.462847
36.303997
27.682781
18.722415
13.436675
8.667707
6.354451
4.715919
##ZVALUE=350
0.404716
0.451803
0.507832
0.440478
0.408888
0.515580
0.404716
0.475645
0.529885
0.525713
0.425577
0.464916
0.488758
0.531673
0.536442
0.402927
0.520945
0.392795
0.277758
0.369549
0.537634
0.368953
0.427961
0.413656
0.512600
0.527501
0.406504
0.529885
0.608563
0.552535
0.597835
0.584722
0.491738
0.649691
0.610948
0.492930
0.541806
0.539422
0.463724
0.705719
0.685453
0.704527
0.645518
0.574589
0.743866
0.699759
0.783801
0.819564
0.798702
0.917912
0.719428
0.843406
1.097918
0.962615
1.011491
1.213551
1.448989
5.867481
19.537807
67.187548
141.346455
303.410888
456.775427
670.185685
821.305513
943.035483
940.119624
812.989473
651.737452
422.192812
263.952017
119.953752
54.895878
14.649630
6.871819
5.127788
4.977584
4.512668
4.438758
4.438758
5.525947
7.720590
10.796785
16.611814
22.733808
31.906962
38.928986
45.820475
49.673915
50.799847
47.773719
41.520000
34.581423
26.201606
19.552708
13.131499
##ZVALUE=355
0.414848
0.392795
0.492930
0.440478
0.400543
0.466704
0.554919
0.449419
0.439882
0.479817
0.295639
0.453591
0.325441
0.472665
0.382662
0.382662
0.399947
0.435710
0.412464
0.456572
0.349879
0.441670
0.548959
0.510812
0.452995
0.428557
0.593662
0.560880
0.613928
0.514984
0.632405
0.485778
0.592470
0.626445
0.571609
0.625849
0.412464
0.478625
0.592470
0.651479
0.610948
0.692606
0.710487
0.530481
0.640750
0.706911
0.812411
0.651479
0.606775
0.783801
0.933409
0.936985
0.710487
0.968575
1.049638
1.028776
1.208782
1.137853
1.305938
2.928972
9.821653
43.737888
96.827745
219.070911
361.012816
588.007569
750.159025
899.047852
939.407945
858.307481
725.354552
508.207679
334.354639
155.241489
75.779557
22.070408
8.493662
4.888773
4.760623
4.383922
4.145503
4.140735
4.049540
5.053878
6.375909
9.431839
13.379455
19.944906
25.999546
34.418702
40.450692
45.167804
46.741962
43.788552
39.689541
32.256842
##ZVALUE=360
0.408888
0.382662
0.345707
0.361800
0.420809
0.391603
0.415444
0.452995
0.361800
0.398755
0.444651
0.580549
0.469685
0.405908
0.482798
0.591874
0.505447
0.366569
0.279546
0.526905
0.462532
0.418425
0.370741
0.502467
0.551939
0.508428
0.561476
0.513792
0.591874
0.372529
0.537634
0.550747
0.474453
0.291467
0.472665
0.557899
0.682473
0.612736
0.410676
0.691414
0.665784
0.638962
0.628829
0.812411
0.552535
0.691414
0.696778
0.697970
0.714660
0.788569
0.852942
0.843406
0.914931
0.874996
0.872612
0.801682
0.984669
0.938773
1.176596
1.347661
1.335740
1.641512
4.260540
21.385550
57.142973
155.786872
270.854831
468.501449
644.064546
839.502811
915.907025
902.168751
802.591443
584.262013
408.016443
211.589932
112.125874
40.453672
14.840961
5.444884
4.487634
4.305840
3.895760
3.908873
3.914833
3.927946
4.089475
5.412698
7.159710
10.945797
15.545487
22.730827
28.650761
35.405755
39.538741
42.172670
##ZVALUE=365
0.405908
0.334978
0.399947
0.499487
0.418425
0.404716
0.382662
0.391603
0.381470
0.425577
0.424981
0.498891
0.440478
0.457764
0.532866
0.626445
0.411868
0.483990
0.546575
0.678897
0.577569
0.485778
0.546575
0.443459
0.465512
0.582933
0.661612
0.451803
0.448823
0.526905
0.582933
0.611544
0.558496
0.694990
0.569820
0.540614
0.561476
0.593662
0.475645
0.599623
0.586510
0.649691
0.757575
0.535846
0.560880
0.692606
0.633597
0.646710
0.677705
0.725985
0.578761
0.748634
0.821948
0.709891
0.769496
0.818968
0.920892
0.826716
0.954866
1.162887
1.093745
1.196861
1.330972
1.431704
2.248883
11.286736
33.683777
98.501444
195.033550
384.129882
541.995764
743.155479
862.319469
905.649662
841.215849
658.431649
492.078662
285.141468
160.011649
58.475733
22.295713
6.239414
4.317760
3.884435
3.787875
3.616810
3.476739
3.349781
3.478527
3.569722
4.409552
6.372929
8.843541
13.722777
18.458962
25.040507
##ZVALUE=370
0.435710
0.320673
0.347495
0.497699
0.424981
0.315905
0.242591
0.460744
0.293851
0.373721
0.287890
0.362992
0.115633
0.461936
0.424981
0.277758
0.296831
0.365973
0.317693
0.428557
0.441670
0.469685
0.467896
0.439882
0.510812
0.522733
0.386834
0.506639
0.459552
0.598431
0.583529
0.581741
0.587702
0.525713
0.476837
0.330806
0.532866
0.400543
0.219941
0.506639
0.522733
0.597835
0.569820
0.526905
0.496507
0.581741
0.530481
0.518560
0.533462
0.596642
0.560880
0.477433
0.624657
0.532866
0.654459
0.713468
0.725985
0.706911
0.754595
0.765920
0.866652
0.950694
0.948906
1.072884
1.179576
1.320839
1.445413
5.824566
20.496845
71.815848
147.603750
302.405953
461.943746
689.320564
825.932026
906.565785
875.502825
732.124448
570.268631
347.116590
206.964612
84.573627
36.626458
10.139942
4.867911
3.605485
3.411770
3.293753
3.086925
2.911687
2.881885
2.942681
3.183484
3.675818
4.924536
7.296801
##ZVALUE=375
0.411868
0.313520
0.433922
0.467896
0.382662
0.491738
0.406504
0.373721
0.490546
0.434518
0.481606
0.533462
0.421405
0.252724
0.529885
0.368953
0.267625
0.323653
0.347495
0.428557
0.419617
0.419617
0.458956
0.362992
0.455976
0.392795
0.443459
0.449419
0.454783
0.516772
0.366569
0.542998
0.540614
0.550747
0.527501
0.532866
0.504851
0.599623
0.538826
0.436902
0.506639
0.528693
0.466704
0.532866
0.526905
0.608563
0.551939
0.475645
0.525713
0.638962
0.607967
0.696778
0.732541
0.629425
0.592470
0.629425
0.526905
0.701547
0.716448
0.789762
0.623465
0.633597
0.761747
0.806451
1.052618
0.982881
1.179576
1.217723
1.455545
2.927780
9.829998
40.304661
94.002485
228.088498
370.831490
591.455698
742.451549
869.999528
890.451670
795.024633
655.263662
430.525541
279.047489
134.650469
67.556500
20.631552
7.468462
3.714561
3.327727
3.058910
3.150702
2.884865
2.846718
2.606511
2.563596
2.786517
##ZVALUE=380
0.318885
0.292659
0.366569
0.404716
0.203848
0.326633
0.450611
0.236630
0.350475
0.368953
0.444651
0.407696
0.333786
0.346899
0.371933
0.434518
0.281930
0.411868
0.330806
0.405908
0.470877
0.378489
0.352859
0.364780
0.328422
0.416636
0.351667
0.528693
0.498891
0.576973
0.669956
0.540614
0.722408
0.648499
0.827909
0.717640
0.590682
0.647902
0.694990
0.668764
0.567436
0.427961
0.633597
0.632405
0.442863
0.593662
0.637770
0.501871
0.617504
0.511408
0.629425
0.416636
0.452995
0.562668
0.492930
0.664592
0.604987
0.644922
0.650883
0.693798
0.588894
0.650883
0.761747
0.642538
0.863671
0.815988
0.880957
1.043677
1.064539
1.180768
1.362562
1.706481
5.043745
26.694536
68.022609
176.287889
300.183892
501.574874
667.713881
837.025642
888.043642
826.702714
714.074969
527.504683
370.965600
193.281770
102.893710
35.430789
13.164878
4.336834
3.259778
2.968907
2.888441
2.816916
2.654791
2.645850
##ZVALUE=385
0.250936
0.289679
0.314713
0.442863
0.446439
0.403523
0.300407
0.483990
0.434518
0.414848
0.350475
0.374913
0.288486
0.360608
0.374913
0.516772
0.334978
0.295639
0.462532
0.385642
0.450611
0.394583
0.436902
0.421405
0.407696
0.400543
0.492930
0.578761
0.611544
0.544786
0.731945
0.787973
0.895858
0.986457
0.909567
0.929832
0.851750
0.702739
0.884533
0.758767
0.950694
0.886917
0.838637
0.832677
0.623465
0.762939
0.718832
0.695586
0.748634
0.633597
0.636578
0.769496
0.656843
0.614524
0.551939
0.584722
0.683665
0.526905
0.619888
0.730753
0.764728
0.582933
0.756979
0.744462
0.736713
0.961423
0.844598
0.861883
0.968575
0.881553
1.147985
1.114607
1.238585
1.355410
2.249479
13.683438
39.813519
113.657713
213.875771
402.706861
566.733479
761.885643
851.100683
862.111449
795.552731
625.295639
469.349623
273.487568
161.836743
67.702532
26.768446
6.300807
3.400445
3.009439
2.799630
2.556443
##ZVALUE=390
0.431538
0.403523
0.457764
0.325441
0.398755
0.281930
0.345707
0.332594
0.212789
0.315905
0.431538
0.386834
0.370741
0.495911
0.408888
0.503659
0.336766
0.368953
0.420809
0.405908
0.320673
0.446439
0.338554
0.414848
0.474453
0.550747
0.614524
0.660419
0.961423
1.013875
1.098514
1.282692
1.292825
1.385808
1.307726
1.422763
1.419783
1.284480
1.361966
1.290441
1.331568
1.344681
1.099706
1.171827
1.036525
1.007915
0.971556
0.963807
0.921488
0.890493
0.814795
0.741482
0.880957
0.670552
0.724792
0.671744
0.761747
0.674725
0.565648
0.713468
0.767708
0.649691
0.711679
0.768900
0.766516
0.906587
0.761747
0.846982
0.986457
1.165867
1.030564
1.162887
1.128912
1.208782
1.084805
1.190901
1.561642
6.543994
23.525953
82.694888
168.067813
339.788795
487.616658
676.434636
799.448490
882.167816
859.768987
730.409622
586.647987
381.439924
232.724547
99.344850
23.481846
4.418492
4.140735
2.830625
##ZVALUE=395
0.334978
0.402927
0.382662
0.346899
0.415444
0.297427
0.407696
0.440478
0.322461
0.402927
0.420809
0.360608
0.253916
0.475645
0.371933
0.245571
0.433922
0.427961
0.351667
0.336766
0.340939
0.417829
0.488758
0.397563
0.543594
0.721812
0.719428
0.828505
1.031756
1.333952
1.394749
1.646876
1.742840
1.886487
2.010465
1.979470
2.091527
2.127886
1.986623
1.881719
1.912713
1.697540
1.516938
1.470447
1.362562
1.364946
1.311898
1.143813
1.261830
1.052618
1.046658
1.100898
1.014471
0.810623
0.753999
0.836849
0.910759
0.825524
0.802875
0.741482
0.773668
0.756979
0.657439
0.793934
0.860691
0.864863
0.878572
0.957847
1.025796
1.000762
1.066923
0.947714
0.978708
0.967979
0.806451
1.097918
1.021624
1.141429
1.292825
2.945662
16.854405
45.962930
120.837688
218.838453
401.035547
558.261871
752.920508
850.630999
879.066586
814.860463
647.261739
482.054949
276.767612
156.732798
60.679913
25.611520
##ZVALUE=400
0.458956
0.363588
0.424981
0.429749
0.266433
0.369549
0.317693
0.475645
0.277758
0.378489
0.248551
0.182986
0.257492
0.495911
0.355840
0.424981
0.370741
0.423789
0.441670
0.418425
0.481606
0.474453
0.382662
0.433922
0.580549
0.606775
0.633597
0.880957
1.167655
1.479983
1.730919
1.994967
2.219677
2.288818
2.167821
2.424717
2.447963
2.319813
2.255440
1.997948
2.076626
2.017617
2.036691
1.773834
1.596808
1.511574
1.573563
1.298785
1.201630
1.224875
1.062751
1.029968
0.941753
1.025796
0.884533
0.831485
0.864863
0.795722
0.704527
0.808835
0.810623
0.881553
0.768900
0.814795
0.868440
0.878572
0.789762
0.917912
0.818968
1.010895
1.042485
0.822544
0.873804
0.978708
0.797510
0.877976
0.973940
0.951886
0.886917
1.139641
1.181960
2.036691
6.590486
30.788779
71.963668
175.326467
293.531418
487.031937
634.125471
790.026784
850.898623
817.228556
718.758702
534.347892
375.744700
204.989910
##END
