##TITLE=SH702
##FORMAT=SPECTACLE-ASCII V-1.2
##DATA TYPE=ULTRAVIOLET SPECTRUM
##SECOND TYPE=ULTRAVIOLET SPECTRUM
##DATE=05/24/18
##TIME=15:25:37
##SPECTROMETER/DATA SYSTEM=SPECTACLE
##XUNITS=NM EM
##YUNITS=ENERGY
##YFACTOR=1
##FIRSTX=220
##LASTX=410
##NPOINTS=96
##3DDATA=Equidistant
##ZUNITS=NM EX
##FIRSTZ=210
##LASTZ=400
##ZPOINTS=39
##XYDATA=(Y..Y)
##ZVALUE=210
3.393888
2.977848
3.298521
3.050566
3.839731
3.950596
4.172921
4.992485
5.922914
5.788803
7.362962
8.586645
10.845661
10.475516
10.717511
12.571812
14.086962
15.001893
16.143918
17.345548
19.082427
19.164681
20.655990
21.166801
23.478866
24.059415
27.404428
27.194619
29.005408
29.303432
32.956600
32.187700
35.681725
33.409595
37.077665
38.909912
40.471554
43.644905
43.033957
44.578910
46.054721
48.827529
47.650933
51.408410
53.055882
54.360628
54.153800
57.319999
57.239532
61.064959
63.040853
63.442588
66.976547
68.326592
73.904991
71.158409
75.420737
76.478720
75.612664
76.777935
78.547001
83.360672
87.784529
93.242526
103.731751
116.394758
142.025948
172.057748
211.223960
253.317952
300.979614
330.690742
376.925468
399.765968
417.124629
419.857502
398.964882
385.364890
343.322754
306.623578
258.671641
226.033926
193.668008
165.132880
141.768456
127.381682
121.926665
116.953850
111.161470
111.800432
104.597807
107.790828
110.809803
110.514760
110.749602
112.421513
##ZVALUE=215
15.397668
15.201569
12.395978
7.932782
8.337498
6.469488
6.273985
7.531643
8.726716
8.146763
9.696484
11.145473
10.576844
10.891557
11.313558
11.863708
13.631582
14.752746
15.929937
17.206669
18.281937
19.792914
20.043850
20.826459
23.820996
24.990439
24.180412
25.597811
27.822852
29.634833
28.015971
32.819510
33.517480
34.887791
36.151409
38.412809
38.192868
40.201545
41.811466
43.899417
43.384433
46.800971
46.535730
48.982501
51.024556
51.497817
53.379536
57.504773
57.040453
60.422421
61.628819
60.872436
64.683557
64.997673
65.059662
68.442822
71.440935
70.647001
70.450902
71.477890
74.183941
76.553822
79.797506
84.122419
92.412829
105.921626
118.958950
144.555569
167.727470
200.991631
229.880810
274.515748
290.596485
318.184495
324.541926
322.116613
307.102799
288.111567
268.241763
232.629776
212.463737
174.051523
157.254934
135.824680
126.465559
116.694570
109.885931
105.241537
105.660558
101.823807
103.005767
103.066564
102.544427
101.896524
99.903941
105.378628
##ZVALUE=220
69.763660
69.635510
72.402954
65.327883
56.388974
44.879913
32.152534
21.919608
18.416643
15.668869
15.966892
16.710758
16.443729
15.731454
15.537739
14.352798
14.215708
13.968945
14.467835
13.773441
15.068650
16.165972
17.833710
17.522573
19.885898
21.294951
22.234917
22.626519
25.622845
25.602579
27.080774
27.041435
31.118989
33.172965
33.835769
33.754706
36.503673
39.272904
39.282441
40.684938
42.167902
43.834448
46.816468
45.775771
47.980547
50.233603
52.686930
57.395697
57.016611
57.797432
60.771704
62.110424
63.308477
64.930916
66.609979
66.603422
70.279837
71.613789
71.266890
72.681904
71.954727
76.445937
76.726675
77.926517
88.090897
93.138814
107.062459
121.545792
146.662593
166.897774
198.318958
214.572549
241.068602
250.431895
250.287652
246.200562
236.255527
222.586989
199.031830
181.218982
159.822702
141.498446
128.290653
113.372803
104.125738
99.124908
92.968941
91.558695
87.735653
84.728003
85.287690
85.100532
85.096955
82.789660
83.684921
85.629821
##ZVALUE=225
143.250823
155.239701
197.125673
249.070525
263.730884
258.287787
235.991478
179.784894
132.607818
93.123913
52.631497
37.371516
32.637715
31.260848
33.702850
31.398535
28.248429
25.130510
22.620559
19.762516
18.240809
16.372800
16.925931
16.928911
18.624663
18.887520
19.201636
21.693707
22.190809
23.264885
25.226474
28.351545
28.397441
33.079982
32.274723
35.533905
35.665631
41.111708
41.052699
43.639541
42.652488
45.518875
50.448775
51.551461
54.075718
56.647658
57.972670
60.100555
66.263676
66.741705
68.001747
71.326494
71.342587
75.123906
78.753829
80.219507
82.962513
82.702637
84.243417
84.812641
85.820556
87.468624
88.062882
92.259645
94.063878
100.485682
110.362768
129.374862
138.903856
162.708759
180.644989
193.398595
214.432478
218.288898
217.985511
215.084553
201.993585
180.183649
167.274475
148.130655
134.806633
116.106868
108.006001
99.020600
91.816783
86.360574
88.364482
87.407827
85.938573
83.086491
81.937909
83.457828
79.259872
81.819892
82.969666
81.216693
##ZVALUE=230
129.810572
148.435831
251.163840
428.794622
573.718548
720.162988
785.328746
780.239701
701.518059
586.544871
383.485556
244.264603
126.440525
84.568858
60.703754
59.631467
60.773492
60.300827
52.822828
42.784810
36.894679
28.298497
23.582578
19.229650
18.665791
18.464923
19.384623
21.049976
21.432638
24.684668
27.054548
28.413534
31.569600
35.637617
36.874413
40.817857
42.873621
45.339465
46.549439
51.602721
53.132772
56.635737
58.469772
60.902834
61.356425
66.985488
69.937706
74.454546
76.778531
82.715750
85.809827
89.508891
93.692541
98.502636
103.056431
104.803443
108.525753
108.559728
108.511448
112.482905
113.307834
114.393830
113.298893
117.706656
119.609833
122.671723
129.471421
141.762495
154.229999
171.669722
185.854435
204.182863
211.712718
214.521885
213.139653
210.988522
198.408961
178.802609
164.979696
148.126483
137.446523
121.735930
114.789605
109.334588
106.068850
95.903873
96.854568
94.484687
91.242790
89.354515
89.050531
89.176893
88.250637
88.240504
85.402727
85.478425
##ZVALUE=235
33.656955
38.901567
122.388601
246.092677
513.227582
766.955614
1015.794873
1015.794873
1015.794873
1015.794873
1015.794873
1015.794873
836.019516
481.462479
303.000808
153.071880
101.444721
88.210702
88.858604
88.988543
82.618594
71.575642
56.178570
43.957829
32.271743
26.947856
20.984411
20.018816
21.694899
22.464991
23.847818
25.333762
27.410984
30.367970
33.409595
34.677982
37.608743
39.601922
42.765737
45.241714
46.027899
50.398707
52.583814
55.238605
58.186650
59.258938
63.631535
69.560409
71.188807
74.851513
80.383420
83.542466
89.261532
92.083812
100.178719
104.610920
104.705691
111.541748
111.860633
109.622478
112.328529
114.921927
115.105510
117.074847
122.509599
125.602484
132.509470
140.891671
153.254867
167.788863
178.846717
188.913941
197.529793
202.331543
201.010704
193.677545
181.454420
170.933008
157.849789
142.263770
134.045482
121.310949
116.602778
110.922456
105.977654
104.774833
102.242827
97.364783
98.046660
96.705556
96.741915
93.324780
92.952847
90.734959
91.080666
91.740489
##ZVALUE=240
3.486872
4.151464
11.686683
59.316754
149.491429
382.222533
674.194694
1015.794873
1015.794873
1015.794873
1015.794873
1015.794873
1015.794873
1015.794873
1015.794873
827.846527
425.217748
250.997543
134.492517
105.561614
106.447935
109.928846
103.399754
92.073679
74.445605
60.169697
48.535466
34.578443
27.794838
22.493601
21.545887
21.389723
22.080541
23.766756
25.245547
26.836991
27.823448
30.160546
31.873584
33.037663
34.021735
36.560893
37.493706
41.309595
43.267608
45.189857
47.580600
50.553679
53.460002
53.296685
58.723688
64.084530
64.650774
70.543885
74.950457
79.537630
81.891418
87.153912
88.738799
90.604424
91.396570
94.581842
95.658898
99.106431
99.933743
108.498931
109.961629
119.749904
129.174590
144.991875
149.908662
164.049864
168.734789
173.726678
171.224475
166.623592
155.467987
148.137808
139.004588
124.204755
119.601488
112.367868
104.708672
101.880431
100.646615
96.611977
96.143484
94.978809
95.107555
93.989968
92.554688
91.646910
89.609623
90.668797
89.988708
88.570714
##ZVALUE=245
3.233552
2.743602
3.427863
3.726482
12.690425
41.682720
159.384608
352.042913
826.624036
1015.794873
1015.794873
1015.794873
1015.794873
1015.794873
1015.794873
1015.794873
1015.794873
1015.794873
771.887898
371.829867
205.200911
122.124553
107.235909
115.636587
116.229653
112.488866
98.595619
85.714459
65.327883
51.001906
39.542913
28.557777
25.129914
20.743608
21.450520
20.892620
22.251606
22.515655
22.806525
24.981499
25.541782
26.974678
28.232932
30.246973
32.649636
34.343600
35.526752
37.884712
38.975477
41.914582
44.213533
46.687722
48.905611
52.293539
55.133700
57.259798
61.571598
63.629746
64.931512
66.114664
69.222450
68.320632
71.013570
75.008869
77.667832
82.831979
86.562634
94.634891
101.597905
115.263462
122.189522
129.100680
134.235620
138.965845
140.257478
132.870674
129.455924
120.226741
112.594962
106.987953
101.247430
95.985532
92.542768
90.392828
87.360740
85.788965
86.663961
86.423755
85.121989
84.007978
84.720850
83.116889
83.486438
79.965591
80.997944
81.747770
##ZVALUE=250
2.613664
2.287626
2.707839
3.053546
3.404617
3.355742
7.099509
26.675463
130.965710
299.559832
755.530596
1015.789509
1015.789509
1015.789509
1015.789509
1015.789509
1015.789509
1015.789509
1015.789509
1015.789509
1015.789509
648.019910
277.161002
145.568848
100.887418
107.782483
117.438436
121.246576
114.444494
106.266737
92.156529
69.607496
54.072738
38.239956
29.155612
23.133755
21.406412
20.950437
21.322966
21.498799
23.045540
24.896860
25.622845
27.428865
28.933883
30.988455
31.878948
34.074783
36.648512
38.974881
39.572716
42.180419
44.244528
45.546889
47.189593
49.126744
51.398873
53.041577
54.145455
54.834485
57.265759
57.471991
58.704615
60.953498
64.429641
68.441629
70.533752
79.016685
86.032748
95.720887
103.391409
107.408762
114.049911
116.396546
115.004778
113.038421
107.656717
100.813508
97.149611
89.183450
86.840987
82.101822
80.321431
77.901483
77.567697
76.470971
77.322721
77.208877
75.533986
75.726509
74.057579
73.563457
73.403716
74.657798
73.128939
72.293878
##ZVALUE=255
2.583861
2.373457
2.628565
2.565980
3.118515
3.060699
3.205538
3.625751
4.771948
11.891723
80.181956
215.776563
471.091866
998.601913
1015.787721
1015.787721
1015.787721
1015.787721
1015.787721
1015.787721
1015.787721
1015.787721
1015.787721
921.762586
397.620797
208.414793
108.708739
93.899965
109.810829
118.345618
125.227571
120.697618
110.114813
90.390444
74.381828
53.080916
41.594505
30.096769
25.886893
23.427606
24.052858
25.256872
26.604533
28.158426
30.416846
32.185912
35.605431
37.622452
39.082766
41.711926
43.048859
45.885444
46.988726
48.791766
50.789714
51.779747
53.597689
54.343939
55.655837
56.841969
56.895614
58.228970
58.731437
59.526563
61.799884
64.930916
67.798495
73.774457
78.973770
85.001588
91.702938
97.631812
98.823905
100.032687
98.246932
96.813440
92.282891
88.065863
83.509684
78.373551
75.471997
72.684884
71.909428
70.884824
68.845749
68.563819
69.469810
69.887638
67.634583
67.913532
67.490935
68.139434
66.982508
65.817833
66.357851
66.656470
##ZVALUE=260
2.250671
2.340674
2.477765
2.510548
2.781749
2.650619
2.941489
3.563762
3.491640
3.825426
4.762411
6.828904
24.564862
128.730536
316.958427
829.890966
1015.777588
1015.777588
1015.777588
1015.777588
1015.777588
1015.777588
1015.777588
1015.777588
1015.777588
1015.777588
735.873580
390.268564
156.591535
93.661547
88.571906
106.835961
118.928552
128.050447
124.669671
112.707615
97.599626
76.799989
60.859919
46.776533
37.866831
33.504963
31.741858
32.458901
34.661889
38.015842
40.086508
43.009520
46.178699
49.291849
50.724745
54.612756
56.277514
58.491826
60.808659
62.856674
63.776970
63.019991
64.974427
66.658854
66.008568
66.784620
66.310763
68.026781
68.096519
70.540905
72.393417
76.992512
81.165433
86.830854
91.280937
94.589591
95.148683
96.233487
94.706416
90.220571
87.352991
82.237720
78.478456
73.636770
71.814656
69.450736
67.894459
66.048503
65.663457
65.564513
66.653490
64.540505
63.190460
64.515471
63.424706
63.296556
61.520934
62.986612
61.813593
61.843991
##ZVALUE=265
2.316833
2.162457
2.165437
2.161860
2.414584
2.606511
2.686977
2.986789
3.261566
3.626943
3.883839
4.297495
4.954934
5.257726
15.965700
66.629648
268.170834
572.309494
989.881754
1015.794873
1015.794873
1015.794873
1015.794873
1015.794873
1015.794873
1015.794873
1015.794873
1015.794873
1015.794873
572.803020
277.161598
104.349852
79.552531
95.359683
111.456513
126.264691
132.764578
130.041838
120.571852
102.900863
87.251663
69.852471
58.107972
48.775673
45.412779
46.296716
47.578812
51.750541
54.574609
57.323575
61.124563
64.907670
68.191886
71.148872
72.707534
75.227618
76.060891
77.679753
78.013539
79.295635
77.186823
77.735782
76.687932
78.215003
79.634786
80.665946
81.760883
85.827708
87.308884
91.657639
94.226003
96.251965
97.364783
95.907450
94.032884
89.401603
85.950494
81.259608
76.525807
71.527958
69.867969
67.123771
65.308809
64.132810
63.985586
62.503815
61.569810
61.027408
60.984492
59.675574
59.636831
59.034824
58.482885
57.824850
57.531595
59.202909
##ZVALUE=270
2.383590
2.065897
2.160668
2.274513
2.468824
2.619624
2.636909
2.790689
2.591610
3.017783
3.125668
3.692508
3.701448
4.192591
4.566908
5.393624
7.515550
37.348866
121.595860
438.096523
896.884799
1015.794873
1015.794873
1015.794873
1015.794873
1015.794873
1015.794873
1015.794873
1015.794873
1015.794873
1015.794873
986.639857
542.601943
181.007981
88.867545
79.043508
95.906854
117.353797
130.374432
140.195489
140.231848
130.462646
117.180943
98.745823
85.821748
72.016716
67.169666
62.711835
63.794851
66.924691
70.087910
73.478818
77.525973
80.228448
83.227754
86.395741
85.946918
88.215470
88.729858
87.682605
88.776946
88.820457
86.743832
87.322593
85.955858
87.019801
86.849928
89.671612
91.116428
93.421936
95.969439
96.046925
96.202493
95.370412
93.749762
87.791681
84.717870
79.733729
75.577497
71.159601
67.751408
65.257549
64.291954
61.638951
61.716437
59.979558
58.941841
58.527589
59.087873
56.482553
55.992603
55.511594
55.772662
55.096745
53.715706
55.161715
##ZVALUE=275
2.180934
2.129674
2.096891
2.098680
2.306700
2.232790
2.136827
2.357960
2.650619
2.925992
2.847910
2.966523
3.060699
3.657937
3.801584
3.976822
4.656911
5.073547
5.771518
14.744997
64.062476
208.972692
684.316754
1015.794873
1015.794873
1015.794873
1015.794873
1015.794873
1015.794873
1015.794873
1015.794873
1015.794873
1015.794873
1015.794873
800.071955
294.881463
128.013492
69.321990
78.363419
101.691484
118.826628
138.465762
147.158504
147.946477
143.030882
128.162503
115.229487
100.120902
90.684891
83.499551
80.489516
81.185699
82.337856
86.699724
87.869763
90.886950
92.536807
94.930530
92.787743
94.295740
95.352530
93.956590
93.686581
93.241930
91.602802
91.322660
90.883970
92.936754
93.296766
95.343590
96.312761
97.093582
96.667409
94.207525
93.406439
87.032914
83.835721
77.765584
74.703693
70.514679
67.505836
64.199567
62.278509
60.792565
60.070753
58.721900
57.417750
56.413412
55.525899
55.031776
53.925514
53.486824
52.983761
51.654577
51.143765
51.520467
##ZVALUE=280
1.944900
1.961589
1.928806
2.069473
2.117753
2.071857
2.266765
2.482533
2.448559
2.569556
2.648830
2.972484
3.028512
3.063679
3.479719
3.570914
3.755689
4.250407
4.760623
5.470514
5.802512
7.522702
39.470792
146.352053
537.936687
988.872647
1015.791893
1015.791893
1015.791893
1015.791893
1015.791893
1015.791893
1015.791893
1015.791893
1015.791893
1015.791893
1015.791893
474.480987
207.817554
76.920986
67.176819
85.409880
105.730891
127.776861
145.187974
155.945420
158.010721
151.094794
142.141581
126.606822
114.631653
103.076696
96.745491
92.821717
91.365576
92.404485
92.906952
93.867779
95.679760
96.439719
97.110868
97.149611
95.710754
95.093846
94.462633
93.527436
93.582869
93.590617
93.323588
95.241666
95.718503
94.110966
93.734860
90.498924
88.068843
83.738565
79.709888
75.536966
72.184801
68.754554
65.252781
63.124895
62.320828
60.691833
59.218407
57.257414
56.087971
55.427551
54.202676
52.840710
52.441955
50.970912
50.067902
49.797893
48.583746
48.591495
##ZVALUE=285
1.831651
2.102852
1.983643
2.112985
2.005696
2.105832
2.283454
2.352595
2.268553
2.333522
2.591610
2.700686
2.635717
2.861619
3.161430
3.025532
3.395677
3.516674
3.964901
4.267693
4.796982
5.183816
6.063581
7.039905
19.416809
76.025724
233.927965
733.210444
1015.794873
1015.794873
1015.794873
1015.794873
1015.794873
1015.794873
1015.794873
1015.794873
1015.794873
1015.794873
1015.794873
852.633715
408.011675
128.631592
66.050887
70.564747
86.433887
112.480521
129.342675
147.680640
158.787966
162.542462
159.014463
147.158504
136.487484
119.013786
108.658671
98.345876
93.514919
90.642571
90.648532
91.543794
92.504621
91.853738
92.546940
93.094707
92.002749
91.567636
90.868473
91.705918
92.843771
92.497468
93.354583
91.871619
91.705918
87.739825
84.383488
79.644918
76.597929
73.186755
69.976449
66.092610
64.240694
61.841607
60.614944
59.023499
57.171583
55.784583
54.893494
53.794980
52.758455
51.458478
50.176978
49.607754
48.951507
47.152638
47.236681
46.831965
##ZVALUE=290
1.848936
1.924634
1.879930
2.066493
2.215505
2.165437
2.142787
2.004504
2.333522
2.295971
2.174973
2.267957
2.460480
2.619624
2.805591
2.906919
3.219843
3.232956
3.238916
3.568530
3.928542
4.160404
4.682541
4.965663
6.143451
6.613731
8.514524
35.956502
124.344826
454.767942
929.094553
1015.794873
1015.794873
1015.794873
1015.794873
1015.794873
1015.794873
1015.794873
1015.794873
1015.794873
1015.794873
1015.794873
688.270926
230.716467
89.368820
57.850480
67.613721
86.134672
103.751421
127.460957
141.588449
154.072642
157.911777
154.204965
143.889785
126.764774
114.168525
99.899769
91.595650
86.240768
84.961653
84.042549
83.705783
83.303452
83.661675
83.610415
84.755421
85.573792
86.484551
87.669492
88.600516
87.859631
86.355805
82.743764
80.244541
75.589418
72.539449
69.065690
66.824555
63.292980
61.325431
59.583783
57.588816
56.635737
55.637956
54.038763
52.927732
51.643848
51.164627
49.651861
48.730969
47.455430
46.937466
45.771599
45.928955
45.169592
##ZVALUE=295
1.923442
1.736879
1.906753
1.878738
2.033710
2.014637
1.943707
2.066493
2.085567
2.340674
2.152920
2.274513
2.350807
2.409816
2.561808
2.703667
2.981424
3.092885
3.031492
3.068447
3.252625
3.570914
4.060864
4.327893
4.736781
5.328655
5.889535
6.746650
7.783771
12.197495
45.596957
240.491629
610.726476
1015.808582
1015.808582
1015.808582
1015.808582
1015.808582
1015.808582
1015.808582
1015.808582
1015.808582
1015.808582
1015.808582
988.079309
370.069742
146.358609
54.190755
50.716996
62.237978
75.139999
95.513463
111.450553
130.107999
140.113831
143.755674
140.439868
128.793716
117.216706
101.500750
91.794729
80.748796
75.005889
71.087480
70.227981
69.206953
70.169568
71.991682
75.009465
76.503754
77.596903
78.003407
76.510906
74.336529
72.286725
68.403482
65.581799
62.420964
60.951710
58.334470
56.640506
55.060983
54.377913
53.218603
52.725673
51.514506
50.506592
49.368739
48.592687
47.498941
46.718717
45.731664
45.230985
43.881536
44.165850
43.348670
##ZVALUE=300
1.802444
1.597404
1.603961
1.802444
1.857877
1.826882
1.906753
2.097487
2.088547
2.242923
2.172589
2.114773
2.243519
2.155900
2.487898
2.360940
2.544522
2.876520
2.739429
3.143549
3.114939
3.257990
3.566742
3.793836
4.059672
4.306436
4.733801
5.166531
5.705953
6.440878
7.191896
9.041429
20.947456
145.174861
407.037735
1015.794873
1015.794873
1015.794873
1015.794873
1015.794873
1015.794873
1015.794873
1015.794873
1015.794873
1015.794873
1015.794873
1015.794873
736.276507
317.296982
79.781413
40.814877
43.459535
51.478744
65.591931
80.497861
99.721551
113.202929
126.221776
130.012631
126.115680
118.239522
102.168918
91.258883
76.717734
67.525506
59.454441
57.471991
56.785941
58.292747
60.750842
62.202811
63.605905
63.294768
62.110424
60.094595
57.768822
56.101680
54.241419
53.047538
51.324964
50.422549
50.463676
49.847960
48.531890
48.409700
47.479868
47.170520
46.439767
46.210885
45.855641
45.044422
44.020414
43.377876
43.106675
42.401552
42.235851
##ZVALUE=305
1.733899
1.742840
1.841784
1.742840
1.803637
1.755953
1.970530
1.916885
1.881719
1.996756
2.139807
2.237558
2.176762
2.376437
2.091527
2.581477
2.458692
2.677441
2.806783
2.869964
2.933741
3.108978
3.410578
3.391504
3.643632
4.090667
4.169941
4.519820
4.846454
5.147457
5.360842
6.390810
7.278919
8.583665
13.244748
86.309910
274.486542
876.680613
1015.843749
1015.843749
1015.843749
1015.843749
1015.843749
1015.843749
1015.843749
1015.843749
1015.843749
1015.843749
1015.843749
1014.536619
545.482635
146.176815
50.207973
34.536719
38.317442
47.231913
58.506727
75.605512
89.649558
106.154680
115.042925
118.471980
116.119981
105.889440
94.476938
78.659654
68.935752
59.416890
55.142641
52.812696
52.422881
53.655505
53.291917
52.929521
51.733851
50.016642
48.976541
47.089458
46.930909
46.036839
46.563745
46.214461
46.273470
46.001673
46.033859
45.753717
45.723915
45.026541
44.749975
44.303536
43.909550
43.166876
43.323636
41.702986
41.733980
41.242838
##ZVALUE=310
1.812577
1.805425
1.752973
1.654625
1.765490
1.873970
1.725554
1.940727
2.004504
2.024770
2.005696
1.950860
2.107620
2.155900
2.287626
2.276897
2.421737
2.413988
2.614856
2.663732
2.802610
2.719760
2.979636
3.095865
3.295541
3.538728
3.598928
3.959537
3.983974
4.677773
4.637837
5.147457
5.614758
6.585717
6.964803
8.080602
9.645820
36.601424
139.349699
536.747575
1015.794873
1015.794873
1015.794873
1015.794873
1015.794873
1015.794873
1015.794873
1015.794873
1015.794873
1015.794873
1015.794873
1015.794873
954.397917
324.710011
101.500750
32.303929
31.762719
35.994649
42.246580
54.271817
66.007972
84.007978
95.470548
107.436776
112.161636
110.143423
104.693770
92.284679
81.907511
70.368648
63.273907
56.570768
53.100586
50.138831
48.408508
46.782494
45.703650
45.269728
44.521689
44.489503
44.287443
44.226646
44.823885
45.651793
45.151711
45.226812
45.061707
44.294000
44.263601
44.256449
43.875575
43.379664
42.382479
42.525530
42.358637
41.670799
##ZVALUE=315
1.750588
1.675487
1.855493
1.725554
1.769662
1.775622
1.725554
1.986623
1.791716
1.790524
2.028942
2.078414
2.071857
2.136827
2.151728
2.010465
2.307892
2.330542
2.244711
2.630949
2.812743
2.619624
2.816916
3.054738
3.068447
3.170967
3.229976
3.496408
3.569722
3.909469
4.144907
4.755855
4.618764
5.218983
5.825758
6.510615
6.862879
7.887483
9.011626
17.090440
67.769885
341.646671
813.468695
1015.794873
1015.794873
1015.794873
1015.794873
1015.794873
1015.794873
1015.794873
1015.794873
1015.794873
1015.794873
1015.794873
1015.794873
542.817712
193.093419
44.035912
30.332804
31.761527
34.462810
42.803884
51.958561
65.294504
77.733994
94.336867
103.645921
111.233592
112.378597
105.510950
96.726418
84.365606
74.095726
61.449409
54.774880
48.758984
45.937896
44.021606
43.435693
43.747425
44.316649
44.033527
44.724941
44.955611
45.449734
44.440627
44.649839
44.962764
45.040846
44.510961
43.985844
43.195486
42.841434
42.276978
42.225718
41.907430
##ZVALUE=320
1.683831
1.720786
1.428723
1.684427
1.799464
1.638532
1.978874
1.809597
1.814961
1.934767
1.747608
2.145767
1.964569
2.146959
2.147555
2.038479
2.138615
2.265573
2.418756
2.374649
2.460480
2.359748
2.617836
2.739429
2.873540
2.950430
3.047585
3.340840
3.320575
3.452897
3.612638
3.966689
4.391670
4.412532
4.985929
5.235672
5.490780
6.319880
6.959438
8.005500
8.889437
11.263490
28.333664
185.197592
527.415872
1015.794873
1015.794873
1015.794873
1015.794873
1015.794873
1015.794873
1015.794873
1015.794873
1015.794873
1015.794873
1015.794873
1015.794873
913.783908
389.424562
84.952712
35.939813
31.710863
32.588840
35.880804
41.705966
52.373409
63.519478
80.146790
92.969537
107.423663
113.066435
113.478899
107.935667
93.996525
82.619786
67.929626
58.906674
50.748587
47.049522
44.405460
44.173002
44.186711
44.189692
44.441819
44.830441
44.999719
44.787526
44.138432
44.473410
44.296980
44.046640
43.610930
43.506622
42.666793
42.723417
42.009950
##ZVALUE=325
1.617670
1.554489
1.647472
1.669526
1.742840
1.774430
1.747608
1.778603
1.823902
1.886487
1.835823
1.917481
1.935959
2.021790
2.006888
2.296567
2.152920
2.037883
2.304912
2.288818
2.437830
2.397895
2.540946
2.504587
2.622604
2.678633
2.881885
3.001690
2.978444
3.272891
3.150702
3.441572
3.691912
3.981590
4.157424
4.432797
5.025864
5.199909
5.539656
6.163716
6.786585
7.705688
8.521676
10.261536
16.167760
114.464760
345.726609
958.740711
1015.794873
1015.794873
1015.794873
1015.794873
1015.794873
1015.794873
1015.794873
1015.794873
1015.794873
1015.794873
1015.794873
1015.794873
621.784925
152.782798
48.969984
32.826662
32.479763
34.414530
37.396550
46.240687
54.522753
69.931746
82.736611
96.729994
104.551911
109.399557
107.671618
97.913742
88.544488
75.315833
65.769553
55.325627
50.831437
46.567917
45.274496
44.448972
44.227839
44.527650
44.461489
44.692755
44.033527
43.985844
43.519735
43.516755
42.942762
42.449832
42.205453
42.239428
##ZVALUE=330
1.566410
1.728535
1.612902
1.761913
1.641512
1.642704
1.711845
1.644492
1.840591
1.803637
1.779795
2.004504
2.016425
1.975894
2.094507
2.012849
1.968741
2.075434
2.147555
2.210736
2.201796
2.195835
2.589822
2.610683
2.578497
2.600551
2.787709
2.667904
2.857447
2.995729
3.100634
3.347993
3.496408
3.620982
3.666878
4.088879
4.117489
4.626513
4.728436
5.238652
5.501509
6.127954
6.864667
7.678866
8.537769
9.940863
11.734962
45.000315
171.363950
681.615472
1015.815735
1015.815735
1015.815735
1015.815735
1015.815735
1015.815735
1015.815735
1015.815735
1015.815735
1015.815735
1015.815735
1015.815735
957.416892
317.121744
93.120933
35.776496
34.304857
35.528541
37.771463
43.097734
48.877597
58.770776
67.559481
80.305934
90.155602
97.674727
100.874901
98.924637
93.165636
82.811713
74.104667
62.375665
56.279898
50.649643
47.514439
44.856668
44.063926
43.494701
43.560863
43.116808
42.933822
42.553544
42.266846
41.969419
41.281581
42.071939
##ZVALUE=335
1.720786
1.676679
1.697540
1.679659
1.593828
1.665950
1.746416
1.727939
1.804829
1.616478
1.829863
1.730919
1.861453
1.830459
1.798868
1.988411
1.917481
1.934767
2.060533
2.042651
2.276897
2.459884
2.348423
2.347827
2.452731
2.523661
2.528429
2.786517
2.761483
2.656579
2.944469
3.025532
3.238916
3.339648
3.397465
3.714561
3.773570
3.998876
4.146695
4.446507
4.944801
5.137920
5.625486
5.851984
6.666780
7.317662
8.336902
9.114742
10.967851
17.042756
106.085539
340.480804
990.673900
1015.794873
1015.794873
1015.794873
1015.794873
1015.794873
1015.794873
1015.794873
1015.794873
1015.794873
1015.794873
1015.794873
1015.794873
631.136894
147.665739
49.193501
37.005544
37.594438
39.432645
40.507913
43.499470
47.349930
53.968430
61.358809
73.365569
82.788467
91.647506
95.617771
94.536543
90.171695
80.903769
73.373914
63.388944
57.049990
49.784780
46.762824
43.423772
42.916536
41.473508
41.525960
41.230917
40.781498
41.059852
40.878654
##ZVALUE=340
1.648664
1.506805
1.635551
1.542568
1.692772
1.477599
1.517534
1.664758
1.747608
1.770854
1.887679
1.770854
1.884699
1.845956
1.922846
1.746416
1.960993
2.031922
1.982450
2.123713
2.115965
2.450943
2.251863
2.216697
2.168417
2.301931
2.419949
2.529621
2.827644
2.775788
2.828836
2.942681
3.165603
3.109574
3.258586
3.100634
3.700852
3.528595
3.918409
4.092455
4.339814
4.365444
5.077720
5.158782
5.580783
6.013513
6.773472
7.135868
8.184910
9.119511
10.571480
12.890697
52.133799
198.613405
772.174001
1015.794873
1015.794873
1015.794873
1015.794873
1015.794873
1015.794873
1015.794873
1015.794873
1015.794873
1015.794873
1015.794873
1015.794873
905.429721
225.243568
65.056682
39.581656
38.929582
38.767457
38.209558
38.055778
38.941503
42.953491
48.782825
59.229732
68.478584
80.368519
87.189674
91.740489
90.826750
86.128712
80.165863
70.139766
62.496662
53.959489
48.562884
44.404864
41.806698
40.263534
39.847493
39.079785
39.282441
##ZVALUE=345
1.635551
1.795888
1.841784
1.774430
1.725554
1.723766
1.847744
1.623631
1.828671
1.816750
1.826882
1.942515
1.878738
1.976490
1.857877
1.907945
2.030730
1.994967
1.977682
2.113581
2.083778
2.093911
2.159476
2.297759
2.469420
2.343655
2.427697
2.643466
2.580881
2.732873
2.641678
2.773404
2.789497
2.907515
3.198981
3.117919
3.391504
3.543496
3.625751
3.783703
3.731847
4.093647
4.314780
4.693866
4.919767
5.197525
5.512834
5.843639
6.442666
7.208586
7.850528
8.715987
9.858608
11.322498
22.541881
95.296502
484.293699
1015.794873
1015.794873
1015.794873
1015.794873
1015.794873
1015.794873
1015.794873
1015.794873
1015.794873
1015.794873
1015.794873
1015.794873
1015.794873
421.494842
131.510496
45.194626
41.908622
38.589835
36.278963
34.038424
34.180880
35.587549
39.435625
47.494769
54.416656
65.305829
73.005557
81.300735
85.160732
85.407495
82.858801
75.596571
68.424940
59.149861
52.717924
45.782924
42.011738
39.757490
38.674474
##ZVALUE=350
1.855493
1.917481
1.910925
1.744628
1.969934
1.876950
1.933575
1.941919
2.049804
2.025962
1.907945
2.175570
2.240539
2.153516
2.229810
2.071857
2.232790
2.097487
2.357960
2.221465
2.235770
2.305508
2.160668
2.383590
2.467632
2.717972
2.531409
2.633929
2.477765
2.711415
2.674460
2.774596
2.958775
2.888441
2.975464
3.147721
3.496408
3.341436
3.337860
3.603697
3.716946
3.746748
4.100800
4.373789
4.472733
4.700422
4.921556
5.396605
5.643964
6.266832
6.755590
7.335544
7.869601
9.121895
9.968877
11.392832
14.016628
59.915781
228.523612
860.654712
1015.794873
1015.794873
1015.794873
1015.794873
1015.794873
1015.794873
1015.794873
1015.794873
1015.794873
1015.794873
1015.794873
1015.794873
798.226595
176.193714
55.802464
36.544800
34.139752
31.933784
31.129718
31.175613
32.132864
35.051703
38.569570
44.896603
51.050782
60.382485
67.801476
75.585842
79.661608
79.988837
77.846646
71.159601
65.168738
56.675673
50.640702
44.518709
##ZVALUE=355
2.070665
2.102852
2.183914
2.247691
2.166629
2.280474
2.329946
2.264977
2.219677
2.220869
2.251863
2.304912
2.497435
2.313852
2.265573
2.423525
2.416968
2.432466
2.568960
2.464652
2.474785
2.650619
2.642870
2.773404
2.956986
2.852678
2.934933
3.005862
3.066659
3.136992
2.985597
3.187656
3.192425
3.504753
3.560781
3.476739
3.534555
3.631711
3.675818
3.923774
3.839731
4.072785
4.284978
4.456639
4.730821
4.742742
5.037785
5.419850
5.585551
6.116629
6.417632
6.718636
7.273555
7.789731
8.445978
9.379983
10.404587
11.618733
13.269782
28.091669
113.272667
550.524592
1015.795469
1015.795469
1015.795469
1015.795469
1015.795469
1015.795469
1015.795469
1015.795469
1015.795469
1015.795469
1015.795469
1015.795469
981.139541
287.714005
81.734657
36.105514
33.737421
32.015443
31.471848
30.900836
31.272769
32.034516
33.395886
37.107468
40.828586
47.069788
53.604841
62.343478
68.274736
73.160529
74.044466
72.329640
68.201423
61.595440
##ZVALUE=360
2.367496
2.268553
2.277493
2.233982
2.396703
2.369881
2.367496
2.332926
2.565980
2.532601
2.426505
2.600551
2.546906
2.643466
2.602935
2.841949
2.497435
2.871752
2.792478
2.858639
3.029704
2.899766
2.989769
2.978444
2.895594
3.149509
3.193617
3.279448
3.193617
3.439784
3.435612
3.572702
3.636479
3.560781
3.561974
3.835559
3.812909
3.901720
3.973842
4.297495
4.226565
4.519820
4.433990
4.848838
4.924536
5.113482
5.422831
5.505681
5.817413
5.948544
6.356835
6.853938
7.202625
7.741451
8.075833
8.756518
9.270906
9.964705
11.008978
12.751818
14.452934
19.179583
48.443675
269.391537
760.496855
1015.795469
1015.795469
1015.795469
1015.795469
1015.795469
1015.795469
1015.795469
1015.795469
1015.795469
1015.795469
1015.795469
1015.796065
621.960759
190.818906
42.798519
34.217834
32.205582
31.321645
30.401945
30.239820
29.962659
29.895902
31.235814
32.992959
36.738515
40.906668
48.394799
54.748654
61.590672
65.627694
68.425536
##ZVALUE=365
2.360940
2.321601
2.377629
2.355576
2.527833
2.418756
2.357960
2.471805
2.409816
2.389550
2.617836
2.517700
2.662539
2.539754
2.707839
2.714992
2.757907
2.555847
2.586842
2.828836
2.772808
2.798438
2.985597
3.060699
2.972484
3.157854
3.047585
3.246665
3.400445
3.208518
3.451705
3.383756
3.594756
3.608465
3.696680
3.667474
3.879666
3.927946
3.969669
4.090667
4.322529
4.182458
4.317760
4.587770
4.613996
4.837513
4.881620
5.021691
5.257726
5.365610
5.812645
6.025434
6.391406
6.588697
7.010698
7.389784
7.804632
8.410811
9.049773
9.926558
11.042953
12.728572
14.328957
16.680956
24.951696
141.981840
455.184579
1015.793681
1015.793681
1015.793681
1015.793681
1015.793681
1015.793681
1015.793681
1015.793681
1015.793681
1015.793681
1015.793681
1015.793681
913.830996
336.811543
61.109662
34.005642
30.806661
29.508471
28.299689
27.715564
27.386546
27.104616
26.902556
27.780533
29.545426
31.735897
37.039518
41.920543
48.261881
##ZVALUE=370
2.362728
2.339482
2.306700
2.217889
2.147555
2.401471
2.352595
2.350807
2.314448
2.302527
2.285838
2.514720
2.339482
2.432466
2.621412
2.534986
2.526641
2.547503
2.486706
2.724528
2.598763
2.611876
2.773404
2.786517
2.862811
2.796650
2.727509
2.877712
2.950430
2.955794
2.996922
3.149509
3.016591
3.184676
3.058910
3.305674
3.355742
3.419518
3.583431
3.493428
3.568530
3.789663
3.822446
3.823638
3.880858
4.045963
4.069805
4.278421
4.321933
4.600883
4.875660
4.858971
5.206466
5.423427
5.506873
5.908608
6.400943
6.469488
7.090569
7.500648
8.071661
9.088516
10.103583
11.088848
12.537837
14.653802
18.219948
70.144534
275.876522
974.893570
1015.794873
1015.794873
1015.794873
1015.794873
1015.794873
1015.794873
1015.794873
1015.794873
1015.794873
1015.794873
1015.794873
1015.794873
599.519610
150.434971
46.491623
29.515624
28.193593
26.397705
25.460720
25.174618
24.326444
23.963451
24.002790
24.921894
25.919676
28.754473
##ZVALUE=375
2.072453
2.143979
2.114773
2.042651
2.076626
2.159476
2.214909
2.116561
2.060533
2.175570
2.136827
2.188683
2.256632
2.102852
2.180934
2.355576
2.300739
2.297759
2.484918
2.275705
2.338886
2.256632
2.355576
2.509952
2.300739
2.500415
2.502799
2.563000
2.606511
2.629757
2.405643
2.619624
2.709627
2.794862
3.014803
2.896786
2.721548
2.993941
2.913475
3.010631
3.124475
3.085732
3.305674
3.293753
3.438592
3.394485
3.586411
3.663898
3.706813
3.865957
3.948808
4.158616
4.250407
4.425645
4.633665
4.806519
5.191565
5.456805
5.444884
5.893707
6.534457
6.831884
7.597804
8.386970
9.083748
10.582805
12.200475
14.270544
17.006993
37.279725
136.973858
616.318583
1015.794873
1015.794873
1015.794873
1015.794873
1015.794873
1015.794873
1015.794873
1015.794873
1015.794873
1015.794873
1015.794873
1015.794873
1015.794873
348.261595
95.409751
30.740499
27.447939
25.406480
24.553537
23.470521
22.954941
22.459626
22.162795
22.440553
##ZVALUE=380
1.896620
1.787543
2.017617
2.010465
1.875758
1.881719
1.874566
1.903772
2.019405
1.910925
1.982450
2.021790
2.051592
2.000928
1.911521
2.062917
1.970530
2.051592
2.060533
2.245903
2.163649
1.923442
2.201796
2.118945
2.483726
2.425909
2.159476
2.192855
2.321601
2.342463
2.314448
2.278686
2.359748
2.369881
2.572536
2.560616
2.526641
2.791882
2.691746
2.675653
2.876520
2.910495
2.985597
2.995729
3.044605
3.027916
3.006458
3.194809
3.369451
3.592968
3.387928
3.511906
3.804564
4.107952
4.131794
4.316568
4.381537
4.641414
4.969835
5.170703
5.581975
5.986691
6.245971
7.062554
7.544756
8.681417
10.024905
11.862516
13.446808
15.657544
17.399788
23.948550
71.911812
431.251526
1000.551581
1015.794873
1015.794873
1015.794873
1015.794873
1015.794873
1015.794873
1015.794873
1015.794873
1015.794873
1015.794873
1015.794873
1015.794873
635.591745
207.369924
43.605566
27.532578
24.833679
23.580790
22.587776
21.969676
21.770000
##ZVALUE=385
1.805425
1.646876
1.697540
1.778603
1.702905
1.724958
1.776814
1.723766
1.746416
1.670718
1.792908
1.836419
1.795888
1.803637
1.828671
1.966953
1.811981
1.893640
1.985431
1.865625
1.873970
1.970530
2.076626
2.083778
2.224445
1.903772
2.128482
2.162457
2.131462
2.257824
2.230406
2.374649
2.236962
2.342463
2.307892
2.447963
2.563000
2.331734
2.597570
2.616644
2.728701
2.605915
2.653599
2.898574
2.740622
3.026724
2.993941
3.161430
3.227592
3.210902
3.253818
3.597736
3.647804
3.752708
3.738999
4.000664
4.070997
4.401803
4.593730
4.774928
4.961491
5.351901
5.665421
6.253719
6.971955
8.191466
8.936524
10.505915
11.565685
12.925863
13.959408
15.039444
15.544891
17.798543
33.437610
223.549604
699.889660
1015.794873
1015.794873
1015.794873
1015.794873
1015.794873
1015.794873
1015.794873
1015.794873
1015.794873
1015.794873
1015.794873
1015.794873
1015.794873
502.564907
85.361600
31.779408
25.457740
23.795962
22.518635
##ZVALUE=390
1.655817
1.773834
1.587868
1.686811
1.693964
1.636744
1.693964
1.813769
1.898408
1.720786
1.787543
1.836419
1.973510
1.869798
1.808405
1.887679
1.942515
1.948476
2.001524
1.804829
1.978874
1.968741
2.038479
2.059937
2.005696
2.071857
2.159476
2.125502
2.009869
2.370477
2.139807
2.099872
2.183914
2.441406
2.330542
2.325773
2.384782
2.463460
2.557635
2.588630
2.449751
2.655983
2.662539
2.740622
2.943873
2.831817
2.957582
3.012419
3.186464
3.372431
3.211498
3.498793
3.613830
3.668666
3.673434
3.988743
3.985763
4.310608
4.279613
4.609823
4.775524
5.012751
5.652905
6.158948
6.624460
7.550716
8.775592
10.075569
11.185408
11.915565
12.589693
12.934804
13.164878
13.573766
14.277697
16.154647
21.273494
110.910535
417.566895
1015.794873
1015.794873
1015.794873
1015.794873
1015.794873
1015.794873
1015.794873
1015.794873
1015.794873
1015.794873
1015.794873
1015.794873
1015.794873
911.907554
232.991576
58.368444
26.993752
##ZVALUE=395
1.789927
1.718998
1.733899
1.760721
1.727939
1.689792
1.853704
1.726747
1.775622
1.643896
1.784563
1.756549
1.717806
1.722574
1.841784
1.803637
1.960993
1.787543
1.885891
1.961589
1.999736
2.052784
1.849532
1.894832
2.015829
2.063513
2.098680
2.100468
2.121925
2.192855
2.159476
2.116561
2.196431
2.310872
2.429485
2.385974
2.354980
2.473593
2.445579
2.558827
2.585649
2.647638
2.689958
2.810955
2.886653
2.931952
3.098845
3.139973
3.316998
3.309846
3.337860
3.500581
3.633499
3.537536
3.723502
3.781915
3.851652
4.112720
4.373789
4.439950
4.608631
5.047917
5.250573
6.024837
6.799698
7.532835
8.442998
9.442568
10.500550
11.085868
11.273623
11.357665
11.213422
11.159778
11.692643
12.333989
13.434887
15.445948
18.307567
59.022903
261.487961
995.577574
1015.793681
1015.793681
1015.793681
1015.793681
1015.793681
1015.793681
1015.793681
1015.793681
1015.793681
1015.793681
1015.793681
1015.793681
1015.793681
477.687716
##ZVALUE=400
1.765490
1.627803
1.646876
1.670718
1.741648
1.785755
1.828671
1.900792
1.913905
1.925826
1.696944
1.761913
1.974702
1.843572
1.849532
1.599789
1.809597
1.845956
1.810789
1.842976
2.031922
1.963973
1.767874
2.066493
2.031922
2.081990
2.052784
2.002716
2.260804
2.276897
2.190471
2.351999
2.232790
2.280474
2.386570
2.406836
2.373457
2.492666
2.515912
2.510548
2.561808
2.581477
2.656579
2.815723
3.049970
2.919436
3.119707
3.023744
3.162622
3.265738
3.302693
3.330708
3.531575
3.477931
3.583431
3.734827
3.701448
4.009604
3.873706
4.286766
4.513860
4.744530
5.236864
5.831718
6.550550
7.457733
8.205771
9.107590
9.651780
10.133982
10.013580
10.068417
9.851456
9.869933
9.880662
10.526776
11.042953
12.409687
13.362765
15.462637
17.474890
31.582713
122.660995
634.114742
1015.794873
1015.794873
1015.794873
1015.794873
1015.794873
1015.794873
1015.794873
1015.794873
1015.794873
1015.794873
1015.794873
1015.794873
##END
