##TITLE=SH701
##FORMAT=SPECTACLE-ASCII V-1.2
##DATA TYPE=ULTRAVIOLET SPECTRUM
##SECOND TYPE=ULTRAVIOLET SPECTRUM
##DATE=05/24/18
##TIME=15:21:14
##SPECTROMETER/DATA SYSTEM=SPECTACLE
##XUNITS=NM EM
##YUNITS=ENERGY
##YFACTOR=1
##FIRSTX=220
##LASTX=410
##NPOINTS=96
##3DDATA=Equidistant
##ZUNITS=NM EX
##FIRSTZ=210
##LASTZ=400
##ZPOINTS=39
##XYDATA=(Y..Y)
##ZVALUE=210
3.234744
2.793670
2.745986
2.784729
2.847910
3.457665
4.335642
4.645586
5.214810
5.292892
7.353425
8.752942
8.388758
10.302663
9.954572
10.058880
11.233687
12.345910
13.583899
15.760660
15.215874
17.515421
17.766953
18.748641
21.392703
21.632910
23.118854
23.289919
23.786426
26.561618
27.829409
27.415752
30.975938
29.148459
31.143427
33.825636
34.276843
35.617948
36.735535
38.840771
38.808584
40.388703
44.194460
44.548512
48.154593
49.168468
47.730803
51.522851
50.897598
51.021576
55.073500
56.375861
58.398843
59.435964
61.236620
62.806606
62.558651
62.800646
64.261556
63.442588
68.191886
70.151687
75.103641
78.868866
89.791417
102.403760
123.353601
155.131817
189.424753
218.178630
267.280936
300.326943
334.173441
353.526473
356.729627
361.341834
354.773998
330.727696
294.397473
264.298916
226.186514
198.540688
167.061687
144.161582
123.974681
117.391944
109.828711
102.461576
98.856688
98.883510
98.117590
98.890662
99.817514
100.419521
102.284551
104.749799
##ZVALUE=215
12.555718
11.653900
10.154843
6.995797
6.970763
6.108880
5.649924
6.585717
7.725954
8.289814
9.196997
9.792447
8.882880
9.807944
10.329485
11.018515
12.975931
11.485815
12.238622
15.250444
16.564727
16.178489
16.588569
20.008683
20.783544
21.177530
22.686720
23.926497
23.867488
25.635958
26.398897
28.471947
27.762651
30.420423
32.887459
32.207966
33.587813
34.858584
36.184788
39.007664
37.538409
41.080713
41.389465
42.776465
43.152571
47.698617
48.183799
50.299764
50.302744
51.402450
53.725839
57.012439
56.857467
59.280992
60.594678
63.571930
63.784719
65.272450
64.395666
67.110658
65.179467
71.906447
74.002743
79.841614
79.953671
92.797875
105.441809
128.806829
156.931877
189.891458
216.291547
252.397656
269.811749
281.314850
295.342803
294.004679
276.551843
260.348916
239.234567
216.755867
195.219517
163.789988
145.724416
125.069618
113.913417
108.645558
100.507736
96.087456
92.900991
95.998645
96.767545
92.040896
91.584921
94.019771
91.899633
95.591545
##ZVALUE=220
57.029724
56.062937
60.117841
57.032704
51.527619
38.173795
32.587647
22.182465
17.146468
15.793443
16.657710
16.346574
16.961694
16.785860
14.664531
13.377666
13.489723
12.177825
12.547970
13.417602
14.121532
15.574694
15.786886
16.532540
17.483830
18.819571
17.905831
20.413995
21.717548
22.374988
25.222898
25.915504
27.416945
29.692650
30.533671
33.015609
31.558871
36.564469
35.729408
37.682652
38.642883
41.056871
41.149855
43.312907
45.220852
47.237873
48.451424
50.183535
52.159429
53.998828
57.092905
55.582523
59.092641
59.053898
59.556961
62.895417
64.051747
64.182878
66.816807
65.415502
68.509579
71.062446
71.361661
74.691772
78.149438
87.779760
99.054575
114.969611
136.525631
165.092945
182.111859
204.775929
222.279429
236.357450
240.254998
235.008597
225.555897
208.501816
196.504593
169.956684
158.716440
135.293603
124.752522
110.786557
102.036595
94.222426
91.396570
87.662935
83.633661
80.624819
83.006620
82.874894
82.286000
83.166957
80.786943
82.973838
##ZVALUE=225
113.472939
119.098425
157.783628
207.711458
221.931934
230.302811
207.401514
159.751773
120.896697
84.397793
49.957633
37.183762
32.188892
32.649636
32.343864
31.103492
27.971864
24.598837
19.737482
16.994476
16.883612
15.021563
15.606880
16.386509
16.446710
17.357469
17.666817
18.979907
20.117760
21.849871
23.823977
26.493669
27.188659
29.511452
31.677485
32.689571
32.861829
37.334561
39.417744
40.901899
42.619705
45.994520
46.804547
51.560998
49.348474
54.078698
56.404471
58.896542
57.592988
63.340664
64.590573
67.670941
68.886876
73.365569
72.211623
76.710582
76.327920
79.417825
78.379512
82.280636
79.561472
81.235766
82.629919
85.642934
88.726878
95.769763
104.574561
116.188526
133.297443
154.903531
170.115829
188.830495
202.944875
211.290717
214.494467
205.636621
192.795992
178.897977
163.421631
145.109892
132.508874
114.616752
106.485486
96.699595
88.104606
87.628961
86.179972
84.306002
79.920888
82.275867
79.237819
79.473853
79.731941
79.209805
79.679489
77.766776
##ZVALUE=230
96.600652
110.497475
185.315609
334.735513
448.516011
587.693453
645.925999
664.467812
608.335733
482.316017
347.772837
199.407935
124.968886
73.770881
59.536695
58.554411
59.702992
55.962801
52.099824
45.361519
34.385920
27.822852
20.178556
16.980767
15.927553
15.755892
17.665625
17.795563
19.326806
19.938946
22.887588
25.218725
25.095940
29.444695
30.285716
33.644438
36.379695
37.666559
40.679574
41.129589
44.477582
48.125982
51.350594
54.281950
57.331920
59.256554
62.337518
65.787435
70.259571
75.140595
76.917410
79.602003
84.165931
85.881948
89.474916
93.622804
97.005963
97.051859
98.421574
97.939968
97.116828
99.608898
99.332929
100.573897
104.536414
111.560822
116.802454
127.529502
138.946772
157.402754
170.997977
186.425447
193.587542
197.395682
197.913647
190.499425
181.340575
166.239738
153.599977
136.588812
126.672983
112.002492
106.453896
100.198984
97.245574
91.607571
90.687871
87.263584
85.461736
87.627769
85.537434
83.603859
82.361698
83.435774
82.282424
81.763864
##ZVALUE=235
28.666854
32.557845
103.537440
199.441910
417.623520
628.728867
951.027870
1015.794873
1015.794873
1015.794873
1015.794873
984.597802
738.462806
435.350537
272.035003
136.082768
98.549724
85.377693
87.120533
88.092685
78.436732
69.323778
53.229928
42.089820
29.523969
24.593472
20.783544
18.327832
18.493533
18.983483
20.302534
21.766424
23.008585
25.954843
28.690696
30.156970
31.891465
35.617948
35.362840
38.372874
41.684508
43.943524
45.966506
49.594641
50.481558
54.060817
58.083534
60.396791
63.294768
67.016482
70.071816
74.444413
76.603889
82.228780
86.303949
91.317892
93.554854
95.876455
98.442435
98.787546
100.192428
100.591779
101.398826
104.167461
107.355714
110.104680
114.478469
125.921965
135.267973
147.798657
157.965422
171.020627
176.107883
181.633830
181.288719
172.978640
166.160464
152.841806
140.021443
129.755735
123.107433
112.743974
105.425715
100.413561
99.086761
96.420646
92.301965
92.181563
90.267658
92.067719
89.294910
87.726712
83.548427
84.514618
85.552931
85.645914
##ZVALUE=240
2.959967
3.310442
13.121963
42.788982
143.576860
281.352997
606.596470
948.113799
1015.794873
1015.794873
1015.794873
1015.794873
1015.794873
1015.794873
1015.794873
723.949671
456.373692
232.345462
145.418644
102.821589
103.452802
105.632544
103.070736
91.755986
75.102448
61.328411
44.860840
34.561753
25.535822
21.768808
20.042658
18.553734
19.421577
20.848513
22.738576
23.902655
24.652481
26.563406
28.154850
30.761957
31.469464
33.143759
34.447908
36.293864
38.363934
41.812658
43.418407
46.274662
47.796965
50.699711
52.036643
55.684447
59.574842
63.730478
66.438913
70.686936
73.803663
75.057745
77.914596
80.667734
80.646873
83.615780
82.834959
85.666776
87.117553
95.642805
98.945498
107.218623
115.334988
128.523707
137.450695
145.690441
152.797699
156.082511
154.896975
150.898695
144.680738
135.108829
126.559734
114.681721
106.504560
101.477504
97.991824
93.401670
93.178749
90.115666
90.689659
85.448623
87.838769
85.678697
86.152554
86.028576
83.953738
85.071921
82.544684
85.318685
##ZVALUE=245
2.670884
2.502799
2.721548
3.465414
9.268522
32.605529
129.368901
288.391709
675.375462
1009.058952
1015.827656
1015.827656
1015.827656
1015.827656
1015.827656
1015.827656
1015.827656
1015.827656
749.941468
363.856554
204.021931
124.376416
106.999874
113.125443
116.831660
113.624930
97.320676
83.802938
64.745545
50.123930
39.134622
26.975870
22.632480
19.466877
19.127727
20.021796
20.925999
20.651817
22.207499
22.029877
24.536848
25.573969
26.387572
28.305650
30.235648
32.194853
33.265948
34.419894
36.004782
39.427876
40.042996
42.797923
45.232773
46.640635
49.371719
52.137971
54.273605
55.291653
57.299733
59.085488
61.312914
61.763525
63.418746
65.137744
69.675446
72.586536
77.007413
85.499883
91.252923
102.207661
109.528899
115.921497
121.195912
123.843551
125.910640
121.350884
115.404725
108.423829
103.691816
98.229647
92.386603
88.030696
84.624887
82.411766
81.254840
80.466866
80.191493
79.484582
78.995824
79.584718
78.373551
76.604486
75.766444
76.521635
76.488853
77.142715
##ZVALUE=250
2.266765
2.204776
2.574921
2.724528
2.841949
2.915859
5.474687
19.971728
98.410845
235.693455
609.408617
991.962552
1015.777588
1015.777588
1015.777588
1015.777588
1015.777588
1015.777588
1015.777588
1015.777588
996.387005
634.470582
283.034444
151.791573
100.977421
106.773973
115.410686
120.695829
113.761425
104.699731
91.122985
68.047643
53.658485
36.379695
28.497577
22.275448
19.678473
19.574761
20.535588
20.428896
20.708442
23.160577
24.028420
25.927424
26.800632
28.273463
30.415654
32.756925
32.025576
35.025477
36.839843
38.709641
40.305853
41.447878
43.463707
44.043660
45.747757
47.570467
48.658848
49.927831
50.721765
51.705837
53.660870
55.484772
58.110952
62.228441
64.666867
71.166754
76.415539
86.221695
91.000795
98.658800
101.779699
104.951859
104.458928
100.678802
97.590685
92.695951
86.412430
83.059669
78.758597
74.420571
73.265433
72.037578
71.797967
70.920587
69.371462
69.831610
68.865418
69.477558
69.324970
68.412423
68.004727
68.568587
67.930818
68.177581
##ZVALUE=255
2.247691
2.299547
2.547503
2.537966
2.724528
2.753735
3.171563
3.436804
4.196763
10.217428
64.001679
175.467730
387.041569
886.170864
1015.790701
1015.790701
1015.790701
1015.790701
1015.790701
1015.790701
1015.790701
1015.790701
1015.790701
916.448832
417.945981
223.314762
112.439990
93.317628
107.734799
115.373731
121.376514
119.428635
108.938813
89.683533
73.154569
53.381920
39.860606
29.017925
24.399757
21.841526
22.329688
23.388863
24.415851
26.972890
28.291941
30.345917
31.869411
34.536719
35.512447
37.890673
39.586425
42.129755
44.262409
45.630932
47.168732
48.213601
49.626827
50.508976
50.144792
51.118731
51.241517
52.845478
53.489804
54.390430
55.792928
59.014559
61.671734
66.255927
70.293546
77.800751
82.449913
85.422993
89.360476
90.077519
89.832544
86.649656
84.702969
80.339909
76.378584
71.694851
69.475770
67.192912
65.980554
64.876676
63.529611
63.367486
62.635541
63.790679
63.425899
63.789487
62.489510
63.851476
62.707663
60.977936
60.516000
61.470866
##ZVALUE=260
2.182722
1.960993
2.172589
2.137423
2.676845
2.615452
2.552867
3.041625
3.446937
3.323555
4.122853
6.444454
23.153424
111.974478
269.264579
689.893961
1015.794873
1015.794873
1015.794873
1015.794873
1015.794873
1015.794873
1015.794873
1015.794873
1015.794873
1015.794873
752.010942
402.176976
163.572431
94.639659
88.038445
106.831789
119.714737
126.549602
124.334693
110.592842
97.622871
74.969530
60.207844
43.618679
36.670566
31.278729
28.400421
30.077696
31.115413
34.675598
36.044717
39.312840
41.655898
44.881701
47.100782
49.619675
49.899817
52.957535
54.853559
56.216717
56.899786
57.515502
58.596730
59.589744
60.278773
59.371591
59.947968
60.578585
61.492920
63.380599
63.929558
68.754554
71.197748
76.167583
79.688430
82.663894
83.829761
85.237622
84.130764
81.657767
77.016950
73.863864
70.973635
67.334771
63.938498
62.499642
61.132908
60.131550
59.795976
59.535503
58.781505
58.217645
57.904720
57.814717
56.960583
58.185458
57.341456
56.511760
56.535602
56.872964
##ZVALUE=265
2.056956
1.905560
2.103448
2.281666
2.436638
2.171993
2.561808
2.871752
2.797842
2.928972
3.524423
3.741980
4.192591
5.003810
12.002587
72.524548
191.503167
520.559549
941.045880
1015.798450
1015.798450
1015.798450
1015.798450
1015.798450
1015.798450
1015.798450
1015.798450
1015.798450
1015.799046
660.423636
328.596830
118.107796
79.494715
94.388723
108.840466
125.519633
130.352974
127.484798
119.361877
99.916458
84.926486
65.592527
54.466724
45.827627
41.926503
41.731596
43.009520
46.059489
48.333406
52.821636
54.901838
58.108568
60.907602
63.616633
65.612793
67.255497
69.176555
69.368482
69.164634
69.693923
70.398450
70.097446
70.273876
70.585608
70.898533
70.768595
71.616769
74.126720
76.246858
80.559850
83.359480
86.457729
86.067915
86.251497
84.047914
80.362558
76.809525
71.597695
69.350600
65.853000
63.683987
62.345862
59.991479
58.922768
58.000684
57.415962
57.004690
56.417584
56.206584
55.393577
55.885911
54.911971
52.700639
54.371953
54.121614
54.323673
##ZVALUE=270
2.199411
2.182722
2.170801
2.573729
2.324581
2.311468
2.252460
2.547503
2.667904
2.949834
3.070831
3.137589
3.672838
4.192591
4.363656
5.013943
6.621480
33.438802
109.855533
378.724933
781.019926
1015.794873
1015.794873
1015.794873
1015.794873
1015.794873
1015.794873
1015.794873
1015.794873
1015.794873
1015.794873
1011.595726
579.762459
190.679431
87.820888
77.201724
93.721747
115.348697
127.181411
138.398409
137.515664
126.448870
114.196539
95.762610
82.681775
69.038868
62.196851
59.648752
60.192943
62.122941
64.743757
68.816543
70.961714
74.638724
78.669786
79.196692
81.386566
81.432462
81.815720
83.284974
83.237886
82.185864
81.910491
81.580877
81.598759
80.984831
81.620812
81.533790
84.675550
86.377859
88.678598
89.375973
90.446472
88.066459
87.264776
82.960725
78.520775
73.319674
69.638491
66.639781
63.812733
61.339736
59.933662
58.281422
57.778955
57.141781
56.309700
55.067539
54.530501
54.152608
52.630901
53.059459
51.851869
51.616430
51.558614
50.550699
##ZVALUE=275
1.987815
1.842976
1.762509
2.103448
2.140999
2.161860
2.391934
2.318621
2.340674
2.382994
2.675653
2.945662
2.886653
3.506541
3.652573
3.999472
4.272461
4.928708
5.465746
14.188886
61.787963
198.090672
624.135733
1015.794873
1015.794873
1015.794873
1015.794873
1015.794873
1015.794873
1015.794873
1015.794873
1015.794873
1015.794873
1015.794873
859.551430
338.511467
145.491958
70.176721
77.431798
99.945664
118.360519
136.192441
145.855546
146.985650
140.694976
125.494003
112.350583
97.983479
88.499784
80.309510
77.171922
76.344609
78.853965
82.318783
84.220767
87.081790
89.305639
89.643598
90.834498
92.114806
92.821717
91.082454
90.919733
89.018941
88.502765
87.159872
88.257790
88.392496
90.136528
91.140866
92.844963
93.147755
92.930794
91.144443
87.558627
82.633495
79.073906
74.614882
70.991516
66.474676
64.012408
61.762929
60.332417
59.038997
57.152510
56.023002
55.757761
54.673553
53.221583
52.936673
51.338673
50.815940
49.999952
49.625635
49.516559
49.349666
##ZVALUE=280
1.950860
1.890659
1.938939
1.888871
1.928806
2.060533
2.162457
2.055764
2.104640
2.358556
2.541542
2.515912
2.574921
2.829432
2.964735
3.352761
3.640652
3.873706
4.182458
4.905462
5.593896
8.102655
29.621720
165.958405
437.476635
1008.032560
1015.794873
1015.794873
1015.794873
1015.794873
1015.794873
1015.794873
1015.794873
1015.794873
1015.794873
1015.794873
1015.794873
486.832857
219.087601
79.159737
67.491531
87.147951
105.341673
129.832625
144.013762
156.105757
157.742500
151.418447
141.428709
126.898885
114.191771
102.399588
95.187426
91.610551
91.986656
91.949701
93.240738
94.656944
95.975995
97.068548
96.837878
97.888708
96.294880
95.882416
94.068646
93.796849
93.279481
92.963576
92.972517
94.199777
94.806552
94.091892
91.962814
89.555979
86.490512
82.266927
78.937411
73.689818
70.573688
67.676902
65.149665
62.961578
60.816407
59.647560
58.651567
56.792498
55.667758
53.928494
53.105950
51.010847
51.563978
50.120950
49.088597
48.034787
47.850609
47.261715
##ZVALUE=285
1.872778
1.750588
1.978874
1.847744
2.006888
1.845956
2.081990
2.099872
2.276897
2.338886
2.338886
2.530813
2.567768
2.796650
2.950430
3.081560
3.187656
3.435612
3.607869
3.936887
4.272461
4.787445
5.470514
6.531477
16.466379
63.411593
255.516768
582.610965
1015.798450
1015.798450
1015.798450
1015.798450
1015.798450
1015.798450
1015.798450
1015.798450
1015.798450
1015.799046
1015.798450
841.267705
407.859683
131.385922
67.236423
70.523620
86.335540
112.549663
128.551722
149.008632
160.323977
163.807869
160.986781
149.695873
138.304830
122.862458
110.875964
101.598501
96.160769
93.406439
94.861984
95.107555
95.805526
96.958876
95.681548
96.786618
95.559955
94.294548
94.406605
93.910694
94.831586
95.010996
94.741583
94.005466
92.732906
89.399815
85.881948
81.594586
77.952743
73.830485
70.575476
66.959858
64.762831
62.498450
60.988665
59.129596
58.315992
56.699514
55.080652
53.281784
51.984787
50.697923
50.821900
48.578978
48.429966
47.165751
46.883821
46.279430
##ZVALUE=290
1.844764
1.888871
1.800656
1.994967
1.851916
1.966953
2.070665
2.213717
2.119541
2.191663
2.336502
2.390742
2.583861
2.581477
2.664924
2.709627
3.127456
3.225803
3.292561
3.498793
3.820658
4.098415
4.561543
5.209446
5.604625
6.352663
7.806420
34.505725
122.336745
445.407629
921.321511
1015.794873
1015.794873
1015.794873
1015.794873
1015.794873
1015.794873
1015.794873
1015.794873
1015.794873
1015.794873
1015.794873
720.909834
243.608952
93.481541
60.161948
69.382787
88.070631
106.133819
129.334927
145.035982
159.758925
163.794756
160.744786
149.981976
133.594871
120.120645
107.461810
100.095868
95.480680
93.761683
92.738867
93.455911
92.316866
93.356967
92.134476
91.832876
93.311667
94.189644
95.310807
95.187426
93.741417
92.197657
88.735819
84.949732
80.719590
76.390505
72.776675
70.070624
66.359639
64.895749
62.061548
60.834885
59.665442
57.314634
55.261850
54.787993
53.313971
52.412748
50.152540
49.619675
47.990680
48.365593
46.593547
46.293736
45.481920
##ZVALUE=295
1.829863
1.938939
1.850724
1.846552
1.906753
2.027750
2.078414
2.063513
2.222657
2.126694
2.222657
2.257824
2.153516
2.516508
2.696514
2.671480
2.677441
2.695918
3.104806
3.228784
3.503561
3.592968
3.806949
4.196763
4.628897
5.044937
5.908608
6.273985
7.400513
11.856556
46.533942
241.097808
605.173707
1015.839577
1015.839577
1015.839577
1015.839577
1015.839577
1015.839577
1015.839577
1015.839577
1015.839577
1015.839577
1015.839577
978.769064
362.739563
143.982768
55.916905
53.317547
66.264868
79.180598
100.082755
116.211772
136.014819
147.161484
151.493549
147.428513
138.178468
126.344562
112.073421
103.008747
92.069507
87.957978
83.920956
81.942677
82.032681
82.378983
83.651543
86.599588
87.536573
87.788701
88.819861
86.243749
82.991719
79.987645
74.797869
72.763562
68.890452
66.719651
63.574910
62.013865
59.340596
58.300495
57.102442
55.897832
53.733587
52.851439
51.028728
51.274896
49.632788
49.238801
47.623515
46.208501
45.585632
45.277476
44.317842
##ZVALUE=300
1.739860
1.734495
1.712441
1.796484
1.690984
1.864433
1.902580
1.937747
2.093911
2.172589
2.055764
2.285838
2.331734
2.303720
2.421737
2.402663
2.471805
2.672672
2.749562
2.869964
3.172755
3.229976
3.497601
3.683567
3.846884
4.419684
4.839897
5.047917
5.775690
6.370544
7.056594
8.158684
29.869676
125.778913
499.908924
980.478525
1015.794873
1015.794873
1015.794873
1015.794873
1015.794873
1015.794873
1015.794873
1015.794873
1015.794873
1015.794873
1015.794873
827.540755
275.992751
92.901587
43.817759
46.737790
57.930946
68.992972
87.608695
103.739500
123.142004
131.630898
137.123466
135.270953
125.827789
114.635825
98.443627
86.889863
74.700713
69.683790
64.749718
64.508915
65.557957
67.417622
69.437623
69.537759
69.126487
67.571998
64.849854
62.714815
59.908628
57.776570
55.757761
55.651665
53.786635
53.134561
52.371621
51.291585
50.788522
50.360560
49.369931
48.863888
47.662854
46.757460
45.657754
45.617819
44.699907
44.276714
43.446422
43.451786
##ZVALUE=305
1.749992
1.829863
1.688600
1.680851
1.938939
1.881719
1.934767
1.946688
1.865625
1.942515
1.952648
2.230406
2.068877
2.067685
2.239943
2.291799
2.523661
2.482533
2.390742
2.734661
2.756715
3.063679
3.243685
3.418922
3.346801
3.707409
4.028678
4.473925
4.543662
5.231500
5.605817
6.437898
6.973743
8.265972
12.392998
77.422857
263.889432
903.054476
1015.794873
1015.794873
1015.794873
1015.794873
1015.794873
1015.794873
1015.794873
1015.794873
1015.794873
1015.794873
1015.794873
1007.335782
538.743734
145.257711
51.557422
38.056970
42.386651
51.899552
63.146949
80.913901
95.130801
111.452937
120.720863
125.145912
122.301579
112.324953
101.274848
85.122585
74.354410
63.682795
58.949590
57.210922
56.564808
56.475997
57.155490
56.483746
55.571795
53.379536
51.853657
50.158501
49.422979
48.722625
48.695803
48.223734
48.516989
47.893524
47.779679
47.416687
47.241449
47.037601
46.416521
45.515895
45.072436
43.967962
43.815970
42.758584
42.874813
42.588711
##ZVALUE=310
1.650453
1.724958
1.715422
1.647472
1.852512
1.939535
1.902580
2.076626
1.981854
1.962781
2.085567
2.048612
2.093911
2.069473
2.133846
2.356768
2.245903
2.544522
2.490878
2.590418
2.801418
2.872944
3.091693
3.234744
3.343821
3.493428
3.508925
3.730655
4.263520
4.444718
4.861951
5.359650
5.575418
6.205440
6.925464
8.148551
9.424686
31.853318
122.189522
501.617789
1004.046798
1015.796661
1015.796661
1015.796661
1015.796661
1015.796661
1015.796661
1015.796661
1015.796661
1015.796661
1015.796661
1015.796661
945.124626
317.762494
101.761818
34.936666
34.071803
38.455725
44.182539
57.655573
69.453716
86.928606
98.522902
111.245513
116.263628
114.410520
108.043551
97.227693
85.898638
73.870420
66.182613
59.292912
56.012869
52.420497
50.559640
48.651695
48.239827
46.914816
45.835972
46.035647
46.549439
46.449900
46.209693
46.538711
46.535730
46.551824
46.382546
45.795441
45.521855
45.767426
44.888854
44.016838
43.217540
43.644905
43.496490
42.535663
##ZVALUE=315
1.941919
1.709461
1.659989
1.840591
1.738667
1.917481
1.977682
1.937747
1.918674
1.831651
2.091527
2.077818
2.001524
2.072453
2.179742
2.383590
2.321601
2.457500
2.455711
2.605915
2.498627
2.774596
2.860427
2.852678
3.201962
3.288984
3.393888
3.563762
3.811717
4.025698
4.247427
4.561543
4.565716
5.509853
5.729795
6.504655
7.226467
7.945895
9.038448
16.059875
61.205626
307.103992
753.004551
1015.794873
1015.794873
1015.794873
1015.794873
1015.794873
1015.794873
1015.794873
1015.794873
1015.794873
1015.794873
1015.794873
1015.794873
516.907573
178.821683
43.128729
32.469630
33.130646
36.958456
44.689775
53.081512
67.084432
79.604983
95.832944
106.014609
113.384724
113.443732
106.479526
99.100471
86.384416
76.164603
63.230991
56.274533
49.957633
47.878623
45.506954
44.886470
45.435429
44.734478
45.416951
45.778751
46.420693
46.376586
46.237707
46.155453
45.925975
45.354962
45.305490
45.116544
44.390559
44.294000
43.881536
43.017864
42.807460
##ZVALUE=320
1.773834
1.858473
1.699924
1.875758
1.749992
1.908541
2.010465
2.061725
1.880527
2.032518
2.008677
2.291799
2.058744
2.156496
2.199411
2.245903
2.300739
2.459884
2.356768
2.437830
2.603531
2.643466
2.749562
3.019571
3.098845
3.047585
3.223419
3.220439
3.718734
3.719926
3.845692
4.191995
4.215837
4.603863
5.016923
5.512834
5.877614
6.524920
7.149577
7.975698
9.107590
11.277795
26.919842
179.643631
526.112914
1015.833020
1015.833020
1015.833020
1015.833020
1015.833020
1015.833020
1015.833020
1015.833020
1015.833020
1015.833020
1015.833020
1015.833020
922.130942
382.002592
82.669854
36.083460
32.333732
33.157468
36.343932
41.532516
52.836537
64.211488
80.235600
93.829632
107.169747
113.295913
113.994479
108.038783
95.901489
83.806515
68.313479
59.692860
51.813722
47.453642
44.925809
44.512749
44.807792
44.745803
45.546889
45.792460
45.907497
45.631528
45.708418
45.438409
45.617819
44.644475
44.449568
44.107437
43.556690
43.190718
42.812824
##ZVALUE=325
1.805425
1.736879
1.778603
1.822710
1.801848
1.755953
1.992583
1.882911
1.952648
1.894832
2.076626
1.871586
2.058744
2.150536
2.212524
2.176762
2.371669
2.188683
2.220869
2.355576
2.344847
2.600551
2.646446
2.714992
2.754927
2.873540
3.023744
3.181696
3.352761
3.249645
3.513694
3.792644
3.810525
4.088879
4.428625
4.591942
4.774928
5.387664
5.882978
6.363988
7.014871
8.026958
8.835793
10.538697
15.454888
100.299716
339.666605
997.570753
1015.794873
1015.794873
1015.794873
1015.794873
1015.794873
1015.794873
1015.794873
1015.794873
1015.794873
1015.794873
1015.794873
1015.794873
634.173751
144.604445
47.423840
32.624602
32.234788
33.567548
37.373900
45.222640
54.320693
69.119930
81.659555
96.324682
105.330944
109.492540
107.246637
98.664761
89.530945
75.253844
66.231489
56.348443
51.090717
46.470761
45.643449
45.227408
45.109987
44.960976
45.492649
45.080781
45.280457
44.688582
44.763684
44.264793
43.480992
43.275952
43.219924
42.963624
##ZVALUE=330
1.704693
1.654625
1.780987
1.800656
1.821518
1.813769
1.769662
2.050996
1.846552
1.930594
2.008677
2.048612
2.114773
2.119541
2.037883
1.977682
2.268553
2.215505
2.306700
2.335906
2.219677
2.454519
2.652407
2.652407
2.760887
2.915859
2.937913
3.053546
3.042817
3.223419
3.365874
3.531575
3.684759
3.706813
4.255772
4.248619
4.332662
4.720688
5.003810
5.422831
5.968809
6.440878
7.154942
7.869601
8.834600
10.430813
12.659431
45.132637
168.284774
683.670640
1015.794873
1015.794873
1015.794873
1015.794873
1015.794873
1015.794873
1015.794873
1015.794873
1015.794873
1015.794873
1015.794873
1015.794873
980.669856
323.095918
97.203851
35.540462
33.672452
34.459829
37.080646
42.359829
48.018694
58.621764
68.102479
81.100464
89.321733
98.528862
100.842714
99.172592
94.400644
84.366798
74.904561
63.768625
56.798458
50.688982
47.826767
45.372844
45.000911
44.258833
44.188499
44.062734
43.669939
43.343902
43.163896
43.034554
42.737722
42.623878
##ZVALUE=335
1.836419
1.751781
1.763701
1.879930
1.735687
1.803637
1.798868
1.746416
1.811981
1.907945
1.910925
1.956820
2.028942
1.953840
1.967549
2.175570
2.294779
2.264977
2.183914
2.265573
2.219677
2.158880
2.426505
2.472997
2.588630
2.682805
2.899766
2.802610
2.976656
3.011823
3.156662
3.152490
3.361702
3.447533
3.789663
3.939867
4.050732
4.144907
4.389882
4.603863
5.075932
5.452633
5.723834
6.551743
7.054806
8.037686
8.684993
10.046959
11.267662
21.851659
82.852840
419.698954
949.559808
1015.795469
1015.795469
1015.795469
1015.795469
1015.795469
1015.795469
1015.795469
1015.795469
1015.795469
1015.795469
1015.795469
1015.795469
509.081483
167.148709
45.056939
36.265850
37.220716
38.366914
40.373802
42.762756
47.653913
53.225756
63.629746
71.829557
83.480477
90.650916
95.697641
95.414519
89.658499
83.379745
73.408484
65.568686
56.981444
51.220655
46.983957
45.157671
43.152571
42.782426
42.795539
41.968822
41.746497
41.591525
41.963458
##ZVALUE=340
1.705885
1.848936
1.838803
1.761913
1.781583
1.716614
1.740456
1.868606
1.851916
1.988411
1.969934
1.827478
1.990795
1.905560
2.007484
2.160668
2.110600
1.855493
2.128482
2.317429
2.335906
2.424717
2.523661
2.381802
2.647638
2.504587
2.654791
2.618432
2.895594
2.818704
2.960563
3.209710
3.052950
3.446937
3.377795
3.538728
3.649592
3.767610
4.126430
4.148483
4.388690
4.841685
5.223751
5.601645
5.836487
6.499887
6.863475
7.839799
8.551478
9.713769
11.074543
14.341474
37.784576
236.427784
684.839487
1015.794873
1015.794873
1015.794873
1015.794873
1015.794873
1015.794873
1015.794873
1015.794873
1015.794873
1015.794873
1015.794873
1015.794873
791.722536
271.444917
57.224631
40.164590
39.403439
38.909912
38.350821
38.019419
39.068460
42.122602
49.979687
57.311654
70.214868
79.506636
87.803602
91.422796
91.112852
87.713003
79.467893
71.888566
61.868429
55.391788
48.931837
45.459867
42.639971
41.158795
40.339828
40.320754
40.236712
##ZVALUE=345
1.696944
1.456738
1.432896
1.676679
1.580715
1.473427
1.696944
1.651645
1.667738
1.738667
1.620650
1.746416
1.708865
1.859665
1.853704
1.822710
1.974702
1.773834
1.985431
1.939535
1.871586
2.130866
2.140999
2.176762
2.117753
2.240539
2.367496
2.285838
2.375841
2.503991
2.452731
2.632737
2.750754
2.845526
3.136992
3.017783
3.244877
3.275871
3.541708
3.585815
3.837943
4.097819
4.252791
4.452467
4.830956
5.355477
5.511642
6.106496
6.467700
7.477999
8.098483
9.037852
10.220408
11.943579
19.485950
124.394894
411.428809
1015.622020
1015.622020
1015.622020
1015.622020
1015.622020
1015.622020
1015.622020
1015.622020
1015.622020
1015.622020
1015.622020
1015.621424
985.729694
457.687974
111.293793
48.340559
41.606426
39.325953
35.861731
34.176707
34.356713
36.076903
40.908456
46.466589
56.980848
64.857602
74.550509
81.086755
86.719990
86.830854
82.495809
77.125430
68.448782
60.664415
52.689910
46.880841
42.414665
40.286779
39.289594
##ZVALUE=350
1.978874
1.821518
1.996756
1.962781
1.938939
1.924634
1.919866
2.093911
1.995564
2.021790
2.140999
2.163649
2.071857
2.267957
2.214909
2.282858
2.266765
2.182722
2.324581
2.318621
2.454519
2.613664
2.374649
2.522469
2.455711
2.496839
2.533793
2.583861
2.635717
2.769828
2.672672
2.889633
3.019571
3.131628
3.101826
3.304482
3.431439
3.697872
3.466606
3.692508
3.788471
4.054904
4.298687
4.500747
4.610419
4.967451
4.931688
5.407929
5.963445
6.573796
6.866455
7.342696
8.075833
9.345412
10.026693
11.970997
14.874935
79.217553
280.577540
923.929811
1015.794873
1015.794873
1015.794873
1015.794873
1015.794873
1015.794873
1015.794873
1015.794873
1015.794873
1015.794873
1015.794873
1015.794873
765.026808
170.365572
56.235790
37.994981
35.092831
32.532811
31.865835
31.833649
33.016801
35.912991
39.572716
45.736432
52.389503
61.355829
68.331957
75.653791
79.833865
81.071854
78.777671
72.659850
66.033602
58.011413
51.800609
45.764446
##ZVALUE=355
2.133846
1.988411
2.252460
2.162457
2.233982
2.212524
2.284646
2.399683
2.251863
2.476573
2.412796
2.648830
2.760887
2.473593
2.412796
2.468824
2.520680
2.615452
2.580881
2.819896
2.678633
2.601743
2.690554
2.848506
3.020763
2.940893
3.039837
3.072619
2.959967
3.245473
3.317595
3.327727
3.377795
3.546476
3.461838
3.672838
3.776550
3.869534
3.931522
4.074574
3.999472
4.316568
4.310608
4.644990
4.853606
4.923940
5.314946
5.461574
5.904436
6.175637
6.587505
7.161498
7.831454
8.178949
8.960962
9.927750
10.674000
12.176633
13.997555
40.750504
203.053951
890.917778
1015.794873
1015.794873
1015.794873
1015.794873
1015.794873
1015.794873
1015.794873
1015.794873
1015.794873
1015.794873
1015.794873
1015.794873
963.414907
282.663703
84.888935
37.746429
34.437776
33.148527
32.562613
32.388568
32.527447
33.646822
34.854412
38.396716
42.460561
49.376488
55.239797
63.543916
69.838762
74.548721
75.789690
73.522925
69.600940
62.973499
##ZVALUE=360
2.439618
2.421737
2.428889
2.506971
2.410412
2.326965
2.657771
2.617836
2.462864
2.556443
2.754927
2.745986
2.773404
2.714992
2.933741
2.829432
2.760887
2.976656
2.983809
3.089905
3.108978
3.076792
3.140569
3.133416
3.360510
3.330708
3.499985
3.544688
3.461838
3.568530
3.427863
3.545880
3.764629
3.787875
4.029870
4.025698
4.305840
4.292727
4.288554
4.210472
4.467964
4.873872
4.923940
4.948974
5.146861
5.383492
5.417466
5.886555
6.100535
6.409883
6.821752
7.238984
7.485747
8.031726
8.754730
9.463429
9.782910
10.906458
12.065768
14.160872
15.983582
21.542907
66.853762
467.179418
1015.794873
1015.794873
1015.794873
1015.794873
1015.794873
1015.794873
1015.794873
1015.794873
1015.794873
1015.794873
1015.794873
1015.794873
1015.794873
559.983850
174.472928
44.385791
36.539435
34.433603
33.679605
32.169819
32.205582
32.032728
32.140613
33.514500
35.206676
38.699508
43.736696
50.891638
56.206584
63.737631
66.886544
69.872737
##ZVALUE=365
2.692938
2.535582
2.591610
2.642870
2.455711
2.674460
2.757907
2.726912
2.636909
2.617836
2.848506
2.830625
2.702475
2.870560
2.947450
2.991557
2.947450
3.034472
3.030896
3.010631
3.259778
3.257990
3.370643
3.268719
3.482699
3.466606
3.532767
3.553629
3.645420
3.642440
3.850460
3.809929
3.848672
3.951788
4.066825
4.050732
4.288554
4.416704
4.503727
4.471540
4.715919
4.811883
4.820824
5.176663
5.220771
5.364418
5.292892
5.731583
6.052852
6.402731
6.412864
6.834865
7.102489
7.575750
7.902980
8.578897
9.159446
9.733438
10.350943
11.805892
12.827516
15.189648
16.914606
19.901991
30.243397
194.280744
707.781911
1015.794873
1015.794873
1015.794873
1015.794873
1015.794873
1015.794873
1015.794873
1015.794873
1015.794873
1015.794873
1015.794873
1015.794873
924.026370
343.066454
64.546466
37.048459
33.389926
32.375455
31.058788
30.170679
29.663444
29.405951
29.230714
30.114651
31.546950
34.003854
38.590431
43.207407
49.996972
##ZVALUE=370
2.378821
2.486706
2.511740
2.500415
2.632737
2.721548
2.818704
2.610683
2.832413
2.673864
2.755523
2.901554
2.791882
2.804995
3.021955
2.840757
2.903938
2.952814
3.002882
3.093481
3.118515
3.031492
3.097653
3.139973
3.300905
3.035665
3.186464
3.254414
3.438592
3.428459
3.515482
3.434420
3.494620
3.691912
3.753901
3.696680
3.850460
4.032850
3.972650
4.104972
4.266500
4.417896
4.174709
4.563928
4.415512
4.530549
4.888773
4.857779
5.251765
5.298853
5.605817
5.730987
5.840659
6.162524
6.489754
6.832480
7.287860
7.786751
8.094907
8.959770
9.618998
10.812879
11.874437
13.575554
15.027523
17.963648
23.082495
87.086558
340.698957
1015.794873
1015.794873
1015.794873
1015.794873
1015.794873
1015.794873
1015.794873
1015.794873
1015.794873
1015.794873
1015.794873
1015.794873
1015.794873
597.934723
153.273940
50.241947
33.365488
31.672716
29.647946
29.029846
28.147697
27.441978
26.925802
27.191639
27.297735
28.913617
31.399727
##ZVALUE=375
2.392530
2.393723
2.465844
2.517700
2.458692
2.467632
2.462864
2.417564
2.412796
2.491474
2.647638
2.632737
2.665520
2.520680
2.697706
2.771616
2.579689
2.757907
2.656579
2.812743
2.838969
2.845526
2.776980
2.723932
2.901554
3.009439
3.033876
3.099442
3.039837
3.066659
3.106594
3.164411
3.292561
3.244877
3.269911
3.362894
3.530979
3.467798
3.644824
3.649592
3.799796
3.864765
3.924966
4.127622
4.064441
4.141927
4.230738
4.480481
4.635453
4.758835
4.880428
5.282760
5.150437
5.633831
5.633831
5.959868
6.205440
6.494522
7.039905
7.466674
8.023977
8.634925
9.659529
10.669827
11.600852
13.817549
15.869737
18.996000
23.009777
78.502893
289.734602
961.784720
1015.795469
1015.795469
1015.795469
1015.795469
1015.795469
1015.795469
1015.795469
1015.795469
1015.795469
1015.795469
1015.795469
1015.796065
1015.795469
349.830985
99.471807
36.197901
32.486916
30.425787
29.065609
27.412772
26.700497
26.175976
25.565624
25.716424
##ZVALUE=380
2.320409
2.366900
2.354980
2.383590
2.449751
2.281666
2.481937
2.393723
2.450943
2.529621
2.500415
2.439618
2.406836
2.556443
2.436638
2.564788
2.590418
2.655983
2.623796
2.537966
2.644658
2.671480
2.655983
2.776980
2.746582
2.752542
2.855659
2.870560
2.893806
2.835989
2.963543
3.169775
3.181696
3.158450
2.977848
3.280640
3.324747
3.515482
3.508925
3.431439
3.530979
3.824830
3.609657
3.814697
3.899932
3.979802
4.209876
4.267693
4.436970
4.627705
4.669428
4.920959
5.184412
5.148649
5.563498
5.890727
6.147623
6.363988
6.925464
7.130504
7.185936
7.907748
8.770823
9.795427
10.786653
12.404919
14.288425
17.029643
19.186735
22.236705
24.858713
36.661625
141.511559
832.863450
1015.794873
1015.794873
1015.794873
1015.794873
1015.794873
1015.794873
1015.794873
1015.794873
1015.794873
1015.794873
1015.794873
1015.794873
1015.794873
670.563579
224.138498
51.623583
34.635663
31.028986
29.326677
27.923584
26.965737
26.072860
##ZVALUE=385
2.204776
2.268553
2.146959
2.171993
2.133846
2.337694
2.210736
2.170801
2.170801
2.102852
2.159476
2.500415
2.276897
2.252460
2.359748
2.334714
2.369881
2.279878
2.306700
2.450943
2.514720
2.446771
2.496839
2.606511
2.709627
2.649426
2.825856
2.574921
2.653599
2.481937
2.835989
2.775788
2.835989
2.900958
3.086925
2.862811
3.017783
3.086925
3.357530
3.156662
3.387928
3.519654
3.506541
3.589988
3.660917
3.968477
3.805757
3.908873
4.236698
4.221797
4.392862
4.346967
4.816651
4.720688
5.025864
5.070567
5.363822
5.770922
5.958676
6.157756
6.611943
7.297993
7.689595
8.477569
9.309649
11.613965
12.193918
14.903545
15.508533
17.975569
18.427968
19.484758
20.642877
35.053492
45.742393
279.464722
894.723535
1015.794873
1015.794873
1015.794873
1015.794873
1015.794873
1015.794873
1015.794873
1015.794873
1015.794873
1015.794873
1015.794873
1015.794873
1015.794873
507.041812
93.850493
38.928986
31.285882
28.993487
27.254820
##ZVALUE=390
1.994967
1.974702
1.967549
1.982450
2.123713
2.144575
1.991987
1.900792
2.072453
2.082586
2.026558
1.922846
2.191663
2.078414
2.175570
2.177954
2.127886
2.057552
2.193451
2.165437
2.270937
2.186894
2.222657
2.400875
2.359748
2.311468
2.482533
2.276897
2.442598
2.489686
2.496839
2.549887
2.593994
2.729893
2.639890
2.673864
2.764463
2.912879
2.776980
3.005862
3.123879
3.157854
3.092885
3.309846
3.303885
3.500581
3.593564
3.757477
3.755689
3.946424
4.072785
4.049540
4.151464
4.516840
4.552603
4.550815
5.095601
5.106926
5.358458
5.770922
5.839467
6.062984
6.762743
7.354617
8.117557
9.435415
10.418892
12.261868
13.153553
14.523864
15.331507
15.637875
15.967488
16.557574
17.450452
19.532442
25.726557
117.352009
423.153639
1015.794873
1015.794873
1015.794873
1015.794873
1015.794873
1015.794873
1015.794873
1015.794873
1015.794873
1015.794873
1015.794873
1015.794873
1015.794873
953.040719
250.808597
65.180659
30.761957
##ZVALUE=395
1.552701
1.707673
1.713634
1.739860
1.598597
1.937747
1.737475
1.868606
1.699924
1.704693
1.655817
1.752973
1.757741
1.776814
1.835823
1.794696
1.899600
1.987815
1.941919
2.026558
2.000928
2.025962
1.914501
2.006888
1.912713
2.105832
2.132654
1.932979
2.261996
2.238750
2.074838
2.112985
2.328753
2.252460
2.303720
2.232790
2.424717
2.434850
2.536774
2.570748
2.511740
2.638698
2.743602
2.872944
2.952814
2.938509
2.910495
3.087521
3.306866
3.227592
3.254414
3.239512
3.352761
3.657937
3.746748
3.858805
3.950000
3.935695
4.138947
4.540682
4.732609
5.079508
5.443692
5.888939
6.310940
7.482767
8.199811
9.428859
10.228753
10.760427
11.007786
11.108518
11.335611
11.397600
11.297464
12.438893
13.074875
15.083551
17.515421
52.827001
232.114792
947.757959
1015.794873
1015.794873
1015.794873
1015.794873
1015.794873
1015.794873
1015.794873
1015.794873
1015.794873
1015.794873
1015.794873
1015.794873
1015.794873
524.432659
##ZVALUE=400
1.704693
1.660585
1.598597
1.637936
1.487732
1.611710
1.633763
1.962781
1.807809
1.522899
1.661777
1.615882
1.647472
1.910925
1.794696
1.773834
1.932979
1.813769
1.789927
1.809597
1.815557
1.886487
2.011657
1.994967
1.878738
1.945496
1.957417
2.004504
2.049804
2.124906
2.063513
2.187490
2.155900
2.203584
2.369881
2.316833
2.311468
2.361536
2.310872
2.227426
2.396703
2.600551
2.688766
2.643466
2.700686
2.830625
2.800822
2.790689
2.887845
3.101826
2.948642
3.346801
3.365874
3.318787
3.383756
3.458858
3.600717
3.792644
3.989935
4.341602
4.225969
4.715919
5.066991
5.662441
6.185770
7.001758
7.765889
8.737445
9.077787
9.658933
9.850860
9.709597
9.438992
9.593964
9.629726
9.958744
10.542870
11.555552
12.547970
14.637709
16.689897
29.600859
112.841725
592.170954
1015.794873
1015.794873
1015.794873
1015.794873
1015.794873
1015.794873
1015.794873
1015.794873
1015.794873
1015.794873
1015.794873
1015.794873
##END
