##TITLE=AAI0502
##FORMAT=SPECTACLE-ASCII V-1.2
##DATA TYPE=ULTRAVIOLET SPECTRUM
##SECOND TYPE=ULTRAVIOLET SPECTRUM
##DATE=03/22/18
##TIME=13:36:40
##SPECTROMETER/DATA SYSTEM=SPECTACLE
##XUNITS=NM EM
##YUNITS=ENERGY
##YFACTOR=1
##FIRSTX=220
##LASTX=410
##NPOINTS=96
##3DDATA=Equidistant
##ZUNITS=NM EX
##FIRSTZ=210
##LASTZ=400
##ZPOINTS=39
##XYDATA=(Y..Y)
##ZVALUE=210
3.823638
3.978610
3.968477
3.038645
3.673434
3.523827
3.351569
4.067421
2.999902
3.251433
3.547668
2.784729
3.226995
2.937913
3.408790
2.576709
3.403425
3.031492
3.361702
3.742576
4.522800
4.030466
4.151464
4.033446
5.084872
5.870461
4.756451
5.306602
5.514622
5.373955
6.319880
6.454587
6.524920
7.552505
7.715821
7.116795
7.584691
8.256435
8.265972
8.461475
9.546876
9.557605
9.219646
9.068847
9.586811
10.158420
9.547472
9.942651
9.982586
9.701848
11.035800
11.128783
11.161566
11.043549
12.279749
11.648536
11.552572
12.987852
13.055801
12.184978
12.743473
13.100505
12.931824
13.225675
14.649630
14.606714
16.539693
17.543435
21.597743
25.244951
28.274655
33.811927
39.554834
42.759776
47.258735
49.050450
52.265525
49.301982
49.774647
45.112967
40.903687
38.750768
32.127500
27.879477
24.342537
22.065639
17.930865
14.115572
14.095902
12.715459
14.042854
14.469624
14.860630
14.971495
15.380979
15.362501
##ZVALUE=215
14.391541
13.994575
12.619495
9.661913
8.697510
7.834435
6.986856
7.334948
7.033944
8.176565
6.306767
6.436706
5.020499
3.859997
4.066825
3.519654
3.250837
3.647804
3.883839
4.349947
3.403425
4.842877
3.946424
5.064607
4.686713
5.537868
6.118417
5.591512
6.194711
6.074905
6.823540
6.652474
7.071495
6.553531
8.196831
9.123683
8.985996
8.378625
8.454919
8.575916
9.335876
9.499788
10.990500
11.397600
10.098815
11.294484
11.739731
11.195540
11.338592
11.078715
12.034774
11.084676
11.698604
11.900663
12.542605
12.377501
12.992620
12.649894
13.628602
12.873411
13.040900
14.910698
14.213920
13.569593
13.889670
14.366508
16.292930
16.018748
20.370483
21.626949
27.359724
31.570792
34.275651
39.404631
41.080713
43.492913
44.118762
45.715570
41.995645
39.614439
36.641955
32.576919
27.313828
25.450587
20.961761
19.174814
16.081929
15.531778
14.425516
13.557673
13.886690
12.976527
12.337565
12.811422
13.182759
12.467504
##ZVALUE=220
47.220588
45.855641
48.052669
43.646693
37.453771
30.538440
24.440885
19.373894
14.488697
14.927983
14.073849
15.344620
14.031529
13.031960
10.234714
9.147525
6.563663
5.421638
4.475713
4.453659
4.117489
4.300475
5.403757
5.187988
5.884767
5.314946
5.879998
6.305575
6.697774
6.602407
6.820560
7.878542
8.375645
7.819533
9.333491
9.266734
11.132956
11.411905
11.925697
12.470484
11.766553
12.965798
11.607409
11.309981
12.607574
12.583733
11.927485
13.628602
11.864901
12.301803
12.897849
13.665557
14.266968
12.694597
13.194680
13.980865
13.439655
13.760924
13.692975
13.759732
12.265444
13.938546
13.063550
14.574528
15.251637
15.006661
16.491413
18.112659
17.388463
22.355914
26.215911
30.473471
32.972693
37.198663
38.666725
42.315722
41.084886
41.983724
37.284493
36.916733
33.559799
31.172633
27.555823
23.576617
20.639896
19.486547
17.027855
14.256835
15.615821
13.209581
13.116598
13.551712
14.196634
12.837648
12.047887
13.333559
##ZVALUE=225
77.386498
78.991652
98.606944
113.475919
118.001699
113.222003
102.848411
77.467561
62.268972
45.179725
29.683709
28.646588
27.435422
28.866529
29.144883
26.433468
22.378564
19.120574
15.561581
10.996461
8.276701
5.445480
5.176663
5.680919
5.273819
6.198883
6.863475
6.086826
6.685853
7.858872
8.716583
8.225441
10.305643
12.888908
12.769699
13.648868
12.981892
13.634562
15.362501
16.437769
15.391707
14.246702
16.185641
17.496943
15.879869
16.096830
15.397668
15.891790
17.064810
16.273856
16.002655
16.265512
16.494989
15.633702
16.681552
16.713738
16.061664
17.256737
16.900897
17.018914
16.770959
16.615987
17.228723
16.367435
16.890764
17.774701
19.487739
19.817948
22.819638
24.196506
29.047728
31.530857
36.137700
40.288568
41.570663
42.054653
41.070580
41.914582
37.314892
36.189556
33.647418
29.152632
27.227998
23.949742
21.846890
21.291971
18.245578
19.094944
16.633868
15.258789
15.993714
15.628934
15.219450
15.670657
16.013980
16.635656
##ZVALUE=230
67.010522
72.045922
117.340684
162.152648
214.030743
245.083570
266.726613
264.730453
226.309896
184.565783
123.424530
88.807940
65.567493
50.417781
47.535896
49.995780
53.039789
50.638914
45.019984
35.219789
28.567910
18.619895
14.069676
10.237694
8.201599
6.710887
7.230639
7.238984
9.213686
8.886456
9.628534
11.885762
12.555718
12.686849
15.449524
16.139746
19.420981
19.529462
19.301772
20.418763
20.177960
20.772815
21.682978
22.536516
21.621585
21.199584
22.136569
20.389557
22.193789
20.968914
19.691586
19.887686
19.976497
20.231605
19.646883
21.150708
19.565821
19.102693
20.961761
19.875765
21.419525
20.432472
19.933581
20.710826
19.674897
22.214651
21.291971
23.506880
23.798943
25.983453
31.863451
34.146905
38.939714
40.173531
43.037534
44.179559
44.418573
42.109489
39.527416
35.624504
34.563541
31.102896
28.169751
24.375916
25.297999
22.035837
22.001863
18.801689
22.067428
19.921660
19.395947
19.586682
19.215941
17.197728
18.426776
18.101931
##ZVALUE=235
24.849772
27.760863
56.635737
126.903653
201.968551
297.912955
381.847620
464.800596
504.596829
496.847630
436.311960
350.633860
242.304802
167.697668
109.363794
86.498857
74.274540
78.952909
83.025694
83.995461
79.405904
64.484477
51.440597
36.211610
27.868748
17.868876
12.036562
10.403991
11.172891
11.073947
11.567473
12.518764
14.016628
16.843677
18.032789
19.907951
18.677711
21.736622
22.177696
24.205446
25.459528
25.312901
24.650693
23.240447
24.706721
23.868680
23.307800
24.840832
22.992492
24.663806
24.177432
23.505688
23.731589
23.109913
23.905635
24.726987
23.779869
23.628473
22.765994
22.711754
24.065971
23.609996
24.407506
24.022460
25.204420
24.237633
23.036599
26.456714
28.461814
31.393766
34.460425
38.312674
41.574836
44.264793
44.899583
47.659874
45.528412
46.662688
43.743849
41.447878
36.210418
34.561753
31.616688
31.894445
28.669834
26.245713
25.805831
23.836493
24.733543
23.520589
22.673607
22.595525
23.978949
23.418665
23.368597
21.107793
##ZVALUE=240
2.232790
2.808571
9.799600
28.071404
81.786513
149.055719
280.983448
419.306755
613.980889
724.932551
809.569955
814.850926
739.665031
590.930581
452.981591
278.348923
191.730857
120.972991
98.559856
100.937486
108.620524
114.659667
110.574961
103.170872
82.478523
68.047643
49.397945
38.439631
23.849607
17.968416
13.692975
13.082623
14.552474
16.127825
17.999411
19.187927
18.711686
21.722913
20.177960
21.374822
22.171736
22.477508
21.022558
22.479892
22.788644
22.341609
21.927953
24.241805
23.422837
23.030639
23.859739
23.896694
23.597479
23.948550
24.659634
22.957921
24.600625
23.803711
25.701523
24.253726
23.841858
25.284886
25.482774
27.110577
26.538968
26.594996
28.508902
30.086637
31.421781
36.506653
38.620830
43.756962
44.647455
48.611760
50.805807
48.961639
48.922896
48.606992
45.534968
42.764544
42.113662
37.983656
33.718944
34.641623
32.231808
30.585527
28.922558
30.305982
29.110909
28.539896
28.073788
25.859475
25.020838
26.255846
26.246905
25.149584
##ZVALUE=245
1.811981
1.773834
1.708865
1.993775
4.436970
23.174882
56.793690
151.353478
268.206596
476.577878
653.768778
883.880854
989.799500
1015.861630
981.437564
868.873000
642.234683
471.981764
271.557570
183.290839
118.843913
100.941658
112.222433
123.637915
128.977895
121.832490
110.438466
92.487931
74.263811
53.547621
40.094852
25.827885
18.910766
15.407801
14.417768
14.000535
14.680624
15.123487
15.348792
14.158487
16.072989
15.683770
16.506910
16.458631
17.585754
17.127991
17.092824
16.830564
18.196702
17.223954
18.557906
17.339587
19.168854
19.404888
19.218922
19.446611
20.040870
20.192862
20.264983
20.810962
21.981001
22.029877
22.088885
21.837950
22.284985
23.576617
25.184751
27.883649
27.773976
31.502843
36.022663
38.239956
39.435625
41.871667
42.472482
45.103431
41.743517
40.825605
39.421916
36.318898
36.052465
33.276677
32.055974
28.911829
27.564764
25.685430
26.691556
27.787685
25.824904
22.641420
24.681687
25.097728
24.157763
23.459792
23.081899
24.104714
##ZVALUE=250
1.777411
1.682639
2.116561
1.845956
1.968741
2.127886
4.468560
11.888742
52.386522
116.180778
234.151483
469.700694
666.539669
919.475555
1015.861630
1015.861630
1015.861630
1015.861630
818.038583
616.573691
378.127694
241.661668
133.811831
103.821754
101.201534
119.772553
131.401420
138.610601
134.556890
119.885802
105.006695
76.690912
58.892965
38.273931
26.604533
16.825795
14.701486
11.945963
11.449456
11.143684
11.559725
12.183785
13.486743
12.355447
12.560487
12.588501
12.773871
12.962818
13.867617
13.413429
13.771653
15.066862
16.289949
16.123652
15.755892
17.274618
16.684532
17.617941
19.045472
20.289421
20.289421
21.486878
20.998716
22.584796
21.483898
22.252798
22.701621
24.217963
26.148558
27.596951
29.706955
30.613542
34.338832
36.448836
37.668943
35.454631
35.942793
34.868717
34.057498
32.557845
29.459596
27.318001
26.956797
25.838614
24.010539
23.805499
22.219419
22.674799
21.782517
20.907521
22.235513
20.312667
20.685792
20.467639
19.724965
20.704865
##ZVALUE=255
1.560450
1.242757
1.456738
1.461506
1.988411
1.846552
2.127886
2.123713
2.713799
6.630421
35.181642
88.207722
185.216665
400.609970
617.367625
935.517550
1015.837789
1015.837789
1015.837789
1015.837789
1015.837789
859.986544
536.268950
345.625877
180.554986
119.283795
95.817447
99.397898
127.438903
135.644674
143.453479
142.256618
130.484700
104.656816
85.932612
56.259632
41.120648
26.327968
18.737912
13.974905
12.084842
11.529922
11.474490
11.219978
11.964440
12.615919
11.872649
13.195872
13.084412
13.436675
14.381409
14.581680
15.056729
15.786886
15.022755
16.260743
17.402768
17.152429
17.643571
18.972754
19.660592
19.348860
20.422935
20.102859
21.296740
22.368431
22.503734
22.764802
24.160743
26.596785
27.032495
29.051900
32.570958
32.288432
32.813549
33.153892
30.864477
29.859543
28.677583
27.653575
26.111603
25.601983
23.432970
23.285747
21.784902
20.618439
20.381808
19.756556
21.102428
20.545721
20.079613
20.553470
18.010736
17.758608
19.777417
17.623901
##ZVALUE=260
1.544952
1.659989
1.386404
1.386404
1.718998
1.633763
1.716614
1.963973
1.877546
2.524853
2.595782
3.693700
13.290644
60.154796
134.088993
332.653522
551.301837
885.014534
1015.862823
1015.862823
1015.862823
1015.862823
1015.862823
1015.862823
758.540034
518.375039
291.565657
176.524520
98.187923
85.681677
98.547935
123.181939
144.038796
147.759914
145.917535
130.835772
112.217665
83.727837
63.829422
41.326880
29.836893
19.095540
14.553666
12.405515
12.422800
13.729930
13.119578
12.858510
13.070703
13.721585
13.721585
13.466477
13.948679
14.696717
15.277863
16.188622
15.885830
17.189980
17.565489
18.201470
17.754436
18.602610
18.621683
19.913912
19.823909
20.128489
20.239949
22.390485
22.229552
24.105906
26.189685
28.530955
29.287934
30.154586
30.461550
29.980540
29.443502
27.941465
26.138425
24.207830
24.093986
22.970438
21.526814
22.591949
19.819736
20.114779
19.459724
19.235611
19.802451
18.979907
18.284917
17.903447
17.423630
16.989708
17.996430
17.081499
##ZVALUE=265
1.528859
1.495481
1.568794
1.450777
1.615882
1.861453
1.715422
1.953840
2.014637
1.792908
2.325773
2.442598
2.086759
2.690554
7.204413
38.742423
102.720857
269.419551
468.654037
857.416987
1015.995741
1015.995741
1015.995741
1015.995741
1015.995741
1015.995741
1007.084846
747.692585
420.938730
245.332718
141.404867
80.919862
84.825754
110.108852
129.287839
150.345564
156.428814
149.450898
136.623979
112.709999
90.016723
59.602857
43.635964
28.335452
20.803809
16.300678
14.557838
14.330745
13.695955
14.075637
13.896823
14.412999
14.594793
15.078783
14.635921
15.082955
14.932752
15.768409
16.786456
16.497970
16.902685
16.373992
16.672611
17.324686
17.155409
18.344522
18.608570
18.641949
19.244552
21.295547
22.586584
23.064613
24.210811
25.755763
25.702715
23.954511
24.188757
24.137497
22.379756
21.871924
20.024776
20.059943
18.864870
18.478632
17.603636
17.277598
16.762614
16.485453
16.859770
16.520619
15.668869
16.125441
15.670657
16.445518
15.782714
15.561581
##ZVALUE=270
1.189709
1.169443
1.191497
1.414418
1.325607
1.465678
1.400709
1.360774
1.773834
1.702905
1.522899
1.665950
1.977682
2.272725
2.269745
2.578497
4.042983
15.377402
51.461458
184.441805
379.783511
765.125751
1015.861630
1015.861630
1015.861630
1015.861630
1015.861630
1015.861630
1015.861630
979.698896
689.752698
355.591774
197.757483
91.456771
70.486665
87.537766
109.320879
137.118697
150.060654
160.162449
155.756474
138.489604
117.983818
86.603761
66.844821
43.747425
31.745434
20.992756
17.895699
15.928745
14.304519
14.588833
14.716983
14.262795
14.567971
15.323758
14.224648
14.859438
15.322566
15.024543
15.562773
15.364885
15.448928
16.151667
15.597939
16.011000
15.950799
17.206669
17.411709
18.714666
19.742846
21.678805
21.952987
22.326708
22.645593
21.332502
21.933913
21.337867
20.376444
19.432902
18.413663
17.689466
17.014742
16.212463
15.845895
15.292764
15.131831
15.429854
14.431477
14.892817
13.868809
14.681816
14.596581
14.698505
14.298558
14.341474
##ZVALUE=275
1.186728
1.401901
1.205802
1.182556
1.250505
1.483560
1.315475
1.382828
1.314878
1.873970
1.825690
1.900792
1.639724
1.947880
2.141595
2.174973
2.121925
2.593994
2.843738
8.702874
35.546422
104.626417
319.152474
593.874454
1015.861630
1015.861630
1015.861630
1015.861630
1015.861630
1015.861630
1015.861630
1015.861630
685.072541
563.098788
273.688436
137.900710
66.325665
63.856840
102.847815
110.805631
134.637952
151.516795
155.686736
153.355002
136.731863
115.967989
74.337721
63.318610
46.793818
31.190515
21.350980
18.012524
14.406443
14.748573
14.844537
14.563799
13.891459
14.904737
14.594793
14.686584
15.122890
14.675856
14.660954
14.832616
14.763474
15.483499
15.446544
15.107989
16.424656
17.078519
18.129945
19.081831
20.085573
21.354556
20.540953
20.116568
20.879507
19.029975
18.407702
17.339587
17.170906
16.338825
15.526414
15.321970
14.826655
14.251471
13.441443
13.993979
13.805628
13.682842
14.041662
12.793541
13.165474
13.155937
12.865663
13.124943
##ZVALUE=280
1.219511
1.089573
1.266599
1.165867
1.191497
1.115799
1.382828
1.158714
1.231432
1.198649
1.473427
1.633763
1.649857
1.780987
1.528859
1.984835
1.769662
2.017617
2.238750
2.784729
2.768636
3.989935
21.487474
77.728629
261.821747
482.172966
905.753970
1015.856862
1015.856862
1015.856862
1015.856862
1015.856862
1015.856862
1015.856862
1015.856862
662.844777
391.800404
168.101788
84.918737
51.742792
59.594512
86.274743
107.765794
134.185553
146.667957
155.903697
149.524808
132.757425
114.671588
85.470676
66.582561
44.721961
32.698512
22.650957
17.469525
14.961958
14.976859
14.472604
14.652610
14.251471
14.393926
14.611483
14.310479
15.061498
14.419556
14.297962
15.577674
15.016794
15.489459
16.935468
17.555952
18.305779
19.355416
18.983483
19.357800
19.341707
18.413663
18.489957
17.757416
17.239451
16.362667
15.311837
15.293956
15.208721
14.261603
14.234781
13.534427
13.915896
14.010668
13.765693
13.368726
12.951493
12.793541
12.604594
13.340712
13.318658
##ZVALUE=285
0.948906
0.905991
0.972748
1.073480
1.085997
1.133680
1.308918
1.372695
1.206994
1.390576
1.452565
1.101494
1.421571
1.402497
1.506805
1.692772
1.450777
1.681447
1.782775
1.927614
2.188683
2.363920
2.621412
3.128648
10.323524
39.035678
147.913694
309.599042
656.695962
988.360643
1015.862823
1015.862823
1015.862823
1015.862823
1015.862823
1015.862823
1015.862823
896.263719
558.966994
260.191560
129.289627
53.053498
41.843653
57.967901
76.724887
104.675889
125.059485
141.972899
148.107409
146.304965
133.773685
111.489892
90.563893
65.398812
48.006773
30.560493
22.606850
16.899705
15.563965
14.532804
13.986826
13.995767
13.964772
14.694929
14.557838
14.033914
14.894605
14.865994
15.645623
16.326904
16.999841
17.289519
18.038750
18.318892
18.507838
18.200874
17.894506
17.443895
17.168522
17.140508
15.838742
14.751554
14.998913
14.944673
14.828444
14.657974
14.074445
13.780594
13.684630
13.847947
13.600588
13.814569
13.301969
12.823939
13.351440
12.494922
##ZVALUE=290
1.167655
0.889897
0.887513
1.080632
1.004934
1.074672
1.033545
1.152754
1.284480
1.196861
1.176596
1.345873
1.205802
1.368523
1.432896
1.431704
1.356602
1.616478
1.906753
1.703501
1.741648
1.986623
2.219677
2.427697
2.880692
3.146529
4.476905
16.851425
85.594654
205.139518
488.354564
833.707452
1015.861630
1015.861630
1015.861630
1015.861630
1015.861630
1015.861630
1015.861630
1015.861630
793.857574
396.858454
202.728510
71.643591
38.063526
38.486719
52.426457
75.260997
94.652772
121.658444
135.655999
144.419670
142.496824
127.836466
111.771822
84.902644
64.466000
42.644739
31.512976
21.905899
17.027855
14.365911
13.924837
13.644695
13.317466
13.508797
13.336539
14.436841
14.933944
15.517473
15.910864
16.846657
16.968846
17.814636
17.882586
17.091632
17.281771
16.984940
15.917420
15.875697
15.625954
14.670491
14.915466
15.030503
14.965534
14.268756
14.151931
14.028549
13.946891
14.394522
14.158487
14.071465
13.405681
13.293624
13.131499
12.904406
##ZVALUE=295
1.069903
0.929832
1.090765
1.165867
1.053810
1.049638
1.144409
1.184940
1.050830
1.156926
1.232624
1.472831
1.152754
1.212955
1.236796
1.406670
1.379848
1.335740
1.637936
1.632571
1.717806
1.689792
2.026558
1.843572
2.070665
2.563596
2.725720
3.112555
3.351569
6.796718
26.039481
124.040842
292.262435
683.141947
1015.355587
1015.945673
1015.945673
1015.945673
1015.945673
1015.945673
1015.945673
1015.945673
994.984508
548.126698
293.352604
103.344917
46.523809
26.806593
32.771826
49.246550
67.183971
93.236566
109.182000
128.224492
135.639906
133.343935
124.560595
103.182793
83.577633
60.058832
45.150518
28.958917
22.080541
16.438961
13.766885
13.345480
12.919903
13.498664
13.909936
14.368892
15.086532
16.276836
17.080903
16.857982
17.294884
16.239882
16.582608
15.701652
16.026497
14.870763
14.543533
14.857650
14.528632
14.584661
14.192462
14.713407
14.356971
14.127493
13.833642
14.382601
13.581514
13.232827
13.356805
13.387799
12.636781
12.874603
##ZVALUE=300
0.877976
0.816584
0.925660
1.028776
0.886917
1.246929
1.121759
1.047850
1.145601
1.170635
1.266599
1.101494
1.174808
1.221895
1.256466
1.173615
1.255870
1.430511
1.471639
1.465678
1.365542
1.637936
1.619458
1.749992
1.907945
1.765490
2.182722
2.609491
2.437830
2.771616
3.471971
3.937483
18.327832
67.305565
231.709480
452.173948
926.848650
1015.861630
1015.861630
1015.861630
1015.861630
1015.861630
1015.861630
1015.861630
1015.861630
836.464763
417.417884
224.022865
77.118874
31.854510
22.776723
29.032826
44.208765
59.654713
83.767772
102.134943
122.709870
129.410625
128.086805
119.358897
100.086927
83.238482
60.957670
44.430494
29.726624
22.331476
16.187429
13.953447
13.992786
13.400912
14.249682
14.677644
15.332699
15.426874
15.759468
15.489459
15.123487
14.576912
14.464855
14.436841
14.174581
14.028549
14.110804
14.101863
14.048815
13.849735
14.019608
13.739467
13.575554
13.714433
13.336539
12.924671
12.786984
12.297630
12.598634
13.034940
##ZVALUE=305
1.091957
1.043677
1.134872
0.923872
1.183748
1.042485
1.004934
1.153946
1.122952
1.299977
1.157522
1.300573
1.300573
1.361966
1.315475
1.326799
1.246929
1.314878
1.421571
1.564622
1.579523
1.580715
1.783967
1.651645
1.776814
1.962781
1.987815
2.201796
2.298951
2.477765
2.466440
2.817512
3.346801
3.691912
7.156730
45.639873
129.735470
370.409489
674.768686
1016.037464
1016.037464
1016.037464
1016.037464
1016.037464
1016.037464
1016.037464
1016.037464
1016.038060
698.194504
315.889716
147.161484
43.867826
20.550489
21.393895
27.959943
43.461919
58.652759
81.150532
97.845793
115.347505
123.717785
120.904446
113.587976
95.565915
79.732537
56.805611
43.488741
29.379725
22.090673
16.718507
15.402436
14.696717
15.508533
15.228987
15.052557
14.686584
14.647841
14.153719
13.855696
13.963580
13.614893
13.547540
14.382601
13.989806
13.584495
14.002919
13.518929
13.463497
13.286471
13.761520
13.013482
13.037920
12.874603
12.680888
12.567639
12.473464
##ZVALUE=310
0.844598
0.942945
0.854731
0.779629
0.832677
0.917912
1.015663
0.881553
0.956655
0.928640
1.173615
1.021624
1.133680
0.943542
1.212955
1.193881
1.238585
1.086593
1.068711
1.212955
1.137853
1.349449
1.395941
1.214743
1.454949
1.622438
1.771450
1.553893
1.889467
2.162457
2.178550
2.112985
2.526641
2.493858
3.042817
3.256798
4.046559
21.111965
71.309805
235.293508
463.754535
951.911807
1015.861630
1015.861630
1015.861630
1015.861630
1015.861630
1015.861630
1015.861630
1015.861630
965.621471
487.407446
254.957676
82.753897
30.504465
16.305447
18.305779
26.306510
36.702752
54.187775
70.462823
92.417002
104.640722
114.641786
115.312934
106.569529
96.940994
77.024698
60.363412
41.102767
32.247901
23.470521
18.839836
15.600920
14.261603
13.882518
13.491511
13.464689
12.670755
12.856722
12.360811
12.533665
12.963414
13.123751
13.159513
12.659431
12.979507
12.888908
13.182759
12.929440
12.311935
12.168884
12.058616
11.833906
11.776686
11.591911
##ZVALUE=315
0.920892
0.880957
0.719428
1.024604
0.927448
0.884533
0.711679
0.888705
1.044869
0.998974
0.978708
0.829697
1.034737
0.992417
1.053810
1.060963
0.878572
1.106858
1.157522
0.995994
1.152754
1.233816
1.258850
1.459718
1.324415
1.484752
1.476407
1.670718
1.674891
1.826882
1.917481
2.016425
1.910925
2.183914
2.394915
2.513528
2.834797
3.410578
3.698468
9.729862
39.515495
165.113807
353.807807
788.148642
1015.861630
1015.861630
1015.861630
1015.861630
1015.861630
1015.861630
1015.861630
1015.861630
1015.861630
693.900585
371.943712
128.873587
48.158765
16.336441
14.137626
17.696619
22.903681
35.976768
46.888590
67.438483
82.037449
100.548863
107.842684
109.409690
102.991462
89.866519
75.697899
56.426525
43.627620
29.334426
22.529960
16.634464
14.591813
13.190508
12.843609
12.653470
12.123585
11.981726
12.251735
12.455583
11.948943
12.038946
12.397766
12.506843
12.103915
12.175441
12.286901
11.702776
11.700988
11.616945
11.149645
11.422634
##ZVALUE=320
0.828505
0.717640
0.799894
0.823736
1.018643
0.811815
0.947714
0.974536
0.820756
0.845790
0.788569
0.706911
0.917912
0.857711
0.835657
0.920892
1.116991
1.127720
1.087785
1.042485
1.193881
1.188517
1.214743
1.263618
1.343489
1.193881
1.439452
1.329780
1.430511
1.462698
1.442432
1.629591
1.938939
1.798868
2.037883
1.946688
2.227426
2.753735
2.967715
3.225803
3.661513
4.777908
17.839670
101.265907
243.482590
609.695911
979.050994
1015.843749
1015.843749
1015.843749
1015.843749
1015.843749
1015.843749
1015.843749
1015.843749
923.620462
513.397455
202.473998
83.985925
23.934841
13.759732
13.481975
16.044974
21.869540
30.211806
46.164989
59.783459
79.079866
91.204643
104.238987
104.906559
98.171830
88.198781
69.274902
55.799484
40.377975
29.884577
20.401478
16.430616
12.684464
12.058616
12.185574
11.652708
11.615753
11.861920
11.897683
11.756420
11.471510
11.811852
11.462569
11.538863
11.415482
11.286736
10.918975
10.911822
10.985732
##ZVALUE=325
0.922680
0.830889
0.916719
0.729561
0.816584
0.934601
0.733733
0.593662
0.868440
0.873804
0.638962
0.865459
0.941753
0.922680
0.932813
1.106858
1.005530
1.040697
1.053810
1.016855
1.044869
1.019835
0.994802
1.176596
1.205802
1.140833
1.337528
1.254678
1.279712
1.230836
1.326799
1.527667
1.552701
1.842976
1.653433
2.004504
2.077818
2.066493
2.303720
2.490878
2.964735
3.169775
3.328919
4.266500
8.353591
57.482719
163.027644
445.901752
801.255703
1015.861630
1015.861630
1015.861630
1015.861630
1015.861630
1015.861630
1015.861630
1015.861630
1015.861630
675.965548
301.355720
132.730603
34.744740
15.670657
12.258887
12.702942
15.540719
20.259619
30.488968
42.869449
60.638785
74.853897
89.854598
97.904801
99.062920
93.673468
79.638958
66.067576
49.880743
38.280487
25.807619
19.857883
14.471412
12.811422
11.996627
11.306405
11.439919
11.395812
11.311769
11.644959
11.594892
11.159778
10.826588
10.958910
10.474920
10.835528
10.860562
##ZVALUE=330
0.678897
0.727773
0.842810
0.855923
0.784993
0.876784
0.733733
0.784993
0.868440
0.895858
0.886917
0.845790
1.050830
0.999570
0.846982
0.963807
0.760555
0.985861
0.894666
0.979900
0.921488
0.979900
0.947714
0.997782
0.997782
1.130700
1.162887
1.125932
1.176000
1.139641
1.144409
1.130700
1.176596
1.741648
1.580715
1.542568
1.706481
1.811981
1.938939
2.135634
2.126694
2.461672
2.668500
2.805591
3.105998
3.982782
5.198717
26.678443
88.408589
294.202566
565.667748
1015.861630
1015.861630
1015.861630
1015.861630
1015.861630
1015.861630
1015.861630
1015.861630
1015.861630
899.947882
406.383872
199.183822
62.960982
22.904873
11.824965
11.473894
12.218952
15.091896
20.736456
28.797984
41.938424
55.140853
73.534846
84.692836
92.123747
92.508793
85.854530
77.096820
60.003996
47.787428
33.578873
25.746822
19.137859
15.938878
12.839437
11.978745
11.019707
10.880828
10.790825
10.429621
10.745525
10.321736
10.365844
10.446906
10.026693
##ZVALUE=335
0.751615
0.723600
0.838637
0.680685
0.892878
0.761747
0.916719
0.875592
0.679493
0.818968
0.874996
0.814795
0.663996
0.744462
0.992417
0.859499
0.818968
1.046658
1.023412
0.970960
0.941753
0.766516
0.929832
0.986457
0.978708
0.795722
1.080632
1.007915
1.147985
1.190901
1.141429
1.401901
1.459718
1.282692
1.415610
1.493692
1.542568
1.449585
1.693964
2.005696
1.808405
1.976490
2.211928
2.393723
2.573729
2.924800
3.200769
3.723502
4.223585
12.190938
47.808886
198.569894
417.895913
928.097963
1015.861630
1015.861630
1015.861630
1015.861630
1015.861630
1015.861630
1015.861630
1015.861630
1015.861630
609.663725
308.290720
98.292828
35.176873
13.572574
11.795759
11.858940
12.896657
15.628934
20.247698
29.304624
39.148927
54.106712
66.671968
78.708529
84.089637
86.658597
81.663728
70.516467
60.030818
45.081973
35.609603
25.232434
19.613504
14.610887
12.782812
11.301637
10.643601
10.383725
10.079741
10.263920
9.928942
9.998679
##ZVALUE=340
0.711679
0.619888
0.620484
0.699759
0.758767
0.711679
0.671744
0.680685
0.904799
0.667572
0.854731
0.806451
0.616908
0.782609
0.960827
0.804663
0.788569
0.771880
0.840425
0.817776
0.941753
0.803471
0.853539
0.923872
0.954866
0.917912
0.969768
1.075864
1.167655
1.075864
1.244545
1.030564
1.278520
1.106858
1.267791
1.364946
1.350641
1.439452
1.479983
1.403689
1.553893
1.844764
1.823902
1.912713
2.168417
2.216697
2.594590
2.972484
3.260970
3.523827
3.636479
6.260872
23.001432
117.861629
288.864970
722.191930
1015.859842
1015.859842
1015.859842
1015.859842
1015.859842
1015.859842
1015.859842
1015.859842
1015.859842
797.919035
423.889756
149.042010
54.627657
16.263723
12.664795
12.055635
12.115836
13.009906
15.011430
19.851923
26.417971
37.510991
47.922730
62.682629
72.868466
80.493689
81.265569
75.882673
69.030523
55.979490
45.229793
33.554435
25.579929
18.719435
14.785528
11.771917
10.549426
10.054708
9.957552
9.719729
##ZVALUE=345
0.623465
0.690818
0.781417
0.689626
0.758767
0.695586
0.546575
0.702739
0.746846
0.655651
0.662804
0.763535
0.717640
0.808835
0.884533
0.727773
0.957847
0.825524
0.881553
0.897646
0.782609
0.881553
0.784993
1.223683
0.884533
1.025796
1.000762
1.093745
1.006722
0.981688
1.061559
1.125932
1.164675
1.213551
1.234412
1.242757
1.348853
1.253486
1.546741
1.472831
1.591444
1.405478
1.568794
1.890659
1.772642
1.969934
2.093911
2.332926
2.533793
2.431870
2.694726
3.327727
3.601909
4.326701
10.240674
68.737864
197.589993
527.769923
939.280987
1015.854478
1015.854478
1015.854478
1015.854478
1015.854478
1015.854478
1015.854478
1015.854478
997.563004
588.804483
224.770904
94.893575
26.663542
14.242530
12.732744
12.009740
11.218786
11.247993
13.622642
17.239451
25.051832
33.486485
46.890974
55.890679
66.591501
72.521567
74.997544
71.858764
64.743757
55.574775
43.822527
35.081506
24.071932
18.629432
13.980865
11.977553
10.364652
##ZVALUE=350
0.709891
0.863671
0.690818
0.778437
0.812411
0.752807
0.821948
0.775456
0.855923
0.793934
0.722408
0.853539
1.033545
0.671744
0.788569
0.755787
0.967979
0.774860
0.911951
1.058578
0.933409
0.907779
1.040697
0.912547
0.936985
0.977516
1.056790
1.122952
1.064539
1.115799
1.057982
1.132488
1.235604
1.216531
1.244545
1.162887
1.308918
1.281500
1.344681
1.404881
1.402497
1.360774
1.510978
1.766682
1.593828
1.721978
1.890659
2.216697
1.989603
2.359748
2.194643
2.666712
2.811551
3.255606
3.509521
4.118681
6.122589
34.210682
110.146999
349.002481
669.790506
1015.868783
1015.868783
1015.868783
1015.868783
1015.868783
1015.868783
1015.868783
1015.868783
1015.868783
796.135664
340.569615
148.959756
36.860704
15.743971
11.682510
10.806918
10.443926
10.047555
10.600686
12.086630
17.106533
21.341443
30.869842
39.494634
51.703453
58.921576
66.833496
69.049001
66.750646
60.765743
51.271915
42.310953
31.892657
25.310516
18.051863
##ZVALUE=355
0.845790
0.874996
0.877976
0.773668
0.842810
0.756979
0.866652
0.716448
0.911951
0.843406
0.748634
0.891685
0.776649
0.882745
0.988841
1.008511
0.937581
0.829697
0.853539
1.096725
0.925660
0.998974
0.891685
0.939965
1.031756
1.009703
1.060963
1.025796
1.050830
1.124740
1.172423
1.224875
1.219511
1.237988
1.242757
1.123548
1.245737
1.178980
1.377463
1.363754
1.431704
1.647472
1.610518
1.555681
1.612902
1.697540
1.956820
1.985431
2.195835
2.032518
2.268553
2.386570
2.445579
2.670884
2.837777
3.227592
3.322959
3.976822
4.413724
16.550422
63.616633
239.738822
488.151908
977.669954
1015.872955
1015.872955
1015.872955
1015.872955
1015.872955
1015.872955
1015.872955
1015.872955
963.833928
419.124961
192.693472
53.155422
19.172430
11.099577
10.449886
9.824634
9.421706
9.403825
9.812713
11.297464
14.190674
19.519925
25.200844
35.447478
43.507814
53.175688
59.309602
62.944889
61.734915
55.826902
49.308538
39.241910
##ZVALUE=360
0.776649
0.701547
0.704527
0.900626
0.919700
0.931621
0.830889
0.874996
0.779629
0.927448
0.741482
0.963807
1.016855
0.820756
0.838637
0.860691
0.875592
0.984669
0.881553
0.926852
0.987649
0.992417
1.103878
1.056790
1.068711
0.994802
1.071692
1.053810
1.068711
1.074672
1.192689
1.207590
1.244545
1.184940
1.289845
1.424551
1.320839
1.324415
1.259446
1.287460
1.470447
1.620650
1.432896
1.460910
1.557469
1.691580
1.867414
1.797676
1.856685
2.037883
2.147555
2.247691
2.086759
2.236962
2.538562
2.591610
2.995729
3.228784
3.558993
3.868937
4.425645
7.370710
26.589632
126.571655
309.596658
756.846666
1015.861630
1015.861630
1015.861630
1015.861630
1015.861630
1015.861630
1015.861630
1015.861630
1015.861630
566.105843
286.228657
100.853443
34.320951
11.973977
10.165572
9.574890
9.031892
8.861423
8.612871
8.754730
9.470582
12.365580
15.178919
21.982789
28.489828
38.054585
45.029521
52.942634
56.109428
56.545734
##ZVALUE=365
0.821948
0.762939
0.766516
0.868440
0.922680
0.871420
0.771880
0.837445
0.854731
0.793934
0.886917
0.855923
0.947714
1.001954
0.809431
0.783801
0.936985
1.014471
1.111627
0.904799
0.948906
0.864863
0.976920
0.928640
1.129508
1.184940
0.869632
1.006722
1.070499
1.033545
1.138449
1.052618
0.965595
1.152754
1.123548
1.224875
1.147985
1.344681
1.294613
1.334548
1.363754
1.471639
1.389980
1.558661
1.452565
1.509786
1.382828
1.628995
1.741648
1.762509
1.764894
1.982450
1.893640
2.130866
2.247691
2.320409
2.462864
2.617836
2.814531
3.017783
3.479719
4.181862
4.206896
5.399585
11.216998
73.993802
204.159617
538.354516
960.093737
1015.861630
1015.861630
1015.861630
1015.861630
1015.861630
1015.861630
1015.861630
1015.861630
795.347095
418.340564
143.820643
53.435564
14.109612
10.168552
8.976460
8.782744
8.263588
7.959604
7.789731
7.656813
8.565784
9.833574
13.560653
17.615557
25.199652
31.477809
40.402412
##ZVALUE=370
0.752807
0.800490
0.789762
0.751615
0.816584
0.795722
0.671744
0.710487
0.772476
0.970960
0.868440
0.712872
0.921488
0.976920
0.813603
0.999570
0.720620
0.775456
0.855923
0.947714
0.728965
0.746846
1.027584
0.970960
1.032948
1.081824
0.949502
1.002550
1.070499
1.002550
0.944734
0.977516
1.061559
1.154542
0.898838
1.138449
1.275539
1.349449
1.002550
1.147985
1.249909
1.141429
1.313686
1.369715
1.370907
1.361966
1.445413
1.482964
1.659989
1.541972
1.619458
1.722574
1.675487
1.833439
1.884699
1.934767
2.051592
2.161860
2.423525
2.552867
2.633929
3.020763
3.315806
3.760457
4.033446
4.641414
6.616712
37.293434
129.538774
420.758724
777.473450
1015.861630
1015.861630
1015.861630
1015.861630
1015.861630
1015.861630
1015.861630
1015.861630
974.358916
555.136800
206.869841
88.893771
26.246905
11.369586
9.038448
8.224845
7.635951
7.315874
7.068515
7.111430
6.937981
7.337928
8.790493
10.913610
15.812516
##ZVALUE=375
0.786781
0.756979
0.810623
0.700951
0.734925
0.734925
0.789762
0.785589
0.709891
0.611544
0.715852
0.757575
0.793934
0.880957
0.704527
0.625849
0.798702
0.796914
0.783801
0.720620
0.751615
0.866652
0.874996
0.851750
0.802875
0.908971
0.858903
0.952482
0.876784
0.836849
0.829697
1.048446
0.946522
0.886917
0.951886
0.885725
1.071692
0.990629
0.976920
0.982881
1.045465
1.072884
1.130700
1.167655
1.129508
1.071692
1.145601
1.384616
1.352429
1.363754
1.297593
1.207590
1.462698
1.388788
1.588464
1.611710
1.700521
1.904964
1.879930
1.961589
2.153516
2.124906
2.254844
2.726912
2.867579
3.149509
3.464818
4.288554
4.996657
17.652512
67.636967
261.430740
561.084747
1015.861034
1015.861034
1015.861034
1015.861034
1015.861034
1015.861034
1015.861034
1015.861034
1015.861034
841.685534
373.251438
181.563497
53.156614
18.325448
8.687973
7.999539
7.642508
7.106662
6.793737
6.452799
6.355643
6.148815
6.743670
##ZVALUE=380
0.656843
0.764728
0.654459
0.778437
0.812411
0.698566
0.735521
0.666976
0.768900
0.815988
0.649691
0.831485
0.811815
0.587702
0.831485
0.659823
0.700951
0.739694
0.564456
0.741482
0.711679
0.775456
0.860691
0.755787
0.840425
0.819564
0.749826
0.847578
0.778437
0.758767
0.883937
0.699759
0.754595
0.803471
0.929832
0.860691
0.770688
0.895858
0.921488
0.999570
0.815988
1.149774
1.017451
1.104474
1.097918
1.158714
1.004934
1.220703
1.296997
1.139641
1.116991
1.227856
1.424551
1.427531
1.298785
1.436472
1.518726
1.612902
1.573563
1.604557
1.695752
1.961589
2.116561
2.178550
2.434850
2.517700
2.713799
3.277659
3.829598
4.624724
4.995465
8.990765
37.416816
193.295479
453.893542
985.730886
1015.856862
1015.856862
1015.856862
1015.856862
1015.856862
1015.856862
1015.856862
1015.856862
1015.856862
575.710535
286.529660
94.868541
34.407973
10.652542
7.779598
6.988645
6.622672
6.405711
6.112456
6.057620
##ZVALUE=385
0.612736
0.503659
0.531673
0.651479
0.568628
0.594854
0.736713
0.472665
0.503659
0.618696
0.532866
0.531673
0.538826
0.507832
0.610948
0.678897
0.781417
0.712872
0.770688
0.821948
0.573993
0.666976
0.710487
0.542998
0.512600
0.676513
0.586510
0.682473
0.789762
0.554919
0.698566
0.623465
0.620484
0.891685
0.839829
0.690818
0.986457
0.618696
0.820756
0.980496
0.864863
0.920892
0.736713
0.811815
1.042485
1.077652
0.969768
0.960827
0.946522
1.041889
1.145601
1.104474
1.236796
1.166463
1.234412
1.291633
1.405478
1.409650
1.290441
1.419783
1.562834
1.638532
1.635551
1.785755
1.983643
2.181530
2.323985
2.575517
2.956986
3.293753
3.917813
4.126430
4.820824
5.764961
15.496612
104.943514
281.842947
722.665787
1015.817523
1015.817523
1015.817523
1015.817523
1015.817523
1015.817523
1015.817523
1015.817523
1015.817523
820.828676
458.710790
182.382464
68.248510
14.890432
7.962584
6.955862
6.337762
6.114841
##ZVALUE=390
0.507832
0.650883
0.472665
0.586510
0.457764
0.653863
0.745654
0.611544
0.618696
0.637770
0.715852
0.755787
0.786781
0.634789
0.713468
0.777841
0.736713
0.710487
0.484586
0.588894
0.485778
0.602603
0.620484
0.569820
0.772476
0.702739
0.767708
0.698566
0.571609
0.712872
0.796914
0.768900
0.783801
0.778437
0.839829
0.952482
0.870824
0.829697
0.843406
0.783801
0.945926
0.805855
0.848770
0.857711
1.022816
1.075864
0.989437
1.062751
1.090765
1.063943
1.048446
1.159906
1.069903
1.224875
1.176000
1.214743
1.331568
1.276731
1.383424
1.503825
1.527667
1.434684
1.586676
1.735687
1.741648
1.992583
2.183914
2.430677
2.759695
3.051758
3.455877
3.555417
3.821850
4.111528
4.248619
4.579425
7.429719
52.073002
177.201629
557.594895
986.014605
1015.861630
1015.861630
1015.861630
1015.861630
1015.861630
1015.861630
1015.861630
1015.861630
1015.861630
678.038597
269.425511
116.422772
27.362704
10.241866
6.687641
##ZVALUE=395
0.536442
0.583529
0.589490
0.606775
0.638962
0.559688
0.545979
0.586510
0.663996
0.523925
0.814795
0.663996
0.675917
0.636578
0.641942
0.756979
0.653863
0.618696
0.809431
0.670552
0.745654
0.559688
0.744462
0.556707
0.900626
0.745654
0.625849
0.721812
0.731945
0.739694
0.708699
0.722408
0.793934
0.732541
0.765920
0.755787
0.788569
0.895858
0.692606
0.956655
0.679493
1.052618
0.949502
0.875592
0.827909
0.957847
1.034737
0.987649
0.978708
0.968575
1.117587
1.191497
1.197457
1.260638
1.223683
1.206994
1.327991
1.239777
1.344681
1.319647
1.478791
1.676679
1.610518
1.672506
1.883507
1.979470
1.953840
2.363920
2.586842
2.816916
3.023744
3.226995
3.272891
3.354549
3.439784
3.507733
3.620982
4.271865
5.501509
25.958419
106.097460
389.558673
758.854747
1015.861630
1015.861630
1015.861630
1015.861630
1015.861630
1015.861630
1015.861630
1015.861630
1015.861630
879.966021
370.309949
170.990825
49.573779
##ZVALUE=400
0.550747
0.496507
0.585914
0.515580
0.584722
0.601411
0.645518
0.572801
0.547767
0.548959
0.568628
0.532866
0.569820
0.620484
0.627637
0.612736
0.499487
0.700951
0.648499
0.663996
0.700951
0.563860
0.563860
0.682473
0.600815
0.566840
0.874996
0.756979
0.728965
0.734925
0.999570
0.809431
0.856519
0.983477
0.900626
0.820756
0.756979
0.878572
0.916719
0.916719
0.776649
0.837445
0.905991
0.975728
0.823736
1.088977
0.897646
0.955462
1.044869
1.040697
1.045465
1.103878
1.040697
1.057982
1.038909
1.146793
1.147985
1.097918
1.379848
1.449585
1.314878
1.380444
1.453757
1.480579
1.754761
1.784563
2.024770
2.323985
2.323985
2.714992
2.695918
2.941489
3.050566
2.923608
3.000498
3.091693
3.028512
3.385544
3.621578
4.300475
4.837513
13.448000
53.179860
221.373439
499.847531
1015.857458
1015.857458
1015.857458
1015.857458
1015.857458
1015.857458
1015.857458
1015.857458
1015.857458
1015.857458
557.850599
##END
