##TITLE=AAI0801
##FORMAT=SPECTACLE-ASCII V-1.2
##DATA TYPE=ULTRAVIOLET SPECTRUM
##SECOND TYPE=ULTRAVIOLET SPECTRUM
##DATE=03/22/18
##TIME=12:42:22
##SPECTROMETER/DATA SYSTEM=SPECTACLE
##XUNITS=NM EM
##YUNITS=ENERGY
##YFACTOR=1
##FIRSTX=220
##LASTX=410
##NPOINTS=96
##3DDATA=Equidistant
##ZUNITS=NM EX
##FIRSTZ=210
##LASTZ=400
##ZPOINTS=39
##XYDATA=(Y..Y)
##ZVALUE=210
4.548430
3.597736
3.899932
3.900528
3.553629
4.429817
3.928542
3.792644
3.462434
2.874732
3.095865
2.780557
2.564788
2.652407
2.327561
2.907515
2.897978
3.018975
2.974868
2.902746
3.504753
3.870726
3.293753
4.107952
3.339648
4.013777
5.014539
4.164577
4.581809
4.531741
4.482865
5.289912
4.942417
5.385876
5.227923
6.211996
5.100965
6.370544
5.771518
6.086826
6.384850
5.643964
5.974770
5.253553
5.355477
6.506443
6.274581
7.219911
7.288456
6.569624
6.296635
7.031560
6.658435
7.814765
7.173419
7.598996
7.090569
6.523728
8.288622
7.670522
8.570552
7.134676
8.174777
8.739829
8.736849
8.956790
9.551644
10.409951
10.373592
12.029409
14.240742
16.958714
17.299652
21.948814
22.895932
23.990870
22.992492
24.162531
23.157597
20.273924
19.432902
15.957952
15.293956
14.382601
12.267828
9.255409
8.012652
7.700920
7.958412
8.266568
7.627606
8.147955
7.787943
8.239746
8.869767
8.549690
##ZVALUE=215
13.584495
15.224814
12.975931
9.752512
7.939935
7.773638
7.266998
7.578731
8.815527
7.008910
6.612539
5.641580
4.464984
3.272891
3.768802
3.025532
3.074408
2.625585
3.151894
3.548861
3.230572
3.708601
3.532767
3.888607
4.530549
4.831553
4.667640
5.786419
5.210638
4.762411
5.021691
5.724430
6.053448
5.509853
5.567670
6.014705
5.617738
5.871654
5.731583
5.314946
5.560517
6.610751
6.192923
7.180572
6.579757
6.694794
6.913543
8.062720
7.188916
7.469654
6.673932
7.874966
7.558465
8.018613
6.851554
7.893443
7.347465
8.340478
6.717443
8.415580
7.564425
7.809997
6.893873
9.227991
8.039474
7.886887
9.448528
9.761453
10.748506
11.507869
15.632510
17.016530
18.000603
20.267963
22.161603
21.156669
21.796823
20.743608
19.790530
20.870566
19.734502
17.480850
15.025735
13.782978
12.425780
9.877682
8.805990
8.409619
7.888675
6.446838
6.902814
7.511973
6.342530
7.427931
7.107854
6.987453
##ZVALUE=220
47.077537
44.004917
45.939684
43.217540
37.289858
28.090477
24.265647
18.214583
15.077591
14.442801
15.750527
15.060902
14.336705
13.783574
11.364818
9.681582
6.759763
5.342960
4.681945
3.657937
4.095435
4.570484
4.267693
4.658699
5.189776
5.471706
4.608631
5.524755
5.276799
5.787611
5.621910
5.744696
6.137490
6.023645
5.773902
5.754828
6.706715
6.910563
6.433725
6.329417
6.978512
6.412864
6.911755
7.452965
6.820560
7.026792
6.990433
7.712841
7.826686
8.057952
7.154942
7.978678
7.875562
7.997751
7.314682
7.363558
9.031892
8.767843
8.421540
8.362532
8.553863
7.170439
8.412600
8.030534
8.474588
8.534789
9.942651
10.448694
11.370778
11.783838
13.854504
15.899539
17.723441
21.449924
22.319555
20.937920
21.690726
22.185445
19.893646
18.405914
17.896891
17.150640
14.777780
13.444424
11.995435
10.106564
9.332895
8.206964
8.408427
7.906556
7.710457
6.928444
8.437634
7.941723
7.325411
7.721782
##ZVALUE=225
76.960921
80.100894
97.825527
111.214519
115.811825
107.220411
97.836852
72.449446
57.430863
44.732690
32.115579
30.012727
29.369593
29.024482
28.683543
28.307438
22.754669
19.318461
14.239550
9.789467
6.803870
6.274581
5.464554
5.155802
5.195737
5.193949
5.605817
5.878806
5.723834
5.625486
6.071925
6.809831
6.066561
6.636977
7.725954
7.252693
7.012486
6.898642
8.020997
7.404685
7.100701
7.629991
7.940531
7.279515
8.267760
8.058548
8.082986
8.564591
7.696748
7.951856
8.943677
8.706450
8.896589
8.386970
8.402467
8.723736
8.029938
8.519888
10.809898
9.431839
9.402633
10.413527
9.830594
9.419918
10.270476
10.332465
10.772943
11.958480
12.542605
13.051629
13.810992
17.002821
17.371774
18.865466
19.145608
20.806789
20.986795
19.276738
18.557906
16.546845
15.502572
14.826655
13.605952
11.105537
11.453629
10.654926
10.413527
9.625554
8.406639
7.676482
8.917451
8.526444
8.971691
8.100867
8.974671
8.567572
##ZVALUE=230
62.717795
67.052841
101.595521
159.879923
196.844935
234.045982
250.377655
238.017440
211.716890
172.978640
118.828416
84.432960
56.439638
51.581860
52.143931
52.537918
52.363873
48.693419
45.503974
37.361979
29.145479
18.991828
13.522506
8.854866
6.635785
6.372929
5.103946
6.439686
7.168651
6.290674
6.950498
6.679893
6.873608
6.622672
7.489920
7.356405
7.408857
7.344484
8.765459
7.051826
7.884502
7.052422
7.702708
7.736683
8.133650
8.636713
8.132458
8.144975
7.659793
9.188652
9.194613
8.333921
8.644462
8.725524
9.582639
9.159446
9.395480
9.277463
9.976625
10.142922
9.572506
11.804700
10.507703
10.670424
9.990931
12.045503
10.888577
12.417436
12.692809
14.429688
15.838742
17.839670
18.871427
19.844770
21.532774
20.609498
19.072890
19.420981
17.581582
18.196702
16.160607
14.642477
14.153719
13.271570
11.403561
12.235641
10.294914
10.557771
10.210872
10.185838
10.165572
10.271668
9.617805
9.940863
8.513927
10.138750
##ZVALUE=235
19.329786
25.017858
50.630569
115.422606
181.090832
267.030597
346.606970
422.247648
445.040464
441.293716
373.509526
305.122733
205.138922
148.582458
100.243688
83.495975
72.271824
78.254938
80.771446
82.810521
77.655911
61.393976
50.292611
38.303733
26.477575
15.414953
11.068583
7.812977
6.752610
7.120967
7.595420
8.227825
7.069707
7.086992
7.719994
7.999539
7.451773
8.093715
7.848740
7.189512
7.505417
7.880926
8.343458
8.259416
8.761883
8.439422
7.931590
8.276701
9.165406
8.322597
8.897781
8.739829
9.434819
9.034872
9.645820
9.727478
10.324717
10.560751
11.090636
11.267662
10.641813
10.885000
10.625720
11.679530
10.801554
12.509823
12.078881
13.581514
13.110638
14.612675
16.909838
18.459558
22.920966
22.916794
20.904541
22.400618
20.833611
21.201968
18.680692
18.275976
18.328428
16.908646
14.811754
13.293624
15.038848
14.271736
13.440847
12.774467
11.289716
11.981726
11.110902
10.514855
10.859966
9.911656
11.420846
10.802746
##ZVALUE=240
2.899766
2.826452
9.116530
23.866892
68.902969
124.256611
238.942504
348.406434
507.611632
601.298809
672.769547
661.307573
609.986782
470.388532
366.804004
234.652758
164.162517
114.747882
96.645951
101.783872
110.804439
114.337802
111.047626
100.319982
78.493953
66.740513
44.109821
31.034946
18.983483
14.734864
11.895895
8.779764
7.995963
8.677840
8.817911
8.945465
8.109808
8.152723
8.663535
8.455515
7.867813
9.025931
7.861853
8.235574
9.021759
8.493662
9.169579
8.888841
9.592772
8.966923
8.393526
9.014606
9.169579
9.429455
9.470582
10.333657
9.897947
10.509491
10.588765
11.031628
10.627508
11.348724
11.308789
10.931492
11.646748
11.464953
12.609959
12.658834
14.576912
15.614629
16.973615
18.267632
20.379424
22.601485
22.229552
22.691488
22.399426
19.497871
22.348762
19.460917
19.560456
17.044544
16.259551
16.167760
14.423728
14.895797
14.371872
14.819503
14.331937
14.861822
13.217926
12.898445
12.716651
13.535619
12.651682
12.756586
##ZVALUE=245
1.799464
1.891851
1.929998
1.985431
4.702806
19.584894
49.031973
123.830438
223.004818
348.667502
537.457466
683.418512
794.887543
814.870000
760.377645
672.729611
492.370725
363.617539
252.000690
152.403712
110.783577
98.594427
108.239651
121.460557
125.432611
123.053789
107.514858
90.728998
72.783828
50.736666
36.137700
21.545887
16.110539
10.416508
8.721948
8.094907
8.429885
8.023977
8.131862
7.806420
8.263588
7.264614
7.070899
7.708669
7.096529
7.809997
7.476807
6.867647
7.307529
7.799864
7.480979
7.850528
7.949471
8.023977
7.978678
7.994771
8.089542
9.185672
8.500814
8.802414
9.331703
8.630753
8.354783
10.051727
9.747744
10.554790
9.739995
10.651946
11.667609
13.835430
13.889670
16.823411
17.073750
18.705726
18.992424
19.106865
20.032525
18.958449
17.878413
16.817451
15.545487
16.603470
14.470816
14.644861
13.814569
11.930466
13.185740
11.587739
12.294650
11.980534
12.651682
12.536645
12.647510
11.676550
11.639595
11.426806
##ZVALUE=250
1.497865
1.564622
1.740456
1.792908
1.712441
2.086759
2.847910
9.256601
41.857958
90.172887
213.766694
348.840952
513.906479
733.148456
851.529837
953.532457
940.449834
826.275945
708.568692
482.208729
325.775743
212.800503
122.334957
96.922517
100.715756
113.668442
130.282640
132.512450
132.091641
116.929412
102.213621
76.112747
58.777928
37.044883
23.099780
13.145804
10.198951
6.743670
6.816983
6.801486
7.851720
7.705688
7.002950
6.880760
7.116795
6.826520
7.291436
6.491542
6.581545
6.226897
6.240606
6.189942
7.142425
7.298589
6.853938
7.332563
7.452965
7.460713
7.557869
7.818937
7.228851
7.835627
8.533597
7.617474
8.360744
8.873940
8.395910
9.442568
10.611415
11.673570
12.134910
13.821721
14.715791
15.453696
16.265512
16.592741
15.355945
15.991926
15.801787
14.443994
13.971925
13.471842
12.958646
11.422634
12.168884
11.127591
11.092424
10.513663
10.993481
10.013580
9.867549
10.873675
11.200905
11.367798
9.829998
10.381937
##ZVALUE=255
1.211762
1.039505
1.445413
1.414418
1.617670
1.683831
1.649857
1.955628
1.953840
5.244613
26.831627
67.993999
141.740441
304.730535
476.690531
719.454885
875.162482
1015.733480
1015.733480
996.717811
861.977935
687.611699
435.054898
283.830762
148.302913
102.442503
91.017485
99.099874
120.507479
134.360790
140.121579
137.826800
128.211975
98.679662
80.809593
54.561496
37.267804
22.706985
14.069676
9.055734
6.868839
6.473660
6.708503
6.248951
5.957484
6.144643
6.792545
6.842613
6.240606
6.421804
5.645752
6.068945
5.771518
6.290674
6.238818
6.174445
6.097555
6.336570
6.123781
6.511807
6.655455
6.435513
6.610751
6.826520
7.011890
6.822944
7.083416
7.915497
8.745790
9.338856
10.298491
11.066794
12.484789
12.502670
13.153553
14.250875
12.952685
12.582541
12.434721
11.812449
11.543632
10.396838
10.406971
10.281801
9.855628
10.048747
8.800626
9.550452
9.159446
8.998513
9.449720
9.579659
9.662509
8.766651
9.563565
9.753704
##ZVALUE=260
1.315475
1.396537
1.397729
1.375675
1.176000
1.318455
1.725554
1.462698
2.001524
1.906753
2.052784
3.240705
10.529757
44.489503
102.032423
241.499543
397.631526
655.805469
865.585804
1015.861630
1015.861630
1015.861630
1015.861630
863.757730
576.635003
394.108891
220.041871
135.575533
84.202886
82.383752
95.716715
119.885802
133.315921
148.919821
143.973827
127.597451
110.519528
80.338717
58.254600
37.087798
23.465753
13.579726
8.994937
6.724596
5.813837
5.911589
6.173849
6.101727
6.440878
5.603433
5.643964
5.785823
6.026626
5.491972
5.893707
5.689859
6.111860
5.877614
6.020665
6.444454
6.642938
6.498694
6.301999
6.041527
7.154942
6.811619
7.166862
8.172989
8.488894
8.401871
9.442568
10.001659
10.676980
10.824800
11.422634
11.327863
11.663437
11.436939
10.682940
10.360479
9.921789
9.129643
9.447932
9.020567
8.276701
9.350777
8.360744
8.313656
8.031726
8.358955
8.061528
8.200407
8.143783
8.576512
8.344650
8.285642
##ZVALUE=265
1.167655
1.138449
1.303554
1.184940
1.247525
1.151562
1.332760
1.465678
1.487732
1.694560
1.790524
1.934767
2.035499
2.669692
5.671978
29.591918
75.655580
192.309618
343.035460
626.737475
867.477655
1015.861630
1015.861630
1015.861630
1015.861630
1015.861630
769.861937
542.700887
297.527909
177.715421
95.654726
69.993734
79.000592
105.095506
126.419663
146.497488
150.467753
141.666532
130.742788
103.053451
81.479549
55.029988
36.890507
21.275878
14.073849
8.457899
6.527901
6.112456
6.305575
6.081462
5.976558
6.392598
5.583763
5.803704
6.134510
6.217957
6.094575
6.090999
6.486773
5.684495
6.292462
6.092787
6.114841
6.196499
6.505847
6.433725
6.856918
6.832480
7.205606
8.033514
8.516908
9.372830
9.530783
10.322928
10.834932
10.484457
10.274649
9.753704
9.701848
9.078979
9.216666
8.896589
8.828640
8.142591
7.973909
7.627606
8.075833
8.034706
7.966757
7.649660
7.820725
7.975698
7.372499
7.670522
7.934570
7.842779
##ZVALUE=270
1.154542
1.214743
1.081824
0.874996
1.169443
1.119971
0.950694
1.523495
1.429915
1.517534
1.491904
1.523495
1.877546
2.125502
1.842976
2.289414
2.848506
13.753772
43.441653
139.076710
272.305608
475.371480
812.065005
1015.861630
1015.861630
1015.861630
1015.861630
1015.861630
986.516476
743.488669
509.226918
261.875987
146.079659
70.547462
61.903596
80.547929
101.716518
129.261613
142.435431
147.705674
145.781636
130.198002
109.961629
81.852674
60.193539
35.662651
23.853779
13.821721
9.583831
7.009506
6.823540
5.812645
6.089807
6.244779
6.323457
5.775690
6.377697
6.358624
6.176829
6.318688
6.131530
5.896688
6.083846
5.943775
6.651878
6.386638
5.993843
6.711483
7.300973
7.682443
7.945895
8.899570
8.946657
9.703636
9.279847
9.579659
9.602904
8.992553
8.615851
9.410977
7.803440
8.345842
7.398725
7.629991
7.783771
7.196665
7.643700
7.177591
7.555485
7.264614
6.897449
7.190704
7.386804
7.527471
7.562637
7.194877
##ZVALUE=275
1.078844
0.947714
1.261830
1.092553
1.118779
1.141429
1.101494
1.099706
1.113415
1.141429
1.439452
1.540780
1.501441
1.558661
1.692772
1.711845
1.839995
2.151728
2.522469
6.430745
26.329756
75.131655
219.618678
405.718684
740.913749
989.278555
1015.861630
1015.861630
1015.861630
1015.861630
1015.861630
931.295753
661.219954
351.050496
200.880766
86.437464
53.975582
57.874918
74.374676
103.697777
122.018456
144.069791
148.037672
143.373609
130.600929
103.853941
82.153678
57.647824
39.621592
23.922920
15.729666
9.779930
7.748604
6.152987
6.063581
5.666614
6.269813
5.810857
6.289482
6.460547
5.810857
6.410480
5.884767
6.201863
5.971789
6.033778
6.265640
6.369948
6.389618
7.524490
7.778406
8.259416
8.586645
8.710623
9.674430
9.287596
9.614825
8.818507
9.005666
8.774996
8.088946
7.709861
7.477999
7.365942
7.197857
6.599426
7.062554
7.469654
6.790757
6.992817
6.958842
7.050633
7.007718
7.022619
7.050633
6.625652
##ZVALUE=280
0.976920
0.791550
1.074672
1.125932
1.074672
1.136661
1.076460
1.145601
1.240969
1.174808
1.419783
1.244545
1.353621
1.521707
1.345873
1.512766
1.449585
1.609921
1.768470
2.243519
2.495646
3.005862
16.480684
55.523515
177.716613
323.168635
597.177744
858.439803
1015.861630
1015.861630
1015.861630
1015.861630
1015.861630
1015.861630
792.288780
451.141000
269.640684
117.544532
61.967969
42.713881
52.995682
78.598857
99.102855
123.313665
138.862729
146.123767
140.616894
122.733712
106.352568
78.133941
58.619976
37.324429
25.103688
14.487505
9.875894
7.346869
6.347895
6.160736
5.908608
5.987883
5.899668
6.019473
6.210804
6.168485
6.407499
6.474853
6.488562
6.324649
6.880760
7.005930
7.693768
8.122921
8.602738
8.508563
8.434653
8.819699
8.158684
8.120537
8.487701
7.769465
7.457733
7.051826
7.026792
6.876588
7.061958
6.880760
7.197857
7.218719
6.666780
7.013679
6.792545
6.941557
6.830692
6.822944
7.012486
7.212758
##ZVALUE=285
1.000762
1.100898
0.846982
0.837445
1.029968
0.743866
1.147985
1.059771
1.056790
0.850558
1.327991
0.979900
1.333952
1.038909
1.219511
1.293421
1.408458
1.501441
1.575947
1.882911
1.965761
2.002716
2.385974
2.695918
8.665919
31.187534
83.661675
230.147839
402.804613
724.634528
987.660885
1015.861630
1015.861630
1015.861630
1015.861630
1015.861630
981.054902
620.423555
398.135781
192.312002
98.759532
41.729808
34.879446
51.564574
68.655610
98.297000
115.010738
133.282542
141.275525
136.165619
127.794743
104.051828
83.130002
58.124661
40.451884
23.725629
15.553832
9.382963
7.138848
6.432533
6.272793
6.040931
5.460978
6.239414
6.241798
5.993843
6.011724
6.614923
6.859899
7.287860
7.231832
7.603765
8.207560
8.283854
7.961988
8.260608
7.713437
8.062720
7.967949
7.410645
7.380843
6.832480
6.984472
6.857514
6.853938
6.697774
6.793737
6.397963
6.703734
6.715655
6.776452
6.965995
6.494522
6.717443
6.573796
6.840825
##ZVALUE=290
0.808835
0.832677
0.963807
0.876784
0.967979
1.030564
1.020432
0.864863
0.855923
1.051426
1.113415
1.122952
1.038909
1.068711
1.031756
1.221895
1.310706
1.483560
1.170635
1.461506
1.680851
1.875758
1.900792
1.725554
2.065897
2.320409
2.853870
14.352798
45.416951
143.210888
280.052423
576.487780
859.736800
1015.861630
1015.861630
1015.861630
1015.861630
1015.861630
1015.861630
793.194771
524.970889
261.358619
135.091543
50.859451
28.705001
33.069849
45.981407
67.960620
87.091923
111.038685
126.943588
137.543678
132.798553
121.411681
104.992986
78.084469
57.706833
36.802888
24.627447
14.419556
10.170937
7.126927
6.309748
5.565882
5.559921
5.761981
6.042719
6.487966
6.294847
6.881952
6.988645
7.195473
7.533431
8.072853
7.943511
8.042455
8.162856
7.583499
7.344484
6.917715
6.943941
6.641746
6.920695
6.883740
6.683469
6.605983
7.081628
6.349683
6.681681
6.465912
6.729960
6.305575
6.575584
6.573796
6.629825
6.663799
##ZVALUE=295
0.776649
0.880957
0.935793
0.770688
0.880957
0.903606
0.819564
0.780821
0.832677
1.096725
0.963807
0.813603
0.871420
1.085997
0.960827
1.260638
1.015663
1.116991
1.341701
1.330972
1.227856
1.518726
1.762509
1.606941
1.884699
1.882911
2.033710
2.170801
2.864599
5.470514
21.290779
88.264942
196.208954
450.246930
717.271566
1015.861630
1015.861630
1015.861630
1015.861630
1015.861630
1015.861630
963.055491
680.456758
362.512469
199.012756
72.774887
34.569502
21.755695
28.235912
44.303536
61.461926
86.912513
103.482604
122.883916
129.733682
128.004551
117.817521
95.994473
78.450441
54.434538
39.523840
23.108721
15.805960
9.971857
7.576942
6.290674
6.073713
6.040931
6.440878
6.561875
7.025599
7.272959
7.642508
7.885695
7.663965
7.631779
7.673502
7.260442
7.287860
6.742477
6.578565
6.853938
6.575584
6.771684
6.782413
6.854534
6.366968
6.839633
7.119775
6.764531
7.052422
7.098913
6.785989
7.037520
7.083416
7.254481
##ZVALUE=300
0.780821
0.777841
0.617504
0.797510
0.891685
0.739694
0.931621
0.930429
0.840425
0.848770
0.914931
1.006722
0.991821
1.032948
1.071692
0.947714
0.792742
0.867844
1.028776
1.208782
1.181960
1.154542
1.257658
1.308918
1.518726
1.612902
1.804829
1.852512
2.135634
2.208948
2.525449
2.945662
9.488463
57.912469
139.154792
339.611769
566.358566
953.447819
1015.861630
1015.861630
1015.861630
1015.861630
1015.861630
1015.861630
844.663978
476.061702
280.699730
121.687651
57.340860
21.102428
17.796755
26.120543
37.051439
57.803988
75.517893
101.159811
114.596486
124.025941
123.748779
112.058520
99.753737
74.908733
57.002902
38.213730
26.237965
15.050769
10.269880
7.613897
6.800890
6.636977
6.783605
6.957650
7.299781
7.053614
7.189512
6.908774
7.158518
7.286668
7.093549
6.829500
6.930828
6.870627
6.908774
6.847978
6.693602
6.463528
6.687641
6.679893
6.777644
6.873608
6.933808
7.002950
7.031560
7.062554
7.131696
7.511973
##ZVALUE=305
0.773668
0.709891
0.932813
0.697970
0.897646
0.814795
0.953674
0.947714
0.697970
0.817776
1.042485
1.037717
0.846982
0.910759
1.003742
1.123548
1.030564
0.819564
1.186728
1.013875
1.165867
1.193881
1.147985
1.321435
1.252890
1.317859
1.616478
1.596808
1.672506
1.826882
2.091527
2.249479
2.179742
2.714992
5.710721
37.800670
104.749799
279.002786
484.517813
856.455564
1015.892029
1015.892029
1015.892029
1015.892029
1015.892029
1015.892029
996.052027
637.958646
398.502946
177.962780
85.175633
28.608441
15.274882
16.464591
23.718476
38.014650
53.138733
74.854493
92.110634
109.122992
117.261410
115.249753
109.759569
91.075897
74.447989
52.490830
37.680864
23.632646
15.977621
10.151863
8.396506
7.635951
7.520914
7.127523
7.165670
6.956458
7.336736
6.605983
6.669760
6.395578
6.405711
6.728768
6.913543
6.829500
6.708503
6.869435
7.243752
6.706715
6.830692
7.260442
7.099509
7.374883
7.508993
7.561445
8.092523
7.837415
##ZVALUE=310
0.863671
0.695586
0.686646
0.704527
0.792742
0.795722
0.790954
0.870824
0.792742
0.901818
0.716448
0.694990
0.864863
0.694990
0.953674
0.933409
0.973940
0.971556
1.016855
0.954866
1.024604
1.144409
1.165867
1.054406
1.076460
1.341701
1.317859
1.402497
1.523495
1.363754
1.621842
1.698732
1.971722
2.128482
2.139807
2.529621
3.169775
14.677644
54.787397
183.172822
353.040695
706.688762
999.426842
1015.861630
1015.861630
1015.861630
1015.861630
1015.861630
1015.861630
859.743953
571.029782
281.892419
145.857930
49.609542
20.626783
12.386441
14.844537
21.771789
31.263828
49.174428
64.744949
85.689425
99.713802
108.811855
110.787749
104.535818
91.745853
70.911646
54.711699
35.986900
26.239753
17.144680
11.979938
9.050965
7.904768
7.819533
7.145405
6.897449
6.763935
6.496906
6.537437
6.559491
6.671548
6.528497
6.901622
7.031560
6.918907
7.023811
7.220507
7.193685
7.422566
7.722974
8.275509
8.112788
8.114576
8.390546
##ZVALUE=315
0.747442
0.590682
0.764728
0.737906
0.840425
0.811815
0.817776
0.903606
0.831485
0.834465
0.788569
0.905991
0.897646
0.877976
0.925660
0.681877
0.868440
0.886917
0.853539
1.079440
0.991821
1.036525
1.037717
1.145601
1.176000
1.146793
1.125932
1.182556
1.337528
1.427531
1.357794
1.423955
1.406670
1.544952
1.761913
2.005696
2.185702
2.403855
2.562404
5.899668
21.841526
101.576447
232.049823
530.303717
855.384469
1015.861630
1015.861630
1015.861630
1015.861630
1015.861630
1015.861630
999.429822
727.253556
383.576751
206.523538
74.185729
28.909445
11.402965
10.429621
14.381409
19.129515
31.328797
44.034719
62.682629
78.612566
96.037984
104.093552
104.467869
97.916722
84.111691
69.715977
51.932931
38.326979
24.175644
17.120838
10.947585
8.754730
7.483959
6.470680
6.549954
6.366968
6.601810
6.379485
6.713867
6.363988
6.561875
7.024407
6.867647
6.964803
7.226467
7.105470
7.831454
7.837415
7.991791
8.228421
7.812977
##ZVALUE=320
0.705719
0.729561
0.678897
0.800490
0.682473
0.818968
0.676513
0.683665
0.789762
0.793934
0.791550
0.744462
0.710487
0.695586
0.766516
0.777841
0.726581
0.564456
0.892878
0.755787
1.029968
0.897646
0.983477
1.142621
1.204610
1.024604
1.070499
1.222491
1.127720
1.305938
1.399517
1.347661
1.409650
1.457930
1.567602
1.642704
1.677871
1.911521
2.134442
2.414584
2.539754
3.309846
9.084940
51.990747
139.090419
384.461880
655.519962
1015.867591
1015.867591
1015.867591
1015.867591
1015.867591
1015.867591
1015.867591
910.143852
499.035716
281.379819
115.510821
50.834417
15.571713
9.778738
10.017753
11.851788
18.447638
25.925636
41.970611
55.235624
73.548555
86.947680
98.377466
99.265575
94.170570
82.144737
65.331459
51.127672
34.060478
24.097562
15.824437
11.201501
8.172989
7.284880
6.860495
6.793737
6.548762
6.476641
6.598830
6.408691
6.660819
6.776452
6.880760
7.467866
7.791519
7.932782
8.142591
8.785725
8.825660
##ZVALUE=325
0.686646
0.767708
0.636578
0.642538
0.873804
0.876784
0.713468
0.662804
0.665784
0.631809
0.880957
0.788569
0.666976
0.819564
0.882745
0.809431
0.900626
0.737906
0.723600
0.707507
1.022816
0.955462
0.891685
0.984669
0.928640
1.069903
0.970960
1.047850
1.110435
0.950694
1.137853
1.302958
1.051426
1.223683
1.312494
1.308918
1.334548
1.688600
1.615882
1.738667
2.084970
2.187490
2.420545
2.843738
5.151629
32.908916
90.299845
246.938467
459.420681
891.277790
1015.865803
1015.865803
1015.865803
1015.865803
1015.865803
1015.865803
1015.865803
641.207695
383.801460
165.228844
77.724457
22.843480
10.840893
8.959770
9.403825
12.386441
16.599894
26.726723
37.575960
56.661963
69.116950
83.889961
91.004968
94.063878
87.873936
74.726939
61.913729
45.394897
33.233762
21.661520
15.385747
10.105968
8.256435
7.122755
6.894469
6.902814
6.850958
6.872416
6.860495
6.930828
7.495880
7.592440
7.767677
8.514524
8.601546
8.928776
##ZVALUE=330
0.596642
0.565648
0.695586
0.533462
0.601411
0.714660
0.579953
0.488758
0.719428
0.606775
0.524521
0.538826
0.709891
0.588894
0.478625
0.766516
0.782609
0.846982
0.868440
0.626445
0.838637
0.774860
0.840425
0.765920
0.829697
0.751615
0.871420
0.739694
0.940561
0.966787
0.913739
1.085997
0.983477
1.123548
1.195669
1.213551
1.265407
1.438856
1.368523
1.372695
1.434684
1.685619
1.821518
2.061725
2.318621
2.512932
3.059506
14.288425
47.809482
159.801841
314.520597
652.309656
971.235633
1015.826464
1015.826464
1015.826464
1015.826464
1015.826464
1015.826464
796.658993
504.762530
225.199461
111.553669
36.891699
14.608502
8.208752
8.050799
8.702874
11.239648
17.106533
24.104714
37.081838
49.436688
67.883730
78.483820
86.000562
87.027550
81.145763
72.587729
55.548549
43.935776
29.153824
21.608472
14.822483
10.965466
8.427501
7.353425
7.029772
6.876588
7.346869
7.370710
8.037686
7.973909
8.611679
8.761883
9.046793
##ZVALUE=335
0.674725
0.670552
0.731945
0.667572
0.775456
0.743866
0.671744
0.634789
0.612736
0.692606
0.657439
0.791550
0.816584
0.737906
0.765920
0.652671
0.617504
0.787973
0.855923
0.731945
0.761747
0.978708
0.862479
0.996590
0.939965
0.934601
0.976920
0.988841
0.825524
0.869632
0.874996
0.955462
0.928640
1.050830
1.149774
1.224875
1.169443
1.192689
1.345873
1.067519
1.317859
1.549721
1.520514
1.527667
1.645684
1.745820
1.915693
2.247691
2.693534
6.289482
23.642778
99.470019
212.373734
482.819676
786.525011
1015.861630
1015.861630
1015.861630
1015.861630
1015.861630
1015.861630
965.943933
650.502443
332.842469
171.527863
58.565736
21.692514
8.719563
7.877946
7.963777
8.800626
11.281967
15.602708
24.687648
34.156442
49.700737
60.927868
73.281527
80.699921
81.118941
76.751709
65.682530
55.173635
41.377544
31.595826
21.290779
15.676618
11.179447
9.104609
7.966757
7.636547
7.957816
8.075833
8.660555
8.741617
9.404421
##ZVALUE=340
0.659823
0.623465
0.643730
0.592470
0.721812
0.555515
0.591874
0.546575
0.396967
0.755787
0.648499
0.584722
0.547767
0.504851
0.714660
0.678897
0.615716
0.606775
0.730753
0.727773
0.773668
0.701547
0.633597
0.692606
0.952482
0.621676
0.880957
0.841618
0.828505
0.928640
0.794530
0.930429
0.805855
1.041889
1.050830
1.032948
1.037717
1.071692
1.094937
1.118779
1.294613
1.471639
1.412630
1.459718
1.418591
1.534820
1.613498
1.694560
1.953840
2.163649
2.609491
3.394485
11.246800
59.296489
150.123835
374.624729
630.878806
1006.089449
1015.861630
1015.861630
1015.861630
1015.861630
1015.861630
1015.861630
814.013481
423.697829
227.950811
86.153746
32.369494
10.453463
8.446574
7.984638
8.089542
8.633733
10.707974
15.479922
21.643639
33.354759
43.886900
59.037805
68.481565
75.286627
76.171756
71.534514
65.330863
52.094460
42.165518
29.941797
22.249818
15.579462
11.958480
9.526610
8.627772
8.641481
8.912683
9.063482
##ZVALUE=345
0.611544
0.587702
0.526905
0.422597
0.350475
0.535846
0.555515
0.659823
0.688434
0.561476
0.582933
0.600815
0.548959
0.578761
0.675917
0.670552
0.654459
0.630617
0.652671
0.725985
0.519753
0.778437
0.764728
0.772476
0.790954
0.694990
0.764728
0.772476
0.836849
0.856519
0.836849
0.702739
0.985861
1.012683
0.942945
0.891685
0.996590
0.840425
1.001954
1.071692
1.146793
1.281500
1.072884
1.217723
1.387596
1.261830
1.402497
1.498461
1.663566
1.592636
1.653433
1.816750
2.160668
2.480745
5.304813
33.444762
96.344948
263.776779
456.978679
814.677477
1015.861630
1015.861630
1015.861630
1015.861630
1015.861630
1015.861630
952.050686
571.659803
324.584842
127.454996
53.064823
14.992952
9.005666
7.569790
7.444620
7.314682
7.614493
9.873509
13.048649
20.500422
28.849840
41.863918
51.014423
61.762929
67.299604
70.207715
67.863464
60.351491
51.981807
40.768981
31.722784
21.532774
16.567707
12.335777
10.431409
9.191632
##ZVALUE=350
0.587702
0.539422
0.709891
0.822544
0.581741
0.595450
0.500679
0.532866
0.476837
0.575781
0.769496
0.775456
0.726581
0.639558
0.630617
0.650883
0.693798
0.824928
0.670552
0.680685
0.672936
0.754595
0.683665
0.775456
0.675917
0.605583
0.667572
0.770688
0.888705
0.857711
0.775456
0.778437
0.803471
0.863671
1.064539
1.005530
0.889897
0.895858
0.976920
0.658631
1.106858
1.162887
0.956655
1.083612
1.031756
1.083612
1.166463
1.458526
1.297593
1.492500
1.546741
1.661777
1.810789
1.833439
2.115965
2.409816
3.258586
17.299652
55.831671
176.064968
339.169502
680.984855
976.055861
1015.861630
1015.861630
1015.861630
1015.861630
1015.861630
1015.861630
664.627552
413.174629
192.184448
86.619854
23.325682
9.948611
7.345676
6.966591
6.513000
6.642938
6.980896
8.954406
12.906790
17.864704
25.640726
34.646988
46.187639
54.593682
62.073469
64.604878
63.230991
58.567524
48.415661
40.015578
29.334426
22.289753
16.184449
##ZVALUE=355
0.771880
0.592470
0.727773
0.631809
0.494719
0.793934
0.671744
0.725985
0.608563
0.828505
0.705719
0.708699
0.826716
0.815988
0.825524
0.763535
0.892878
0.682473
0.787973
0.699759
0.754595
0.810623
0.720620
0.754595
0.987649
0.884533
0.763535
0.873804
0.889897
1.024604
0.859499
0.902414
0.839829
0.963807
0.795722
1.000762
1.005530
1.218915
1.021624
0.973940
1.143813
1.041889
1.247525
1.051426
1.073480
1.111627
1.233816
1.315475
1.358986
1.442432
1.451969
1.460910
1.448989
1.760721
1.790524
1.907945
1.986623
2.495646
2.589822
7.839799
28.667450
115.562677
244.819522
530.757904
840.709805
1015.935540
1015.935540
1015.935540
1015.935540
1015.935540
1015.935540
816.586018
529.285669
240.226984
116.755962
35.403967
13.596416
7.419586
6.949902
6.517768
6.416440
6.185770
6.808639
8.261800
10.774732
16.092658
22.242665
31.781793
39.633512
49.361587
55.731535
59.965849
58.763623
53.410530
46.817660
38.241744
##ZVALUE=360
0.526905
0.463724
0.643730
0.735521
0.719428
0.564456
0.711679
0.771880
0.835657
0.666976
0.671744
0.839829
0.706911
0.598431
0.707507
0.756979
0.590682
0.598431
0.542998
0.781417
0.652671
0.581741
0.813603
0.767708
0.649691
0.787973
0.728965
0.709891
0.871420
0.776649
0.898838
0.940561
0.893474
0.941753
0.819564
0.917912
0.936985
1.111627
0.907779
0.949502
0.868440
0.984669
0.976920
1.041889
1.074672
1.090765
1.082420
1.158714
1.324415
1.190901
1.338720
1.445413
1.401901
1.442432
1.476407
1.684427
1.829863
1.876950
2.016425
2.251863
2.463460
4.000664
12.296438
55.917501
135.770440
354.540944
624.178648
1015.861630
1015.861630
1015.861630
1015.861630
1015.861630
1015.861630
961.565971
635.600686
304.327607
155.075788
55.160522
20.853877
8.152723
6.770492
6.383657
5.920529
5.624890
5.758405
5.880594
6.817579
9.022951
12.229681
18.834472
25.362968
35.579801
42.054653
49.299598
52.490830
52.589774
##ZVALUE=365
0.603795
0.543594
0.692606
0.505447
0.760555
0.827909
0.544786
0.687838
0.635982
0.499487
0.529885
0.462532
0.546575
0.807643
0.797510
0.732541
0.701547
0.800490
0.846982
0.714660
0.685453
0.831485
0.639558
0.883937
0.674725
0.769496
0.690818
0.677705
0.814795
0.718832
0.851750
0.836849
0.779629
0.754595
0.837445
0.746846
1.083612
0.978708
0.973940
0.837445
0.834465
1.084805
0.933409
0.950694
1.163483
1.171827
1.140833
1.189709
1.152754
1.068711
1.105666
1.191497
1.142621
1.248717
1.436472
1.595616
1.523495
1.573563
1.781583
2.048612
2.163649
2.394915
2.615452
2.921820
5.350709
30.585527
85.552931
234.845877
448.094606
871.191621
1015.861630
1015.861630
1015.861630
1015.861630
1015.861630
1015.861630
822.954774
438.477993
230.928659
79.752803
30.038953
8.869767
6.420612
6.062984
5.700588
5.305409
5.372763
5.264878
5.158782
5.827546
7.265806
10.851622
14.870763
22.635460
28.700829
37.104487
##ZVALUE=370
0.544786
0.609756
0.559688
0.561476
0.621676
0.567436
0.495911
0.474453
0.531673
0.562668
0.615716
0.684857
0.748634
0.633597
0.668764
0.729561
0.784993
0.688434
0.564456
0.635982
0.684857
0.660419
0.717640
0.727773
0.769496
0.623465
0.728965
0.590682
0.702739
0.735521
0.725985
0.880957
0.883937
0.764728
0.788569
0.964999
0.963807
1.058578
0.934601
0.886917
0.924468
0.852942
0.884533
0.857711
0.798702
1.006722
0.911951
0.958443
0.872612
1.178980
0.783801
1.221895
1.124740
1.048446
1.192689
1.361966
1.407862
1.379848
1.444817
1.653433
1.598597
1.944900
1.982450
2.079606
2.324581
2.744794
3.404617
16.595721
54.635406
173.023939
336.957574
676.774979
987.680554
1015.861630
1015.861630
1015.861630
1015.861630
1015.861630
990.450382
574.674010
319.386721
120.038986
49.397945
13.635755
7.011890
5.766749
5.353689
5.120635
4.810691
4.483461
4.374981
4.878640
4.958510
6.553531
8.740425
13.053417
##ZVALUE=375
0.520945
0.406504
0.668764
0.738502
0.570416
0.776649
0.494719
0.696778
0.392795
0.635982
0.542998
0.597835
0.618696
0.591874
0.565648
0.550747
0.457764
0.582933
0.571609
0.696778
0.678897
0.581741
0.679493
0.651479
0.667572
0.668764
0.578761
0.593662
0.760555
0.691414
0.630617
0.821948
0.649691
0.602603
0.802875
0.699759
0.761747
0.659823
0.658631
0.910759
0.834465
0.758767
0.775456
0.771880
0.811815
0.774860
0.681877
0.863671
0.748634
0.818968
0.957847
0.964999
0.917912
0.965595
1.098514
0.981688
1.116991
1.085997
1.119971
1.240969
1.238585
1.255870
1.508594
1.656413
1.840591
1.856685
2.034903
2.279878
2.593994
7.897615
28.006434
104.549527
226.164460
508.603454
798.997879
1015.861630
1015.861630
1015.861630
1015.861630
1015.861630
1015.861630
670.377612
424.043536
204.641819
98.433495
28.731823
10.225773
5.581975
5.154610
4.624724
4.362464
4.145503
4.141927
4.024506
4.078746
4.331470
##ZVALUE=380
0.547767
0.486970
0.695586
0.459552
0.563860
0.569820
0.704527
0.746846
0.501871
0.388622
0.622869
0.493526
0.761747
0.556707
0.376701
0.496507
0.512600
0.584722
0.393987
0.656843
0.676513
0.688434
0.618696
0.601411
0.660419
0.547767
0.498891
0.558496
0.725985
0.660419
0.790954
0.648499
0.797510
0.552535
0.491738
0.731945
0.706911
0.656843
0.727773
0.634789
0.574589
0.572801
0.652671
0.795722
0.693798
0.802875
0.690818
0.858903
0.877976
0.918508
0.677705
0.780821
0.907779
0.746846
0.935793
0.990629
0.939965
1.075864
1.088977
1.094937
1.163483
1.156926
1.070499
1.290441
1.345873
1.364946
1.455545
1.677871
1.901984
2.416968
2.607703
4.195571
15.458465
75.540543
177.121758
418.221354
676.943660
1015.311480
1015.861630
1015.861630
1015.861630
1015.861630
1015.861630
827.920437
557.967424
273.832679
139.633417
46.742558
17.481446
6.230474
4.873872
4.364848
4.235506
3.977418
3.836751
3.858805
##ZVALUE=385
0.489950
0.434518
0.374913
0.442863
0.518560
0.410676
0.632405
0.486970
0.495911
0.554919
0.598431
0.561476
0.396967
0.607967
0.534654
0.536442
0.506639
0.475645
0.574589
0.520945
0.578761
0.649691
0.595450
0.608563
0.513792
0.576973
0.547767
0.462532
0.573993
0.581741
0.649691
0.883937
0.731945
0.580549
0.561476
0.620484
0.869632
0.610948
0.588894
0.714660
0.701547
0.668764
0.677705
0.666976
0.722408
0.598431
0.744462
0.726581
0.771880
0.771880
0.639558
0.861883
0.884533
0.791550
0.745654
0.898838
0.863671
0.963807
0.839829
0.968575
0.856519
1.038909
1.123548
0.941753
1.264811
1.142621
1.264811
1.569986
1.601577
1.809597
1.834631
2.096891
2.281666
2.770424
7.273555
42.898655
112.860799
291.533470
521.511436
917.685032
1015.859842
1015.859842
1015.859842
1015.859842
1015.859842
982.314944
708.535910
388.963819
219.561458
88.344812
33.712983
8.040667
4.871488
4.426837
4.065633
3.817677
##ZVALUE=390
0.476837
0.400543
0.344515
0.387430
0.404716
0.412464
0.646710
0.535846
0.514984
0.576973
0.456572
0.419617
0.427961
0.501871
0.477433
0.457764
0.555515
0.558496
0.459552
0.497699
0.485778
0.502467
0.597835
0.668764
0.648499
0.581741
0.580549
0.525713
0.616908
0.571609
0.735521
0.749826
0.653863
0.748634
0.608563
0.670552
0.745654
0.670552
0.614524
0.592470
0.699759
0.560880
0.632405
0.698566
0.780821
0.730753
0.654459
0.638962
0.782609
0.736713
0.829697
0.810623
0.817776
0.860691
0.697970
0.729561
0.768900
0.887513
0.815988
0.954866
0.899434
0.866652
1.105666
0.989437
1.135468
1.233816
1.202822
1.328588
1.460910
1.677871
1.753569
1.718998
1.856685
2.004504
1.937747
2.314448
4.235506
17.346740
81.886649
190.527439
444.391370
700.345635
1015.861630
1015.861630
1015.861630
1015.861630
1015.861630
1015.861630
818.976760
555.379987
281.182528
143.612623
47.323704
16.867518
5.459785
4.197955
##ZVALUE=395
0.442863
0.432730
0.533462
0.441670
0.414848
0.434518
0.442863
0.399947
0.514984
0.661612
0.480413
0.542998
0.461936
0.461936
0.568628
0.469685
0.457764
0.490546
0.605583
0.598431
0.652671
0.734925
0.693798
0.451803
0.561476
0.595450
0.656843
0.531673
0.628829
0.619888
0.697970
0.604987
0.504851
0.466704
0.534654
0.587702
0.638962
0.643730
0.603795
0.429749
0.674725
0.795722
0.788569
0.704527
0.759959
0.660419
0.682473
0.714660
0.753999
0.680685
0.772476
0.745654
0.712872
0.694990
0.728965
0.833869
0.823736
0.869632
0.799894
0.861883
0.914931
0.867844
0.918508
0.995994
0.904799
1.127720
1.107454
1.167655
1.373887
1.587868
1.579523
1.825690
1.718998
1.758933
1.861453
1.911521
1.870990
2.134442
2.633929
11.657476
43.963790
154.217482
307.418704
618.143678
914.048553
1015.864015
1015.864015
1015.864015
1015.864015
1015.864015
1000.365615
640.636683
404.558778
187.101960
87.481737
26.453733
##ZVALUE=400
0.449419
0.594854
0.491738
0.515580
0.450611
0.515580
0.448823
0.557899
0.512600
0.468493
0.519753
0.682473
0.297427
0.620484
0.455976
0.333786
0.367761
0.463724
0.564456
0.528693
0.533462
0.457764
0.478625
0.397563
0.577569
0.577569
0.625849
0.718832
0.553727
0.644922
0.511408
0.545979
0.654459
0.525713
0.675917
0.657439
0.576973
0.745654
0.617504
0.527501
0.732541
0.541806
0.515580
0.660419
0.603795
0.755787
0.671744
0.850558
0.711679
0.661612
0.644922
0.856519
0.763535
0.839829
0.750422
0.812411
0.755787
0.776649
0.829697
0.868440
0.977516
0.820756
0.949502
0.866652
0.790954
0.979900
1.042485
1.198649
1.320839
1.412630
1.529455
1.479983
1.555681
1.489520
1.346469
1.500845
1.612902
1.607537
1.970530
2.103448
2.567768
6.934404
25.650859
94.774961
203.029513
452.202559
712.182522
1015.853882
1015.853882
1015.853882
1015.853882
1015.853882
1015.853882
758.363605
497.867465
248.498917
##END
