##TITLE=AAI0501
##FORMAT=SPECTACLE-ASCII V-1.2
##DATA TYPE=ULTRAVIOLET SPECTRUM
##SECOND TYPE=ULTRAVIOLET SPECTRUM
##DATE=03/22/18
##TIME=13:32:13
##SPECTROMETER/DATA SYSTEM=SPECTACLE
##XUNITS=NM EM
##YUNITS=ENERGY
##YFACTOR=1
##FIRSTX=220
##LASTX=410
##NPOINTS=96
##3DDATA=Equidistant
##ZUNITS=NM EX
##FIRSTZ=210
##LASTZ=400
##ZPOINTS=39
##XYDATA=(Y..Y)
##ZVALUE=210
3.438592
3.792644
3.683567
3.786683
3.382564
3.602505
3.408790
3.482699
2.752542
2.506971
2.821684
2.779961
2.732873
2.586842
3.065467
2.821684
2.607703
3.211498
2.657771
3.400445
4.075766
3.480911
3.663898
3.788471
4.080534
4.917979
4.150867
4.630685
4.090667
5.834699
4.562736
5.008578
5.659461
5.671978
6.080866
5.833507
5.808473
5.959868
6.542802
6.129742
6.845593
6.909966
6.482601
7.634759
6.277561
6.748438
7.372499
7.022619
8.248687
8.957982
7.333755
7.767677
8.356571
9.071827
7.881522
8.603930
7.793903
7.943511
8.978844
9.054542
9.744763
9.298921
8.370876
7.826686
9.260774
8.969903
9.114742
12.193918
13.909936
14.833808
18.573999
19.666553
24.096966
27.039647
29.836893
31.392574
30.162930
30.955672
25.406480
26.543736
24.647713
21.841526
18.876791
17.476678
13.102889
13.383627
10.401607
11.688471
9.443760
9.069443
9.569526
8.772612
8.635521
9.194613
9.723902
9.740591
##ZVALUE=215
12.883544
12.838840
11.480451
9.485483
7.541776
6.976724
6.513000
6.406903
6.977916
6.151795
6.195903
6.098747
4.799962
3.053546
3.556609
2.634525
3.579855
3.483891
3.426671
3.421903
3.377795
3.604889
4.314780
4.284978
4.100800
4.018545
4.717708
5.027652
4.970431
4.492998
5.366802
6.023645
6.278753
6.404519
6.565452
7.031560
7.066727
6.295443
6.665587
7.745624
7.220507
7.724762
6.844997
7.739663
7.371902
8.181930
8.143783
8.551478
7.633567
8.874536
7.994771
7.362962
8.489490
9.328723
8.208752
8.646846
8.718967
8.138418
8.400679
10.476708
9.141564
10.118484
10.243654
9.930730
9.318590
9.911656
11.106730
11.839867
13.198853
14.850497
16.463995
20.339489
22.308826
26.463866
27.618408
27.362704
27.018785
27.950406
26.566982
25.429726
22.145510
17.947555
17.287731
15.386939
14.629960
11.086464
10.701418
10.459423
10.065436
9.532571
8.930564
8.829832
8.088946
8.701682
9.749532
9.295940
##ZVALUE=220
40.931702
38.928986
41.487813
39.775968
35.658479
26.243925
22.459626
17.577410
15.415549
13.929605
12.454987
14.095902
14.200807
12.304783
10.385513
8.001924
6.736517
5.476475
5.418658
4.207492
4.394650
4.162788
4.275441
4.928708
4.218817
5.439520
5.100965
6.132722
5.531907
6.802678
5.623698
5.797744
7.400513
8.131862
7.698536
8.438826
8.663535
9.237528
10.238886
9.477735
9.861588
9.298921
9.970665
10.580420
9.944439
10.316968
10.540485
10.491610
9.384751
9.736419
8.935928
10.640621
11.000633
10.721684
11.501908
10.403991
9.410977
11.448860
9.683967
10.036826
11.274815
10.576844
11.043549
10.644794
10.296702
11.745691
11.594892
12.528896
13.380647
16.164780
18.229485
20.497441
21.314621
26.454926
27.122498
29.083490
29.983521
27.534962
26.174784
24.311543
22.700429
21.001697
20.762682
17.010570
13.823509
13.453960
12.094975
10.801554
11.871457
10.089874
9.077787
10.271668
10.221601
9.195805
9.626746
9.668469
##ZVALUE=225
66.652894
72.152615
86.539984
106.153488
111.981630
104.044676
97.415447
71.175694
54.843426
38.346648
31.027794
27.500987
29.385686
29.320717
27.924776
26.816726
20.743608
16.740561
13.308525
10.045767
7.262826
6.371737
5.243421
5.063415
4.910827
5.517602
5.896688
6.259680
6.816983
7.020831
7.588863
9.098649
10.012984
10.128617
10.609627
11.888742
12.653470
13.562441
12.915730
13.855696
13.511777
13.805628
14.925599
14.605522
13.373494
12.940764
13.712645
13.569593
13.184547
13.335943
13.884902
12.958646
12.803674
12.600422
11.958480
12.306571
12.378693
11.974573
13.839602
13.656616
14.114976
11.736751
12.292862
12.473464
12.990832
13.873577
14.009476
16.265512
15.690923
18.403530
20.699501
21.987557
24.581552
27.608871
30.380487
28.952956
27.241707
28.324723
24.429560
24.355650
22.995472
21.898746
19.903779
16.469955
16.536713
15.293956
13.013482
12.502670
14.250875
13.566613
12.358427
11.767745
11.973977
12.080669
12.312531
13.103485
##ZVALUE=230
58.487654
62.396526
103.351474
149.121881
186.112523
220.301747
239.233971
233.421922
207.603574
172.212720
122.626424
84.452629
57.059526
45.898557
46.017766
48.244596
52.332878
49.713850
44.027567
35.911798
28.752685
18.788576
12.696981
8.840561
6.698966
6.708503
6.868839
6.824732
7.723570
8.325577
8.425713
10.132790
10.692477
12.579560
12.071729
15.496612
15.724897
16.115904
18.175840
19.198656
18.732548
18.506646
18.569827
19.369721
16.859770
18.020868
16.603470
18.283725
16.890764
16.990900
16.405582
16.959906
16.684532
16.773939
16.231537
15.996695
14.948845
15.640855
17.930865
15.599728
17.142892
16.974807
15.807748
16.538501
15.645623
15.976429
16.824603
18.936992
20.563602
22.455454
22.743940
26.405454
27.836561
30.515790
30.384660
28.749704
31.428933
29.736757
28.729439
27.428865
26.096702
24.684668
22.005439
20.411611
17.639995
17.235875
17.617941
16.145706
16.665459
16.224980
15.784502
14.789701
14.265776
16.422868
15.782714
15.805960
##ZVALUE=235
19.649863
22.526979
54.242611
100.471973
165.436864
262.983441
349.609852
429.286957
465.368629
447.522998
401.516557
310.031772
221.816897
144.014955
112.468600
80.215931
72.172880
77.677965
81.978440
82.674623
73.501468
67.030787
50.217509
38.085580
24.122000
17.284751
12.161732
10.250807
8.598566
9.701848
10.098815
12.634993
12.408495
15.559793
17.218590
18.846989
19.034743
19.122958
20.777583
20.860434
21.068454
20.650625
22.525787
21.844506
20.172000
21.420717
22.328496
21.469593
20.473599
19.823909
19.921660
21.130443
18.839836
19.186735
20.562410
20.988584
19.733906
19.164681
19.568801
18.865466
19.544959
19.987822
19.818544
19.361973
20.684600
20.164847
20.202994
22.060871
23.382902
25.007725
28.388500
31.353831
32.875538
35.416484
34.291744
37.832856
38.563609
35.424829
33.753514
31.632781
28.636456
28.321743
27.442575
25.648475
24.392605
22.432804
21.045804
21.081567
22.275448
20.528436
20.113587
19.638538
20.005703
19.702911
17.341971
19.842982
##ZVALUE=240
2.476573
3.126860
7.945895
32.036901
68.163872
145.218968
242.909789
405.389667
535.346866
646.631718
729.432702
720.365644
632.972717
538.010001
383.768678
267.435908
159.890652
117.219687
101.570487
100.688934
105.461478
112.829804
112.731457
95.570683
80.680847
62.304735
47.222972
31.536818
21.623969
15.858412
13.320446
13.706684
12.718439
13.168454
15.490651
16.047955
17.465949
19.199848
18.198490
19.859672
18.313527
20.628572
20.392537
20.259619
21.193624
19.938946
20.253658
20.847917
19.322634
21.753907
18.968582
19.387603
18.635988
18.883944
19.351840
18.921494
20.506978
19.556880
20.521879
20.126700
21.349788
21.958947
23.118854
21.487474
22.399426
22.802949
22.313595
26.562810
25.729537
28.681755
28.143525
32.256842
33.672452
37.193894
38.111806
37.735701
38.159490
37.336946
35.483837
32.663941
33.455491
29.573441
30.083656
27.381778
28.141737
25.707483
25.184751
23.817420
24.296641
23.533702
23.911595
23.642778
22.353530
22.861958
22.788644
22.705793
##ZVALUE=245
1.995564
1.681447
1.721978
2.148747
4.648566
21.834970
51.150918
137.508512
244.811773
382.255912
600.786805
748.383999
880.052447
891.175866
824.511647
712.200999
523.677468
385.880470
269.003510
155.195594
114.497542
101.739764
107.964873
123.897791
129.206777
122.207999
111.439824
91.883540
74.164867
50.666928
38.915873
22.692680
17.102957
12.500882
12.642741
12.142658
12.784600
13.044477
13.879538
13.575554
13.449788
13.498664
14.914870
13.092756
14.705658
13.918877
13.697743
14.133453
14.836788
15.605688
15.864968
14.571548
17.034411
15.489459
16.241670
15.611649
15.729666
14.798641
16.669631
18.237829
18.348694
19.068718
19.074678
19.300580
19.432902
21.169782
21.383762
22.666454
23.703575
25.271773
26.420951
29.442906
29.247999
32.793880
33.578873
34.282804
34.106970
32.259822
32.567978
30.681491
28.911829
27.877688
25.999546
24.642944
24.314523
23.141503
23.028851
21.638870
21.490455
21.173954
20.775795
21.961927
20.709634
21.182895
20.801425
20.671487
##ZVALUE=250
1.632571
1.180768
1.465678
1.646876
1.785755
2.019405
3.345609
10.579824
46.209693
96.913576
233.673453
384.775996
557.761788
792.821646
930.866003
1015.735865
1012.914777
902.424455
757.203698
510.751605
353.088975
226.622820
125.502944
98.394752
101.041794
117.968917
135.221481
133.681893
132.988691
118.302703
105.884671
79.327822
59.883595
37.273765
25.079846
16.009808
12.319684
10.525584
9.770989
10.142922
10.821819
11.225939
10.558963
10.443926
10.889769
10.496974
9.921789
10.969639
11.217594
11.785626
11.508465
13.108850
12.567639
13.956428
12.876987
14.636517
14.371872
15.650988
16.310811
15.820861
16.570687
17.867684
17.689466
17.743707
18.814802
19.490719
18.017888
20.853877
21.189451
23.494959
25.008917
27.052760
27.754903
28.064847
28.522611
28.691888
29.512644
28.066635
27.352571
27.804971
24.461746
22.138953
22.924542
22.777915
20.696521
20.685792
20.093918
20.739436
18.661618
18.992424
19.444823
18.892884
19.241571
16.892552
19.063950
18.347502
##ZVALUE=255
1.495481
1.140833
1.607537
1.332760
1.453757
1.646876
1.717806
1.846552
2.536774
6.132722
28.505921
72.966814
152.877569
329.659581
509.377718
784.645677
961.333513
1015.861630
1015.861630
1015.861630
954.475999
751.629472
473.561883
301.210880
157.555938
108.257532
92.477798
98.974705
123.120546
135.886669
139.829516
142.102838
127.992630
102.531910
83.549619
56.711435
39.585829
23.017526
17.650723
11.524558
9.616613
10.855794
9.686947
9.426475
10.561943
10.583997
10.308623
10.292530
10.820627
11.022687
11.189580
12.411475
12.043715
12.820959
14.200807
14.870763
13.396740
14.969707
15.567541
15.854836
16.697645
17.026663
17.614961
18.045902
17.981529
18.831491
20.122528
19.295812
21.240711
21.388531
23.317933
25.196671
27.270913
26.699901
25.259852
26.889443
27.001500
26.143789
25.943518
23.672581
22.395849
21.211505
21.757483
20.243526
18.765926
19.131899
17.720461
17.585754
18.295646
18.316507
16.615987
17.289519
17.460585
16.135573
16.597509
17.316937
##ZVALUE=260
1.202822
1.411438
1.400709
1.411438
1.610518
1.397729
1.222491
1.473427
2.083778
1.870990
2.181530
3.333688
12.527704
53.518414
115.763545
268.437862
443.471670
727.916956
957.953930
1015.861630
1015.861630
1015.861630
1015.861630
956.584811
640.746951
439.476967
248.446465
152.123570
89.834929
83.199739
101.897717
123.139620
138.761997
150.550604
145.966411
130.131841
110.570788
81.672668
61.871409
39.023757
27.153492
17.663836
13.796687
10.713935
10.633469
11.116862
11.538863
11.305809
10.488629
10.996461
11.896491
11.203885
11.639595
12.658834
11.909604
13.159513
12.857914
13.886690
14.757514
15.262961
14.984608
15.237927
15.232563
17.630458
16.321540
17.235875
17.742515
18.846989
19.736886
19.634962
20.367503
20.395517
23.089647
23.546815
24.301410
24.446845
23.412704
21.813512
21.844506
21.400452
20.659566
18.352866
17.660856
18.057823
17.281771
16.486645
17.265677
16.005635
15.713573
15.306473
15.163422
15.425682
15.180707
15.008450
15.054941
15.593767
##ZVALUE=265
1.318455
1.493692
1.250505
1.259446
1.386404
1.376867
1.505613
1.650453
1.453757
1.276731
1.431704
1.991987
1.973510
2.232790
5.936623
30.602813
80.148578
207.442641
369.247794
680.733919
952.497721
1015.861630
1015.861630
1015.861630
1015.861630
1015.861630
844.322443
601.202846
335.511565
195.980668
118.717551
76.469779
80.633759
109.728575
129.233003
147.975683
154.474974
147.866607
134.632587
109.103918
87.414980
60.092807
42.338967
25.585890
17.688870
12.457967
11.241436
11.063814
10.356903
10.437965
10.262728
10.841489
11.661649
11.331439
11.783838
12.451410
12.135506
12.286901
12.102723
12.847781
13.019443
14.530420
13.992786
13.680458
14.986992
14.971495
15.132427
14.769435
16.341805
17.328858
17.333627
18.922687
19.260645
20.390749
20.350814
20.146966
20.337701
19.793510
19.084811
17.930865
17.036796
16.416907
16.598701
15.280843
15.712976
15.091896
14.739633
14.505982
14.538765
13.897419
13.402700
13.624430
14.497638
12.882948
13.084412
12.317896
##ZVALUE=270
1.140833
1.051426
0.977516
1.356602
1.157522
1.112819
1.341701
1.431704
1.461506
1.727939
1.564622
1.740456
1.701713
1.833439
2.010465
2.626777
3.063679
14.415979
45.319796
146.329999
293.768644
508.275628
893.090963
1015.861630
1015.861630
1015.861630
1015.861630
1015.861630
1015.861630
791.762471
546.848774
286.937952
162.128806
78.327656
65.521002
83.947778
107.935667
132.771730
149.716735
156.572461
152.434707
133.836865
114.213824
86.692572
63.785911
39.877892
27.872920
18.861890
15.173554
11.357665
10.792613
10.328889
10.835528
10.725856
11.479855
10.877848
10.957718
11.957884
11.845827
11.724830
11.616945
12.612939
11.831522
12.084842
12.639761
12.877584
12.844801
13.542771
14.147758
14.353991
15.196800
15.523434
16.702414
16.634464
18.043518
16.720891
17.080903
16.755462
16.197562
15.668869
14.727712
13.687611
13.442636
13.647676
13.411641
12.958646
13.090968
12.718439
12.921691
12.865663
12.979507
12.876987
12.761950
11.818409
13.072491
12.161732
##ZVALUE=275
1.169443
0.970960
1.176000
1.202822
1.139641
1.094937
1.164675
1.240969
1.199841
1.186728
1.159906
1.422763
1.586676
1.404881
1.629591
2.110600
1.942515
2.309680
2.351403
7.653832
27.809739
102.227926
231.999755
430.888534
811.762810
1015.861630
1015.861630
1015.861630
1015.861630
1015.861630
1015.861630
1013.059616
663.877726
414.289832
197.595954
103.477836
58.405995
59.711933
86.462498
107.171535
132.408738
146.815777
154.525638
150.429606
134.352446
113.877654
85.418820
64.826608
43.087602
29.931664
18.973947
14.638901
11.833906
11.788607
11.348724
10.797977
10.861754
11.012554
10.917783
11.423826
11.822581
11.778474
12.004972
11.609793
11.794567
12.395978
11.729598
12.554526
13.203621
14.051795
14.343858
14.764667
15.844703
15.495420
16.849637
16.358495
17.249584
15.788674
15.730858
14.831424
13.963580
13.826489
13.359785
12.779832
12.783408
13.198853
12.584925
11.833906
12.139678
12.832880
12.140870
11.956692
11.670589
11.908412
11.573434
11.772513
##ZVALUE=280
1.124740
1.107454
0.972748
0.898838
0.909567
1.133680
1.235604
1.016855
1.162887
1.363754
1.288652
1.306534
1.432896
1.218915
1.495481
1.689792
1.866817
1.919866
1.928806
2.105832
2.492666
3.022552
17.784834
59.040785
188.833475
348.629951
659.644008
961.957574
1015.861630
1015.861630
1015.861630
1015.861630
1015.861630
1015.861630
915.969610
510.990620
299.207568
128.694773
70.199966
48.482418
58.533549
85.104704
105.708838
130.489469
146.280527
150.236487
145.959854
129.849911
112.412572
82.874894
64.176917
42.150617
29.638410
19.260645
14.547706
11.362433
11.501908
11.310577
11.427999
11.591911
10.796785
11.544824
11.333823
11.791587
11.798739
11.641979
11.732578
12.675524
13.503432
13.367534
13.918877
14.626980
14.708638
15.419722
15.476942
15.646815
15.718937
15.031695
14.870763
14.271736
14.013648
14.040470
13.428926
13.257861
12.380481
12.426972
12.179613
12.437701
12.409687
11.556745
12.464523
12.305975
11.529922
12.492537
12.041926
11.118650
##ZVALUE=285
0.836849
1.086593
0.953674
0.978708
1.005530
1.055598
0.941753
1.139641
1.199841
1.088977
0.949502
1.381636
1.249909
1.237988
1.344681
1.236796
1.362562
1.259446
1.399517
1.757741
1.893640
2.178550
2.474785
2.811551
9.370446
33.445954
114.107728
237.693787
504.615903
791.787505
1015.854478
1015.854478
1015.854478
1015.854478
1015.854478
1015.854478
1015.855074
726.726651
450.577736
210.556984
106.000900
45.444965
38.607717
57.586432
75.068474
104.214549
122.512579
142.587423
147.249699
143.341422
130.381584
108.579993
88.615417
63.040853
45.266747
27.855635
19.388795
14.020801
11.992455
11.213422
10.575652
10.767579
10.984540
11.316538
11.521578
11.457801
12.473464
12.755990
12.967587
13.364553
13.574958
15.240908
14.810562
14.977455
15.417933
14.899969
15.329719
14.681816
14.493465
14.079809
14.158487
13.912916
13.604760
13.073683
13.253689
13.026595
13.261437
13.150573
12.882948
12.354851
12.462735
11.954904
12.106895
11.986494
11.532903
11.707544
##ZVALUE=290
1.095533
1.220703
1.066923
1.080632
1.215935
1.068711
1.183748
1.148582
1.085997
1.218915
1.441836
1.470447
1.395941
1.449585
1.179576
1.563430
1.662970
1.723766
1.646876
1.742840
1.792908
1.960993
2.188683
2.141595
2.383590
2.834797
3.943443
12.753606
60.828924
149.185658
297.097564
630.226731
964.170694
1016.029716
1016.029716
1016.029716
1016.029716
1016.029716
1016.029716
955.037475
626.813769
302.179456
154.080987
56.254864
32.262802
37.581921
50.087571
72.353482
93.263984
119.589567
132.935643
142.178535
140.515566
126.559734
108.257532
81.033707
62.802434
41.499734
29.751658
19.160509
14.797449
12.598634
11.895895
11.328459
11.570454
11.514425
11.193752
12.014508
12.844801
12.774467
13.495684
14.376640
14.583468
14.586449
15.716553
14.992952
15.414953
14.718771
14.224648
14.285445
13.745427
14.011860
14.221668
13.212562
13.289452
13.299584
13.301969
13.458729
13.054609
12.872815
13.108850
12.443662
12.700558
12.757778
12.208819
12.399554
##ZVALUE=295
0.943542
0.851750
0.848770
0.783801
0.691414
0.917912
0.891685
0.970960
1.011491
0.861883
1.164675
1.055598
1.044869
1.249909
1.014471
1.291633
1.204610
1.163483
1.150966
1.352429
1.572967
1.496673
1.744628
1.692772
1.990795
1.942515
2.358556
2.445579
2.955794
7.048845
25.927424
107.300878
236.772895
528.264642
839.034915
1015.861630
1015.861630
1015.861630
1015.861630
1015.861630
1015.861630
1015.861630
966.839790
575.377941
305.808783
95.149875
39.163828
25.587678
30.755997
48.113465
65.017939
91.706514
110.014677
128.336549
135.280490
132.646561
123.290420
100.781918
82.267523
58.786869
42.275786
27.253628
19.793510
13.802648
11.807680
11.052489
11.085868
11.308789
11.582971
12.331605
12.499690
13.543963
13.759732
14.592409
14.174581
14.106631
14.231801
14.156699
13.661981
13.896823
13.745427
13.346672
13.249516
13.516545
13.160706
12.926459
13.036728
13.170838
13.161898
13.099909
12.120605
12.772679
12.212992
11.914968
12.099743
12.284517
##ZVALUE=300
0.825524
0.842810
0.847578
0.738502
0.997782
0.880957
0.751615
0.911951
0.944734
0.705719
0.876784
0.994802
1.031756
1.132488
1.239777
1.227856
1.159906
1.181960
1.282692
1.267791
1.283884
1.167655
1.410842
1.530647
1.486540
1.547933
1.639724
2.021790
2.085567
2.392530
2.432466
3.170967
9.526610
58.984756
149.737597
383.301973
648.476481
1015.861630
1015.861630
1015.861630
1015.861630
1015.861630
1015.861630
1015.861630
1000.178456
580.575466
343.062878
145.113468
65.641403
24.020672
19.794703
28.765798
40.040612
61.309934
78.800917
104.121566
120.319724
127.403736
126.886964
115.578771
101.089478
77.280998
59.903860
40.977001
29.913783
19.410849
14.976859
12.283921
11.639595
11.903644
12.085438
12.365580
12.603998
13.268590
13.437867
13.346672
13.374686
12.930632
12.856722
12.836456
13.677478
12.913942
13.156533
12.908578
12.782812
13.020635
13.096929
12.736917
12.814999
12.238622
12.579560
12.179613
11.923909
11.744499
11.960864
11.592507
##ZVALUE=305
0.865459
0.911951
0.748634
0.769496
0.807643
0.861883
0.889897
0.804663
0.928640
0.796914
0.957847
0.860691
1.093745
0.978708
1.160502
1.112819
0.975728
0.842810
1.110435
1.176596
1.155734
0.924468
1.152754
1.420975
1.358986
1.509786
1.529455
1.529455
1.883507
1.841784
1.886487
2.119541
2.498627
2.893806
5.498528
34.343600
97.748637
282.890797
509.777665
940.249562
1015.864611
1015.864611
1015.864611
1015.864611
1015.864611
1015.864611
1015.864611
813.523531
502.955914
228.113532
106.952786
33.105612
17.337799
19.222498
26.688576
41.581988
56.655407
79.896450
97.360611
115.828514
122.383833
119.972825
112.032890
94.510913
78.492761
56.702495
41.249990
26.932955
20.221472
14.638901
13.141632
12.618899
12.593865
13.086796
12.940764
13.249516
12.987852
12.936592
12.553930
12.492537
12.793541
12.680888
12.328625
12.431741
12.805462
12.734532
13.021827
12.630820
12.250543
12.409687
12.553930
11.882782
11.665821
11.435747
11.665821
11.261702
##ZVALUE=310
0.641942
0.643730
0.691414
0.768900
0.681877
0.754595
0.886917
0.721812
0.709891
0.982881
0.895858
0.684857
0.944734
0.977516
0.930429
0.837445
0.923872
0.909567
0.866652
1.132488
1.227856
1.182556
1.196861
1.153946
1.158714
1.423955
1.286864
1.389980
1.502633
1.826882
1.650453
1.737475
1.928806
2.306700
2.472997
2.992749
3.490448
15.368462
51.955581
180.420876
363.458395
756.728649
1015.869975
1015.869975
1015.869975
1015.869975
1015.869975
1015.869975
1015.869975
1015.869975
718.618631
354.965925
183.127522
61.358809
23.608804
13.891459
16.446710
24.665594
34.250617
52.448511
67.749619
90.075731
103.480816
114.452839
115.115643
106.773973
94.931722
76.211691
59.381723
40.323734
29.545426
21.355748
16.838908
13.919473
12.696981
12.299418
11.765957
11.771917
11.898875
11.731982
11.785626
11.956692
12.075901
12.130737
12.380481
11.954904
12.199879
12.065768
11.536479
11.844635
11.807680
11.685491
11.133552
11.165738
10.910630
10.847449
##ZVALUE=315
0.866652
0.895858
0.861883
0.845790
0.771880
1.010895
0.864863
0.878572
0.947714
0.990629
1.009703
0.981688
0.948906
1.003742
1.053810
1.057982
0.957847
0.925660
1.057982
1.249909
1.402497
1.169443
1.259446
0.905991
1.148582
1.398921
1.378655
1.392961
1.679659
1.750588
1.667738
1.840591
2.006888
2.121925
2.491474
2.154708
2.379417
2.874732
3.154874
6.975532
26.572943
123.324990
280.091763
640.050769
990.744829
1016.021967
1016.021967
1016.021967
1016.021967
1016.021967
1016.021967
1016.021967
923.278928
492.854714
272.388458
98.389983
39.117932
14.488697
12.655854
16.676784
22.254586
34.277439
47.117472
66.334605
82.322955
100.742579
107.697845
109.902620
103.612542
88.697672
74.742436
55.622458
42.374730
28.836727
21.591783
15.260577
13.686419
11.900663
11.516809
11.398792
11.412501
11.731982
11.620522
11.635423
11.249781
11.287928
11.584759
11.610985
11.314750
11.460781
11.564493
11.301637
11.147857
11.139512
10.814667
10.666847
##ZVALUE=320
0.746846
0.669956
0.698566
0.646710
0.640750
0.765920
0.793934
0.687838
0.736713
0.911951
0.741482
0.847578
0.803471
0.820756
0.755787
0.895858
0.781417
0.829697
0.856519
0.931621
0.942945
1.066923
1.000762
1.209974
1.081824
1.107454
1.280904
1.234412
1.225471
1.306534
1.328588
1.199841
1.292825
1.714826
1.753569
1.793504
1.967549
1.989603
2.125502
2.681613
2.762675
3.869534
11.526942
66.517591
172.649622
458.040833
791.710615
1015.861630
1015.861630
1015.861630
1015.861630
1015.861630
1015.861630
1015.861630
1015.861630
636.107922
358.598828
146.486759
63.826442
19.147992
11.604428
12.083650
13.977885
20.641685
28.703809
45.082569
58.207512
78.600645
91.874003
102.193952
103.530884
98.612905
87.621808
68.885684
54.565668
37.918687
28.835535
19.318461
15.327930
12.515783
11.545420
10.836720
11.124611
10.909438
10.878444
10.712743
10.798573
10.677576
10.979772
10.851622
10.654926
10.440946
10.774732
10.208488
10.297894
10.055900
##ZVALUE=325
0.653863
0.786781
0.806451
0.584722
0.740886
0.853539
0.685453
0.712872
0.830889
0.821948
0.716448
0.643730
0.662804
0.875592
0.743866
0.740886
0.715852
0.870824
0.883937
0.851750
0.749826
0.803471
1.020432
0.955462
0.997782
1.011491
0.927448
1.184940
1.099706
1.340508
1.257658
1.180768
1.367927
1.437664
1.358986
1.515746
1.606941
1.791716
1.930594
2.050996
2.285838
2.204776
2.695918
3.254414
6.462932
41.520596
113.482475
311.325788
576.601624
1015.861630
1015.861630
1015.861630
1015.861630
1015.861630
1015.861630
1015.861630
1015.861630
821.033716
485.125780
205.124617
94.684958
26.750565
12.848973
10.702610
11.376739
14.373660
19.379854
29.675961
40.913820
59.893727
75.078607
88.478923
96.711516
97.578764
93.081594
78.673959
65.374970
47.934651
36.136508
24.107695
18.408895
13.814569
12.261868
10.813475
10.555983
10.287762
10.304451
10.627508
10.314584
10.232925
10.500550
10.027885
10.175705
9.903908
10.118484
10.075569
##ZVALUE=330
0.740886
0.688434
0.625849
0.604987
0.570416
0.649691
0.632405
0.761747
0.706911
0.746846
0.628829
0.572801
0.700951
0.680685
0.640750
0.821948
0.822544
0.793934
0.871420
0.757575
0.911951
0.802875
0.920892
0.892878
0.921488
1.074672
0.991821
0.984669
0.854731
1.133680
1.142621
1.176000
1.221895
1.226664
1.248717
1.326799
1.537800
1.428723
1.648664
1.671910
1.766682
1.826882
2.010465
2.377629
2.680421
3.105402
4.112720
17.390847
58.571696
205.876827
410.493016
861.192942
1015.861630
1015.861630
1015.861630
1015.861630
1015.861630
1015.861630
1015.861630
993.002653
659.070611
298.678875
143.381953
45.735836
17.942786
10.231733
9.945631
10.765791
13.379455
19.675493
26.615858
40.624738
53.293705
71.853995
82.914829
91.168880
91.535449
84.871650
75.984597
59.916973
48.006773
33.584833
24.751425
17.417669
14.392734
11.743903
10.897517
9.990931
9.927750
9.695888
9.590983
9.998679
9.420514
9.610653
9.680986
9.458661
##ZVALUE=335
0.684857
0.610948
0.707507
0.751615
0.666976
0.559688
0.741482
0.654459
0.573993
0.722408
0.743866
0.791550
0.785589
0.586510
0.641942
0.696778
0.722408
0.720620
0.757575
0.683665
0.805855
0.743866
0.851750
0.930429
0.944734
0.979900
0.901818
1.037717
0.959635
1.124740
1.166463
0.981688
0.932813
1.123548
1.219511
1.219511
1.179576
1.385808
1.325607
1.328588
1.570582
1.517534
1.736879
1.806617
1.943707
2.338886
2.421737
2.764463
3.171563
8.122921
30.081868
125.045776
274.669528
635.304451
995.517969
1015.862823
1015.862823
1015.862823
1015.862823
1015.862823
1015.862823
1015.862823
845.713615
419.787765
209.997892
66.849589
25.775433
11.428595
10.047555
10.048747
10.912418
13.649464
18.443465
28.151870
38.041472
53.319931
65.094829
77.789426
84.244609
84.196925
81.237555
67.762733
58.656931
44.941902
35.169721
24.621487
18.904805
13.868809
11.944771
9.985566
9.779930
9.752512
9.360909
9.378791
9.290576
8.939505
##ZVALUE=340
0.603795
0.689626
0.768900
0.576973
0.615716
0.521541
0.536442
0.472665
0.682473
0.640750
0.560880
0.523925
0.726581
0.573993
0.735521
0.660419
0.615716
0.894666
0.721812
0.785589
0.718832
0.681877
0.713468
0.874996
0.753999
0.792742
0.949502
0.794530
0.849962
0.770688
0.968575
0.996590
0.952482
1.109838
1.166463
1.122952
1.222491
1.072884
1.318455
1.288652
1.439452
1.614690
1.490712
1.488924
1.477599
1.734495
1.682639
2.127886
2.337694
2.561808
2.966523
4.695654
14.861822
78.741908
196.192861
499.943495
859.674811
1015.861630
1015.861630
1015.861630
1015.861630
1015.861630
1015.861630
1015.861630
990.999937
517.451763
276.176929
102.685690
38.145781
12.446642
10.056496
9.891987
9.987950
11.154413
12.983680
18.638968
24.783611
36.557913
47.567487
63.090920
72.791576
79.495907
79.954863
76.110959
68.694949
55.184960
44.650435
32.644868
24.422407
17.831922
13.947487
10.582805
9.646416
9.274483
9.114742
8.998513
##ZVALUE=345
0.567436
0.486970
0.673532
0.628829
0.605583
0.549555
0.377893
0.652671
0.643730
0.566840
0.478625
0.644922
0.658631
0.589490
0.695586
0.660419
0.689626
0.629425
0.562668
0.722408
0.851750
0.685453
0.727773
0.686646
0.795722
0.824928
0.778437
0.785589
0.834465
0.927448
0.709891
0.827909
0.931621
0.971556
0.950694
1.062751
1.039505
1.080632
1.143813
1.224875
1.214743
1.370907
1.413822
1.396537
1.452565
1.644492
1.708865
1.924634
1.840591
2.032518
2.166629
2.535582
2.595782
3.050566
6.890893
45.323968
128.405690
353.081822
635.078549
1015.861630
1015.861630
1015.861630
1015.861630
1015.861630
1015.861630
1015.861630
1015.861630
742.987990
408.146977
150.553584
63.082576
19.648671
11.157990
10.177493
9.761453
9.533763
10.081530
12.068748
15.659928
23.702979
31.837821
45.484900
55.705905
67.026615
72.063804
73.993802
71.297884
62.944889
54.984689
42.677522
33.733845
22.957921
17.745495
13.624430
10.753870
9.768605
##ZVALUE=350
0.669956
0.614524
0.605583
0.821948
0.695586
0.534654
0.492930
0.726581
0.674725
0.736713
0.761747
0.629425
0.692606
0.592470
0.795722
0.595450
0.610948
0.799894
0.713468
0.838637
0.800490
0.741482
0.873804
0.779629
0.801682
0.808835
0.809431
0.739694
0.800490
0.788569
0.972748
0.923872
0.785589
0.898838
0.920892
0.814795
1.033545
0.988841
1.089573
1.047850
1.089573
1.089573
1.125932
1.297593
1.386404
1.459718
1.511574
1.548529
1.656413
1.683831
1.762509
1.992583
2.159476
2.348423
2.436638
3.031492
4.324913
26.267767
81.777573
252.079368
476.858616
945.047736
1015.861630
1015.861630
1015.861630
1015.861630
1015.861630
1015.861630
1015.861630
928.085446
548.194647
227.889419
95.856786
24.645925
12.143850
9.422898
8.856654
8.528829
8.184910
9.206533
10.924935
15.714765
20.952821
28.979778
37.693977
49.873590
58.398843
65.548420
67.578554
65.973997
60.674548
50.505996
41.360855
30.711889
24.045706
17.376542
##ZVALUE=355
0.671744
0.532866
0.666976
0.554919
0.803471
0.752807
0.661612
0.679493
0.679493
0.602603
0.729561
0.827909
0.758767
0.654459
0.647902
0.583529
0.624657
0.763535
0.689626
0.660419
0.912547
1.028776
0.720620
0.870824
0.755787
0.967979
0.789762
0.899434
0.815988
0.924468
0.907779
0.923872
0.923872
0.991821
0.920892
0.883937
0.918508
0.957847
0.970960
0.940561
1.078844
1.243949
1.371503
1.138449
1.323819
1.300573
1.289845
1.270771
1.386404
1.507998
1.706481
1.747608
1.913905
1.889467
2.079606
2.443790
2.540946
2.814531
3.287792
11.940598
46.369433
182.902813
369.220972
761.720538
1015.861630
1015.861630
1015.861630
1015.861630
1015.861630
1015.861630
1015.861630
1015.861630
706.247687
304.954648
138.627887
37.767887
14.508963
9.323955
8.601546
7.968545
8.026958
8.104444
8.554459
10.227561
12.855530
18.490553
24.401546
34.188628
43.082833
52.181482
58.040619
62.278509
61.069727
56.215525
49.005747
39.717555
##ZVALUE=360
0.668764
0.637770
0.666976
0.721812
0.555515
0.570416
0.702739
0.632405
0.658631
0.680685
0.900626
0.773668
0.728965
0.799894
0.804663
0.773668
0.890493
0.839829
0.595450
0.785589
0.758767
0.807643
0.572801
0.726581
0.800490
0.864863
0.839829
0.906587
0.982881
0.822544
0.972748
0.849962
0.972748
0.952482
0.951886
0.914931
0.956655
0.918508
1.077652
1.042485
1.042485
1.150966
1.197457
1.228452
1.256466
1.249909
1.258850
1.287460
1.399517
1.511574
1.532435
1.584888
1.560450
1.726747
1.898408
2.065897
2.131462
2.468824
2.625585
2.703667
3.280640
5.336404
17.305613
87.993741
222.478509
546.505451
900.961757
1015.857458
1015.857458
1015.857458
1015.857458
1015.857458
1015.857458
1015.857458
895.662904
430.750847
219.720006
73.862672
10.664463
9.434819
8.261800
8.179545
7.578731
7.398725
7.526875
7.648468
9.102821
11.070967
18.468499
21.860600
35.555959
38.030744
46.082735
51.521659
55.766702
56.879520
##ZVALUE=365
0.607967
0.716448
0.591874
0.697970
0.855923
0.731945
0.654459
0.805855
0.660419
0.801682
0.791550
0.593662
0.716448
0.863671
0.835657
0.747442
0.709891
0.708699
0.745654
0.804663
0.799894
0.777841
0.896454
0.718832
0.845790
0.837445
0.872612
0.778437
0.909567
1.006722
0.807643
1.071692
0.892878
1.071692
0.970960
1.077652
0.969768
0.971556
1.098514
1.295805
1.077652
1.165867
1.130700
1.221895
1.279712
1.021624
1.230836
1.308918
1.246929
1.297593
1.380444
1.559854
1.527667
1.625419
1.676679
1.575947
1.873970
2.038479
2.051592
2.204776
2.319813
3.242493
3.166795
5.453825
8.503795
114.457607
150.523782
322.769880
757.059455
1015.861630
1015.861630
1015.861630
1015.861630
1015.861630
1015.861630
1015.861630
955.382586
425.876975
277.743936
69.156885
24.570823
10.967851
8.265972
7.454753
7.208586
6.932616
6.836653
6.765723
7.304549
7.795691
10.936856
12.946725
22.721887
25.574565
32.533407
41.037798
##ZVALUE=370
0.633597
0.587702
0.587702
0.568628
0.849962
0.715852
0.831485
0.703931
0.703931
0.765920
0.774860
0.707507
0.757575
0.593662
0.715852
0.677705
0.654459
0.687838
0.830889
0.730753
0.715852
0.704527
0.693798
0.920892
0.806451
0.735521
0.850558
0.845790
0.806451
0.874996
0.828505
0.741482
0.931621
0.902414
1.041889
0.723600
1.034737
0.861883
0.918508
0.964999
0.977516
0.863671
1.104474
1.152754
1.110435
1.160502
0.958443
1.067519
1.142621
1.199841
1.218915
1.278520
1.324415
1.426935
1.356602
1.622438
1.653433
1.602769
1.846552
1.986623
2.051592
2.235770
2.289414
2.603531
2.931952
3.335476
4.720688
26.414990
89.419484
290.125608
546.004772
982.830524
1015.861630
1015.861630
1015.861630
1015.861630
1015.861630
1015.861630
1015.861630
697.494745
392.187834
151.708722
67.561865
19.693971
9.380579
7.127523
6.920695
6.366968
6.214976
6.226897
6.121993
6.593466
7.329583
9.395480
11.736751
16.662478
##ZVALUE=375
0.604987
0.527501
0.574589
0.587702
0.663996
0.601411
0.557899
0.494719
0.703931
0.660419
0.602603
0.601411
0.611544
0.578761
0.629425
0.748634
0.797510
0.567436
0.621676
0.773668
0.771880
0.576973
0.726581
0.722408
0.716448
0.795722
0.800490
0.592470
0.864863
0.796914
0.727773
0.917912
0.835657
0.871420
0.749826
0.789762
0.783801
0.821948
0.759959
0.749826
0.864863
0.901818
1.052618
0.808835
1.028776
0.996590
1.023412
0.967979
0.982881
0.951886
1.082420
1.122952
1.203418
1.143813
1.252890
1.317859
1.411438
1.488924
1.509786
1.463890
1.667738
1.655817
1.906753
1.923442
2.225637
2.352595
2.564788
3.027916
3.646612
13.005733
51.762462
194.931626
413.587689
882.219672
1015.861630
1015.861630
1015.861630
1015.861630
1015.861630
1015.861630
1015.861630
947.653651
584.767461
261.261463
127.860904
37.932992
13.424754
7.344484
6.996989
6.630421
6.767511
6.368756
6.836653
6.772876
7.046461
8.017421
##ZVALUE=380
0.546575
0.634789
0.574589
0.620484
0.674725
0.718832
0.547767
0.635982
0.672936
0.648499
0.443459
0.567436
0.520945
0.520945
0.654459
0.551939
0.655651
0.492930
0.693798
0.609756
0.728965
0.672936
0.596642
0.532866
0.607967
0.720620
0.588894
0.608563
0.694990
0.593662
0.633597
0.731945
0.653863
0.836849
0.661612
0.912547
0.784993
0.767708
0.831485
0.812411
0.957847
0.814795
0.865459
0.832677
0.747442
0.897646
0.881553
0.855923
1.075864
1.018643
0.843406
1.128912
0.858903
1.143813
1.117587
1.205802
1.183748
1.154542
1.132488
1.406670
1.248717
1.440644
1.479983
1.726747
1.879930
1.873970
2.169609
2.397895
2.809763
3.321767
3.858805
6.508827
26.423931
139.647722
332.830548
771.440864
1015.861630
1015.861630
1015.861630
1015.861630
1015.861630
1015.861630
1015.861630
1015.861630
774.703026
372.691751
189.155936
63.643456
23.624897
8.279681
6.769896
6.904602
6.840825
7.137656
7.298589
7.463694
##ZVALUE=385
0.431538
0.386834
0.436902
0.537634
0.663996
0.432730
0.655651
0.670552
0.469685
0.366569
0.647902
0.455976
0.542998
0.497699
0.534654
0.398755
0.550747
0.529885
0.569820
0.678897
0.669956
0.628829
0.678897
0.617504
0.551939
0.719428
0.617504
0.582933
0.681877
0.544786
0.608563
0.704527
0.634789
0.797510
0.716448
0.773668
0.812411
0.705719
0.824928
0.844598
0.793934
0.763535
0.847578
0.806451
0.920892
0.892878
0.894666
0.710487
0.863671
0.928640
0.953674
0.810623
0.890493
1.022816
1.072884
1.110435
1.146793
1.131892
1.245737
1.318455
1.264811
1.315475
1.523495
1.311898
1.542568
1.519918
1.606941
1.864433
2.115965
2.501607
2.888441
2.952814
3.558993
4.145503
11.677742
70.974827
191.908479
502.052903
888.824463
1015.861630
1015.861630
1015.861630
1015.861630
1015.861630
1015.861630
1015.861630
966.006517
513.371825
280.172825
107.730627
40.867925
10.717511
7.321835
7.006526
7.563829
7.413626
##ZVALUE=390
0.422597
0.434518
0.489950
0.486970
0.332594
0.560880
0.592470
0.580549
0.470877
0.470877
0.550747
0.599623
0.483990
0.495911
0.500679
0.536442
0.473857
0.534654
0.577569
0.481606
0.641942
0.437498
0.510812
0.543594
0.536442
0.437498
0.534654
0.569820
0.745654
0.604987
0.516772
0.598431
0.704527
0.727773
0.642538
0.718832
0.804663
0.653863
0.816584
0.636578
0.753999
0.701547
0.702739
0.848770
0.745654
0.959635
0.661612
0.776649
0.821948
0.928640
0.890493
0.915527
1.022816
1.021624
0.971556
0.987649
1.010895
0.898838
1.150966
1.057982
1.056790
1.036525
1.229644
1.431704
1.392961
1.455545
1.465678
1.773834
1.957417
2.286434
2.480745
2.610683
2.807975
2.770424
3.141761
3.353953
5.740523
35.649538
113.473535
352.522731
680.845976
1015.856862
1015.856862
1015.856862
1015.856862
1015.856862
1015.856862
1015.856862
1015.856862
784.208775
438.933969
170.217752
74.900985
21.070838
9.086728
7.200837
##ZVALUE=395
0.342727
0.527501
0.435710
0.413656
0.450611
0.638962
0.418425
0.456572
0.540614
0.486970
0.433922
0.575781
0.488758
0.438690
0.572801
0.526905
0.527501
0.446439
0.608563
0.625849
0.724792
0.736713
0.545979
0.509620
0.604987
0.496507
0.565648
0.460744
0.701547
0.723600
0.675917
0.568628
0.700951
0.706911
0.756979
0.682473
0.732541
0.769496
0.709891
0.706911
0.833869
0.662804
0.866652
0.828505
0.780821
0.903606
0.893474
0.762939
0.900626
0.846982
0.944734
0.985861
0.944734
0.870824
0.907779
0.930429
1.057982
0.911951
0.978708
1.204610
1.085997
1.194477
1.199841
1.281500
1.360774
1.330972
1.441836
1.658797
1.776814
1.984835
2.162457
2.557635
2.271533
2.292991
2.448559
2.600551
2.799630
3.112555
3.906488
20.060539
76.735616
268.225670
514.365435
961.935520
1015.861630
1015.861630
1015.861630
1015.861630
1015.861630
1015.861630
1015.861630
987.079740
627.782941
261.073709
117.735863
34.508705
##ZVALUE=400
0.563860
0.545979
0.557899
0.616908
0.613928
0.443459
0.406504
0.738502
0.560880
0.571609
0.514984
0.414848
0.688434
0.641942
0.449419
0.315905
0.598431
0.709891
0.638962
0.612736
0.628829
0.704527
0.448823
0.590682
0.544786
0.622869
0.512600
0.631809
0.617504
0.488758
0.652671
0.625849
0.654459
0.657439
0.757575
0.664592
0.693798
0.708699
0.826716
0.682473
0.756979
0.697970
0.848770
0.861883
0.646710
0.841618
0.757575
0.788569
0.729561
0.809431
0.870824
1.085997
0.803471
0.847578
0.905991
1.029968
1.095533
1.103878
1.128912
1.125932
1.142621
1.011491
1.264811
1.170635
1.227856
1.331568
1.454949
1.695752
1.894832
2.219677
2.079606
2.145767
2.118945
2.145767
2.144575
1.960993
2.322793
2.411604
2.688766
2.980828
3.422499
7.822514
47.010779
136.647820
382.106900
689.514875
1015.861630
1015.861630
1015.861630
1015.861630
1015.861630
1015.861630
1015.861630
1015.861630
741.310716
433.702469
##END
