##TITLE=FAAI0502
##FORMAT=SPECTACLE-ASCII V-1.2
##DATA TYPE=ULTRAVIOLET SPECTRUM
##SECOND TYPE=ULTRAVIOLET SPECTRUM
##DATE=03/22/18
##TIME=13:44:10
##SPECTROMETER/DATA SYSTEM=SPECTACLE
##XUNITS=NM EM
##YUNITS=ENERGY
##YFACTOR=1
##FIRSTX=220
##LASTX=410
##NPOINTS=96
##3DDATA=Equidistant
##ZUNITS=NM EX
##FIRSTZ=210
##LASTZ=400
##ZPOINTS=39
##XYDATA=(Y..Y)
##ZVALUE=210
3.534555
3.863573
3.199577
3.174543
2.649426
2.722740
3.403425
3.010631
3.205538
2.963543
2.869964
2.595782
2.334714
2.226830
2.265573
2.519488
2.776980
2.471805
2.589822
2.878904
3.064871
2.973676
3.485680
3.891587
4.061460
5.056858
6.807446
8.393526
10.247827
12.448430
14.339685
16.201735
17.995834
18.249750
18.998981
20.175576
19.671917
20.355582
19.573569
19.166470
19.843578
15.870929
16.312599
15.148520
15.223622
12.448430
12.084842
12.834668
11.834502
12.199879
10.897517
10.713935
9.603500
9.202957
8.857846
8.274913
8.164644
8.209944
7.397532
7.498860
7.106662
7.328987
7.207990
7.271767
6.831884
7.021427
7.314682
8.332729
8.695722
9.127855
9.940863
12.348890
11.857748
14.929771
13.877749
15.445948
15.724897
14.143586
13.655424
13.001561
12.363791
10.080934
10.005832
9.489655
7.882714
7.125735
5.172491
6.419420
5.193949
4.913807
5.241632
5.335808
5.106926
6.129742
6.458759
7.228851
##ZVALUE=215
11.473894
11.785626
11.410713
7.083416
7.859468
6.398559
6.007552
6.298423
5.625486
6.127954
5.866885
5.321503
4.407763
4.643798
3.030896
2.510548
2.990961
3.124475
2.128482
4.114509
2.758503
3.211498
3.104806
4.057884
5.170703
7.627606
8.269548
12.769699
15.390515
21.275878
23.863912
28.474927
28.621554
30.535460
33.126473
35.771728
35.413504
32.745600
33.736825
31.262636
33.491850
30.468702
25.633574
24.852753
24.625659
23.090839
19.736886
19.497871
18.429756
17.598867
15.096664
14.940500
13.405681
12.634993
11.233687
11.361837
11.200905
10.557771
9.323955
10.817647
9.982586
8.938909
9.184480
7.810593
8.360744
8.382797
7.110834
9.653568
9.697676
10.078549
11.097789
12.525916
14.071465
15.329719
15.532970
14.840961
15.758872
14.552474
13.999939
13.245940
13.206601
10.533929
9.921789
7.832646
8.132458
7.829666
6.571412
6.994605
6.098747
6.364584
5.637407
6.343722
6.229877
5.744696
5.570650
6.071925
##ZVALUE=220
38.197637
35.937428
37.588477
36.638975
32.219887
24.349689
19.563437
15.315413
14.948845
13.156533
14.518499
14.999509
14.572740
11.987686
9.656549
9.035468
5.584955
4.965663
4.331470
3.200769
3.943443
3.347993
4.093647
4.515648
6.152987
7.617474
12.026429
16.443729
21.238923
28.638840
36.556721
39.498806
45.991540
46.535730
50.806999
55.956841
53.554773
51.178932
51.505566
50.260425
49.153566
47.111511
42.014718
39.415956
37.464499
33.262968
32.237768
28.323531
28.604865
26.370883
24.022460
22.951961
20.720959
19.580722
18.733740
18.441677
16.773939
14.863610
14.254451
13.529658
13.732910
12.072921
12.817979
12.027621
12.083650
12.766719
11.600852
11.506677
12.910962
12.127757
12.330413
14.000535
14.349818
15.300512
16.273856
16.316772
16.007423
16.484857
15.935898
14.650822
14.052987
12.243986
12.223721
11.411905
11.413693
8.610487
8.290410
7.628798
6.666780
6.858706
7.340908
7.800460
7.372499
7.532835
6.912947
7.592440
##ZVALUE=225
63.025951
63.448548
73.798895
93.718767
98.258853
89.558959
81.321001
60.999990
45.747757
37.061572
29.933453
25.781989
26.436448
25.904775
28.178692
26.155710
21.767616
18.197894
13.576746
8.159876
6.484985
5.116463
4.459620
5.640984
6.657839
9.682775
12.856722
19.076467
23.303628
33.339858
37.311912
47.770739
52.058697
55.891871
61.044693
60.481429
62.330961
62.470436
60.768723
58.054924
57.054758
55.387616
51.721931
49.538612
46.002865
44.031739
39.419532
39.034486
35.224557
31.170845
29.255748
27.896762
26.309490
23.155808
23.431778
20.692945
20.926595
19.503832
19.046664
16.956925
16.896725
15.786886
16.382933
16.793609
15.547872
15.616417
13.965964
14.184713
14.080405
15.424490
16.582608
15.821457
16.885996
19.200444
20.061731
17.640591
17.088652
17.027855
15.809536
15.993714
14.313459
13.768673
14.241934
12.071729
12.035966
11.224747
10.140538
11.983514
10.323524
10.458827
8.454919
9.821653
9.433627
9.503961
9.475946
9.605885
##ZVALUE=230
49.904585
55.588484
87.185502
132.122636
160.423517
192.868710
204.859972
201.138854
176.216960
140.642524
102.220774
72.621703
54.359436
44.797659
48.050880
49.986839
51.980615
50.601959
44.221878
36.365986
26.713610
18.893480
12.982488
8.695722
7.974505
7.522702
10.628700
15.646815
18.730760
26.143789
31.548738
33.345819
38.407445
46.641827
46.715736
50.414801
53.827763
54.019690
49.504638
53.742528
50.557852
49.136877
47.500730
44.802427
41.304827
39.275885
37.471652
34.699440
31.798482
32.291412
30.625463
27.900934
26.113987
24.900436
22.944808
23.797750
23.315549
21.835566
21.170974
20.669699
19.387603
19.608736
20.373464
18.271804
18.463731
18.174648
18.474460
18.388629
18.420815
18.763542
19.254684
21.137595
20.496845
21.818876
23.936629
22.424459
22.233725
20.568967
21.998882
21.379590
19.241571
18.025637
17.212629
17.059445
15.528798
14.583468
14.371872
15.187860
14.309883
14.225841
13.131499
13.190508
13.620853
12.732744
13.704896
12.726784
##ZVALUE=235
17.190576
19.981861
40.281415
91.094971
147.341490
228.497982
282.260776
350.520015
376.962423
374.289751
332.678556
248.298645
192.749500
124.736428
93.459487
73.036551
71.559548
74.918866
82.234740
77.073574
73.639750
65.406561
49.882531
36.120415
22.921562
17.728806
12.450814
11.900663
14.180541
13.949871
16.663671
23.141503
25.693774
28.308630
31.837821
33.549666
33.232570
36.583543
37.508607
38.307905
36.017895
36.401749
36.893487
38.994551
36.365986
33.610463
32.127500
31.066537
29.344559
28.085709
27.900934
22.940636
25.479794
24.838448
24.307966
22.366643
22.098422
23.296475
22.398829
22.288561
21.880865
20.774603
21.894574
22.057891
21.687746
21.381974
23.712516
22.302866
22.429824
22.956729
21.687746
22.986531
24.530888
26.181936
26.636720
26.209950
25.757551
25.499463
24.317503
24.862885
23.023486
22.908449
22.104979
22.046566
22.091866
21.217465
19.862652
20.647645
19.475818
19.054413
18.896461
18.671751
18.783808
18.917918
18.963814
16.749501
##ZVALUE=240
1.996756
2.567768
6.267428
25.922656
54.838657
116.089582
199.605823
325.210690
435.471535
523.450971
597.838759
585.383773
514.684916
434.605479
316.715837
217.134953
135.854483
106.157660
93.654990
96.769929
109.147429
111.459494
112.693906
96.814632
84.598660
60.586929
47.934651
33.123493
25.080442
19.147992
18.512607
20.314455
20.882487
22.197962
24.091601
26.829839
27.872920
28.214455
29.913783
30.275583
30.617714
31.138659
29.401779
30.616522
28.227568
25.436878
27.762651
27.395487
27.651787
25.593638
24.007559
22.302866
24.067760
23.423433
23.372769
23.078918
22.989511
21.717548
22.655725
21.474957
21.898746
22.310615
21.738410
23.327470
21.986961
23.251772
22.471547
23.745894
24.527907
24.549961
24.692416
27.281642
28.031468
29.405951
28.303862
28.278828
29.927492
27.351975
28.390884
26.237965
26.209950
27.189851
24.581552
25.126934
24.649501
23.936629
22.337437
22.822618
23.248792
22.834539
22.686720
21.253824
22.804737
21.583438
21.141768
22.187829
##ZVALUE=245
2.083778
2.014637
1.861453
2.026558
4.431605
15.770793
46.664476
99.301934
216.445923
327.467918
493.356586
605.916977
691.632628
728.269815
694.890618
566.354990
456.740856
310.361981
211.805701
135.532618
101.686716
98.055601
109.054446
122.302771
126.384497
124.434829
111.696720
97.819567
75.655580
60.362816
46.222806
33.103824
27.649999
24.637580
25.064945
25.711656
26.584864
25.756955
27.799606
27.023554
27.615428
26.003718
26.483536
24.960637
24.152994
24.708509
24.752617
23.806691
23.887753
22.284985
22.582412
20.067692
23.891926
20.727515
21.062493
21.448731
20.311475
21.512508
20.270944
21.011829
21.134615
20.443797
20.118952
21.859407
21.120906
21.356940
22.323728
21.483898
22.765994
23.638606
25.247931
25.286674
25.885701
27.696490
27.485490
27.178526
27.181506
26.295781
27.384758
26.395917
25.642514
24.735928
25.718808
23.922920
23.759604
22.066832
22.544861
22.189617
22.085905
22.772551
21.561980
21.560788
20.826459
19.974709
19.841790
21.837950
##ZVALUE=250
1.462698
1.476407
1.586676
1.761913
1.659989
1.825690
2.676845
8.972883
36.011934
81.135631
188.481808
319.818854
455.633998
644.232631
762.522817
841.360688
813.884735
725.923777
602.511764
420.576930
286.476612
186.879635
112.202764
93.851686
100.943446
117.857456
133.041739
141.940713
138.915777
129.965544
119.241476
93.213916
77.256560
57.840943
48.567653
41.218996
37.463903
35.147667
34.023523
33.353567
32.197833
32.656789
31.553507
30.940771
28.625727
27.890801
28.107762
26.110411
25.564432
25.087595
23.960471
24.100542
22.776723
22.330880
22.454858
21.792650
22.803545
22.732615
21.982789
22.154450
21.793842
21.930933
21.074414
21.877885
21.554828
21.648407
21.520853
21.948814
22.838712
22.940636
23.970604
24.773479
26.097894
25.104880
25.656819
26.610494
26.163459
24.041533
24.617910
23.035407
24.392605
22.144914
21.426678
22.563934
20.349622
20.817518
22.129416
20.544529
20.428896
20.822883
19.693971
18.532872
19.151568
18.334985
17.797947
19.133687
##ZVALUE=255
1.255870
1.413822
1.384616
1.342893
1.523495
1.477599
1.361966
1.825690
1.500845
5.756617
19.567609
66.379905
133.911967
286.737680
429.311991
638.204813
782.197714
925.864577
950.384736
876.188874
764.585733
612.704754
379.306674
243.907571
130.655766
100.542903
93.105435
108.356476
137.628913
154.080987
168.578625
169.067979
158.695579
142.289996
122.964978
96.820593
80.329776
64.731836
57.105422
52.708983
49.311519
45.819879
45.011640
40.908456
39.689541
38.906932
36.626458
33.680797
31.973720
30.055642
30.122995
29.020905
27.819872
27.283430
26.265979
26.174784
25.770664
24.630427
24.243593
23.739934
26.249886
24.425983
23.493767
23.428798
24.439692
24.655461
24.794936
23.485422
24.534464
23.346543
24.729967
24.268627
25.727749
25.291443
25.479794
24.575591
23.993850
24.913549
23.673773
23.130774
22.648573
22.699833
21.799803
19.547939
20.284653
20.048618
18.891692
18.167496
18.831491
18.026829
18.505454
17.166734
16.961694
17.536879
18.157959
17.851591
##ZVALUE=260
1.111627
1.102686
1.257658
1.212955
1.564622
1.355410
1.538992
1.872778
1.704693
1.746416
1.835823
2.645850
9.262562
39.530396
92.079639
220.047832
355.525017
579.518676
763.417482
965.304971
1015.861630
1015.861630
920.982957
747.993588
498.880744
340.732932
202.845931
136.447549
103.490949
110.684633
134.164691
167.614818
188.645720
205.186605
206.704736
192.238688
173.472762
149.188638
124.242902
99.348426
85.022449
72.100759
65.449476
58.956742
55.094957
51.679611
48.303604
45.004487
42.600632
39.487481
38.846731
35.892725
33.465624
31.961799
30.929446
28.978586
27.387738
28.032660
26.138425
25.208592
25.412440
25.526881
24.314523
23.777485
24.149418
23.370981
23.221970
23.318529
22.798777
24.078488
23.097992
24.483800
23.752451
23.855567
24.640560
22.046566
21.842718
22.699833
22.138953
20.202994
20.469427
19.738674
19.475818
19.513965
18.647909
18.517971
18.759966
17.693639
17.058849
17.802715
16.826987
16.616583
16.298890
15.851855
16.211867
16.342998
##ZVALUE=265
1.405478
1.070499
1.318455
1.364946
1.086593
1.031756
1.242757
1.350641
1.398921
1.497865
1.502633
1.823902
1.802444
2.390742
5.427599
26.260614
66.793561
169.689655
302.800536
539.331436
758.195519
952.159762
1015.861630
1015.861630
1015.861630
895.969868
662.685037
481.376648
289.435983
192.928910
144.387484
128.964782
141.229630
179.354548
200.062990
228.989720
232.442617
224.856734
209.460855
182.176828
157.829523
126.304626
106.141567
85.619688
74.881911
64.017773
57.833791
55.111647
50.246716
46.165586
43.592453
39.782524
38.056970
36.033988
33.825636
29.674768
29.299855
28.088689
27.589798
25.872588
24.642944
24.265647
23.464561
23.119450
23.040771
21.727681
22.821426
22.171736
21.194816
21.399856
21.067858
21.493435
21.223426
20.600557
21.060705
20.146966
20.438433
19.670725
19.798875
18.452406
18.457770
17.698407
17.268658
17.473698
16.945601
16.801953
16.350746
16.535521
16.233921
15.935898
15.136600
15.206933
15.136600
14.291406
15.143752
14.278889
##ZVALUE=270
1.040697
0.985861
1.088977
1.129508
0.994802
1.311898
1.308918
1.332760
1.119971
1.339912
1.408458
1.487732
1.234412
1.446605
1.917481
2.002716
2.443790
12.399554
37.814975
122.710466
238.250494
414.852500
709.283948
933.532715
1015.858650
1015.858650
1015.858650
1015.858650
849.190950
651.708841
463.670492
273.717642
186.442733
139.670968
138.246417
166.096687
185.385942
212.682486
227.474570
230.732560
226.226449
203.620791
178.416967
146.358609
120.246410
92.059970
77.633858
60.740709
53.590536
49.085617
45.687556
41.794777
38.277507
34.092665
33.395886
32.052994
29.036999
28.617978
26.196837
24.747849
23.323894
23.575425
22.182465
21.377802
19.878745
19.918680
19.654632
19.419789
19.091964
18.542409
18.874407
18.703938
19.747615
19.250512
18.504858
18.185973
17.955899
17.622709
17.689466
17.444491
16.278625
15.822649
15.878677
15.644431
14.907718
15.198588
14.798641
13.976693
14.066696
13.698936
13.583899
13.602972
13.635755
13.874769
12.621880
13.770461
##ZVALUE=275
0.951886
0.740886
0.956655
0.878572
0.954866
0.953674
1.131892
1.068711
1.211762
1.277924
1.119971
1.187921
1.367927
1.423955
1.434684
1.496673
1.614690
1.775622
2.030730
5.915761
22.681952
66.630840
191.970468
352.404714
634.993911
850.261450
1015.861630
1015.861630
1015.861630
1015.861630
1015.844941
807.634592
587.341785
336.355567
219.036937
132.198930
112.791657
118.767619
137.014985
165.352821
183.459520
198.840499
203.721523
194.883943
178.800821
147.475004
125.279427
96.433759
76.645613
56.355596
47.294497
37.775636
34.317970
31.262636
28.522611
26.422739
25.621653
24.927855
22.755861
21.934509
20.901561
20.423532
18.914938
19.041896
18.017888
17.912984
16.522408
17.281771
18.028617
16.952753
17.167926
17.012954
17.493963
17.213821
17.381907
17.473698
17.117858
16.701818
15.846491
16.338825
15.500784
15.139580
15.178919
14.961958
14.335513
13.686419
13.224483
13.940930
13.570786
13.580918
13.435483
13.211966
13.079643
13.510585
13.069510
12.678504
##ZVALUE=280
1.056790
0.976920
0.781417
0.811815
0.819564
0.881553
1.054406
1.024604
1.049638
1.189709
1.110435
1.298785
1.136661
1.131892
1.327991
1.284480
1.659989
1.379848
1.693964
1.799464
1.950860
2.538562
14.380813
48.680902
151.551962
274.273753
504.428744
724.041462
998.589993
1015.893817
1015.893817
1015.893817
1015.893817
895.555019
666.868687
392.498970
242.524743
123.125911
82.133412
68.891644
82.150698
106.367469
126.466751
151.137710
164.970756
172.094703
165.102482
147.602558
127.318501
98.299980
78.302622
54.644942
41.196942
29.721856
24.179816
20.735860
19.697547
19.012690
17.960668
17.526746
17.406940
17.187595
16.465783
16.837716
15.939474
16.166568
16.122460
15.683770
15.367866
15.419722
16.224980
15.668869
16.169548
16.205907
16.365647
15.881658
15.828609
15.917420
15.499592
15.735626
14.923811
14.983416
14.197826
14.940500
14.144778
14.896989
14.393926
14.239550
13.958812
14.011860
13.292432
12.823939
12.965798
12.469888
12.826920
12.629628
##ZVALUE=285
0.809431
0.872612
0.679493
0.732541
0.708699
0.866652
1.098514
1.000762
0.938773
0.808835
1.006722
1.048446
0.996590
1.014471
1.006722
1.274943
1.324415
1.115799
1.301765
1.431704
1.514554
1.779795
1.940727
2.351999
5.921721
30.463934
78.219771
200.157762
345.493555
612.431765
840.810537
1015.861630
1015.861630
1015.861630
1015.861630
1000.671983
798.532963
489.831567
311.253667
149.577856
80.063939
43.540597
42.731762
60.382485
79.749823
108.435750
128.343701
145.431757
150.826573
146.264434
136.318803
113.148689
93.507767
66.060424
48.347712
30.907989
23.903847
18.060803
15.530586
14.698505
14.115572
14.799833
14.194846
14.461875
14.167428
13.938546
14.159679
14.406443
14.754534
15.094876
15.037656
15.291572
15.369654
15.792847
15.733838
15.364885
15.571713
15.710592
15.555620
15.140772
14.854670
15.172958
14.766455
14.428496
15.351772
14.799833
13.994575
14.474988
14.574528
13.848543
14.089942
13.736486
13.826489
13.568997
12.893677
12.365580
##ZVALUE=290
0.739694
0.699759
0.646710
0.779629
0.734925
0.876784
0.631809
0.675917
0.741482
0.822544
0.906587
0.970960
0.981688
0.909567
0.944734
0.971556
0.991821
1.163483
1.137853
1.205802
1.432896
1.406670
1.512766
1.670718
1.828671
2.304912
2.969503
9.673834
46.008825
110.312700
216.895938
449.190736
684.282780
999.032855
1015.871763
1015.871763
1015.871763
1015.871763
929.214954
619.356632
405.204892
200.354457
106.295943
45.138001
30.647516
38.141608
50.982833
74.245930
92.040896
118.352771
133.993626
144.418478
143.290758
127.021670
111.365914
83.546638
64.609647
43.047667
31.000972
21.074414
16.080737
14.103651
12.963414
12.811422
12.740493
13.367534
12.957454
13.360977
13.943911
14.385581
15.093684
14.832616
15.424490
15.376806
14.897585
15.533566
15.114546
15.544891
15.621781
14.713407
14.967918
15.799999
15.259981
15.026927
15.395880
15.227795
14.617443
14.745593
14.807582
14.736652
14.566779
14.219880
13.593435
13.492703
13.894439
12.908578
##ZVALUE=295
0.736713
0.729561
0.708699
0.845790
0.650883
0.799894
0.780821
0.698566
0.747442
0.693798
0.866652
0.884533
0.811815
0.728965
0.781417
0.974536
0.913739
1.003742
0.953674
1.173615
1.132488
1.321435
1.359582
1.369715
1.584888
1.574755
1.689792
2.040863
2.254844
4.044771
15.468001
68.521500
156.472921
360.080600
577.106476
903.517604
1015.846729
1015.846729
1015.846729
1015.846729
1015.846729
744.468570
515.064597
271.573663
146.566629
55.416822
29.424429
23.534894
30.699968
48.411489
65.297484
90.708733
109.831691
127.176642
133.653879
132.831931
121.319890
101.858974
83.705783
59.108734
43.667555
28.762817
20.841956
15.078783
13.009906
12.007952
12.147427
12.268424
12.608767
13.245940
13.566613
13.457537
13.736486
14.691949
14.650822
14.932752
14.982820
15.168786
15.069842
14.662743
14.871955
14.508963
15.942454
14.790893
14.841557
14.908910
15.044808
15.108585
15.115738
14.271736
14.293790
13.834834
13.627410
13.540983
14.316440
13.861656
##ZVALUE=300
0.650883
0.593662
0.748634
0.850558
0.697970
0.651479
0.502467
0.671744
0.765920
0.884533
0.749826
0.797510
0.768900
0.936985
0.829697
0.842810
0.668764
0.819564
0.878572
0.991821
1.141429
0.998974
1.055598
1.455545
1.475811
1.460910
1.550913
1.491904
1.497865
1.514554
1.874566
2.444983
10.191798
36.057830
120.440722
234.062672
477.368832
716.398954
1007.626653
1015.861630
1015.861630
1015.861630
1015.861630
940.083861
612.255931
399.604440
197.436810
107.193589
40.952563
20.314455
20.014644
27.249455
42.440891
58.120489
81.867576
100.586414
120.122433
127.294660
127.948523
116.563439
99.939704
82.353950
58.520436
44.712424
29.023886
21.313429
15.890598
13.147593
12.193918
12.278557
12.696981
13.178587
12.959838
13.549924
13.711452
13.791919
14.323592
14.363527
14.186502
14.377832
14.478564
14.622808
14.859438
14.919639
14.382601
14.764667
14.521480
14.517903
15.013814
14.366508
14.039874
14.315844
13.439655
13.636947
13.481975
13.249516
##ZVALUE=305
0.672936
0.748634
0.793934
0.678897
0.720620
0.744462
0.757575
0.761747
0.821948
0.526905
0.724792
0.693798
0.837445
0.750422
0.803471
0.776649
0.852942
0.954866
1.004934
1.000762
0.963807
0.969768
1.215935
1.154542
1.091957
1.178980
1.135468
1.297593
1.313686
1.429915
1.699924
1.913905
2.101660
2.367496
3.992915
23.988485
68.007708
192.669630
344.347954
625.133514
865.022540
1015.907526
1015.907526
1015.907526
1015.907526
984.711647
770.424008
480.609536
294.548869
131.616592
63.845515
23.243427
14.553666
17.434955
24.637580
40.406585
56.540966
79.010725
96.011758
114.987493
121.173859
120.934844
112.439990
96.208453
79.484582
55.836439
42.458773
28.509498
20.616651
15.005469
13.756752
12.870431
12.639761
12.795925
12.844801
13.342500
13.499856
13.464689
13.808608
14.344454
13.843775
14.729500
14.240742
14.561415
15.142560
14.664531
14.787912
14.109612
14.386773
14.056563
13.920665
13.495684
14.020801
13.209581
13.137460
13.360977
##ZVALUE=310
0.767708
0.701547
0.706911
0.717640
0.681877
0.679493
0.685453
0.615716
0.599623
0.652671
0.616908
0.669956
0.771880
0.537634
0.639558
0.734925
0.767708
0.826716
0.812411
0.789762
0.945926
0.871420
0.799894
0.990629
1.082420
1.040697
1.167655
1.100898
1.260638
1.436472
1.498461
1.413822
1.503825
1.695752
1.787543
1.992583
2.471805
10.189414
34.129620
115.626454
230.215788
466.934443
707.685947
1005.460024
1015.882492
1015.882492
1015.882492
1015.882492
940.439105
620.964766
406.504869
200.871825
106.300712
38.027763
16.999841
12.230873
14.766455
23.300648
33.142567
51.559806
68.190694
89.249611
102.317929
113.883615
115.217566
107.922554
94.859004
75.668693
57.854652
39.519668
29.896498
21.054745
17.065406
13.947487
12.833476
13.072491
12.554526
12.624860
13.056993
13.226867
13.075471
13.532639
13.448596
13.730526
13.958812
13.881922
14.002919
13.844967
13.928413
13.679862
13.674498
13.173819
13.019443
13.223886
12.522936
12.864470
##ZVALUE=315
0.700951
0.706911
0.752807
0.789762
0.878572
0.719428
0.691414
0.812411
0.815988
0.966787
0.761747
0.927448
0.752807
0.786781
0.852942
0.802875
0.761747
0.813603
0.739694
0.843406
0.851750
1.043677
0.986457
1.034737
1.152754
1.037717
1.197457
1.169443
1.195669
1.239777
1.042485
1.296997
1.443624
1.530647
1.417994
1.745820
1.776814
1.880527
2.171993
4.838705
17.326474
73.474646
160.910487
360.701680
583.411455
928.967595
1016.005874
1016.005874
1016.005874
1016.005874
1016.005874
759.239793
533.074737
281.142592
151.306987
55.420995
23.646951
11.288524
10.971427
14.798641
21.125674
33.064485
45.314431
65.997839
81.782937
100.384951
108.145475
109.280944
102.968812
87.081790
73.021650
55.647492
41.568875
27.849674
21.365881
15.755892
14.097691
12.407899
12.656450
12.410879
13.000965
12.772679
12.968779
13.005733
13.289452
13.129711
13.441443
12.814999
13.194680
13.013482
12.876987
12.414455
13.074875
12.457967
12.594461
12.285709
##ZVALUE=320
0.559688
0.550747
0.550747
0.598431
0.738502
0.631809
0.471473
0.561476
0.737906
0.676513
0.521541
0.582933
0.672936
0.697970
0.713468
0.772476
0.727773
0.745654
0.726581
0.711679
0.633597
0.688434
0.750422
0.793934
0.935793
0.730753
0.831485
1.014471
0.965595
1.017451
1.216531
1.138449
1.270771
1.126528
1.498461
1.334548
1.327991
1.423955
1.513958
1.731515
1.970530
2.594590
6.776452
40.114522
104.835629
271.929502
450.109839
741.766691
983.019471
1015.904546
1015.904546
1015.904546
1015.904546
931.535959
611.291528
394.648910
181.369781
95.048547
34.042597
15.305877
9.565949
9.959936
13.521910
17.940998
29.656887
41.017532
59.667826
75.045824
94.043612
102.079511
104.514956
97.660422
84.291697
71.020722
53.134561
40.547848
27.681589
20.621419
15.394688
13.336539
12.402534
12.428761
12.175441
12.228489
12.323856
12.367964
12.683868
12.267828
12.356639
11.952519
12.264848
12.083650
12.197495
12.169480
11.683702
12.058616
##ZVALUE=325
0.541806
0.519753
0.521541
0.447631
0.595450
0.572801
0.497699
0.586510
0.601411
0.505447
0.699759
0.498891
0.740886
0.628829
0.444651
0.579953
0.695586
0.515580
0.692606
0.667572
0.704527
0.653863
0.584722
0.671744
0.712872
0.884533
0.663996
0.697970
0.905991
0.819564
1.011491
1.044869
1.136661
1.046658
1.149774
1.118779
1.121759
1.235604
1.317859
1.342893
1.531839
1.793504
1.779795
2.061725
3.983974
25.907755
69.848895
184.567571
339.334011
553.767681
879.461765
1015.861630
1015.861630
1015.861630
1015.861630
996.470451
703.236461
474.659801
244.235396
135.271549
50.527453
21.633506
9.639859
8.868575
9.879470
12.133718
18.625855
26.623607
42.934418
56.587458
74.865818
86.957812
96.145868
97.484589
91.789961
81.824660
64.633489
50.669909
34.963489
26.437640
18.363595
15.583634
12.784600
12.250543
11.625886
11.812449
11.626482
11.454821
11.525750
11.430979
11.656880
11.322498
11.270642
11.385679
11.461973
11.688471
##ZVALUE=330
0.535846
0.530481
0.505447
0.605583
0.413656
0.450611
0.590682
0.666976
0.534654
0.658631
0.422597
0.460744
0.513792
0.460744
0.716448
0.627637
0.415444
0.636578
0.707507
0.700951
0.830889
0.715852
0.643730
0.763535
0.687838
0.812411
0.945926
0.813603
0.824928
0.693798
0.766516
0.749826
0.826716
0.897646
1.008511
0.983477
1.018643
1.048446
1.149774
1.019835
1.283884
1.230836
1.579523
1.598597
1.767874
1.855493
2.455711
11.308789
36.957860
124.237537
240.683556
481.272936
703.977942
996.394753
1015.869975
1015.869975
1015.869975
1015.869975
838.948488
537.605882
344.231725
158.924460
79.865456
28.045774
12.914538
8.490682
8.218884
9.484887
11.944771
18.710494
26.153922
39.581656
52.413940
71.344972
82.237720
91.320872
91.406703
84.927678
75.583458
60.191751
48.365593
34.101605
25.834441
18.806458
15.252829
13.073683
11.857748
11.600852
11.298656
11.359453
11.065602
10.804534
11.120439
10.959506
10.935664
10.875463
##ZVALUE=335
0.469685
0.442863
0.496507
0.468493
0.487566
0.485778
0.668764
0.566840
0.610948
0.573993
0.534654
0.626445
0.489950
0.589490
0.586510
0.678897
0.553727
0.476837
0.666976
0.647902
0.548959
0.379682
0.628829
0.678897
0.620484
0.652671
0.590682
0.744462
0.768900
0.729561
0.643730
0.727773
0.642538
0.841618
1.025796
0.826716
0.929832
0.743866
1.024604
0.973940
1.089573
0.974536
1.337528
1.304746
1.381636
1.721978
1.491904
1.803637
1.887679
4.819632
18.669963
75.941682
161.592960
361.079574
577.152967
899.145007
1015.867591
1015.867591
1015.867591
1015.867591
948.584676
639.864802
432.662964
224.597454
117.212534
40.527582
17.002821
8.910894
7.968545
8.164644
9.407997
12.296438
17.431974
27.136803
36.242604
50.822496
63.647628
77.582002
83.780885
85.466504
81.333518
69.235563
58.359504
45.780540
36.163926
25.627613
20.085573
15.104413
12.721419
11.419654
10.903478
10.403991
10.768771
10.346770
10.478497
10.389686
##ZVALUE=340
0.255704
0.455976
0.462532
0.528693
0.477433
0.476837
0.296831
0.467896
0.373721
0.356436
0.379682
0.392795
0.475645
0.419617
0.454783
0.441670
0.421405
0.472665
0.615716
0.518560
0.486970
0.595450
0.426769
0.423789
0.623465
0.591874
0.596642
0.443459
0.546575
0.682473
0.701547
0.750422
0.663996
0.629425
0.717640
0.779629
0.836849
0.693798
0.809431
0.847578
0.889897
0.863671
0.955462
0.994802
1.043677
1.155734
0.997782
1.290441
1.380444
1.591444
1.726747
2.655983
8.756518
46.530962
115.126967
285.179019
476.617813
772.283673
988.667607
1015.792489
1015.792489
1015.792489
1006.847024
747.177005
522.411466
269.365907
147.895813
59.196949
23.978949
9.556413
8.169413
7.961988
8.143783
9.501576
11.481643
17.311573
23.981929
35.939813
47.365427
63.122511
72.206855
80.501437
79.746842
75.603724
69.211721
55.805445
45.479536
32.956600
25.405884
18.951893
14.630556
11.738539
10.952950
10.373592
9.914637
9.722710
##ZVALUE=345
0.512600
0.379682
0.403523
0.367761
0.538826
0.391603
0.408888
0.607967
0.448823
0.406504
0.544786
0.509620
0.548959
0.542998
0.401735
0.492930
0.557899
0.456572
0.544786
0.650883
0.556707
0.539422
0.506639
0.591874
0.511408
0.588894
0.600815
0.648499
0.483990
0.583529
0.565648
0.691414
0.568628
0.693798
0.675917
0.664592
0.849962
0.828505
0.914931
0.582933
0.778437
0.950694
0.865459
0.789762
0.892878
1.048446
1.179576
1.215935
1.138449
1.249909
1.532435
1.578927
1.612902
1.759529
3.895760
26.343465
73.217750
195.564628
346.938968
620.181561
843.228698
1015.861630
1015.861630
1015.861630
1015.861630
857.523680
628.765821
353.521705
201.851726
84.219575
36.671758
12.646914
8.462667
7.880926
7.837415
8.140802
8.934736
11.093616
14.710426
23.039579
31.649470
44.450760
55.035949
66.583753
72.626472
74.154735
72.402954
64.066648
55.133700
43.711662
34.370422
24.412870
18.748641
14.479756
11.953712
10.702610
##ZVALUE=350
0.450611
0.364780
0.505447
0.475645
0.163913
0.309944
0.347495
0.267625
0.350475
0.426769
0.397563
0.447631
0.380874
0.522733
0.531673
0.563860
0.528693
0.606775
0.539422
0.585914
0.570416
0.560880
0.580549
0.580549
0.533462
0.556707
0.550747
0.654459
0.653863
0.770688
0.563860
0.718832
0.438690
0.749826
0.779629
0.893474
0.807643
0.794530
0.810623
0.871420
0.620484
0.822544
0.880957
0.781417
0.958443
0.868440
0.980496
0.957847
0.869632
1.060963
1.113415
1.387596
1.275539
1.472831
1.297593
1.738667
2.382398
12.640953
41.506886
131.960511
250.586867
495.281816
711.252689
979.653597
1015.861630
1015.861630
1015.861630
940.727592
712.773800
420.919657
254.794955
117.268562
53.471923
16.069412
8.824468
7.430911
7.179976
7.158518
7.401705
8.476973
10.137558
15.013814
19.959807
28.843880
37.475824
49.353838
57.599545
65.887570
68.113804
66.503882
61.676502
50.635934
42.332411
30.604601
24.401546
17.309785
##ZVALUE=355
0.560880
0.395775
0.474453
0.608563
0.421405
0.551939
0.591874
0.428557
0.539422
0.414848
0.436902
0.649691
0.483990
0.491738
0.550747
0.526905
0.564456
0.531673
0.577569
0.492930
0.625849
0.570416
0.495911
0.516772
0.718832
0.599623
0.644922
0.564456
0.578761
0.565648
0.679493
0.700951
0.714660
0.594854
0.537634
0.818968
0.805855
0.533462
0.715852
0.719428
0.738502
0.689626
0.679493
0.788569
0.754595
0.873804
0.848770
0.960827
1.050830
0.925660
0.805855
1.134872
1.296997
1.229644
1.325607
1.382828
1.531839
1.808405
1.759529
5.837679
21.915436
86.324811
179.292560
373.690724
583.239794
884.021521
1015.864015
1015.864015
1015.864015
987.069011
789.774656
516.806841
324.286819
141.182542
67.835450
21.447539
9.916425
7.238984
6.889701
6.664991
6.863475
7.272959
7.997751
9.820461
12.362599
18.020868
24.290681
34.534931
42.048693
52.463412
57.759881
62.767863
60.990453
55.649877
49.730539
39.187670
##ZVALUE=360
0.576973
0.482798
0.438690
0.339746
0.270605
0.381470
0.388622
0.525713
0.548959
0.447631
0.550747
0.625849
0.508428
0.568628
0.496507
0.570416
0.508428
0.634789
0.583529
0.400543
0.570416
0.533462
0.594854
0.619888
0.418425
0.629425
0.519753
0.679493
0.679493
0.612736
0.725985
0.640750
0.775456
0.777841
0.753999
0.753999
0.685453
0.909567
0.852942
0.679493
0.720620
0.858903
0.850558
0.777841
0.779629
0.812411
0.963807
0.934601
0.870824
0.853539
0.918508
1.198649
1.113415
1.020432
1.130700
1.205802
1.133680
1.245737
1.544952
1.508594
1.763701
2.973676
9.424686
45.588613
111.838579
272.412896
448.601842
718.920827
933.299661
1015.864611
1015.864611
1015.864611
899.210572
603.779554
399.206877
194.563866
100.681782
36.479831
14.870763
7.449985
6.779432
6.766915
6.586909
6.435513
6.273985
7.085800
8.055568
10.493994
13.910532
20.329952
27.344823
37.689805
44.903755
52.634478
56.195855
55.667758
##ZVALUE=365
0.320673
0.309944
0.367761
0.399947
0.430942
0.493526
0.368953
0.526905
0.405908
0.448823
0.431538
0.527501
0.547767
0.565648
0.575781
0.679493
0.404716
0.554919
0.471473
0.384450
0.591874
0.523925
0.370741
0.438690
0.701547
0.424981
0.437498
0.457764
0.595450
0.670552
0.561476
0.489950
0.569820
0.658631
0.478625
0.458956
0.546575
0.499487
0.589490
0.597835
0.736713
0.610948
0.553727
0.702739
0.806451
0.663996
0.727773
0.769496
0.799894
0.865459
0.795722
0.947714
0.835657
1.030564
1.104474
0.975728
1.191497
1.087785
1.161695
1.391768
1.352429
1.641512
1.736879
1.996756
4.130602
24.595857
68.084002
181.573629
334.749818
613.486767
819.495916
1015.650630
1015.812755
1015.812755
956.609845
692.886710
488.109589
266.970992
144.146681
51.074624
20.906925
7.773638
6.359816
6.100535
6.060600
6.013513
5.706549
5.857944
6.083846
7.035732
8.463860
12.528896
16.709566
24.620891
30.875802
39.083958
##ZVALUE=370
0.408888
0.253916
0.333786
0.381470
0.425577
0.310540
0.277758
0.354648
0.369549
0.324845
0.339746
0.335574
0.373721
0.208616
0.290871
0.282526
0.319481
0.389814
0.467896
0.407696
0.494719
0.456572
0.526905
0.359416
0.425577
0.231862
0.482798
0.425577
0.606775
0.295639
0.618696
0.493526
0.500679
0.522733
0.458956
0.493526
0.626445
0.397563
0.473857
0.550747
0.665784
0.508428
0.488758
0.555515
0.621676
0.551939
0.473857
0.504851
0.514984
0.557899
0.711679
0.586510
0.771880
0.881553
0.851750
0.871420
0.663996
0.912547
0.894666
0.798702
1.007915
1.025796
1.148582
1.299977
1.365542
1.697540
2.320409
12.233853
42.446852
138.398409
263.738632
504.149795
723.150969
981.597900
1015.715599
1015.715599
1007.762551
787.251592
576.892495
319.798589
178.593993
70.237517
31.633973
11.245608
6.384850
5.687475
5.538464
5.384684
5.218983
5.211830
5.001426
5.278587
6.110668
8.184910
10.200739
14.959574
##ZVALUE=375
0.397563
0.390410
0.460744
0.554919
0.408888
0.380874
0.436902
0.457764
0.407696
0.516772
0.357628
0.424981
0.493526
0.374913
0.388622
0.498891
0.464916
0.553727
0.453591
0.641942
0.474453
0.660419
0.547767
0.695586
0.660419
0.617504
0.691414
0.460744
0.630617
0.781417
0.598431
0.564456
0.438690
0.674725
0.732541
0.524521
0.588894
0.716448
0.779629
0.643730
0.509620
0.696778
0.642538
0.575781
0.775456
0.577569
0.617504
0.706911
0.640750
0.765920
0.711679
0.773668
0.789762
0.875592
0.765920
0.791550
0.949502
0.720620
0.983477
0.999570
0.926852
1.100898
1.019835
1.128912
1.140833
1.139641
1.396537
1.600981
1.967549
5.205870
29.527545
76.157451
197.232962
351.277590
623.098016
825.594664
1015.861630
1015.861630
1015.861630
906.386971
639.849901
446.030498
245.778561
136.200786
52.374601
22.346973
7.602572
5.544424
4.968643
5.198717
4.908442
5.042553
4.842877
5.013943
4.959702
5.599856
##ZVALUE=380
0.529885
0.446439
0.377893
0.498891
0.244975
0.372529
0.342727
0.433922
0.402927
0.485778
0.406504
0.451803
0.362992
0.391603
0.493526
0.416636
0.292659
0.440478
0.425577
0.395775
0.508428
0.534654
0.493526
0.457764
0.492930
0.556707
0.589490
0.510812
0.497699
0.641942
0.704527
0.666976
0.744462
0.742674
0.736713
0.699759
0.672936
0.777841
0.780821
0.672936
0.524521
0.744462
0.802875
0.634789
0.540614
0.583529
0.656843
0.687838
0.629425
0.688434
0.505447
0.526905
0.678897
0.547767
0.652671
0.755787
0.639558
0.796914
0.760555
0.746846
0.674725
0.701547
0.954866
1.051426
1.063943
1.137853
1.261830
1.396537
1.525879
1.633763
1.910925
2.946854
14.980435
47.735572
146.683455
271.232724
509.624481
734.093785
985.198617
1015.861630
1015.861630
974.730849
755.127668
561.800003
323.383808
189.146996
78.311563
35.268664
10.501742
5.719662
4.958510
4.653931
4.347563
4.610419
4.772544
4.353523
##ZVALUE=385
0.408888
0.442863
0.513792
0.441670
0.380874
0.422597
0.385642
0.304580
0.238419
0.380874
0.290871
0.378489
0.399947
0.418425
0.325441
0.395775
0.346899
0.363588
0.448823
0.386834
0.329614
0.423789
0.407696
0.477433
0.470877
0.529885
0.582933
0.586510
0.550747
0.532866
0.688434
0.697970
0.764728
0.704527
0.751615
0.786781
0.848770
0.719428
0.786781
0.728965
0.661612
0.771880
0.653863
0.717640
0.736713
0.612736
0.721812
0.618696
0.543594
0.679493
0.576973
0.726581
0.737906
0.679493
0.751615
0.721812
0.729561
0.839829
0.725985
0.798702
0.853539
0.838637
0.885725
0.922680
0.847578
0.960827
1.003742
1.077652
1.148582
1.223683
1.357794
1.613498
1.685619
2.066493
5.542636
32.469630
85.463524
215.646625
379.673839
657.031536
862.605572
1015.861630
1015.861630
1015.332937
896.485448
648.540854
453.314781
245.189667
137.568712
55.128932
22.192597
6.862879
4.700422
4.270673
4.410744
4.133582
##ZVALUE=390
0.427961
0.416636
0.334978
0.491738
0.252724
0.282526
0.394583
0.369549
0.209808
0.245571
0.335574
0.279546
0.602603
0.524521
0.398755
0.199676
0.497699
0.380874
0.300407
0.441670
0.302792
0.365973
0.488758
0.333786
0.430942
0.465512
0.589490
0.759959
0.718832
0.675917
0.781417
0.783801
0.849962
0.960827
1.004934
1.068711
0.881553
1.068711
0.968575
1.028776
0.848770
0.989437
0.949502
0.698566
0.801682
0.728965
0.801682
0.984669
0.856519
0.647902
0.817776
0.700951
0.710487
0.644922
0.749826
0.684857
0.729561
0.691414
0.612736
0.767708
0.643730
0.886917
0.748634
0.953674
0.976920
0.896454
0.917912
1.065731
1.065731
1.191497
1.428723
1.483560
1.492500
1.423955
1.546741
1.774430
2.951622
16.495585
53.486824
164.361596
306.998491
561.425686
755.841732
961.235762
1015.842557
1015.842557
984.489918
762.505531
573.674440
344.078541
198.198557
80.731511
36.264658
10.094643
5.277991
4.332662
##ZVALUE=395
0.415444
0.345707
0.292659
0.419617
0.424981
0.359416
0.378489
0.456572
0.338554
0.330806
0.304580
0.392795
0.521541
0.504851
0.517964
0.476837
0.572801
0.557899
0.483990
0.464916
0.397563
0.473857
0.547767
0.498891
0.535846
0.446439
0.628829
0.655651
0.903606
0.917912
1.030564
1.151562
1.140833
1.292825
1.407862
1.243949
1.141429
1.121759
1.191497
1.090765
1.135468
0.983477
1.090765
0.971556
1.066923
0.864863
0.966787
1.048446
1.113415
0.801682
0.856519
0.886917
0.827909
0.733733
0.765920
0.708699
0.806451
0.771880
0.839829
0.803471
0.798702
0.656843
0.767708
0.808835
0.956655
0.956655
0.920892
1.017451
0.939965
1.119971
1.314878
1.334548
1.393557
1.452565
1.394749
1.299977
1.405478
1.654625
2.037883
9.218454
33.645630
118.982792
229.705572
444.498658
642.712712
904.662013
1015.861630
1015.861630
1015.861630
884.139538
680.139661
414.498448
259.295702
121.224523
56.928992
18.064976
##ZVALUE=400
0.361800
0.401735
0.450611
0.397563
0.412464
0.458956
0.490546
0.328422
0.427961
0.409484
0.430942
0.515580
0.543594
0.351667
0.480413
0.483990
0.471473
0.395775
0.347495
0.358820
0.455976
0.511408
0.337958
0.456572
0.495911
0.598431
0.794530
0.769496
0.917912
0.939965
1.180768
1.229644
1.304746
1.238585
1.483560
1.509786
1.619458
1.262426
1.503825
1.236796
1.188517
1.120567
1.209974
1.047850
1.142621
1.039505
0.996590
1.182556
0.928640
1.029968
0.976920
0.722408
0.881553
0.758767
0.713468
0.800490
0.649691
0.720620
0.689626
0.708699
0.667572
0.760555
0.826716
0.765920
0.698566
0.750422
0.878572
0.993609
1.054406
1.122952
1.249909
1.273751
1.149774
0.983477
1.142621
1.299977
1.206994
1.304746
1.352429
1.456738
1.899600
5.511642
20.168424
73.225498
154.950619
341.243744
529.700518
795.875788
963.649750
1015.861630
1015.861630
934.759974
766.057968
517.326593
339.195728
167.891979
##END
