##TITLE=FAAI0851
##FORMAT=SPECTACLE-ASCII V-1.2
##DATA TYPE=ULTRAVIOLET SPECTRUM
##SECOND TYPE=ULTRAVIOLET SPECTRUM
##DATE=03/22/18
##TIME=13:08:55
##SPECTROMETER/DATA SYSTEM=SPECTACLE
##XUNITS=NM EM
##YUNITS=ENERGY
##YFACTOR=1
##FIRSTX=220
##LASTX=410
##NPOINTS=96
##3DDATA=Equidistant
##ZUNITS=NM EX
##FIRSTZ=210
##LASTZ=400
##ZPOINTS=39
##XYDATA=(Y..Y)
##ZVALUE=210
3.326535
3.730655
2.928972
3.307462
3.544688
3.205538
3.310442
3.712773
3.405809
2.951622
2.702475
1.919866
2.325773
2.864599
2.137423
2.601743
2.625585
2.752542
2.807975
3.341436
3.010631
3.202558
2.747774
2.946854
3.947616
3.657937
3.695488
4.466772
4.218817
5.238652
4.630685
4.778504
5.550981
5.947948
6.095767
6.139874
6.309748
5.743504
5.979538
6.780624
6.554723
5.809665
5.614758
4.890561
5.329847
4.868507
6.138682
5.404949
6.404519
5.397797
5.303621
5.098581
5.096793
6.200671
5.398989
5.731583
5.463958
5.237460
5.703568
5.056858
5.101562
5.187988
5.777478
5.240440
4.656911
5.853772
6.694794
6.159544
6.832480
7.667542
8.987784
9.682775
11.291504
14.792681
14.573932
13.691783
14.989972
14.635921
13.675690
12.192726
12.013912
10.959506
9.683967
7.647872
7.730722
6.637573
5.460978
4.656911
4.561543
5.631447
4.758835
4.667640
5.061626
5.402565
6.622672
5.837679
##ZVALUE=215
13.226867
12.693405
9.511709
8.194447
7.160902
6.929636
6.739497
6.506443
8.022785
8.239746
7.206798
5.579591
4.814863
3.761649
3.566742
2.343655
2.947450
3.057718
2.539754
2.591610
3.465414
3.094673
3.714561
3.835559
3.989935
3.855824
4.615784
5.580783
7.051826
6.265640
7.148981
7.061958
7.615685
6.867647
7.795691
8.557439
7.687807
8.357763
7.832646
7.480979
7.716417
5.618930
7.155538
7.243752
6.903410
6.960630
7.047653
6.486773
6.660819
5.728602
6.085634
6.147623
6.266832
5.642772
5.118847
5.466938
5.767941
6.643534
5.968809
5.558729
5.221963
5.536675
6.065965
6.260872
4.886985
5.906820
6.583929
6.878972
6.976724
7.456541
9.211898
10.593534
11.435747
11.226535
12.337565
13.487935
12.461543
12.340546
11.968613
11.085868
10.978580
9.121895
8.839965
7.594824
6.854534
6.018877
5.662441
5.051494
4.885793
4.446507
4.262924
4.279613
4.705787
5.046725
3.879666
5.585551
##ZVALUE=220
40.385723
39.697886
39.559603
36.975741
30.153990
25.585890
18.334985
16.839504
13.703704
13.717413
15.776753
14.613867
15.422702
12.729764
10.394454
7.774830
5.728602
4.857779
3.155470
3.242493
3.288984
3.515482
3.332496
3.919601
4.263520
4.187822
4.431605
5.499721
6.686449
7.910728
8.544922
8.413792
9.113550
11.646748
8.892417
10.843873
10.133982
10.004640
10.423660
9.293556
9.703636
9.637475
9.536743
7.811785
8.014441
7.676482
7.642508
8.158684
7.689595
7.497668
7.664561
7.758737
7.074475
7.340908
7.982850
6.309748
6.921887
7.006526
6.346703
6.146431
6.422997
6.556511
6.182790
6.549954
6.959438
6.642938
6.279945
6.461740
7.358789
8.932948
9.301901
9.189844
11.126995
12.598634
13.167858
13.486743
13.666749
13.428926
13.543963
11.527538
10.602474
10.082722
8.700490
8.323789
7.469654
6.163716
6.146431
4.801750
5.436540
5.111694
4.611611
4.884601
4.200935
5.255938
4.609823
4.766583
##ZVALUE=225
61.190724
66.886544
80.899596
92.029572
94.770789
90.634823
84.527731
60.393810
46.201944
36.765933
27.687550
27.259588
27.865767
29.192567
28.293729
27.508736
21.598935
17.965436
13.898611
8.981824
6.595850
4.388690
4.728436
4.688501
5.156994
4.847646
6.452799
6.406903
7.096529
7.831454
8.042455
10.853410
10.848641
10.733604
12.670755
11.803508
13.681650
12.425780
11.555552
11.774898
11.216998
11.015534
10.291934
10.590553
9.354949
9.323955
9.043813
9.106994
8.602738
7.714629
8.492470
8.422732
8.608699
8.154511
8.987784
8.886456
8.583665
7.438660
8.914471
8.167624
9.134412
8.941889
8.707643
8.283854
8.286834
7.492900
7.834435
8.647442
8.950830
8.514524
10.674000
11.192560
11.679530
13.100505
13.200641
12.999773
12.197495
12.666583
12.562871
10.736585
9.733438
10.464787
8.841753
9.574890
8.119941
7.267594
7.411838
6.481409
6.339550
6.140471
5.130768
5.959868
4.980564
5.487800
5.995631
5.713701
##ZVALUE=230
53.252578
58.727860
85.548759
136.971474
166.903734
195.777416
207.729936
203.288794
175.191760
144.723654
96.163750
73.196888
52.679777
46.311617
46.544671
51.939487
54.133534
50.902963
44.898987
36.324859
27.562976
16.607642
12.272596
8.011460
7.014871
5.750656
5.961657
5.780458
6.900430
7.735491
8.885860
9.190440
9.504557
10.449886
11.488795
11.265874
10.504723
10.155439
10.789633
10.750890
9.813905
9.883642
10.441542
8.688569
9.126663
9.272695
7.605553
8.550882
8.999705
8.543730
9.336472
9.204745
8.686781
9.259582
9.077787
8.804798
8.946657
10.176897
9.788871
9.978414
8.515716
9.773970
10.257959
8.738637
9.189844
9.082556
9.233952
9.747744
10.374784
10.745525
11.680722
13.838410
13.897419
15.074611
13.046861
15.166998
14.381409
12.747645
13.663769
12.855530
11.100769
11.062622
10.529757
8.958578
8.596778
8.818507
8.270741
7.498860
7.401705
7.090569
7.378459
6.708503
7.224679
6.589890
6.521940
7.162690
##ZVALUE=235
18.531680
19.084811
48.364997
84.566474
156.918764
208.175778
289.769769
349.810719
377.506018
372.532010
305.865407
251.906514
192.977786
125.486851
93.736649
75.931549
69.543719
78.381896
81.225634
85.411668
74.254870
66.233873
48.955679
37.232637
21.759868
15.924573
10.863543
8.249879
7.432699
7.051826
7.267594
8.565784
7.932782
8.562803
9.261966
8.243918
8.997917
8.846521
8.953810
9.806752
8.616447
10.148883
8.972883
9.426475
8.182526
7.811785
8.564591
7.798672
8.843541
7.490516
8.204579
8.399487
9.366870
9.956956
9.652972
9.457469
8.106828
9.577870
9.546876
8.811951
9.404421
10.533929
9.704828
9.707808
10.692477
10.875463
10.875463
10.213852
11.785626
13.013482
12.984872
13.562441
16.080737
16.318560
16.785860
17.236471
16.102791
15.647411
14.808774
13.661981
13.632774
13.120770
11.455417
11.848807
10.303855
9.057522
9.019971
9.944439
9.321570
9.518862
8.173585
9.570718
9.091496
8.827448
8.736849
8.775592
##ZVALUE=240
1.869798
2.136827
7.050633
19.825697
59.447885
109.201670
210.932493
303.527713
437.575579
510.032773
585.314631
572.272539
520.520806
404.999852
321.972966
207.099915
147.854686
104.772449
92.930794
100.338459
110.957623
113.166571
111.455917
102.055669
80.912709
66.387653
45.425892
31.834841
18.785596
15.014410
10.749698
8.259416
9.003878
9.131432
9.005666
8.747578
8.420944
8.778572
10.502934
8.715987
9.709597
8.492470
9.154677
9.955764
8.826852
7.474422
9.396672
8.903742
8.619428
9.371638
9.792447
7.876754
9.921789
9.744763
8.961558
8.707643
8.255839
9.155869
8.601546
9.824634
9.136796
10.173917
9.827614
9.732842
8.780956
9.925961
10.139942
10.153651
11.664629
12.549758
14.105439
16.079545
16.312599
17.569661
17.538667
16.901493
16.634464
16.586781
14.771819
13.734698
14.263988
12.835860
12.233853
11.871457
10.707974
11.811852
11.001825
10.000467
9.525418
10.759830
10.459423
10.305643
9.527802
10.106564
9.526610
10.307431
##ZVALUE=245
1.708865
2.007484
1.786947
1.697540
4.322529
13.595819
47.215819
92.725754
207.497478
316.716433
476.190448
593.695641
671.877861
697.010756
657.863617
545.031428
441.967845
300.304890
202.636719
126.829743
102.914572
94.033480
109.368563
119.161606
130.765438
120.057464
108.731985
92.639923
70.335865
52.358508
39.077997
24.267435
16.097426
10.672808
10.259748
9.165406
9.367466
8.957982
9.207726
8.889437
10.271668
9.758472
9.238720
9.251833
9.002686
9.179711
8.971691
8.593798
8.637905
8.280873
8.610487
8.016825
8.300543
7.287860
9.242892
8.298755
8.660555
9.076595
8.070469
8.228421
8.356571
9.252429
8.562803
9.265542
8.582473
8.706450
9.335876
9.185672
10.215640
10.301471
11.876822
12.340546
14.246702
14.362931
14.261603
15.188456
14.063716
14.500618
13.582706
12.669563
12.470484
12.213588
10.871887
10.443926
10.300875
10.657907
10.671616
10.037422
9.429455
9.836555
9.821653
9.278655
8.105636
9.169579
8.801818
9.174943
##ZVALUE=250
1.543760
1.846552
1.467466
1.684427
1.863837
1.855493
3.014803
9.066463
34.903884
79.499483
178.190470
299.221873
434.737802
614.228845
729.383826
792.545676
801.799893
713.601708
594.442487
406.323671
277.412534
182.911754
108.535886
92.246532
99.184513
114.646554
128.629804
134.470463
132.292509
118.261576
103.662610
78.993440
61.334968
36.883950
24.037957
15.770793
11.247993
10.346770
9.040833
9.566545
8.614659
9.425879
8.792877
8.843541
9.683967
9.011626
9.426475
8.278489
9.187460
8.218884
8.131862
8.139610
8.174777
8.520484
8.286834
7.444620
8.306503
7.615685
7.436872
8.123517
7.166862
7.863641
7.104874
6.956458
6.796718
7.786751
7.625818
8.093715
8.847713
9.952784
10.172725
10.237694
11.820793
12.352467
12.389421
12.024641
12.135506
11.270642
11.683702
12.803674
11.830926
9.354949
9.663701
9.035468
9.198785
8.188486
8.702874
8.267760
7.930994
8.116961
8.447766
8.458495
8.217692
8.417964
9.040833
7.891655
##ZVALUE=255
1.024604
1.337528
1.320839
1.513958
1.395941
1.534820
1.835823
1.908541
1.859665
5.647540
18.866658
64.964890
130.173564
270.679593
411.381721
618.473887
751.552582
879.378915
912.691951
846.399665
725.066662
540.148616
368.825793
237.270594
128.813982
93.947649
88.828802
99.173784
119.596720
134.840608
144.240856
141.387582
128.230453
108.363628
80.706477
62.613487
38.662553
27.012825
16.650558
12.884736
10.941625
10.007620
10.817647
10.672808
10.394454
9.298921
10.066628
9.252429
8.694530
9.000897
8.656979
8.399487
7.286668
8.769631
7.369518
7.415414
7.429719
6.772876
7.108450
7.171631
7.453561
6.661415
6.598830
6.246567
6.473660
7.086992
6.973743
7.516742
7.589459
7.625818
8.415580
9.239912
9.992719
10.286570
10.590553
10.523796
11.134744
9.664893
9.483695
9.237528
9.171963
8.814931
8.676648
7.484555
7.294416
7.636547
7.177591
7.263422
6.210804
7.995963
7.626414
7.512569
6.959438
7.646680
7.059574
6.960630
##ZVALUE=260
1.411438
1.375675
1.321435
1.375675
1.412630
1.546741
1.799464
1.734495
1.992583
2.052784
2.240539
2.879500
9.191632
38.700700
89.272857
211.817026
343.555808
558.022857
732.000470
925.873518
1012.300849
1004.458666
879.706740
715.659857
472.187996
324.424505
185.984969
118.304491
83.331466
82.870722
106.433630
128.715634
145.026445
152.214766
150.078535
133.920908
114.187598
84.592700
64.533949
40.287971
30.522943
18.747449
13.962984
12.264848
11.614561
10.629892
10.094643
10.371804
9.635687
9.814501
9.089708
8.810759
9.158850
9.088516
8.342862
8.073449
8.040667
7.674694
7.335544
7.219911
7.189512
6.778836
6.955862
7.368922
6.646514
6.596446
7.149577
7.418990
6.942749
7.206798
8.145571
8.419752
9.674430
9.254813
9.405613
9.339452
8.363724
9.355545
8.571744
8.022785
7.623434
7.877946
7.104874
7.038713
6.696582
7.397532
6.898642
6.878972
6.949902
7.160902
7.326603
6.457567
6.716847
7.082820
6.577969
7.186532
##ZVALUE=265
1.089573
1.076460
0.906587
1.137853
1.346469
1.282692
0.994802
1.232624
1.417994
1.157522
1.741648
1.637936
1.777411
1.988411
5.107522
25.828481
65.988898
165.108442
286.623836
522.841811
729.214549
916.889906
1015.850902
1015.850902
995.804667
854.933858
629.534721
451.647639
252.873898
152.632594
98.007917
73.977709
83.219409
112.634897
133.312941
153.349638
154.950619
149.942636
135.368705
111.812949
89.736581
58.563948
43.917894
27.188659
18.843412
12.746453
10.757446
10.210872
9.396672
9.680986
8.577704
8.712411
8.481741
8.503795
8.241534
7.838607
7.582903
6.798506
6.372929
7.125735
6.523728
6.812811
5.843639
6.067753
6.445646
6.113648
6.031990
5.932450
6.937981
6.781816
6.952882
7.224679
7.557869
8.528829
7.817745
8.117557
8.135438
7.641912
7.613897
6.760955
6.600618
7.343888
6.777644
6.565452
6.261468
5.507469
6.641746
5.921721
5.658865
6.098747
6.263852
6.394982
5.838871
6.087422
6.066561
6.420612
##ZVALUE=270
0.956655
0.987649
1.051426
1.139641
1.060963
1.121759
0.860691
1.189709
1.286864
1.237988
1.571774
1.736879
1.692772
1.708865
1.895428
1.974702
2.536774
11.730790
36.607981
117.027760
230.371952
396.703482
682.141781
897.806883
1015.864611
1015.864611
1015.864611
1007.529497
788.254738
590.735674
428.808928
219.828486
127.958655
70.959926
67.828894
87.045431
107.311606
135.966539
151.115656
157.295465
153.947473
134.172440
113.649964
84.512830
63.075423
40.789843
27.970672
16.901493
12.469888
10.207891
8.898973
8.669496
8.284450
7.918477
7.795691
7.506609
7.486939
7.138848
7.045865
6.689429
6.532669
6.555915
6.371737
6.005764
5.491972
5.897880
5.789995
5.339980
5.882978
6.319880
7.061958
7.157922
7.039905
7.940531
7.346869
7.672906
7.681847
7.390976
6.792545
6.653666
6.249547
6.154776
5.833507
6.135702
5.779862
5.078912
5.833507
5.169511
5.421638
5.907416
5.760789
5.378723
5.343556
5.728602
5.572438
5.653501
##ZVALUE=275
0.990629
0.973940
1.092553
1.004934
0.994802
0.865459
0.981688
1.160502
1.180768
1.130700
1.243949
1.312494
1.462698
1.513958
1.506805
1.773834
1.541972
2.015829
2.199411
5.375743
21.220446
63.317418
183.467865
336.261988
613.200665
825.240016
1015.936732
1015.936732
1015.936732
1015.936732
998.535752
742.539763
526.199937
281.480551
164.099932
77.768564
55.102706
60.980916
79.223514
106.745958
128.487945
145.432949
154.629946
147.438645
135.289431
108.075738
84.099770
60.540438
41.815639
25.270581
18.144846
11.811852
9.070635
8.160472
7.075667
7.398725
6.910563
6.901622
6.712675
6.748438
6.368756
6.461740
6.587505
5.749464
5.819798
5.800724
5.831718
5.622506
6.026626
5.985498
6.637573
7.549524
6.815791
7.113814
7.279515
7.341504
7.245541
6.676912
6.898642
6.077886
6.072521
6.045699
5.372763
6.036758
5.729795
5.742908
5.535483
5.295873
5.219579
5.506873
5.417466
5.535483
5.390644
5.413890
5.695820
5.224943
##ZVALUE=280
0.868440
0.919700
0.771880
0.755787
0.934601
1.018643
0.889897
0.818968
0.946522
0.956655
1.253486
1.180768
1.149774
1.350641
1.294613
1.381636
1.261830
1.427531
1.502633
1.507998
1.814961
2.417564
13.358593
46.516657
142.601728
264.110565
487.008691
700.182915
974.907875
1015.861630
1015.861630
1015.861630
1015.861630
843.127966
625.013709
357.553959
211.618543
95.568895
52.285790
42.846799
53.362846
79.446435
98.312497
125.106573
140.721798
145.259500
142.378807
125.679970
109.613538
80.422759
59.526563
37.368536
25.214553
14.885664
9.961724
6.968975
6.554723
6.320477
5.889535
5.712509
5.958676
6.019473
5.977750
5.566478
5.509853
5.466938
5.597472
5.736947
5.947948
5.933642
6.077886
6.389618
6.697774
6.360412
6.573796
6.503463
6.203651
5.903840
5.900860
5.578995
5.755424
5.581975
5.276799
5.390644
5.039573
4.981756
4.908442
5.172491
5.398989
5.212426
4.941821
5.440712
4.846454
4.856586
4.936457
4.977584
##ZVALUE=285
0.696778
0.833869
0.845790
0.763535
0.853539
0.837445
0.892878
0.849962
0.914931
1.054406
1.072884
0.909567
1.033545
1.102686
1.019835
1.381636
1.338720
1.213551
1.222491
1.428723
1.605749
1.672506
2.008677
2.095699
6.410480
22.710562
80.129504
164.360404
348.598957
552.017689
773.414969
1015.862823
1015.862823
1015.862823
1015.862823
986.319780
765.372515
477.176905
300.285816
139.295459
71.512461
35.518408
34.771562
50.907731
69.934726
99.131465
117.261410
138.298869
141.536593
138.662457
127.637982
103.795528
83.242655
57.194829
40.665865
23.836493
15.055537
9.102821
7.253885
5.356669
5.779862
5.409718
5.117655
5.375743
5.500913
5.432963
5.362630
5.291700
5.270839
5.685687
5.738735
6.122589
6.002784
6.698966
6.377697
6.659627
5.998611
5.974770
5.506873
6.103516
5.307794
4.990697
5.401969
4.871488
4.976988
5.308986
5.008578
4.942417
5.058646
4.889965
5.032420
5.033612
4.987717
4.527569
4.525781
4.889965
##ZVALUE=290
0.930429
0.677705
0.853539
0.773668
0.772476
0.733733
0.942945
1.026988
0.886917
0.738502
0.891685
0.848770
1.005530
0.974536
0.955462
1.087785
1.210570
1.131892
0.930429
1.278520
1.403689
1.292825
1.588464
1.548529
1.683831
1.859665
2.904534
8.822680
42.927861
104.001760
205.398798
428.313017
649.358630
978.120565
1015.874743
1015.874743
1015.874743
1015.874743
900.748968
606.017709
395.509005
199.612975
103.687644
40.805936
26.244521
33.664703
45.351982
69.273710
89.190602
113.089681
126.685500
136.947632
135.752559
122.156739
106.245875
77.236891
57.834983
36.355853
24.978518
14.510751
9.860992
6.822944
5.450845
5.311966
5.221963
5.025864
4.990697
5.177855
5.935431
5.512834
5.760789
6.091595
6.340742
6.514788
6.087422
5.811453
5.719662
5.647540
5.541444
5.439520
4.940629
5.147457
4.966855
4.884601
4.901886
5.005598
4.752874
5.018711
4.673600
4.739761
4.846454
4.791617
4.869699
4.800558
4.529953
4.887581
##ZVALUE=295
0.747442
0.543594
0.517964
0.634789
0.545979
0.507832
0.704527
0.699759
0.681877
0.864863
0.563860
0.869632
0.763535
0.787973
0.902414
0.678897
0.874996
0.781417
1.011491
0.928640
1.080632
1.164675
0.890493
1.314878
1.418591
1.185536
1.436472
1.794696
2.026558
3.921986
14.634728
62.797666
144.632459
340.328813
551.093817
866.894722
1015.744805
1015.744805
1015.744805
1015.744805
1011.144519
737.404823
509.775877
271.144509
146.234632
53.812861
27.404428
20.588636
27.645826
44.839978
61.323643
86.063743
104.745626
123.384595
130.125880
128.641725
117.043853
96.411705
78.159571
54.183602
38.632751
22.409558
15.068650
9.022951
6.449819
5.287528
4.775524
5.277991
4.931688
5.347729
5.798936
5.574822
6.240606
5.674958
5.580783
5.566478
5.862713
5.473495
5.209446
5.028844
4.710555
4.483461
4.525781
4.624724
4.844666
4.434586
4.810691
4.753470
4.746914
4.553795
4.843473
4.560947
4.622936
4.675984
4.484653
4.506707
##ZVALUE=300
0.844598
0.809431
0.865459
1.005530
0.804663
0.831485
0.737906
0.564456
0.682473
0.999570
0.700951
0.757575
0.765920
0.814795
0.812411
0.980496
0.940561
0.930429
0.826716
1.047850
1.094937
1.107454
1.312494
1.144409
1.179576
1.292825
1.479983
1.336932
1.504421
1.713634
1.897812
2.470613
9.607673
33.770800
113.402605
220.545530
451.959968
679.163933
985.750556
1015.861630
1015.861630
1015.861630
1015.861630
923.289657
610.725880
397.935510
198.551416
105.545521
39.253831
19.391775
17.735958
24.396777
40.603876
55.346489
79.802871
96.630454
116.695762
123.357773
123.917460
113.716722
95.846653
79.196692
55.665970
40.153861
23.734570
15.648603
9.145737
7.244945
5.595684
5.146861
5.304813
5.474687
5.367994
5.477667
5.655885
5.532503
5.084872
5.196929
4.872680
5.007982
4.950762
4.635453
4.903674
4.889965
4.800558
4.607439
4.736781
4.882812
4.707575
4.607439
4.583597
4.375577
4.263520
4.379749
4.335642
4.330873
##ZVALUE=305
0.731945
0.600815
0.614524
0.547767
0.676513
0.724792
0.741482
0.779629
0.690818
0.627637
0.850558
0.887513
0.710487
0.681877
0.807643
0.882745
0.954866
0.922680
0.866652
0.873804
0.820756
1.055598
1.033545
1.090765
1.029968
1.121759
1.150966
1.373887
1.309514
1.305938
1.594424
1.413822
1.961589
1.846552
4.578829
17.528534
71.564913
156.695843
354.028940
563.063622
802.279711
1015.861630
1015.861630
1015.861630
1015.861630
980.939865
761.824846
480.831861
294.188857
160.374641
60.903430
26.311874
13.607740
15.543699
24.525523
35.337806
54.569840
73.136687
95.280409
106.882453
117.341876
116.653442
106.665492
94.612837
71.186423
55.172443
35.490990
23.430586
13.531446
9.427667
6.879568
5.825758
5.354881
5.448461
5.351901
5.406737
5.014539
4.721880
4.618764
4.742742
4.820824
4.869699
4.658699
4.533529
4.599690
4.721880
4.485846
4.657507
4.751682
4.383922
4.214644
4.335642
4.403591
4.405975
4.243851
4.519820
##ZVALUE=310
0.629425
0.539422
0.581741
0.586510
0.602603
0.556707
0.565648
0.628829
0.645518
0.825524
0.666976
0.647902
0.692606
0.803471
0.710487
0.717640
0.675917
0.562668
0.762939
0.816584
0.840425
0.806451
0.812411
1.011491
0.941753
1.000762
1.103878
1.127720
1.302958
1.262426
1.349449
1.500845
1.536608
1.291633
1.550913
1.805425
2.259612
9.111762
31.389594
106.340647
211.283565
437.668562
662.298799
978.090763
1015.861630
1015.861630
1015.861630
1015.861630
938.998461
630.663633
416.740775
206.171870
108.193755
37.718415
15.894771
11.467934
13.886690
21.322966
31.453967
49.399734
65.338612
86.691976
100.572705
110.827684
111.115575
102.522969
90.329647
69.917440
53.700805
35.599470
24.230480
14.835000
10.102987
7.006526
5.872846
5.296469
5.112886
5.004406
4.731417
4.517436
4.490614
4.502535
4.451871
4.342794
4.441738
4.281998
4.755855
4.578829
4.456639
4.416704
4.172921
4.288554
4.543662
4.261732
4.044771
4.398823
##ZVALUE=315
0.631809
0.535846
0.680685
0.583529
0.456572
0.756979
0.513792
0.647902
0.624657
0.580549
0.604987
0.776649
0.711679
0.694990
0.655651
0.760555
0.747442
0.753999
0.758767
0.714660
0.764728
0.637770
0.900626
0.896454
0.762939
0.940561
0.880957
1.068711
1.006722
1.025796
1.155734
1.224875
1.378655
1.489520
1.382828
1.641512
1.642704
1.763701
2.044439
4.195571
15.925765
67.338943
150.616765
342.946649
549.097657
866.679549
1015.861630
1015.861630
1015.861630
1015.861630
1015.861630
751.766562
529.352427
279.308558
151.637793
54.788589
22.289753
10.032654
9.796619
13.305545
18.385649
30.856729
43.006539
62.229633
78.126788
95.786452
103.488564
103.856921
98.488927
83.352923
68.895817
48.998594
34.619570
21.076798
14.675856
9.143949
6.758571
5.409718
4.571676
4.414916
4.568696
4.235506
4.593730
4.228950
4.300475
4.615784
4.269481
4.557967
4.655719
4.115701
4.054904
4.357696
4.499555
4.177690
4.107952
4.196763
##ZVALUE=320
0.611544
0.622869
0.517964
0.678897
0.409484
0.492930
0.741482
0.669956
0.511408
0.806451
0.555515
0.636578
0.558496
0.590682
0.821948
0.718832
0.730753
0.844598
0.728965
0.575781
0.666976
0.831485
0.733733
0.728965
0.793934
0.953674
0.944734
0.793934
0.847578
1.092553
1.089573
1.035929
0.958443
1.083612
1.068711
1.355410
1.167655
1.423955
1.439452
1.625419
1.833439
2.551675
7.327795
38.237572
97.099543
253.055692
419.715643
696.262717
922.399759
1015.866995
1015.866995
1015.866995
1015.866995
874.712467
640.605688
357.417464
203.316808
85.869431
37.140846
12.446642
8.477569
8.908510
11.069775
16.995668
25.386810
40.767789
54.189563
73.920488
85.752606
97.149611
98.908544
92.054605
82.042813
62.596798
48.526525
31.872988
22.150874
13.173819
8.926988
6.376505
5.066991
4.469752
4.458427
4.331470
4.259944
4.076958
4.251599
4.150867
4.028678
4.111528
4.172921
4.013777
4.111528
4.029870
3.988743
4.233718
##ZVALUE=325
0.436902
0.523925
0.520945
0.575781
0.531673
0.343919
0.492930
0.474453
0.501871
0.430942
0.381470
0.489950
0.531673
0.568628
0.521541
0.616908
0.537634
0.574589
0.559688
0.421405
0.538826
0.502467
0.563860
0.531673
0.559688
0.701547
0.613928
0.686646
0.663996
0.769496
0.832677
0.761747
0.926852
1.049638
0.880957
0.954866
1.187921
1.121759
1.035929
1.320839
1.281500
1.697540
1.725554
1.809001
3.716946
24.826527
64.266920
172.091722
312.591791
581.437945
811.207891
1015.757918
1015.757918
1015.757918
1015.757918
950.911641
721.374750
442.856550
268.541574
117.271543
54.967999
16.875863
8.692741
7.487535
7.777810
10.707974
15.687943
25.784969
36.913753
55.858493
69.477558
82.891583
89.916587
92.921853
87.155700
73.045492
59.924722
43.396950
30.742884
18.630624
12.286901
7.792711
5.885959
4.669428
4.383922
4.125834
4.145503
4.105568
3.786683
3.900528
4.131794
3.991723
3.999472
3.879666
3.920794
4.096627
##ZVALUE=330
0.512600
0.448823
0.561476
0.495911
0.494719
0.501871
0.660419
0.669956
0.613928
0.539422
0.551939
0.670552
0.566840
0.473857
0.587702
0.419617
0.549555
0.533462
0.523925
0.669956
0.540614
0.644922
0.626445
0.714660
0.835657
0.865459
0.731945
0.796914
0.823736
0.802875
0.917912
0.839829
0.788569
0.956655
0.892878
0.915527
0.794530
0.870824
0.991821
1.086593
1.170635
1.232624
1.517534
1.540780
1.596808
1.798868
2.557635
8.142591
43.431520
103.898644
253.166556
420.233607
709.263682
932.577848
1015.861630
1015.861630
1015.861630
1015.861630
803.727508
586.359501
324.229002
182.585716
73.262453
31.618476
10.087490
7.061958
6.685853
7.484555
10.544658
15.283823
25.581717
35.476685
50.388575
64.105988
78.501701
84.558725
85.408688
80.994964
68.516731
57.406425
39.816499
29.378533
19.134879
13.233423
8.329749
6.397963
4.992485
4.413724
3.956556
3.800988
4.070997
4.115701
4.000664
3.925562
3.859997
3.911853
##ZVALUE=335
0.817776
0.742674
0.730753
0.728965
0.704527
0.621676
0.751615
0.626445
0.745654
0.846982
0.803471
0.659823
0.803471
0.845790
0.841618
0.793934
0.741482
0.675917
0.828505
0.770688
0.742674
0.751615
0.794530
0.817776
0.717640
0.772476
0.876784
0.909567
1.008511
0.823736
0.879765
0.988841
1.105666
0.942945
0.988841
1.265407
1.106858
1.133680
1.238585
1.194477
1.130700
1.285672
1.265407
1.366735
1.427531
1.595616
1.542568
1.952648
2.020597
4.889965
17.880797
70.116520
149.575472
336.124897
537.649989
845.049620
1016.047597
1016.047597
1016.047597
1016.047597
929.777026
636.494756
431.666970
223.794580
116.928816
39.836764
16.388893
7.625818
6.864667
6.783605
7.198453
9.999871
14.011860
23.312569
32.806993
49.023628
60.657859
74.438453
79.795718
80.772638
75.668693
63.231587
53.748488
40.295720
30.059814
19.439459
13.822913
8.682609
6.464720
5.099773
4.576445
4.156828
4.205704
4.287958
3.870726
4.240870
##ZVALUE=340
0.503659
0.390410
0.318885
0.504851
0.515580
0.535846
0.434518
0.647902
0.427961
0.427961
0.448823
0.488758
0.549555
0.446439
0.609756
0.455976
0.594854
0.443459
0.545979
0.517964
0.680685
0.665784
0.616908
0.621676
0.557899
0.603795
0.617504
0.769496
0.779629
0.785589
0.766516
0.735521
0.621676
0.655651
0.904799
0.860691
0.871420
0.826716
0.837445
0.818968
0.849962
0.878572
1.054406
0.906587
1.092553
0.988841
1.362562
1.279712
1.464486
1.688600
1.596808
2.207756
11.125803
36.527514
119.683743
230.006576
465.774536
682.026744
963.578820
1015.861630
1015.861630
1015.861630
983.572602
778.826475
488.931537
306.188464
142.101645
67.085624
19.227862
8.739829
6.513000
6.171465
6.522536
6.957650
9.337664
12.982488
21.197796
30.359626
45.185685
56.033731
69.003701
73.729753
75.143576
72.049499
62.629580
52.282810
38.724542
29.070973
19.303560
13.308525
8.398890
6.466508
4.921556
4.102588
4.188418
3.604889
##ZVALUE=345
0.470877
0.551939
0.539422
0.448823
0.550747
0.655651
0.428557
0.484586
0.472665
0.485778
0.483990
0.454783
0.604987
0.615716
0.441670
0.482798
0.427961
0.533462
0.492930
0.648499
0.507832
0.554919
0.641942
0.576973
0.697970
0.540614
0.546575
0.549555
0.667572
0.547767
0.829697
0.569820
0.695586
0.585914
0.764728
0.791550
0.827909
0.586510
0.797510
0.765920
0.813603
0.730753
0.998974
0.856519
0.903606
1.080632
0.916719
1.260638
1.164675
1.190901
1.451969
1.461506
1.578927
1.905560
3.614426
23.707747
66.380501
179.810524
320.965648
581.148863
791.547894
1015.847921
1015.847921
1015.847921
1015.847921
827.005506
616.315007
361.360908
203.083754
80.551505
35.746694
11.870861
6.928444
6.019473
5.969405
6.077886
6.190538
8.642673
11.925697
19.596815
28.936863
42.019486
51.204562
61.020851
67.232847
69.662929
67.427754
58.842897
50.826669
38.432479
28.868914
18.651485
13.418794
8.451939
6.148815
4.971623
##ZVALUE=350
0.512600
0.529885
0.539422
0.586510
0.529885
0.462532
0.581741
0.461936
0.482798
0.568628
0.511408
0.517964
0.413656
0.601411
0.620484
0.369549
0.504851
0.510812
0.552535
0.390410
0.481606
0.579953
0.532866
0.560880
0.504851
0.648499
0.656843
0.572801
0.632405
0.427961
0.621676
0.671744
0.568628
0.632405
0.649691
0.625849
0.745654
0.582933
0.835657
0.762939
0.746846
0.896454
0.672936
0.846982
0.922680
0.908971
0.953674
1.001954
0.871420
1.061559
1.154542
1.275539
1.368523
1.388788
1.698732
1.740456
2.272725
11.583567
38.122535
120.286942
232.415795
462.677479
668.810010
936.131477
1015.861630
1015.861630
1015.861630
923.712850
708.720684
422.702432
258.504748
117.640495
53.229928
15.537739
7.653832
5.866885
5.664825
5.310774
5.096793
6.162524
7.353425
11.967421
17.009974
25.432706
33.772588
45.707822
53.751469
61.647892
63.719749
61.216950
56.216717
46.038628
37.494898
27.508736
18.063784
13.028979
##ZVALUE=355
0.414848
0.532866
0.509620
0.674725
0.512600
0.684857
0.551939
0.413656
0.541806
0.638962
0.561476
0.544786
0.504851
0.649691
0.640750
0.546575
0.648499
0.559688
0.586510
0.739694
0.666976
0.608563
0.426769
0.700951
0.542998
0.695586
0.727773
0.729561
0.702739
0.557899
0.679493
0.681877
0.593662
0.656843
0.639558
0.631809
0.665784
0.632405
0.667572
0.714660
0.699759
0.798702
0.713468
0.821948
1.011491
0.900626
0.892878
0.883937
1.060963
1.034737
1.207590
1.066923
1.060963
1.174808
1.381636
1.430511
1.377463
1.656413
2.080798
4.149675
23.866892
66.266656
178.667903
317.695737
579.463840
790.633559
1010.623574
1015.873551
1015.873551
992.798805
734.162927
531.240702
296.250582
163.898468
61.858892
26.187897
8.731484
6.057620
5.439520
5.138516
4.918575
4.773736
5.472898
6.712675
9.879470
14.160872
22.143722
29.123425
40.677786
48.228502
55.492520
57.892799
55.917501
52.270889
43.675900
36.336780
##ZVALUE=360
0.540614
0.549555
0.650883
0.659823
0.463724
0.558496
0.581741
0.571609
0.473857
0.453591
0.385642
0.418425
0.544786
0.544786
0.593662
0.531673
0.624657
0.505447
0.769496
0.564456
0.548959
0.552535
0.587702
0.478625
0.627637
0.695586
0.452995
0.534654
0.699759
0.653863
0.686646
0.608563
0.801682
0.622869
0.601411
0.688434
0.719428
0.805855
0.793934
0.729561
0.727773
0.741482
0.826716
0.836849
0.850558
0.857711
0.898838
0.870824
0.915527
0.868440
0.896454
0.982881
1.119971
1.180768
1.068711
1.203418
1.237988
1.569986
1.399517
1.793504
1.794696
2.374649
10.545850
34.891963
114.613771
222.522020
438.969731
648.459792
930.003524
1015.861630
1015.861630
1015.861630
851.361752
643.069744
386.116505
229.141712
97.615719
41.654706
11.710525
6.488562
5.506873
4.977584
4.759431
4.345775
4.463792
4.669428
5.954504
7.819533
12.222528
17.304420
25.539994
32.976866
42.589903
48.117638
52.522421
52.704811
##ZVALUE=365
0.532866
0.448823
0.385642
0.424981
0.388622
0.378489
0.566840
0.510812
0.445843
0.448823
0.508428
0.466704
0.454783
0.501871
0.621676
0.531673
0.515580
0.411868
0.470877
0.551939
0.611544
0.609756
0.615716
0.667572
0.554919
0.542998
0.562668
0.618696
0.650883
0.773668
0.628829
0.670552
0.634789
0.637770
0.705719
0.735521
0.619888
0.571609
0.683665
0.715852
0.761747
0.692606
0.744462
0.741482
0.732541
0.767708
0.801682
0.756979
0.825524
0.752807
0.785589
1.133680
0.818968
0.959635
0.880957
1.138449
1.149774
1.150966
1.344681
1.416802
1.465678
1.596808
1.794696
2.013445
4.868507
17.525554
69.450736
151.273608
348.436832
548.853874
823.670626
985.964537
1015.861630
1015.861630
925.301909
738.846660
476.222634
290.174484
126.864910
59.263706
17.243624
7.875562
5.123615
4.844666
4.398823
4.384518
4.005432
3.898740
4.279613
4.829764
6.620884
9.237528
15.116930
20.281672
29.805899
35.914779
##ZVALUE=370
0.421405
0.419617
0.535846
0.418425
0.426769
0.529885
0.472665
0.621676
0.471473
0.353456
0.479817
0.585914
0.536442
0.456572
0.440478
0.602603
0.547767
0.409484
0.658631
0.488758
0.551939
0.699759
0.542998
0.546575
0.410676
0.460744
0.477433
0.507832
0.567436
0.532866
0.578761
0.651479
0.527501
0.674725
0.741482
0.593662
0.651479
0.554919
0.705719
0.854731
0.774860
0.708699
0.631809
0.698566
0.686646
0.746846
0.689626
0.766516
0.807643
0.646710
0.732541
0.851750
0.936985
0.873804
0.901818
0.965595
0.921488
1.014471
1.031756
1.161695
1.090765
1.244545
1.561642
1.495481
1.490712
1.699924
2.240539
11.682510
39.684772
127.899647
241.611004
455.745459
667.022467
927.750468
1015.861630
1015.861630
991.228819
779.369473
573.480725
319.683552
179.799795
70.651770
32.095909
10.776520
5.712509
4.509687
4.294515
4.063845
4.056692
3.531575
3.539920
3.686547
4.147887
5.860925
8.295774
12.761950
##ZVALUE=375
0.487566
0.460744
0.493526
0.388622
0.322461
0.421405
0.421405
0.489950
0.427961
0.535846
0.604987
0.483990
0.638962
0.528693
0.487566
0.481606
0.453591
0.519753
0.539422
0.538826
0.496507
0.349879
0.504851
0.540614
0.615716
0.494719
0.505447
0.433922
0.468493
0.533462
0.746846
0.598431
0.571609
0.574589
0.538826
0.735521
0.699759
0.572801
0.550747
0.583529
0.690818
0.655651
0.728965
0.492930
0.571609
0.553727
0.549555
0.591874
0.656843
0.769496
0.703931
0.634789
0.925660
0.679493
0.663996
0.827909
0.898838
0.753999
0.902414
0.985861
0.867844
0.969768
1.089573
1.087785
1.303554
1.273751
1.593828
1.440644
1.997948
4.889965
28.039813
70.641637
185.690522
332.421660
585.964918
784.790516
991.623998
1015.861630
1014.605761
892.944932
637.105703
446.426868
247.831941
138.496757
53.396821
22.018552
6.658435
4.594922
4.063845
3.816485
3.417730
3.502965
3.239512
3.223419
3.305674
3.755689
##ZVALUE=380
0.465512
0.359416
0.396967
0.330806
0.467896
0.498891
0.544786
0.362992
0.476837
0.467896
0.434518
0.413656
0.421405
0.510812
0.436902
0.390410
0.365973
0.475645
0.433922
0.347495
0.341535
0.299811
0.630617
0.485778
0.566840
0.507832
0.392795
0.369549
0.394583
0.455976
0.634789
0.459552
0.538826
0.493526
0.623465
0.629425
0.494719
0.699759
0.514984
0.775456
0.615716
0.637770
0.666976
0.584722
0.503659
0.548959
0.674725
0.605583
0.516772
0.668764
0.776649
0.846982
0.731945
0.739694
0.756979
0.647902
0.804663
0.799894
0.818968
0.765920
0.751615
0.976920
0.844598
1.017451
1.075864
0.928640
1.127720
1.045465
1.408458
1.629591
1.929998
2.804995
11.172891
54.074526
126.621723
292.802453
472.311974
729.593635
914.342999
1015.861630
1015.861630
936.311483
766.016841
516.503453
344.558954
170.051455
87.108612
29.631853
11.847615
4.693866
3.933907
3.522635
3.553629
3.452897
3.230572
3.058910
##ZVALUE=385
0.381470
0.396967
0.375509
0.623465
0.471473
0.148416
0.239611
0.428557
0.331998
0.383854
0.412464
0.309944
0.515580
0.574589
0.408888
0.507832
0.636578
0.489950
0.567436
0.363588
0.533462
0.337958
0.489950
0.446439
0.672936
0.418425
0.448823
0.615716
0.625849
0.558496
0.552535
0.408888
0.648499
0.562668
0.612736
0.648499
0.737906
0.695586
0.625849
0.669956
0.492930
0.618696
0.657439
0.638962
0.603795
0.538826
0.620484
0.613928
0.675917
0.703931
0.862479
0.669956
0.455976
0.673532
0.659823
0.629425
0.704527
0.618696
0.802875
0.809431
0.712872
0.748634
0.809431
0.881553
0.884533
0.911951
1.050830
0.865459
1.187921
1.259446
1.550913
1.627803
1.596808
1.781583
6.443858
22.242665
84.018707
180.533528
384.108424
580.909848
844.156742
983.488560
1015.861630
1011.397839
852.285624
674.541593
424.978733
268.599987
121.053457
58.008432
18.554926
7.085800
3.936887
3.506541
3.410578
3.302693
##ZVALUE=390
0.513792
0.366569
0.358820
0.337958
0.357628
0.524521
0.355840
0.418425
0.508428
0.482798
0.396967
0.409484
0.394583
0.500679
0.404716
0.619888
0.517964
0.564456
0.360608
0.425577
0.549555
0.550747
0.460744
0.402927
0.296831
0.419617
0.615716
0.550747
0.548959
0.366569
0.659823
0.648499
0.717640
0.561476
0.546575
0.580549
0.697970
0.615716
0.571609
0.462532
0.562668
0.527501
0.665784
0.531673
0.448823
0.449419
0.599623
0.624657
0.539422
0.627637
0.524521
0.686646
0.698566
0.622869
0.601411
0.670552
0.546575
0.735521
0.695586
0.707507
0.766516
0.675917
0.892878
0.784993
0.715852
0.736713
0.967979
0.859499
1.158714
1.262426
1.266599
1.424551
1.400709
1.517534
1.517534
1.376867
3.289580
12.583733
58.211684
132.436752
306.883454
486.245751
727.102757
897.595882
1015.861630
1015.861630
949.915648
794.392824
540.532470
363.373756
184.437633
93.234777
31.658411
11.588931
4.326701
3.669858
##ZVALUE=395
0.406504
0.464916
0.402927
0.461936
0.595450
0.352859
0.435710
0.556707
0.469685
0.425577
0.543594
0.195503
0.368953
0.425577
0.439882
0.396967
0.391603
0.420809
0.375509
0.545979
0.414848
0.336766
0.453591
0.495911
0.474453
0.543594
0.510812
0.496507
0.557899
0.599623
0.607967
0.448823
0.617504
0.672936
0.637770
0.586510
0.606775
0.679493
0.741482
0.548959
0.740886
0.610948
0.731945
0.656843
0.524521
0.699759
0.702739
0.655651
0.568628
0.659823
0.705719
0.617504
0.559688
0.580549
0.667572
0.663996
0.633597
0.650883
0.776649
0.765920
0.794530
0.779629
0.605583
0.617504
0.737906
0.752807
0.988841
1.064539
1.150966
1.168847
1.290441
1.271963
1.221895
1.306534
1.284480
1.413822
1.481771
1.660585
2.209544
6.867647
37.652850
92.074871
218.339562
368.742943
620.900989
813.196898
1006.278992
1015.861630
1012.432575
898.315907
657.107830
455.576777
241.504908
128.909945
47.157407
19.897819
##ZVALUE=400
0.411868
0.401735
0.459552
0.452995
0.521541
0.487566
0.339746
0.474453
0.451803
0.442863
0.380874
0.369549
0.502467
0.285506
0.389814
0.429749
0.535846
0.394583
0.417829
0.467896
0.522733
0.481606
0.529885
0.444651
0.564456
0.529885
0.543594
0.605583
0.489950
0.531673
0.582933
0.601411
0.665784
0.598431
0.635982
0.577569
0.523925
0.540614
0.601411
0.511408
0.576973
0.600815
0.697970
0.589490
0.465512
0.547767
0.558496
0.586510
0.653863
0.635982
0.705719
0.503659
0.574589
0.722408
0.548959
0.615716
0.539422
0.599623
0.533462
0.682473
0.843406
0.832677
0.711679
0.745654
0.816584
0.770688
0.807643
0.826716
1.058578
1.071692
1.125932
1.183748
1.123548
1.122952
1.094937
1.142621
1.140833
1.327991
1.204610
1.472831
1.672506
3.470778
18.602610
53.508878
152.681470
278.076530
512.093902
702.439547
932.991505
1015.861630
1015.861630
941.093564
718.230605
526.497960
298.865438
178.146958
##END
