##TITLE=FAAI0802
##FORMAT=SPECTACLE-ASCII V-1.2
##DATA TYPE=ULTRAVIOLET SPECTRUM
##SECOND TYPE=ULTRAVIOLET SPECTRUM
##DATE=03/22/18
##TIME=12:55:13
##SPECTROMETER/DATA SYSTEM=SPECTACLE
##XUNITS=NM EM
##YUNITS=ENERGY
##YFACTOR=1
##FIRSTX=220
##LASTX=410
##NPOINTS=96
##3DDATA=Equidistant
##ZUNITS=NM EX
##FIRSTZ=210
##LASTZ=400
##ZPOINTS=39
##XYDATA=(Y..Y)
##ZVALUE=210
4.007816
3.119707
4.321933
4.089475
3.871918
4.336834
3.854632
3.861785
3.650784
3.393888
2.819896
2.810955
2.453923
2.415776
2.782941
2.480745
2.715588
2.734661
2.605915
2.968907
3.646612
3.078580
3.563762
4.095435
5.052686
6.407499
6.753802
9.633899
11.350513
13.627410
15.650988
17.307997
19.937754
20.877719
22.120476
23.189783
21.113753
22.346973
21.553636
21.177530
20.881891
18.834472
17.505884
17.115474
16.223788
14.823675
15.241504
12.855530
12.679696
12.517571
10.129809
11.257529
10.186434
9.567738
9.845495
8.519888
8.551478
9.119511
8.571744
6.298423
7.803440
8.144975
7.317662
8.240938
7.287860
6.337762
7.481575
7.211566
8.993745
9.326935
10.848641
11.164546
13.734698
14.893413
15.343428
16.356707
14.995933
15.083551
14.711618
13.624430
12.604594
12.193918
9.933710
8.598566
7.743835
7.154942
5.994439
5.168915
5.451441
5.525947
4.784465
5.903840
6.340742
6.962419
6.168485
6.665587
##ZVALUE=215
13.620853
13.925433
10.316968
9.202957
7.848740
7.350445
6.055832
7.111430
7.677674
7.403493
6.354451
5.745888
5.176663
3.810525
3.349781
2.918839
3.047585
3.182888
3.195405
3.314614
3.119707
3.469586
4.226565
4.756451
5.313754
7.349849
10.783672
12.394786
16.481876
20.882487
24.264455
28.331876
30.449629
33.826828
36.261678
34.811497
37.988424
37.310719
35.157800
36.295652
33.281446
30.904412
28.215647
29.229522
26.326776
21.383762
21.229982
20.514727
19.304752
17.683506
15.046000
13.906956
14.454722
13.234615
13.154745
11.939406
12.056828
10.804534
10.308623
9.679794
8.906722
9.337664
8.329749
7.869601
8.765459
8.427501
8.312464
8.263588
8.653998
10.029674
10.347962
12.220740
13.060570
14.209747
15.821457
14.670491
15.053749
14.590621
13.734698
12.975931
12.203455
10.420680
9.662509
8.692741
7.481575
7.033944
6.386638
7.222891
6.024837
5.656481
5.438924
5.574822
5.318522
5.317926
5.758405
6.210804
##ZVALUE=220
40.764809
37.661791
40.812492
36.948919
31.858683
26.938915
21.014810
16.407967
14.961958
13.959408
14.455914
15.013814
13.405681
13.310909
11.054873
8.666515
6.350875
4.781485
4.347563
3.390908
3.809929
4.139543
3.818870
5.238652
6.188750
9.183884
12.287498
19.351840
24.133921
29.977560
35.743713
39.459467
43.637753
51.137805
52.913427
53.589940
55.068731
55.093765
51.812530
49.845576
47.215819
43.270588
45.437813
39.540529
36.292672
34.247637
30.371547
28.890967
26.059747
23.165941
24.279952
21.880865
19.764900
18.453598
17.101765
15.596747
15.416741
14.415979
13.778806
13.004541
12.422800
11.775494
10.942817
9.945631
10.928512
9.558797
9.456873
9.640455
9.253621
11.112690
11.507869
12.716651
12.760758
14.258623
15.596747
14.524460
14.656782
14.007688
13.684630
13.008714
11.837482
10.593534
11.041760
8.149743
8.248687
7.434487
7.315874
6.317496
5.586743
6.012917
6.474853
5.624890
4.881620
5.568862
5.664825
5.175471
##ZVALUE=225
61.804652
65.505505
78.807473
92.580914
98.751783
93.169808
80.388784
58.213472
49.238801
36.616921
27.997494
27.810931
26.941895
28.554797
27.510524
26.946664
20.072460
19.150972
14.791489
9.684563
6.251931
5.101562
4.904866
5.220771
6.742477
9.945631
14.200807
19.117594
23.796558
30.681491
37.500858
41.185617
48.490763
53.895712
56.217909
58.414936
63.274503
60.764551
57.009459
56.234002
52.395463
48.963428
47.095418
44.045448
39.697886
36.319494
33.426881
31.823516
29.507875
28.175712
24.530888
23.240447
23.082495
19.378662
19.840598
19.145608
17.467737
14.934540
14.765859
13.780594
14.533997
13.985634
13.450980
12.753606
11.834502
11.739731
12.867451
11.416674
11.126995
13.011694
12.317896
12.864470
14.195442
14.668703
15.038848
14.688969
16.762614
13.968945
13.153553
12.099743
12.100935
11.622906
9.132624
9.532571
8.650422
8.889437
7.590652
8.207560
8.102655
7.040501
7.037520
7.191896
7.394552
7.172823
6.561875
6.262660
##ZVALUE=230
54.056644
55.888891
85.013509
127.419829
163.866878
187.098980
207.852721
190.150738
174.764991
137.121677
96.041560
69.321990
53.418875
49.794912
47.055483
48.234463
53.746700
48.668981
43.627620
36.288500
27.713776
18.089414
12.970567
8.548498
7.801652
8.383989
11.392832
15.186667
18.229485
24.303794
26.563406
32.368898
33.856630
38.370490
39.490461
40.465593
43.134689
40.587783
40.107965
39.738417
37.700534
37.658811
34.723878
31.560659
30.181408
30.350685
29.067993
24.884939
23.921728
22.387505
21.448731
21.764636
19.500852
18.919706
17.177463
16.730428
16.746521
15.016794
14.986992
13.972521
13.553500
13.700724
13.068914
12.482405
13.640523
13.082623
12.687445
12.464523
12.066960
14.391541
14.040470
15.594959
15.295744
17.555952
16.710758
17.372966
17.739534
15.221834
16.043782
13.537407
14.618635
13.200641
11.772513
10.088682
10.302663
10.179877
9.255409
9.251833
9.405613
8.767843
8.653998
8.562803
8.346438
8.686781
8.160472
8.934736
##ZVALUE=235
17.440915
21.485686
41.145682
100.640655
145.659447
226.236582
276.469588
346.748829
362.627506
350.867510
314.136744
251.269937
168.960690
127.649903
86.289644
72.713494
68.207979
75.695515
82.212687
82.966685
77.266693
64.945817
48.159957
36.624670
25.977492
16.759634
13.989806
12.002587
12.089610
14.194846
15.777946
17.807484
18.772483
20.093918
22.538900
21.240711
23.489594
23.764968
22.611618
21.175742
22.577643
21.274686
22.792816
21.181703
18.737912
19.133687
18.552542
17.344952
16.786456
15.338659
16.072989
15.138984
14.443994
14.433861
15.539527
14.542937
13.277531
13.806820
13.679862
11.909604
14.255643
12.981892
13.734698
11.868477
12.521744
13.032556
13.597608
12.750626
13.749599
14.149547
15.772581
15.595555
15.573502
16.653538
19.212961
18.641949
18.523932
17.870665
17.670989
16.178489
15.206933
14.819503
15.400648
13.520718
14.171600
13.511777
12.262464
11.869669
12.266636
12.431741
10.719895
12.116432
10.416508
11.570454
10.164976
10.374784
##ZVALUE=240
2.704859
2.283454
7.317662
20.716786
56.625605
106.108785
200.061798
297.282934
430.603623
510.878563
572.092533
566.110015
514.891744
399.735570
309.298635
194.485784
140.066743
107.937455
89.869499
98.530650
105.045438
114.606619
108.425617
102.582574
81.306696
65.750480
45.533776
34.331679
23.289919
18.148422
15.722513
13.607740
15.889406
16.499758
16.200542
16.318560
17.803907
17.973781
18.247962
17.199516
17.509460
17.776489
15.549660
16.322732
16.329885
16.384721
15.388727
13.836622
14.334917
13.714433
14.740825
14.927983
13.307929
12.617707
13.793707
13.734698
12.838840
12.560487
12.023449
12.967587
12.491941
13.455749
12.739897
12.526512
13.309717
13.569593
13.484955
13.286471
13.131499
15.547872
15.866756
18.438697
18.734932
20.064712
19.354820
19.397736
19.404888
17.874837
18.721819
17.702579
17.525554
16.478896
14.127493
14.426708
13.761520
14.268756
13.374686
13.550520
13.103485
13.613701
13.862848
12.071729
12.743473
13.579726
12.130737
12.332797
##ZVALUE=245
1.535416
1.519918
1.463890
1.806617
4.201531
17.203689
41.121840
102.317929
186.451674
292.044878
454.939604
568.967462
669.165850
685.487986
633.433461
552.295446
405.024886
293.604732
254.397988
131.377578
104.731917
95.847845
106.670856
122.511983
124.962926
117.842555
109.510422
92.287660
76.764822
54.866672
42.473674
30.388832
24.638772
21.581650
19.814968
21.648407
20.281672
20.990968
20.521879
21.596551
21.729469
20.204782
19.979477
19.515753
18.651485
17.290711
16.961694
16.293526
16.093850
14.789701
15.023947
14.281869
13.578534
13.151765
12.831688
12.765527
13.054609
13.202429
11.325479
10.815859
11.279583
11.192560
10.168552
10.870695
10.940433
10.289550
12.249947
11.722445
12.017488
13.233423
14.100671
15.238523
15.019774
17.086864
17.110705
17.573833
16.603470
16.420484
16.109943
15.336871
15.152693
15.268922
14.585853
15.130639
12.323856
11.831522
12.701750
12.842417
12.781620
11.960864
12.909770
12.452602
12.216568
11.767745
12.242794
11.641979
##ZVALUE=250
1.557469
1.912713
1.577735
1.845956
1.811981
1.878738
2.587438
11.562705
30.491948
82.727671
159.400702
310.425758
446.115732
606.138706
712.966919
780.496597
762.810707
666.499734
559.718609
387.703776
265.866518
178.758502
109.630823
92.675686
102.423429
118.766427
132.865906
137.021542
139.238834
125.789642
110.663772
94.713569
74.882507
53.988695
44.847727
37.927628
32.971501
30.986667
30.077696
29.888749
30.215979
28.663874
29.917955
26.322603
25.853515
24.528503
23.567677
22.774935
20.607710
18.195510
19.723773
17.228723
16.954541
16.035438
14.764667
15.097857
14.035702
13.204813
12.630820
13.464689
12.454987
12.057424
11.422634
11.509657
11.909604
11.647940
10.186434
11.617541
11.970997
12.184978
12.522936
13.733506
14.078617
15.640855
15.145540
14.671683
15.245676
14.695525
14.050603
13.615489
13.818741
12.609959
12.879968
12.183785
12.288690
11.602640
11.763573
12.177825
11.648536
10.535717
12.689829
11.315942
12.075901
11.774898
11.139512
11.522770
##ZVALUE=255
1.218915
1.452565
1.288652
1.371503
1.566410
1.522899
1.854897
1.752973
1.968741
3.919601
19.823909
54.992437
139.880776
237.167478
418.350697
568.306446
758.208632
852.097869
888.310671
835.428834
718.833804
519.812703
365.125537
211.286545
133.299828
93.700886
92.994571
109.785795
134.383440
155.061483
165.841579
167.036653
159.678459
136.927962
118.548870
92.701912
77.487826
59.023499
52.154660
47.845840
44.835806
41.313767
41.321516
38.334727
35.785437
33.565760
32.870770
30.788779
28.248429
25.838614
24.487972
22.506714
20.112991
19.928813
18.532872
17.947555
16.177893
14.997721
15.454888
14.277697
13.593435
12.831688
12.161732
11.643767
10.219812
11.079907
10.596514
10.554790
11.579990
11.960864
12.246966
13.169646
12.701750
12.580752
13.771653
13.247728
13.320446
12.398958
12.142658
11.976957
11.185408
11.618733
10.392666
10.998845
10.511875
10.810494
11.163950
10.652542
10.603666
10.196567
10.485649
10.541677
10.851622
10.014772
10.787845
9.772778
##ZVALUE=260
1.249909
1.102686
1.475811
1.305938
1.071692
1.327991
1.486540
1.384616
1.635551
1.962781
1.906753
3.131628
10.512471
41.257739
89.914799
204.413533
340.578556
556.079745
721.520782
907.526016
991.910696
986.348987
857.936740
707.205534
466.848612
315.648913
192.169547
129.808784
104.434490
110.071898
142.446756
165.748000
185.001493
202.343464
199.394822
185.567737
173.720717
139.777660
120.456815
94.285607
81.002712
66.155791
58.656931
54.692626
51.379800
45.910478
43.966770
40.590763
38.186908
35.015941
33.404827
30.281544
28.298497
25.690794
24.721622
21.444559
21.013618
18.805861
17.815828
16.021729
16.088486
13.768673
14.050603
13.584495
12.536645
11.928678
12.693405
11.599660
12.802482
12.366772
12.613535
12.038946
12.884736
12.985468
12.621880
12.619495
12.472868
12.497902
11.749864
10.611415
10.887980
10.373592
9.806752
10.184646
9.443760
10.241866
9.647608
9.545684
10.219812
9.811521
9.058714
9.829998
9.399652
9.206533
9.009838
9.817481
##ZVALUE=265
1.142621
1.198649
1.302958
1.158714
1.042485
1.219511
1.265407
1.464486
1.257658
1.438856
1.731515
1.893640
1.854897
2.273917
4.837513
25.441647
61.207414
158.526897
281.885862
511.707664
707.785487
892.957449
1015.861630
1015.861630
973.640680
839.674473
622.897744
448.817015
269.978642
182.443857
131.758451
125.295520
139.891505
175.759792
200.958848
221.686959
227.629542
222.751498
205.028653
176.818967
151.577592
122.355819
102.935433
79.076886
69.241524
56.921840
53.552985
48.448443
43.851733
41.952729
37.774444
35.057664
32.937527
30.150414
27.763844
25.312901
22.885799
21.242499
19.795895
18.783808
16.902685
16.220808
15.569925
15.053749
14.544725
13.899803
13.617873
12.549758
12.058616
12.194514
11.666417
12.364984
12.759566
12.618899
11.767745
12.367964
11.765957
11.451840
11.325479
10.227561
11.104941
10.117888
9.928942
9.984970
9.527802
9.205937
9.326935
9.747744
9.683967
9.303689
9.269714
9.492636
8.714795
8.773804
9.144545
8.898973
##ZVALUE=270
0.799894
1.227856
1.086593
1.077652
0.999570
1.086593
1.242757
1.358986
1.169443
1.139641
1.276731
1.315475
1.413822
1.567602
1.596808
2.043843
2.548695
11.810660
35.155416
114.192963
225.906968
381.355882
657.562017
865.365863
1015.874743
1015.874743
1015.874743
1012.478471
815.414786
621.630549
445.929766
265.600681
185.674429
135.540962
135.840774
160.409808
182.797909
207.376480
224.923491
224.729776
218.662620
198.614001
173.884630
142.807961
114.239454
85.694790
73.070526
59.975982
51.107407
42.973757
40.555596
36.666989
34.217834
31.004548
28.431416
25.789738
24.896860
22.524595
20.982623
19.803643
19.031763
17.064810
16.089678
15.428662
14.187694
14.271736
12.928843
12.848973
13.111830
13.156533
12.389421
12.713671
13.122559
12.960434
12.862682
12.765527
12.133718
11.737943
11.383891
10.802746
10.790825
10.261536
9.630919
9.916425
10.003448
9.309649
9.833574
8.878708
8.822680
9.082556
8.566976
8.534789
9.154677
8.785725
9.016991
8.912683
##ZVALUE=275
0.861883
0.896454
0.940561
0.949502
0.971556
1.018643
1.141429
1.015663
1.073480
1.099706
1.397729
1.317859
1.267791
1.238585
1.439452
1.606941
1.880527
1.903772
2.321601
5.751848
21.447539
59.838891
174.645782
320.498943
588.984489
793.204904
1006.256938
1015.861630
1015.861630
1015.861630
1028.591990
766.121745
562.875867
326.272845
211.152434
131.044984
109.602809
117.715001
134.129524
162.258744
179.934502
194.418430
198.336840
189.303756
173.847675
144.712925
120.198727
90.679526
71.353912
50.037503
41.856766
33.923984
30.400753
26.462674
24.605989
22.924542
21.122694
19.722581
19.469857
17.786622
16.289949
15.743971
15.540719
14.622808
14.066696
14.057755
13.106465
13.188720
12.546778
12.617707
12.634993
12.575984
11.951923
12.926459
12.237430
12.389421
11.763573
11.567473
11.388659
11.088848
10.565519
9.885430
9.680986
9.815693
9.202957
9.166598
9.598732
9.301901
8.790493
8.585453
8.748770
8.656979
8.577704
8.094907
8.586645
8.320808
##ZVALUE=280
0.794530
0.838637
0.945926
1.028776
0.943542
0.944734
1.049638
1.028776
1.190901
1.030564
0.917912
0.940561
1.189709
1.083612
1.332760
1.365542
1.419783
1.316667
1.671910
1.823902
1.890659
2.766848
11.231899
54.207444
126.571655
284.112692
457.145572
721.258521
920.481682
1015.861630
1015.861630
1015.861630
1015.861630
833.199620
624.943972
374.803543
230.552554
116.517544
77.736974
66.679716
77.518821
102.401972
123.349428
147.203803
161.758661
165.089965
159.509778
140.093565
122.166872
96.521974
73.127747
50.471425
37.795901
25.723577
20.956993
17.839670
16.073585
14.764667
14.143586
13.842583
13.514757
12.492537
12.799501
12.322664
11.663437
11.768937
11.369586
11.521578
11.517406
11.308789
11.588931
11.737943
11.384487
11.318922
11.258721
11.433959
11.176467
11.018515
10.732412
10.338426
10.076761
9.909868
9.820461
9.885430
9.197593
9.124875
9.072423
8.796453
8.865595
8.461475
8.305907
8.212924
7.869601
7.751584
8.401871
8.116961
##ZVALUE=285
0.901818
0.838637
0.766516
0.847578
0.983477
0.886917
0.943542
0.731945
0.785589
0.926852
0.834465
0.956655
0.907779
1.283884
1.152754
1.219511
1.288652
1.404881
1.389980
1.430511
1.564622
2.025962
1.978874
2.047420
6.461740
22.992492
77.502728
164.051652
348.688960
532.383919
804.210901
999.415517
1015.861630
1015.861630
1015.861630
969.017744
759.352446
471.564531
296.655893
144.271851
78.394413
41.644573
39.975643
58.135986
78.045726
105.326772
123.225451
141.192675
148.904920
145.010948
131.638646
107.869506
88.061690
62.228441
44.957995
28.733611
19.713640
14.564991
11.989474
10.398626
10.675788
10.577440
10.235906
10.306835
10.058880
10.133982
10.231733
9.905696
10.586977
10.450482
10.967851
10.722876
11.242628
10.874867
11.196733
10.511875
10.662675
10.190606
10.497570
9.958744
9.407997
9.414554
9.597540
9.383559
8.927584
9.147525
9.131432
9.121895
8.420944
8.529425
8.326769
8.068681
8.263588
7.583499
8.202791
7.754564
##ZVALUE=290
0.771880
0.780821
0.792742
0.720620
0.822544
0.777841
0.930429
0.910759
0.863671
0.877976
0.955462
0.818968
0.876784
0.946522
0.954866
1.187921
1.003742
1.056790
1.113415
1.315475
1.186728
1.299977
1.614690
1.510978
1.897812
2.081990
2.895594
8.917451
43.392777
101.383924
200.686455
413.483977
630.268455
933.267474
1015.861630
1015.861630
1015.861630
1015.861630
878.844857
594.962835
393.228531
197.998881
103.950500
42.610765
28.758645
36.552548
48.852563
70.931911
90.590715
116.653442
130.673647
139.280558
136.851668
125.036836
107.229948
78.806877
60.646534
40.289760
28.094649
17.810464
13.266802
10.199547
9.275675
9.014606
8.659959
8.885860
9.096861
9.165406
9.165406
9.986758
9.867549
9.686947
10.415912
10.148883
10.182858
10.218620
10.214448
9.646416
9.766817
9.560585
9.401441
9.101629
8.847713
8.967519
8.579493
8.584857
8.322597
8.609891
8.435845
7.882714
8.357763
8.037686
7.972717
8.325577
8.385777
7.691979
##ZVALUE=295
0.788569
0.752807
0.821948
0.796914
0.681877
0.710487
0.699759
0.694990
0.683665
0.793934
0.871420
1.008511
1.047850
0.810623
0.995994
1.000762
0.951886
1.016855
1.074672
1.081824
1.043677
1.437664
1.106858
1.418591
1.427531
1.376867
1.652837
1.749992
2.072453
4.059672
14.628768
63.915849
141.780972
332.265496
529.306531
831.106901
1013.537645
1015.872955
1015.872955
1015.872955
995.870829
716.124773
497.761965
265.299678
143.728852
53.612590
27.471781
22.763610
29.859543
46.056509
62.934756
86.952448
107.041597
124.866962
134.365559
128.897429
119.937658
98.345876
78.635812
55.780411
40.158629
25.045872
17.472506
11.645555
9.517670
7.883906
7.719994
8.079410
8.134842
8.155704
8.668900
8.729696
9.596944
9.195805
9.534955
8.925796
9.388924
8.887649
9.242892
8.833408
8.801818
8.962750
8.510947
8.645654
8.655787
8.777976
8.769631
8.559823
8.483529
8.211732
8.267760
8.225441
7.636547
7.738471
7.628798
7.505417
##ZVALUE=300
0.663996
0.777841
0.675917
0.728965
0.808835
0.646710
0.785589
0.711679
0.867844
0.567436
0.675917
0.821948
0.694990
0.867844
0.827909
0.863671
0.858903
0.872612
0.987649
0.912547
0.871420
1.127720
1.110435
1.298785
1.201630
1.244545
1.376867
1.511574
1.617670
1.655817
1.876950
2.451539
9.805560
32.515526
110.117793
213.420987
436.633825
654.861927
953.831673
1015.861630
1015.861630
1015.861630
1015.861630
887.559652
592.604876
383.660793
192.406774
104.803443
38.837790
19.625425
18.651485
25.892854
41.491985
55.923462
80.006719
99.313855
117.884874
125.265718
123.787522
115.346909
97.350478
79.547763
56.380630
40.942430
25.002956
17.770529
11.614561
8.895993
8.213520
7.583499
7.758737
8.135438
8.154511
8.261800
8.562803
8.776784
8.746982
8.242726
8.415580
8.408427
8.125901
8.256435
8.357763
8.753538
8.419752
8.202791
8.000731
8.163452
8.205771
8.164644
7.990599
7.784963
7.493496
7.395744
7.521510
7.471442
##ZVALUE=305
0.512600
0.620484
0.676513
0.570416
0.692606
0.438690
0.560880
0.783801
0.640750
0.876784
0.836849
0.700951
0.691414
0.686646
0.803471
0.709891
0.869632
0.872612
0.765920
0.786781
0.885725
0.909567
0.912547
1.012683
0.864863
0.932813
0.977516
1.223683
1.346469
1.399517
1.706481
1.619458
1.651645
2.102852
4.721880
18.145442
71.962476
156.388879
344.230533
533.587933
828.954577
1010.790467
1015.821695
1015.821695
1015.821695
980.584621
697.852969
490.770936
262.431502
143.752694
54.065585
24.527907
13.706684
15.583634
25.045872
36.312938
57.272911
73.548555
95.345974
108.260512
117.675662
117.552876
107.042789
93.567967
72.561502
55.581927
36.569834
25.783777
15.471578
11.169910
8.687973
7.934570
7.801652
8.010864
8.092523
7.810593
7.838607
7.997751
7.738471
7.888675
8.153915
7.896423
8.327961
8.156896
8.603930
8.331537
8.188486
8.078814
7.958412
7.672906
7.766485
7.661581
7.517934
7.377863
7.133484
7.627606
##ZVALUE=310
0.476837
0.510812
0.642538
0.692606
0.576973
0.545979
0.611544
0.508428
0.677705
0.494719
0.460744
0.468493
0.618696
0.667572
0.534654
0.708699
0.578761
0.681877
0.747442
0.790954
0.822544
0.822544
0.758767
0.848770
0.831485
1.012683
0.815988
1.088977
0.933409
0.940561
1.055598
1.179576
1.272559
1.587868
1.727939
2.013445
2.362728
8.986592
30.931830
104.255676
208.054781
425.424576
644.688010
947.664976
1015.789509
1015.789509
1015.789509
1015.789509
884.581804
595.961809
395.711660
197.354555
104.158521
37.433505
16.209483
11.060834
14.260411
22.086501
31.755567
49.490929
65.021515
86.397529
99.855661
110.206604
111.835599
102.196932
91.202855
71.851611
55.142641
35.643578
25.314689
16.791821
12.361407
9.019971
8.113980
7.832646
7.748604
7.855892
7.923841
7.570982
7.813573
7.390976
7.774830
7.825494
8.259416
8.003712
7.572770
8.070469
8.065701
8.138418
7.914901
7.418990
7.838607
7.615685
7.485747
7.054806
##ZVALUE=315
0.560880
0.639558
0.667572
0.688434
0.810623
0.683665
0.675917
0.532866
0.619888
0.561476
0.747442
0.703931
0.559688
0.798702
0.757575
0.884533
0.936985
0.798702
0.631809
0.769496
0.847578
0.694990
0.824928
0.967979
1.058578
1.015663
1.026988
1.043677
1.101494
1.056790
1.187921
1.132488
1.218915
1.311898
1.184940
1.441836
1.377463
1.786947
1.955628
4.087687
15.312433
66.039562
147.739649
336.240530
538.114905
841.507912
1015.408635
1015.861630
1015.861630
1015.861630
992.966890
719.920993
507.084727
270.070434
146.307945
52.784681
22.042990
10.063648
10.135770
13.703704
18.894672
31.272769
43.663979
62.320828
78.640580
95.744729
103.836656
105.048418
98.838806
83.614588
69.192648
51.167607
37.297606
23.902655
16.706586
11.393428
9.414554
8.172989
7.773638
7.708669
7.568598
7.631779
7.439852
7.770658
7.986426
8.006692
8.242726
7.887483
7.859468
7.631779
7.913709
7.522702
7.732511
7.646680
7.405877
7.511973
##ZVALUE=320
0.492930
0.584722
0.634789
0.460744
0.622869
0.617504
0.561476
0.450611
0.599623
0.708699
0.758767
0.640750
0.630617
0.469685
0.646710
0.704527
0.937581
0.821948
0.784993
0.559688
0.774860
0.792742
0.774860
0.751615
0.837445
0.760555
0.961423
0.918508
1.064539
0.848770
0.982881
1.000762
1.120567
1.298785
1.105666
1.144409
1.470447
1.481771
1.527667
1.748800
1.778603
2.536774
7.077456
39.097667
93.855858
242.581964
403.024554
678.852797
896.259546
1015.864611
1015.864611
1015.864611
1015.864611
852.028728
625.874996
348.474979
195.682645
78.664422
36.176443
12.574792
8.517504
9.484887
11.788607
17.474890
26.189685
41.646957
54.853559
74.466467
87.520480
98.157525
99.985003
93.420744
82.111955
64.216852
51.042438
34.430623
24.544597
15.559793
12.168884
8.735657
8.088946
7.987618
7.781982
7.696748
7.849932
7.791519
7.565618
7.609725
7.643700
7.501841
7.676482
7.479787
7.439852
7.630587
7.386804
7.527471
##ZVALUE=325
0.561476
0.586510
0.628829
0.474453
0.283718
0.638962
0.585914
0.553727
0.616908
0.560880
0.465512
0.726581
0.607967
0.674725
0.696778
0.665784
0.687838
0.728965
0.768900
0.720620
0.637770
0.565648
0.805855
0.830889
0.760555
0.667572
0.582933
0.739694
0.987649
0.858903
0.954866
0.822544
0.975728
0.881553
0.990629
0.938773
0.953674
1.125932
1.186728
1.290441
1.379848
1.494884
1.797676
2.104640
3.983974
23.975968
62.304735
169.695020
302.903652
556.875467
777.945518
1015.861034
1015.861034
1015.861034
1015.861034
918.837786
700.067878
424.582958
257.184505
112.811923
53.455830
17.119646
9.541512
7.887483
8.594990
12.111664
16.162992
26.387572
38.315654
56.655407
69.772601
84.329844
91.381669
93.804002
87.766647
74.590445
61.177611
45.100451
33.042431
21.547675
15.461445
10.674000
9.095669
8.228421
8.014441
7.796884
8.006692
7.490516
7.557869
7.423759
7.022619
7.583499
7.179976
7.319450
7.276535
7.145405
##ZVALUE=330
0.507832
0.541806
0.515580
0.564456
0.591874
0.564456
0.518560
0.484586
0.425577
0.582933
0.590682
0.755787
0.680685
0.652671
0.570416
0.613928
0.544786
0.681877
0.591874
0.728965
0.717640
0.645518
0.681877
0.625849
0.791550
0.643730
0.876784
0.852942
0.861883
0.888705
0.699759
0.970960
1.044869
1.024604
0.997782
1.036525
0.930429
0.969768
1.060963
1.189709
1.327991
1.186728
1.228452
1.473427
1.605749
1.876950
2.385974
10.085702
33.437610
111.286640
216.258764
434.295535
642.890930
932.349563
1015.867591
1015.867591
1015.867591
999.952555
808.682442
521.871448
335.118771
156.622529
79.285502
27.341843
11.592507
7.767677
7.298589
8.368492
10.615587
17.144680
24.053454
37.033558
50.405860
68.030953
78.244805
87.475777
88.788867
81.284642
72.063804
57.129860
44.051409
30.622482
22.616982
14.732480
11.998415
9.050965
8.043647
7.366538
7.462502
6.912947
7.158518
6.932616
7.141829
7.028580
6.659627
6.684661
##ZVALUE=335
0.717640
0.591874
0.762939
0.577569
0.660419
0.545979
0.534654
0.806451
0.669956
0.609756
0.616908
0.645518
0.545979
0.610948
0.777841
0.738502
0.678897
0.618696
0.607967
0.791550
0.736713
0.816584
0.867844
0.745654
0.841618
0.796914
0.894666
0.949502
0.872612
0.924468
0.837445
0.747442
0.799894
0.910759
0.936985
1.174808
1.061559
1.144409
1.132488
1.093745
1.191497
1.306534
1.300573
1.388788
1.290441
1.635551
1.566410
1.698732
1.900792
4.745722
17.344952
68.696737
145.912766
325.182676
521.021485
817.247629
1003.220677
1015.958786
1015.958786
1015.958786
901.256800
619.534850
419.592857
217.230916
113.496780
38.870573
16.586781
8.070469
7.239580
7.342696
8.262992
10.793805
15.490651
24.622679
34.546852
49.943924
61.346889
74.589849
81.327558
81.210732
78.166723
66.589713
56.192875
41.395426
32.413602
21.805763
15.906692
11.221766
9.251833
7.812977
7.466674
7.064939
6.835461
7.079840
6.776452
6.613731
##ZVALUE=340
0.614524
0.607967
0.558496
0.609756
0.629425
0.526905
0.481606
0.595450
0.654459
0.508428
0.747442
0.550747
0.492930
0.608563
0.678897
0.807643
0.627637
0.551939
0.609756
0.601411
0.627637
0.657439
0.735521
0.658631
0.658631
0.755787
0.600815
0.738502
0.762939
0.719428
0.790954
0.802875
0.786781
0.911951
0.933409
0.936985
0.870824
0.997782
1.053810
0.914931
1.099706
1.070499
1.209974
1.112819
1.177788
1.347661
1.269579
1.334548
1.393557
1.596808
1.755953
2.656579
8.346438
41.365623
102.473497
253.098011
427.654386
696.844459
903.721452
1015.939713
1015.939713
1015.939713
979.790688
720.854998
508.316755
266.067982
147.006512
58.572888
23.193955
8.971691
6.905794
6.943941
6.996989
8.089542
10.361671
15.778542
21.984577
33.473969
45.116544
60.733557
70.053935
76.884627
77.822804
72.357655
65.878630
52.792430
42.028427
29.968619
22.535920
15.178919
11.426806
8.458495
7.608533
6.769896
6.668568
6.451607
##ZVALUE=345
0.620484
0.556707
0.549555
0.553727
0.344515
0.649691
0.583529
0.551939
0.712872
0.543594
0.466704
0.619888
0.501871
0.451803
0.477433
0.494719
0.435710
0.621676
0.623465
0.532866
0.668764
0.620484
0.622869
0.737906
0.621676
0.763535
0.825524
0.535846
0.884533
0.818968
0.786781
0.785589
0.779629
0.798702
0.720620
0.855923
0.772476
0.817776
0.833869
0.833869
0.784993
0.946522
1.057982
0.908971
0.906587
1.083612
0.991821
1.203418
1.337528
1.423955
1.187921
1.531839
1.536608
1.732707
3.744960
23.310781
65.291524
174.501538
311.320424
561.313629
766.120553
1000.894904
1015.861630
1015.861630
1015.861630
813.409686
600.124002
341.088772
195.968747
80.645680
35.153627
11.947751
7.847548
6.711483
6.656647
6.882548
7.468462
9.513497
12.953877
21.341443
29.204488
42.394996
52.393675
63.821673
68.932772
71.387887
68.763494
60.262680
51.832795
40.685534
30.794740
20.801425
15.364885
10.952950
8.923411
6.826520
##ZVALUE=350
0.483990
0.606775
0.328422
0.412464
0.633597
0.581741
0.449419
0.508428
0.479817
0.462532
0.558496
0.552535
0.470877
0.571609
0.536442
0.615716
0.560880
0.758767
0.653863
0.541806
0.460744
0.655651
0.623465
0.608563
0.704527
0.765920
0.676513
0.635982
0.777841
0.666976
0.672936
0.787973
0.679493
0.839829
0.790954
0.733733
0.690818
0.937581
0.868440
0.688434
0.669956
0.773668
0.876784
0.893474
0.890493
0.994802
1.018643
1.035929
1.176000
1.098514
1.312494
1.243949
1.059771
1.313686
1.397729
1.607537
2.212524
12.058616
37.153959
115.536451
219.629407
439.539552
635.960698
892.072916
1015.882492
1015.882492
1015.882492
888.528824
684.394836
411.424637
252.175927
114.542842
52.267909
15.213490
7.916689
6.441474
6.267428
6.119609
5.966425
6.856918
8.665919
13.215542
17.845631
26.857853
34.623742
47.071576
55.117607
62.198639
64.984560
63.250661
57.354569
47.250986
38.735867
27.870536
21.213889
14.605522
##ZVALUE=355
0.547767
0.514984
0.425577
0.510812
0.546575
0.415444
0.371933
0.552535
0.504851
0.674725
0.602603
0.581741
0.634789
0.699759
0.636578
0.508428
0.550747
0.553727
0.481606
0.665784
0.590682
0.596642
0.572801
0.477433
0.603795
0.752807
0.620484
0.490546
0.578761
0.602603
0.724792
0.766516
0.712872
0.559688
0.806451
0.725985
0.642538
0.584722
0.584722
0.782609
0.797510
0.819564
0.765920
0.837445
1.014471
0.850558
0.923872
0.990629
1.047850
0.968575
0.866652
1.108646
1.172423
1.068711
1.239777
1.257658
1.513958
1.700521
1.852512
5.371571
19.790530
77.152848
159.065723
332.936049
516.404510
790.610909
971.747637
1015.861630
1015.861630
939.317942
754.298568
495.850444
314.137936
140.524507
66.975951
20.745993
9.237528
6.163716
5.938411
5.644560
5.612969
5.516410
6.288886
7.924438
10.591745
16.394854
22.303462
32.300949
40.131807
49.801469
55.631995
58.902502
57.941675
52.441955
46.011806
36.609769
##ZVALUE=360
0.509620
0.516772
0.490546
0.422597
0.400543
0.489950
0.517964
0.593662
0.527501
0.465512
0.644922
0.573993
0.448823
0.590682
0.626445
0.521541
0.536442
0.545979
0.584722
0.455976
0.544786
0.480413
0.624657
0.460744
0.615716
0.578761
0.633597
0.538826
0.705719
0.725985
0.715852
0.589490
0.623465
0.457764
0.769496
0.686646
0.768900
0.742674
0.821948
0.811815
0.698566
0.811815
0.877976
0.793934
0.764728
0.826716
0.837445
1.064539
0.955462
0.934601
0.933409
0.992417
1.074672
1.305938
0.984669
1.206994
1.304746
1.321435
1.435876
1.597404
1.750588
2.617836
8.897781
39.684772
97.323656
240.421891
399.874449
651.678443
851.780772
1015.861630
1015.861630
989.812613
830.332637
565.608740
384.584665
198.342800
102.248788
33.770800
13.766885
6.445646
5.834699
5.510449
5.355477
5.361438
5.409718
5.525947
6.588697
8.932948
12.209415
18.002987
25.545955
35.547614
42.338967
49.959421
52.817464
52.929521
##ZVALUE=365
0.389814
0.378489
0.668764
0.486970
0.518560
0.468493
0.530481
0.395775
0.571609
0.567436
0.644922
0.399947
0.326633
0.524521
0.487566
0.507832
0.436902
0.381470
0.435710
0.533462
0.598431
0.712872
0.482798
0.655651
0.618696
0.579953
0.562668
0.649691
0.478625
0.647902
0.504851
0.551939
0.735521
0.525713
0.666976
0.754595
0.605583
0.660419
0.710487
0.820756
0.636578
0.761747
0.566840
0.712872
0.778437
0.746846
0.846982
0.854731
0.791550
0.987649
0.989437
0.896454
0.940561
0.937581
1.070499
1.056790
0.897646
1.168847
1.156926
1.346469
1.489520
1.507998
1.624823
1.792908
4.740953
17.124414
66.859722
145.765543
334.808826
527.525544
789.558887
942.188501
1015.834808
1015.834808
888.172984
713.533759
460.060835
280.479789
122.738481
58.140755
17.023683
7.778406
5.699992
5.178452
4.944801
4.752874
4.565716
4.576445
4.939437
5.544424
7.343888
10.413527
15.989542
21.613836
29.908419
36.714673
##ZVALUE=370
0.470877
0.468493
0.546575
0.556707
0.561476
0.407696
0.502467
0.452995
0.472665
0.529885
0.520945
0.534654
0.526905
0.587702
0.692606
0.470877
0.576973
0.607967
0.589490
0.447631
0.503659
0.560880
0.579953
0.501871
0.536442
0.636578
0.720620
0.620484
0.489950
0.604987
0.558496
0.547767
0.588894
0.799894
0.759959
0.621676
0.559688
0.590682
0.740886
0.548959
0.577569
0.628829
0.567436
0.810623
0.765920
0.678897
0.867844
0.626445
0.848770
0.827909
0.918508
0.726581
0.921488
0.744462
0.861883
0.763535
0.934601
0.867844
0.949502
0.955462
1.146793
1.186728
1.352429
1.191497
1.544952
1.763701
2.776980
9.010434
46.960711
110.202432
252.238512
414.863825
684.414506
867.148638
1010.400653
1015.861630
943.510532
779.881477
521.107912
338.483453
158.307552
80.827475
29.005408
11.991858
5.290508
4.980564
4.788637
4.500747
4.343987
4.382730
4.167557
4.304647
5.039573
6.221533
9.409785
12.932420
##ZVALUE=375
0.655651
0.498891
0.649691
0.765920
0.722408
0.541806
0.580549
0.610948
0.677705
0.586510
0.542998
0.534654
0.612736
0.622869
0.827909
0.475645
0.717640
0.525713
0.694990
0.606775
0.702739
0.595450
0.542998
0.606775
0.666976
0.696778
0.703931
0.687838
0.708699
0.629425
0.702739
0.591874
0.741482
0.546575
0.671744
0.837445
0.938773
0.818968
0.956655
0.778437
0.766516
0.713468
0.867844
0.764728
0.799894
0.768900
0.703931
0.957847
0.899434
0.908971
0.845790
0.948906
0.857711
0.823736
0.874996
0.909567
1.087785
0.948906
0.898838
1.149774
1.054406
1.103878
1.109838
1.283884
1.334548
1.344681
1.305938
1.583695
1.807809
5.945563
20.036697
72.310567
156.681538
346.938968
533.601046
790.979862
946.511626
1015.989780
1004.762650
830.245018
648.045540
393.158793
249.263644
122.801661
60.640574
19.041896
7.796884
4.708767
4.469752
4.312992
3.899932
4.079938
3.658533
3.950000
4.041791
4.319549
##ZVALUE=380
0.363588
0.495911
0.428557
0.417829
0.436902
0.406504
0.434518
0.479817
0.381470
0.548959
0.520945
0.501871
0.702739
0.515580
0.421405
0.455976
0.560880
0.333786
0.564456
0.340939
0.322461
0.488758
0.532866
0.601411
0.472665
0.455976
0.682473
0.596642
0.569820
0.551939
0.480413
0.668764
0.644922
0.711679
0.639558
0.568628
0.740886
0.645518
0.559688
0.558496
0.633597
0.562668
0.737906
0.700951
0.563860
0.514984
0.722408
0.689626
0.761747
0.753999
0.654459
0.547767
0.741482
0.813603
0.776649
0.743866
0.716448
0.776649
0.846982
0.982881
0.706911
0.844598
0.882745
0.861883
0.839829
0.915527
1.360774
1.417994
1.383424
1.739860
1.708865
3.088713
10.643601
51.397681
119.450688
279.103518
445.029736
691.600442
870.720744
1013.392806
1015.861630
891.498923
730.739832
507.367849
338.531733
164.896846
84.034801
29.403567
11.891723
5.059838
4.257560
3.880858
3.869534
3.743768
3.766418
3.505945
##ZVALUE=385
0.282526
0.594854
0.422597
0.446439
0.477433
0.463724
0.536442
0.428557
0.474453
0.408888
0.398755
0.386834
0.376701
0.425577
0.402927
0.522733
0.460744
0.613928
0.453591
0.546575
0.479817
0.441670
0.604987
0.462532
0.562668
0.648499
0.446439
0.583529
0.664592
0.663996
0.751615
0.795722
0.684857
0.788569
0.783801
1.019835
0.929832
0.987649
0.812411
0.846982
0.862479
0.742674
0.625849
0.880957
0.737906
0.733733
0.842810
0.670552
0.813603
0.785589
0.812411
0.849962
0.832677
0.830889
0.668764
0.889897
0.572801
0.699759
0.754595
0.657439
0.726581
0.749826
0.679493
0.800490
0.936985
1.004934
1.135468
1.133680
1.144409
1.344681
1.413822
1.507998
1.582503
1.959801
5.040765
28.787851
74.448586
188.477635
334.723592
583.355427
773.743987
959.668756
1014.462709
962.597728
843.133926
615.723729
436.501503
237.805843
133.940578
53.853989
21.797419
6.376505
4.183650
3.944635
3.505945
3.427863
##ZVALUE=390
0.332594
0.559688
0.497699
0.302792
0.363588
0.348687
0.470877
0.403523
0.429749
0.386834
0.454783
0.468493
0.344515
0.481606
0.464916
0.499487
0.423789
0.343919
0.425577
0.446439
0.558496
0.489950
0.524521
0.473857
0.528693
0.521541
0.699759
0.770688
0.719428
0.719428
1.115799
0.929832
1.042485
0.950694
1.055598
1.131892
1.163483
1.121759
1.089573
1.043677
1.015663
0.883937
0.861883
0.965595
0.806451
0.867844
0.821948
0.877976
0.702739
0.766516
0.805855
0.677705
0.858903
0.677705
0.693798
0.649691
0.651479
0.706911
0.778437
0.721812
0.786781
0.860691
0.969768
0.931621
0.974536
0.921488
0.942945
1.055598
1.068711
1.229644
1.422763
1.418591
1.352429
1.343489
1.399517
1.717806
2.648830
15.126467
47.742724
145.403743
271.555781
505.378842
683.218837
881.207585
988.692641
1011.585593
931.322575
731.161833
553.520918
335.593820
193.871856
78.175664
35.506487
11.074543
5.019903
3.622770
##ZVALUE=395
0.325441
0.459552
0.226498
0.388622
0.199676
0.316501
0.240803
0.289679
0.377893
0.289679
0.380874
0.254512
0.313520
0.264645
0.369549
0.402927
0.400543
0.461936
0.322461
0.340939
0.449419
0.517964
0.510812
0.459552
0.266433
0.416636
0.576973
0.658631
0.771880
0.783801
1.022816
1.245737
1.159906
1.396537
1.433492
1.344681
1.396537
1.186728
1.296997
1.360774
1.329780
1.213551
1.130700
1.081824
1.034737
0.985861
0.990629
0.788569
0.812411
0.710487
0.666976
0.665784
0.755787
0.809431
0.686646
0.723600
0.688434
0.725985
0.754595
0.646710
0.765920
0.751615
0.832677
0.741482
0.711679
0.805855
0.798702
0.895858
0.939965
1.005530
1.167655
1.187921
1.299977
1.104474
1.119971
1.220703
1.308918
1.416802
1.919866
8.799434
30.843616
105.134845
199.000835
375.443697
554.188490
804.904699
953.287482
1015.787721
1002.140641
845.108628
658.825636
405.600667
253.694654
110.208988
52.116513
16.325712
##ZVALUE=400
0.398755
0.467896
0.371933
0.326633
0.518560
0.528693
0.249743
0.459552
0.376701
0.329614
0.404716
0.436902
0.477433
0.349879
0.397563
0.324845
0.429749
0.342727
0.540614
0.498891
0.467896
0.544786
0.480413
0.470877
0.478625
0.527501
0.572801
0.681877
0.819564
0.945926
1.248717
1.227856
1.573563
1.460910
1.511574
1.623631
1.536608
1.593828
1.704693
1.540780
1.405478
1.435876
1.276731
1.282692
1.109838
1.145601
1.153946
0.922680
1.030564
0.919700
0.973940
0.796914
0.850558
0.850558
0.819564
0.890493
0.779629
0.860691
0.768900
0.863671
0.751615
0.708699
0.852942
0.691414
0.691414
0.867844
1.008511
0.979900
1.040697
1.285672
1.119971
1.180768
1.226664
1.259446
1.196861
1.179576
1.169443
1.086593
1.380444
1.397729
1.812577
4.536510
15.701652
59.075952
127.641559
287.067890
454.263687
694.896579
853.264928
983.633995
994.981527
872.048736
719.233751
494.299531
327.762961
164.271593
##END
