##TITLE=FAAI0852
##FORMAT=SPECTACLE-ASCII V-1.2
##DATA TYPE=ULTRAVIOLET SPECTRUM
##SECOND TYPE=ULTRAVIOLET SPECTRUM
##DATE=03/22/18
##TIME=13:12:54
##SPECTROMETER/DATA SYSTEM=SPECTACLE
##XUNITS=NM EM
##YUNITS=ENERGY
##YFACTOR=1
##FIRSTX=220
##LASTX=410
##NPOINTS=96
##3DDATA=Equidistant
##ZUNITS=NM EX
##FIRSTZ=210
##LASTZ=400
##ZPOINTS=39
##XYDATA=(Y..Y)
##ZVALUE=210
3.409982
3.579855
4.066825
3.427863
2.914667
3.500581
3.145933
3.488660
3.436804
2.420545
2.720952
2.393723
1.952648
2.522469
2.221465
2.179742
2.309680
1.928806
2.823472
2.608895
2.896786
2.957582
2.773404
3.492832
3.817677
5.638599
6.357431
7.755756
10.169744
11.700988
13.604760
14.925599
16.409755
16.894937
18.554926
19.503832
17.844439
17.708540
17.779469
17.404556
16.365647
15.673637
14.145970
13.826489
13.352633
11.683702
11.741519
10.994673
10.726452
10.697842
10.230541
9.297729
8.528829
8.591413
7.397532
7.546544
7.584691
7.301569
6.482601
6.795526
6.751418
6.089807
6.228685
6.339550
6.689429
6.587505
5.896688
6.927848
7.608533
8.760691
9.321570
10.716915
12.444854
12.730956
14.816523
13.656616
14.806986
13.600588
13.676882
12.183785
11.637807
10.145903
9.632707
7.378459
7.439852
5.589724
6.155968
5.188584
5.363822
4.634857
4.768968
5.187988
5.265474
6.780624
5.721450
6.532669
##ZVALUE=215
13.383627
13.234615
10.474920
9.070635
7.533431
6.851554
7.693768
7.167459
6.937981
7.450581
6.618500
5.835891
4.025698
3.791451
2.914667
2.915859
2.592802
2.830625
2.742410
2.960563
3.212690
2.844930
3.264546
4.190803
5.375743
6.940961
8.711815
11.298656
14.420748
16.650558
20.749569
24.326444
25.628805
28.650761
30.345917
28.545856
31.615496
29.738545
28.585792
27.726889
24.919510
25.488734
22.140741
21.835566
21.557808
18.624663
17.203689
17.068982
15.535951
14.755726
13.391972
12.574792
12.402534
12.225509
10.918975
10.003448
9.617805
8.911490
8.796453
8.845925
9.428859
7.930994
7.922649
7.228851
7.158518
6.775856
7.686615
7.416606
8.214712
8.671880
9.341836
11.307597
12.744665
12.114644
13.665557
14.974475
13.461709
13.424754
12.262464
11.899471
11.237860
9.521842
9.158850
8.119941
6.572604
6.871819
5.933642
4.804730
5.001426
4.886985
4.511476
4.685521
5.010962
4.418492
4.670620
5.407929
##ZVALUE=220
39.621592
41.163564
40.972829
37.841797
33.952594
25.208592
20.508766
15.243888
14.696717
14.011860
15.513897
15.473962
12.646914
13.162494
10.253787
8.215904
6.182790
4.562736
3.847480
3.303885
3.201962
3.356934
3.758669
4.199743
5.878806
8.564591
10.380745
15.112758
18.430948
25.028586
29.563904
36.693811
38.197637
44.668913
43.044686
44.639707
44.660568
43.600798
40.095448
40.800571
39.604902
34.699440
34.483671
31.586885
29.516816
26.161671
25.105476
24.218559
21.852851
21.101832
20.370483
18.539429
16.977787
15.179515
15.120506
13.367534
13.492703
13.237000
12.681484
11.339784
11.867881
9.364486
10.082722
8.485913
9.832978
8.276701
8.900762
8.688569
10.048747
10.168552
11.889935
12.487769
13.733506
13.938546
15.422702
13.961792
14.431477
12.974739
13.074875
13.276935
10.925531
10.378957
10.195971
8.480549
7.480979
7.196665
6.874800
6.352663
5.431771
5.390644
5.274415
5.346537
5.573630
4.689693
4.953742
4.858971
##ZVALUE=225
64.206719
68.226457
82.871914
94.716549
96.608996
94.122887
84.440708
65.054893
47.701597
36.083460
28.473735
25.798678
28.072596
29.180646
29.766560
26.238561
22.760630
18.551946
13.994575
9.525418
5.712509
5.118847
4.283786
4.509687
6.394982
9.458661
10.060668
16.383529
20.121932
26.520491
30.947924
37.966967
39.961934
45.542717
45.621991
46.796799
47.968626
46.676993
46.752691
42.674541
41.463971
40.424466
38.486719
33.546686
31.531453
31.058788
26.809573
27.184486
24.187565
21.764636
21.385550
20.430684
19.002557
18.691421
16.573668
14.750957
13.915896
14.291406
14.823675
13.260841
12.641549
12.099743
11.731982
11.319518
10.400414
10.978580
10.363460
9.689927
9.701848
11.477470
12.119412
12.160540
12.964606
13.445616
13.182759
15.545487
13.712645
12.809634
13.021827
11.215806
11.497736
10.437965
9.073615
8.627772
8.001924
7.854700
7.173419
7.606745
6.552935
6.554723
6.683469
6.674528
6.386638
5.287528
5.873442
6.340742
##ZVALUE=230
55.826902
61.686635
88.611841
137.867928
170.122981
198.920965
201.648474
191.366673
173.817873
132.601857
98.239779
68.907738
51.576495
48.061609
46.997666
50.656796
52.741766
51.173568
43.123960
37.981868
25.720596
18.975735
11.531711
8.072853
6.753802
8.085966
10.254979
12.027621
15.815496
20.591617
21.743774
28.004646
30.183792
32.645464
34.486651
34.594536
34.681559
34.085512
33.444762
34.184456
31.328797
29.231906
29.119849
25.857687
26.051998
21.591783
21.942854
20.670891
19.267797
18.203855
18.261671
17.728806
16.582608
15.865564
15.511513
14.158487
14.175773
15.282631
13.216734
12.991428
12.509823
11.794567
11.494756
10.526776
11.425614
11.626482
12.194514
11.646748
11.291504
11.861920
12.814999
13.169646
13.982654
16.158819
14.499426
15.334487
14.465451
15.157461
13.986826
12.682676
12.987852
10.643601
11.216998
10.244846
9.570718
8.474588
8.347631
8.012652
8.682609
8.001924
7.651448
7.876754
7.441640
7.697940
7.466674
7.403493
##ZVALUE=235
17.910600
22.137761
40.998459
97.449422
149.471760
225.716829
283.891559
338.935852
367.190838
361.839533
312.028527
250.195861
177.903771
126.228929
87.612867
75.878501
69.720745
75.866580
80.575943
82.504749
76.459646
64.728856
52.734613
34.361482
25.009513
15.086532
12.766719
11.866689
12.512803
11.603832
13.455749
16.385913
15.943646
17.506480
19.032955
19.365549
19.174814
18.384457
20.138621
18.681884
19.030571
19.036531
17.866492
17.774701
16.897917
17.076731
15.359521
14.941692
15.329719
14.380813
13.193488
15.216470
12.219548
14.424920
13.389587
11.536479
13.701916
11.755824
12.387633
11.413693
12.121797
11.685491
12.165904
12.527704
11.291504
11.787415
11.645555
12.035966
12.424588
13.089776
14.316440
15.576482
17.268658
16.459823
17.596483
17.160773
15.712976
15.831590
15.451908
14.187694
13.224483
13.573766
12.158751
12.186766
10.379553
9.449720
9.510517
9.883642
9.262562
9.691715
9.383559
9.388924
9.143949
8.236766
9.247661
8.675456
##ZVALUE=240
1.908541
2.953410
6.973743
21.893978
58.429837
104.431510
201.198459
296.954513
424.343944
501.033664
553.451777
550.931692
496.391654
402.092934
312.193632
197.530985
144.416690
103.178620
91.202855
95.861554
105.421543
107.687712
110.392570
99.778771
79.320669
64.365864
45.761466
35.014749
22.365451
15.878677
13.257861
12.771487
13.294816
14.962554
15.202761
15.585423
17.352700
16.180873
16.213655
16.533732
16.104579
16.418695
16.837716
15.868545
15.516877
15.669465
15.614629
14.443994
14.513731
13.912916
13.887882
12.987852
12.499690
14.371872
13.759732
12.594461
13.074875
12.243986
11.623502
12.179613
12.153983
12.439489
12.781620
12.921691
11.607409
11.568666
13.565421
12.529492
12.733936
13.886690
15.238523
15.752912
16.300678
17.313957
16.545653
17.148852
19.133687
17.979741
14.592409
15.393496
13.923645
13.896823
13.193488
12.743473
12.059808
12.122989
11.571646
11.649728
11.964440
11.932850
10.442734
10.060668
10.447502
8.852482
11.213422
10.344982
##ZVALUE=245
1.655817
1.605749
1.852512
1.821518
4.782677
14.642477
46.611428
92.080832
199.152827
308.128595
465.057492
566.134453
648.073554
690.093637
641.600490
536.120534
431.214571
291.254520
204.964876
125.435591
100.708604
94.544888
108.495951
118.111968
126.068592
123.080611
108.415484
96.283555
76.011419
58.797002
40.998459
31.672716
24.032593
19.993782
19.963980
19.410849
20.053983
19.741654
18.881559
19.603968
20.327568
18.935800
18.297434
17.369986
17.097592
16.887784
17.462969
15.394688
15.036464
16.231537
14.450550
14.828444
14.115572
13.080835
13.296604
12.920499
12.784600
11.690855
11.710525
11.807680
12.484789
11.002421
10.552406
11.626482
10.723472
10.713935
10.501742
10.969639
10.801554
12.480617
12.695789
13.409853
13.585687
14.549494
15.113950
14.836788
15.068650
13.840795
13.703704
13.299584
12.390614
12.445450
11.354685
11.519790
10.898709
10.479689
10.665655
9.854436
10.070801
9.107590
9.246469
9.881854
10.376573
9.519458
8.909702
9.531975
##ZVALUE=250
1.419783
1.476407
1.462698
1.652837
1.801848
1.851916
2.627969
8.552670
34.509897
73.627830
180.974603
289.993882
419.584513
591.011643
700.222850
784.019828
764.576793
675.023794
571.882725
397.091508
272.392631
177.657008
107.758641
91.305971
101.519823
117.771626
130.607486
139.812827
135.437846
128.604770
114.280581
89.297891
74.253678
53.448677
44.271946
33.148527
30.424595
28.306842
28.478503
27.248859
28.302670
26.814938
25.948882
25.385618
23.038983
21.559000
21.192431
19.414425
20.018816
19.034743
17.122626
16.617775
16.125441
13.591647
13.899803
13.143420
13.295412
12.350678
12.862682
11.637807
11.103749
11.364818
10.891557
9.248853
9.635687
9.944439
9.969473
10.628700
9.965897
11.061430
11.241436
11.007786
12.768507
13.446808
12.474656
12.813807
12.863874
12.357831
12.534857
10.744929
11.377931
9.460449
10.534525
9.897947
9.252429
9.570718
8.791685
10.066628
8.609891
9.393692
9.020567
8.848906
8.385777
8.622408
8.204579
8.662939
##ZVALUE=255
1.305938
1.566410
1.342893
1.427531
1.462698
1.484752
1.609921
1.508594
1.866817
14.108419
19.608736
63.429475
125.243664
268.206596
486.084819
594.198704
813.624859
855.031013
887.884498
821.945667
712.412596
569.880009
269.030929
219.066739
93.096495
91.618896
91.875792
105.258822
132.254958
157.730579
159.662962
157.291889
153.810978
118.418932
111.594796
75.553656
69.719553
58.738589
46.635866
41.313767
38.881898
38.153529
34.331679
32.638907
31.725764
28.733611
26.553869
27.251840
23.773909
23.749471
20.747781
19.996762
18.242598
17.648935
16.040802
15.342832
14.500618
13.329983
12.954473
12.116432
10.907650
11.324883
9.894967
11.105537
9.649992
10.169744
9.674430
9.456873
9.846687
10.175705
10.172725
10.044575
11.353493
11.506677
11.882782
11.786819
11.496544
10.548830
10.028481
10.770559
9.527802
9.448528
9.378791
9.273887
8.265972
8.039474
8.840561
8.166432
8.241534
8.404851
7.864833
7.646680
7.251501
7.888675
8.154511
8.077621
##ZVALUE=260
1.069903
1.399517
1.100898
1.393557
1.340508
1.358986
1.467466
1.515746
1.644492
1.837611
1.777411
2.917647
9.707808
41.939616
88.765621
205.127001
334.714651
541.571975
709.344745
900.723934
981.142521
1046.105623
862.975717
707.714558
469.418764
324.182510
191.894770
126.761794
96.502900
100.967884
130.166411
153.012872
177.621841
193.259716
189.978480
181.753635
159.263611
131.875873
104.476810
84.217787
68.916678
56.176782
48.646927
45.764446
40.739775
37.432909
35.418868
34.688711
32.549500
29.584765
27.105808
24.603605
22.860765
21.557808
19.228458
18.409491
16.013980
15.966892
14.121532
13.737679
11.894703
12.023449
11.023879
11.616945
10.129809
9.782910
10.067821
8.514524
8.876920
9.484887
10.530949
10.171533
10.484457
10.323524
9.603500
10.117888
10.193586
9.802580
9.033680
8.621812
8.269548
8.448958
7.908940
7.808805
7.599592
7.236600
7.787943
7.573962
7.361770
7.367730
7.441640
7.268786
7.932782
6.936789
7.430911
7.241964
##ZVALUE=265
1.246929
1.198649
1.290441
0.901818
1.224875
1.226664
1.128912
1.258850
1.427531
1.458526
1.541972
1.900792
2.064705
2.254844
6.361604
20.021796
73.903799
150.087476
258.461833
478.737950
676.088929
911.800861
1015.861630
1015.861630
992.368460
806.021690
634.470582
414.751768
284.794569
168.610811
126.068592
113.343000
128.373504
164.876580
184.604526
204.378963
210.704803
206.096768
190.171003
164.692998
138.327479
107.552409
87.313652
67.828894
55.227876
47.327876
41.885972
39.168000
35.039783
32.924414
30.184984
27.151704
25.468469
23.902655
21.804571
19.874573
17.723441
16.928911
16.590953
14.321804
13.731718
13.492703
12.354851
11.479855
10.480881
10.402799
9.873509
9.576678
9.513497
9.221435
9.680986
9.646416
9.778738
9.831786
9.951591
10.008812
9.856820
9.233952
8.533597
8.307695
8.461475
8.145571
7.512569
6.957650
7.189512
7.021427
7.027984
7.209778
7.250905
6.864667
6.708503
6.807446
6.384850
6.340742
6.531477
7.246733
##ZVALUE=270
0.962615
1.106858
1.280904
1.113415
1.225471
1.225471
1.126528
1.143813
1.217723
1.324415
1.326799
1.345873
1.482964
1.554489
1.600981
1.956820
2.514720
11.464953
34.688711
110.337734
218.253732
379.001498
648.932457
857.453942
1015.861630
1015.861630
1015.861630
1005.081534
805.338621
612.818003
437.758565
254.152417
171.310902
121.869445
118.173957
142.403841
165.232420
190.756917
205.920935
207.399726
202.239752
181.092620
157.596469
125.174522
102.214813
71.776509
58.580637
45.301914
38.937926
34.053922
30.576587
26.875734
25.408864
23.052692
22.751689
19.766688
18.046498
16.303658
15.288591
14.985800
13.591647
12.564659
11.940598
11.990666
10.534525
9.680986
10.120869
9.345412
8.565784
9.215474
9.231567
9.399652
9.122491
9.651780
9.654760
8.973479
8.438826
8.701682
7.539988
7.782578
7.581711
7.597804
7.438660
6.834865
6.648898
6.413460
6.486773
6.186962
6.254911
6.476641
5.987883
6.214976
6.590486
6.193519
5.853772
6.558895
##ZVALUE=275
0.959635
0.849962
0.880957
0.747442
0.906587
1.037717
1.033545
1.096725
1.168847
0.935793
0.997782
1.045465
1.215935
1.173615
1.225471
1.338720
1.460910
1.497865
2.001524
5.130768
20.167828
60.703754
175.061822
322.352648
583.300591
783.258677
1001.949906
1015.786529
1015.786529
1015.786529
1001.074910
760.141611
550.929904
315.609574
201.931000
115.826726
96.977949
99.994540
119.877458
145.817995
163.805485
179.054737
183.155537
177.300572
161.512494
131.562948
108.583570
80.780983
62.698722
43.003559
32.391548
24.105906
22.117496
18.778443
17.319918
16.140938
14.832616
13.794899
12.577772
12.672544
11.578798
10.680556
10.587573
9.644628
9.513497
9.170771
8.532405
8.796453
8.445978
8.674860
8.439422
7.772446
8.700490
8.708835
8.361936
8.798838
8.482933
7.751584
7.593632
7.104874
6.776452
7.059574
6.750822
6.229877
5.952716
5.890727
6.231666
6.037951
5.974770
5.805492
5.582571
5.805492
5.740523
6.188750
5.545616
5.542636
##ZVALUE=280
0.866652
0.707507
0.960827
0.908971
1.065731
0.841618
0.691414
0.980496
0.991821
1.097918
1.010895
1.197457
1.253486
0.946522
1.234412
1.184940
1.356602
1.411438
1.318455
1.814961
1.928806
2.692938
13.764501
44.901967
137.847662
252.378583
464.665890
660.173893
931.036472
1015.861630
1015.861630
1015.861630
1015.861630
833.956003
623.859763
362.067819
224.550962
109.292865
68.744421
58.226585
69.971681
91.948509
114.037991
138.767958
151.804686
156.221986
150.648952
133.694410
116.199851
87.654591
66.175461
44.289827
31.286478
20.629764
15.052557
12.145638
11.363626
9.554625
8.844733
9.086728
9.253621
8.699894
8.193851
8.259416
7.569790
7.690787
7.829666
7.267594
7.176995
7.469654
7.630587
7.780790
7.896423
7.581711
7.188916
7.246733
7.114410
7.005930
7.144809
7.135868
6.406903
6.650686
6.153584
5.825758
5.691648
5.910993
5.890727
5.625486
6.001592
5.954504
5.291700
5.641580
5.266666
5.358458
5.898476
5.493760
##ZVALUE=285
0.863671
0.889897
0.712872
0.952482
0.771880
0.901818
0.849962
0.849962
0.845790
0.876784
1.076460
0.804663
0.963807
1.225471
1.154542
1.245737
1.332760
1.217723
1.325607
1.515746
1.603961
1.641512
2.110600
2.241731
6.429553
23.124814
76.163411
157.705545
331.836939
522.864461
734.427571
994.224548
1015.908718
1015.908718
1015.908718
953.545570
747.704506
463.856459
292.525887
139.268637
73.922873
37.434697
36.446452
54.315925
73.517561
101.912618
119.044781
135.746598
144.474506
138.615966
129.931569
106.290579
85.228682
59.621930
41.282773
25.055408
16.919971
10.892749
8.535981
7.656813
6.786585
7.008910
6.493926
6.559491
6.526709
6.716847
6.623864
6.742477
6.631613
6.802678
7.345676
7.195473
7.378459
6.995797
7.304549
6.973743
7.100701
6.381869
6.564856
6.269813
6.183982
5.977750
5.766749
5.632639
5.864501
5.482435
5.910993
5.543828
5.509853
5.470514
5.291700
5.464554
5.413890
5.166531
5.596876
5.180836
##ZVALUE=290
0.519753
0.828505
0.667572
0.704527
0.754595
0.734925
0.742674
0.808835
0.930429
0.797510
1.002550
0.842810
1.001954
0.725985
1.134872
1.041889
1.105666
1.093745
1.109838
1.261830
1.370907
1.236796
1.419783
1.530647
1.637936
2.083778
2.569556
11.922717
36.874413
112.577677
211.970806
428.091884
635.792017
926.278830
1015.861630
1015.861630
1015.861630
1015.861630
874.482989
585.134625
387.415886
193.095803
101.277828
40.951967
26.504993
33.623576
47.303438
69.778562
89.727640
112.772584
129.016638
137.578845
136.567950
121.864676
104.834437
77.532530
58.965683
37.920475
26.455522
15.719533
10.523796
7.769465
6.709695
6.766915
6.028414
6.102920
5.993843
6.539822
6.563663
6.505847
7.014871
6.499887
6.856918
6.934404
7.272959
6.540418
6.803870
6.075501
5.976558
6.034970
6.330609
5.803704
5.684495
5.761981
5.622506
5.359650
5.324483
5.527735
5.145669
5.530715
5.271435
5.197525
5.324483
5.542636
5.505681
4.968643
##ZVALUE=295
0.842810
0.525713
0.565648
0.643730
0.626445
0.842810
0.511408
0.921488
0.635982
0.844598
0.813603
1.030564
0.907779
0.819564
0.878572
0.862479
0.983477
1.031756
0.982881
0.985861
1.203418
1.047850
1.286864
1.265407
1.395941
1.616478
1.635551
2.012849
2.097487
3.666878
20.351410
59.818625
136.289597
320.406556
516.261458
817.215443
1001.780033
1015.861630
1015.861630
1015.861630
994.201899
721.562505
492.456555
256.266594
142.728686
54.822564
27.387738
21.775961
28.533936
45.713782
63.187480
87.832808
104.500651
123.706460
131.329894
128.365755
118.782520
96.095800
78.766942
54.624677
40.518641
23.530722
15.822649
10.299683
7.575750
6.317496
5.931854
6.017685
5.951524
6.336570
6.394982
6.655455
6.430745
6.872416
6.644726
6.612539
6.482601
6.317496
6.167889
5.822778
5.478859
5.785823
5.639791
5.602837
5.269647
5.609989
5.365610
5.196929
5.423427
5.330443
5.148649
5.199909
5.174875
5.067587
4.963875
5.153418
##ZVALUE=300
0.747442
0.685453
0.633597
0.613928
0.663996
0.696778
0.726581
0.608563
0.745654
0.573993
0.874996
0.822544
0.757575
0.834465
0.896454
0.965595
0.903606
0.747442
0.986457
1.116991
0.954866
1.224875
1.245737
1.056790
1.211762
1.378655
1.321435
1.549721
1.489520
1.660585
2.097487
2.328753
8.948445
33.042431
107.579827
213.089585
427.336693
648.251772
942.511559
1015.861630
1015.861630
1015.861630
1015.861630
883.767605
585.735440
382.291675
191.476941
102.344751
37.799478
19.021630
18.656850
25.280714
40.667653
55.629611
79.840422
98.272562
117.936730
124.689937
124.374628
114.974976
95.897913
79.496503
56.331754
39.633512
24.611950
16.648769
9.955764
7.574558
5.952716
6.296635
6.062984
6.227493
6.504655
6.317496
6.360412
6.246567
5.968809
6.049871
5.961657
5.673766
5.823970
5.729795
5.699992
5.622506
5.194545
5.251765
5.482435
4.951954
5.064607
5.034804
5.425811
4.890561
5.064607
4.987717
5.161762
4.922748
##ZVALUE=305
0.672936
0.558496
0.549555
0.688434
0.717640
0.742674
0.721812
0.657439
0.712872
0.766516
0.610948
0.577569
0.709891
0.879765
0.632405
0.933409
0.977516
0.876784
0.964999
0.847578
0.958443
0.896454
1.026988
0.936985
0.952482
1.095533
0.874996
1.340508
1.271963
1.494884
1.433492
1.698732
1.783967
2.142787
3.585815
21.377802
60.678720
170.911551
304.255486
559.911728
783.472657
1015.862823
1015.862823
1015.862823
1015.862823
936.006904
724.485517
454.736948
285.125971
126.714706
62.180758
21.980405
13.273954
16.620755
23.186803
37.737489
53.385496
75.273514
92.872977
111.225843
117.016435
116.513968
108.491778
91.313720
74.040890
51.419735
37.333965
23.340583
15.146732
9.903908
7.616878
6.622672
6.882548
6.204844
5.895495
5.990863
5.879998
5.677938
5.591512
5.608797
5.330443
5.297661
5.636811
5.538464
5.200505
5.252957
5.236864
5.197525
5.534887
5.311966
4.961491
4.912615
4.878640
4.734993
4.737973
4.691482
##ZVALUE=310
0.541806
0.534654
0.615716
0.527501
0.529885
0.667572
0.536442
0.733733
0.588894
0.777841
0.533462
0.662804
0.588894
0.777841
0.711679
0.578761
0.766516
0.732541
0.788569
0.785589
0.755787
0.841618
0.930429
0.980496
0.905991
0.999570
1.075864
1.145601
1.008511
1.133680
1.146793
1.212955
1.403689
1.362562
1.635551
2.092719
2.188683
8.945465
30.406713
102.094412
204.068422
419.564843
630.158782
924.052000
1015.854478
1015.854478
1015.854478
1015.854478
887.497663
593.220592
394.757986
194.972754
102.681518
36.311746
15.760660
11.376739
14.196634
21.713972
31.325817
49.288869
65.611601
86.130500
100.084543
110.009909
111.707449
103.462934
91.486573
70.338845
53.907633
34.600496
24.755001
15.298724
10.877848
7.683635
6.463528
5.863905
5.657673
5.330443
5.282760
5.293489
5.076528
4.814863
4.992485
5.092621
5.072951
4.903674
5.235672
5.163550
4.967451
4.880428
4.908442
4.800558
4.933476
4.674792
4.999638
4.651546
##ZVALUE=315
0.671744
0.526905
0.621676
0.523925
0.458956
0.677705
0.734925
0.703931
0.734925
0.733733
0.772476
0.753999
0.778437
0.815988
0.691414
0.831485
0.777841
0.875592
0.858903
0.828505
0.710487
0.834465
1.001954
0.804663
0.850558
0.915527
0.989437
0.975728
1.040697
1.227856
1.187921
1.224875
1.298785
1.349449
1.425743
1.607537
1.657605
1.855493
1.915693
4.523396
15.570521
64.051747
142.031908
322.233438
521.262884
836.505890
1012.237668
1015.931964
1015.931964
1015.931964
995.977521
715.142488
500.535965
265.147686
143.745542
52.513480
21.908879
9.978414
10.191798
13.670921
19.004941
31.577945
43.795705
63.298941
77.522993
95.846653
103.704929
103.920698
98.467469
82.284808
68.627000
50.672889
37.294626
22.766590
15.292764
9.744763
7.188916
5.789995
5.639791
5.169511
5.249977
4.914999
4.852414
5.223751
4.852414
5.063415
4.956722
4.958510
5.152822
4.853606
4.978776
4.554987
4.738569
4.683733
4.555583
4.800558
##ZVALUE=320
0.533462
0.466704
0.656843
0.628829
0.597835
0.658631
0.661612
0.730753
0.551939
0.592470
0.713468
0.821948
0.714660
0.600815
0.833869
0.524521
0.741482
0.672936
0.821948
0.699759
0.694990
0.651479
0.751615
0.752807
0.708699
0.942945
0.851750
0.839829
0.829697
1.078844
0.834465
1.107454
0.960827
1.289845
1.233816
1.240969
1.379848
1.324415
1.488924
1.412630
1.823902
2.378821
7.245541
38.711429
94.798803
240.415931
398.134589
665.841699
886.486769
1015.855670
1015.855670
1015.855670
1015.855670
849.372745
621.363521
345.668793
194.948912
78.414679
35.326481
12.151599
8.384585
9.312630
11.242628
17.137527
25.955439
41.844845
54.927468
73.777437
86.533427
98.247528
100.227594
92.530847
81.794858
63.967705
48.935413
32.582879
22.438765
13.644695
9.536743
6.394982
5.459785
4.655719
4.913807
4.666448
4.936457
4.959702
4.813671
4.769564
4.788637
4.751682
4.739761
4.583597
4.372597
4.511476
4.500747
4.626513
##ZVALUE=325
0.612736
0.616908
0.621676
0.600815
0.580549
0.543594
0.611544
0.602603
0.556707
0.688434
0.626445
0.715852
0.651479
0.608563
0.448823
0.681877
0.601411
0.532866
0.713468
0.714660
0.803471
0.647902
0.770688
0.790954
0.700951
0.713468
0.848770
0.794530
0.914931
0.890493
0.862479
0.739694
0.829697
0.992417
1.034737
0.961423
1.232624
1.241565
1.370907
1.347661
1.344681
1.568794
1.638532
2.050996
3.832579
23.179650
61.987638
165.260434
298.942924
554.713011
776.462555
1015.259624
1015.883684
1015.883684
1015.883684
919.150710
699.805617
423.218608
253.559947
112.139583
52.770972
16.715527
8.725524
7.311702
7.901788
11.112690
15.541911
25.903583
37.439466
55.042505
69.096684
83.186626
90.829730
92.260838
87.260604
73.234439
59.886575
43.114424
31.126738
19.387603
13.093948
8.218884
6.293654
5.578995
5.027652
4.582405
4.903674
4.579425
4.456639
4.547834
4.556775
4.485846
4.459620
4.418492
4.384518
4.449487
##ZVALUE=330
0.514984
0.499487
0.484586
0.306964
0.445843
0.549555
0.636578
0.581741
0.447631
0.681877
0.616908
0.647902
0.691414
0.688434
0.367761
0.580549
0.641942
0.690818
0.678897
0.559688
0.631809
0.747442
0.563860
0.562668
0.799894
0.762939
0.729561
0.729561
0.848770
0.808835
0.798702
0.894666
0.840425
0.922680
1.009703
0.784993
0.843406
0.937581
1.043677
1.346469
1.266599
1.249909
1.403689
1.707673
1.666546
1.765490
2.308488
10.109544
32.991767
109.499693
213.671923
429.629683
635.571480
925.679803
1015.861630
1015.861630
1015.861630
990.425944
796.181560
518.364906
334.134698
152.762532
77.637434
27.038455
11.367798
6.986856
6.687641
7.689595
9.807944
15.938878
23.069978
36.384463
48.641562
66.352487
77.479482
85.502863
86.061954
81.060529
70.455670
53.995848
41.565895
27.483702
19.894838
13.115406
9.402633
6.428957
5.514622
4.666448
4.514456
4.547834
4.436970
4.454851
4.310608
4.338622
3.984571
4.272461
##ZVALUE=335
0.547767
0.490546
0.513792
0.633597
0.500679
0.572801
0.561476
0.406504
0.612736
0.521541
0.518560
0.418425
0.563860
0.601411
0.544786
0.602603
0.565648
0.567436
0.656843
0.619888
0.528693
0.799894
0.708699
0.620484
0.765920
0.602603
0.839829
0.856519
0.753999
0.751615
0.688434
0.669956
0.707507
0.681877
0.853539
0.836849
0.766516
0.747442
0.965595
1.020432
1.151562
1.093745
1.340508
1.204610
1.335740
1.454949
1.445413
1.680851
1.844764
4.684925
16.976595
66.943765
143.728852
321.869850
515.912771
812.509656
1000.829935
1015.866995
1015.866995
1015.866995
900.164843
615.559816
416.699052
215.853453
113.166571
38.203597
15.470982
7.270575
6.387830
6.526709
7.358789
9.543896
14.071465
23.375750
32.985806
48.470497
60.874820
73.376894
78.795552
80.309510
74.827671
63.519478
53.602457
40.175915
30.865669
19.992590
14.186502
8.983612
6.625652
5.265474
4.787445
4.151464
4.293919
4.336834
4.322529
4.275441
##ZVALUE=340
0.501871
0.304580
0.600815
0.549555
0.475645
0.383854
0.422597
0.608563
0.418425
0.428557
0.585914
0.381470
0.440478
0.551939
0.585914
0.496507
0.618696
0.580549
0.499487
0.606775
0.632405
0.450611
0.594854
0.645518
0.753999
0.564456
0.655651
0.848770
0.676513
0.655651
0.638962
0.694990
0.748634
0.699759
0.943542
0.814795
0.798702
0.846982
0.944734
0.962615
0.961423
1.011491
0.976920
1.135468
1.233816
1.204610
1.108646
1.414418
1.345873
1.666546
1.642704
2.510548
7.976890
41.416883
100.392699
254.124999
425.429940
701.781511
910.102725
1015.861034
1015.861034
1015.861034
978.675485
719.181895
508.126616
273.166895
147.159696
54.659843
21.986961
8.290410
6.648898
6.424785
6.303787
7.209778
9.414554
14.426708
21.098852
32.902956
43.124557
58.048964
67.750812
75.810552
75.637698
71.003437
62.785745
49.913526
40.552616
27.959943
20.321608
12.933612
9.104609
6.452799
5.148649
4.557967
4.475713
4.251599
##ZVALUE=345
0.463724
0.515580
0.482798
0.591874
0.450611
0.540614
0.460744
0.447631
0.432730
0.517964
0.512600
0.504851
0.571609
0.539422
0.589490
0.478625
0.505447
0.504851
0.554919
0.493526
0.542998
0.513792
0.630617
0.577569
0.554919
0.565648
0.491738
0.697970
0.558496
0.713468
0.702739
0.741482
0.798702
0.775456
0.763535
0.843406
0.719428
0.850558
0.896454
0.805855
0.840425
0.776649
0.937581
0.983477
0.794530
0.979900
1.196861
0.981688
1.277924
1.091957
1.304746
1.246929
1.449585
1.668930
4.688501
17.796755
70.809722
153.504014
333.575606
516.061783
797.801018
985.170603
1015.861630
1015.861630
1005.357504
845.613480
577.378869
377.123952
172.683597
86.224675
30.210614
12.954473
6.904602
6.402731
5.788803
5.856752
6.476641
7.910728
12.714863
18.796921
30.240417
39.233565
51.734447
60.709715
68.232417
70.218444
66.623688
61.190724
48.751831
39.808750
28.149486
20.308495
12.840629
9.181499
6.317496
5.011559
##ZVALUE=350
0.551939
0.508428
0.557899
0.633597
0.553727
0.518560
0.475645
0.513792
0.530481
0.451803
0.526905
0.388622
0.481606
0.590682
0.577569
0.489950
0.483990
0.667572
0.594854
0.607967
0.524521
0.614524
0.639558
0.691414
0.535846
0.645518
0.646710
0.685453
0.389814
0.651479
0.329614
0.525713
0.672936
0.667572
0.645518
0.694990
0.796914
0.660419
0.660419
0.883937
0.851750
0.864863
0.873804
0.739694
0.860691
0.806451
0.887513
1.089573
0.983477
1.065731
1.223683
1.233816
1.234412
1.263618
1.430511
1.617670
2.370477
11.025667
35.874844
115.439892
220.645666
442.627668
641.803741
900.179744
1015.861630
1015.861630
1015.861630
895.506740
687.154531
408.931971
251.266956
113.498569
51.374435
14.564991
7.398725
5.921721
5.340576
5.327463
5.260706
5.919933
7.590652
12.000799
17.029643
25.484562
33.583641
46.200752
54.114461
61.553717
63.625574
61.334968
56.625605
45.764446
37.622452
26.226640
19.771457
12.757778
##ZVALUE=355
0.337958
0.397563
0.550747
0.485778
0.488758
0.600815
0.436902
0.489950
0.495911
0.452995
0.442863
0.619888
0.445843
0.468493
0.530481
0.398755
0.516772
0.421405
0.553727
0.417829
0.508428
0.461936
0.575781
0.567436
0.702739
0.749826
0.647902
0.555515
0.684857
0.605583
0.566840
0.596642
0.643730
0.545979
0.718832
0.915527
0.644922
0.716448
0.676513
0.582933
0.750422
0.697970
0.681877
0.777841
0.968575
0.797510
0.964999
0.979900
0.967979
1.043677
1.152754
1.177788
1.096725
1.138449
1.202822
1.224875
1.311898
1.560450
1.804829
5.236864
19.804835
76.267719
157.154799
333.347917
524.778962
804.643631
978.762507
1015.834808
1015.834808
946.085453
766.534805
507.484674
318.141580
140.228868
66.208839
20.554662
8.797646
5.746484
5.341768
5.270839
4.852414
5.079508
5.528927
7.053614
9.662509
15.505552
21.467805
31.498671
39.502978
48.655868
55.723786
58.122873
57.470798
51.873922
45.010448
35.861731
##ZVALUE=360
0.587702
0.524521
0.473857
0.587702
0.399947
0.586510
0.409484
0.516772
0.593662
0.625849
0.503659
0.449419
0.669956
0.445843
0.457764
0.468493
0.566840
0.431538
0.654459
0.621676
0.614524
0.795722
0.622869
0.538826
0.589490
0.690818
0.745654
0.735521
0.654459
0.643730
0.656843
0.776649
0.771880
0.611544
0.775456
0.635982
0.617504
0.853539
0.705719
0.813603
0.562668
0.677705
0.727773
0.794530
0.917912
0.767708
0.960827
0.978708
1.034737
0.999570
1.090765
0.847578
0.900626
1.099706
1.135468
1.237988
1.116991
1.231432
1.381636
1.723766
1.772642
2.900958
8.905530
39.436817
96.986890
240.537524
400.074720
652.382970
856.602788
1015.876532
1015.876532
1003.495455
855.579972
581.869483
386.730433
188.604593
97.587705
35.335422
13.714433
6.182790
5.424619
4.986525
4.777908
4.747510
4.698634
5.015731
5.832911
8.116961
11.580586
17.967820
24.905801
34.293532
41.570663
49.232841
52.313805
52.167773
##ZVALUE=365
0.457764
0.485778
0.431538
0.394583
0.448823
0.641942
0.556707
0.496507
0.458956
0.629425
0.465512
0.488758
0.619888
0.554919
0.550747
0.434518
0.625849
0.457764
0.660419
0.607967
0.655651
0.550747
0.629425
0.559688
0.560880
0.596642
0.592470
0.536442
0.671744
0.622869
0.550747
0.489950
0.731945
0.628829
0.703931
0.528693
0.697970
0.799894
0.504851
0.747442
0.792742
0.817776
0.778437
0.697970
0.818968
0.702739
0.682473
0.681877
0.766516
0.898838
0.734925
0.952482
0.821948
0.851750
1.084805
0.938773
1.109838
1.189709
1.211762
1.408458
1.357794
1.460910
1.540780
1.831651
3.626943
21.975636
60.480833
161.757469
299.433470
552.727580
746.112466
955.414772
1015.861630
1015.861630
912.828445
668.790936
474.372506
256.703496
138.619542
49.142838
19.558668
6.846786
5.108714
4.804730
4.567504
4.191995
4.239678
3.891587
3.947616
5.054474
6.461740
10.206699
14.371872
21.792650
28.610826
37.095547
##ZVALUE=370
0.486970
0.512600
0.283718
0.349879
0.415444
0.494719
0.535846
0.413656
0.719428
0.527501
0.441670
0.469685
0.343919
0.415444
0.495911
0.449419
0.383854
0.344515
0.624657
0.639558
0.682473
0.658631
0.492930
0.432730
0.600815
0.509620
0.452995
0.476837
0.674725
0.588894
0.671744
0.714660
0.638962
0.656843
0.716448
0.577569
0.669956
0.468493
0.708699
0.719428
0.701547
0.717640
0.750422
0.653863
0.584722
0.714660
0.668764
0.682473
0.845790
0.867844
0.738502
0.746846
0.752807
0.956655
0.937581
0.888705
0.973940
1.004934
1.094937
1.130700
1.212955
1.240969
1.350641
1.450777
1.587868
1.816750
2.469420
11.702776
38.776994
119.837523
229.277015
439.907908
641.871691
894.960761
1009.055972
1015.861630
963.400602
759.091973
564.416647
319.201946
180.703998
71.031451
31.361580
9.551644
5.428791
4.495978
4.348755
4.118681
4.016757
3.654957
3.702641
3.749728
4.213452
5.747676
7.916689
12.602806
##ZVALUE=375
0.449419
0.481606
0.487566
0.463724
0.508428
0.327826
0.387430
0.469685
0.494719
0.455976
0.406504
0.505447
0.417829
0.595450
0.537634
0.407696
0.461936
0.515580
0.557899
0.439882
0.483990
0.521541
0.422597
0.628829
0.742674
0.558496
0.590682
0.607967
0.551939
0.494719
0.570416
0.577569
0.685453
0.590682
0.514984
0.656843
0.542998
0.595450
0.524521
0.697970
0.683665
0.841618
0.780821
0.723600
0.700951
0.908971
0.597835
0.625849
0.689626
0.706911
0.711679
0.715852
0.643730
0.733733
0.724792
0.875592
0.801682
0.862479
0.765920
0.858903
0.844598
1.126528
0.878572
1.128912
1.116991
1.148582
1.339912
1.471639
1.810789
5.528927
20.396709
78.120828
166.183710
358.991623
538.741946
782.106519
946.074724
1015.861630
1010.549664
838.768482
648.357868
395.439863
248.698592
121.265650
59.457421
18.361807
7.459521
4.561543
4.017949
4.023910
3.622770
3.624558
3.254414
3.235936
3.225803
3.937483
##ZVALUE=380
0.436902
0.419617
0.366569
0.356436
0.403523
0.552535
0.458956
0.536442
0.286698
0.331998
0.515580
0.416636
0.418425
0.434518
0.436902
0.499487
0.462532
0.461936
0.407696
0.488758
0.635982
0.568628
0.577569
0.513792
0.363588
0.528693
0.548959
0.559688
0.454783
0.582933
0.543594
0.562668
0.573993
0.604987
0.564456
0.730753
0.699759
0.783801
0.539422
0.779629
0.508428
0.751615
0.630617
0.681877
0.633597
0.715852
0.744462
0.707507
0.739694
0.659823
0.727773
0.671744
0.576973
0.625849
0.658631
0.759959
0.814795
0.720620
0.714660
0.963807
0.858903
1.052618
0.886917
0.926852
1.132488
0.970960
1.118779
1.226664
1.315475
1.605749
1.892447
3.017783
10.524988
50.924420
119.151473
277.476907
449.457765
701.480508
884.580612
1015.861630
1015.861630
902.237892
740.756989
514.189601
342.686772
165.068507
84.066987
28.538704
11.397600
4.871488
3.804564
3.712773
3.545880
3.288984
3.563762
3.102422
##ZVALUE=385
0.363588
0.546575
0.451803
0.411868
0.505447
0.509620
0.487566
0.504851
0.473857
0.285506
0.404716
0.478625
0.328422
0.472665
0.563860
0.441670
0.470877
0.369549
0.350475
0.502467
0.312924
0.500679
0.523925
0.655651
0.500679
0.487566
0.500679
0.751615
0.660419
0.682473
0.762939
0.783801
0.825524
0.678897
0.771880
0.805855
0.819564
0.625849
0.598431
0.833869
0.751615
0.759959
0.736713
0.762939
0.709891
0.691414
0.706911
0.755787
0.582933
0.659823
0.676513
0.787973
0.785589
0.785589
0.743866
0.806451
0.672936
0.750422
0.679493
0.820756
0.665784
0.694990
0.735521
0.865459
1.041889
0.941753
1.009703
1.119971
1.250505
1.348853
1.389980
1.562834
1.768470
1.927614
4.955530
28.309822
74.787736
191.438794
340.858698
597.716570
793.488622
977.769494
1015.868783
974.542499
853.046775
623.666644
439.448953
238.474607
133.649707
53.596497
21.153688
5.913973
3.791451
3.587604
3.295541
3.235936
##ZVALUE=390
0.312924
0.416636
0.461936
0.536442
0.428557
0.312924
0.409484
0.388622
0.528693
0.361800
0.250936
0.369549
0.300407
0.460744
0.455976
0.462532
0.518560
0.520945
0.538826
0.588894
0.468493
0.531673
0.495911
0.489950
0.570416
0.490546
0.522733
0.553727
0.703931
0.689626
0.841618
0.756979
0.975728
1.031756
1.096725
0.894666
0.980496
1.024604
0.963807
0.923872
0.920892
0.827909
0.809431
0.933409
0.832677
0.898838
0.867844
0.884533
0.615716
0.742674
0.712872
0.655651
0.701547
0.777841
0.682473
0.717640
0.704527
0.726581
0.824928
0.591874
0.715852
0.752807
0.651479
0.785589
0.779629
0.957847
0.829697
0.788569
1.161695
1.276731
1.186728
1.036525
1.276731
1.531839
1.382828
1.629591
2.722740
14.817715
47.218800
145.423412
275.147557
509.519577
690.622926
896.760821
1004.501581
1015.862823
956.686735
744.007826
566.243529
340.311527
194.442868
77.979565
34.418702
9.317994
4.556775
3.395677
##ZVALUE=395
0.318885
0.332594
0.370741
0.391603
0.310540
0.282526
0.302792
0.265837
0.396967
0.404716
0.277758
0.424981
0.253916
0.272989
0.331998
0.476837
0.369549
0.414848
0.277758
0.328422
0.418425
0.314713
0.390410
0.260472
0.476837
0.494719
0.474453
0.647902
0.802875
0.816584
0.850558
0.908971
1.068711
1.059771
1.190901
1.198649
1.149774
1.293421
1.120567
1.231432
0.966787
1.061559
0.974536
0.867844
0.817776
0.693798
0.809431
0.700951
0.689626
0.904799
0.805855
0.821948
0.713468
0.758767
0.563860
0.617504
0.720620
0.608563
0.716448
0.819564
0.796914
0.680685
0.649691
0.550747
0.618696
0.751615
0.879765
0.849962
0.902414
1.103878
1.198649
1.257658
1.250505
1.262426
1.256466
1.282692
1.270771
1.402497
1.710653
7.761717
28.377771
100.812912
196.154714
390.031934
568.871498
814.206600
962.630510
1015.776992
1012.069583
854.725838
662.945509
407.201648
256.598592
118.329525
55.135489
17.412901
##ZVALUE=400
0.344515
0.395775
0.439882
0.476837
0.287890
0.533462
0.444651
0.480413
0.431538
0.207424
0.351667
0.265837
0.433922
0.113845
0.533462
0.337958
0.379682
0.447631
0.467896
0.309944
0.508428
0.379682
0.495911
0.553727
0.456572
0.596642
0.730753
0.727773
0.998974
0.932813
1.211762
1.143813
1.289845
1.299977
1.290441
1.421571
1.270771
1.272559
1.240969
1.383424
1.419783
1.138449
1.289845
1.057982
1.039505
0.917912
0.859499
0.933409
1.025796
0.911951
0.889897
0.864863
0.789762
0.922680
0.710487
0.883937
0.878572
0.708699
0.693798
0.662804
0.597835
0.685453
0.684857
0.815988
0.851750
0.878572
0.890493
0.963807
1.074672
1.102686
0.981688
1.101494
1.156926
0.978708
1.040697
1.151562
1.170635
1.078844
1.208782
1.370907
1.398921
4.379749
15.406609
57.793856
126.585960
285.708904
455.785990
701.215863
866.014957
998.970866
1008.258462
886.861682
726.087689
478.238463
313.736796
156.369805
##END
