##TITLE=FAAI0501
##FORMAT=SPECTACLE-ASCII V-1.2
##DATA TYPE=ULTRAVIOLET SPECTRUM
##SECOND TYPE=ULTRAVIOLET SPECTRUM
##DATE=03/22/18
##TIME=13:40:51
##SPECTROMETER/DATA SYSTEM=SPECTACLE
##XUNITS=NM EM
##YUNITS=ENERGY
##YFACTOR=1
##FIRSTX=220
##LASTX=410
##NPOINTS=96
##3DDATA=Equidistant
##ZUNITS=NM EX
##FIRSTZ=210
##LASTZ=400
##ZPOINTS=39
##XYDATA=(Y..Y)
##ZVALUE=210
3.945827
3.331900
2.966523
3.380775
2.418756
3.444552
3.311634
3.068447
3.102422
2.990961
3.083944
3.212690
2.756715
2.265573
2.220869
2.220869
2.477765
2.370477
2.763867
3.367662
2.828836
2.810955
3.020763
3.023744
4.777908
4.382730
4.870892
5.908608
6.191730
7.555485
8.264780
8.841753
9.656549
9.672642
11.397600
10.617971
10.650754
10.511875
10.316968
10.169744
8.965731
9.864569
9.145737
9.446740
9.143949
8.534789
8.518696
8.005500
7.355809
7.438660
7.434487
8.043647
7.414818
6.712675
6.595850
6.393790
6.513596
6.049871
4.980564
5.625486
6.581545
7.150769
5.824566
5.219579
5.752444
5.974770
5.852580
6.066561
8.769631
8.560419
9.803772
10.919571
11.522770
13.027787
13.532639
14.086962
14.588833
13.990998
13.517737
12.749434
11.392832
11.565685
9.179711
8.932948
7.260442
6.292462
5.882978
5.294681
5.599856
4.930496
5.442500
4.637837
6.328821
5.294681
6.380677
7.165670
##ZVALUE=215
12.173653
12.065768
10.304451
7.435679
6.877780
6.003976
5.996823
5.897880
7.428527
6.513000
6.248951
5.660653
5.027652
3.567934
3.357530
2.946854
2.580881
2.629757
2.666712
2.880692
2.487898
3.653765
3.225803
3.685951
4.597902
5.213618
6.575584
7.329583
9.069443
10.790825
12.429953
12.729764
15.429854
15.874505
16.629696
16.569495
15.726686
16.346574
14.651418
14.906526
15.283823
14.249682
12.926459
12.321472
12.156963
10.829568
11.823773
11.198521
10.531545
10.569692
9.001493
9.709597
8.518696
8.213520
8.879900
8.190870
8.325577
7.542968
8.182526
7.127523
7.864833
7.386804
7.074475
7.242560
7.117987
6.343722
7.452965
7.300973
7.615685
8.029938
9.949803
10.333657
12.489557
11.866689
14.864802
12.848973
14.157891
13.952851
13.819933
11.987686
11.716485
10.396838
9.647608
9.597540
8.248687
7.027984
6.938577
5.271435
5.868673
5.435944
5.530715
4.480481
5.790591
5.667806
5.284548
6.075501
##ZVALUE=220
37.918687
35.969615
36.175847
33.873916
29.565692
23.210645
17.382503
14.023781
12.295842
13.033748
14.770627
14.191866
12.613535
12.659431
11.278987
7.519722
6.370544
4.924536
3.496408
3.584623
3.129840
2.934933
3.480911
4.196763
5.084872
6.093979
7.119775
9.875894
12.387633
14.506578
17.449856
19.306540
22.027493
22.281408
24.548769
26.195645
26.255846
25.067925
24.860501
26.527643
23.963451
22.489429
22.837520
20.367503
19.453764
18.016696
18.019676
15.728474
16.106963
14.922619
14.296770
14.624596
14.098883
11.659861
12.140870
10.727644
10.227561
10.858774
9.745955
9.367466
9.780526
9.407997
9.277463
9.222627
9.488463
8.496642
8.815527
8.771420
9.635687
11.169910
10.860562
11.312962
14.308691
13.981462
15.791655
14.923811
14.296770
16.172528
13.885498
13.305545
12.863874
11.736751
11.178851
10.307431
9.940863
9.016991
9.596944
7.753968
6.562471
7.165670
7.427931
6.539822
6.656647
6.208420
6.376505
6.734729
##ZVALUE=225
62.734485
64.217448
75.597763
87.299943
89.520812
86.941719
79.865456
59.764981
46.610832
36.427975
26.777983
25.148988
26.191473
27.127862
28.082728
25.948882
22.020936
18.828511
13.356805
8.397698
6.579757
4.948974
4.497766
4.563928
5.828738
7.635951
7.117987
11.411905
13.633966
17.437935
19.920468
24.282932
25.625825
28.525591
29.470921
29.718876
30.798912
31.092763
31.513572
31.718612
29.670000
28.426647
29.203892
25.852919
27.570724
24.397969
23.955703
21.860600
20.742416
19.114614
18.770695
17.244816
17.063618
16.610622
15.458465
14.069676
14.276505
13.962984
13.167858
12.933612
12.232661
12.174845
12.205839
11.668801
11.387467
11.012554
12.230873
11.974573
12.462735
12.668967
13.655424
13.767481
15.986562
16.418695
16.545653
16.374588
16.444921
16.722679
15.290976
15.364885
13.824701
13.897419
12.591481
11.626482
10.839701
10.814667
10.971427
10.006428
9.274483
9.174943
9.588599
8.528829
9.468794
8.532405
9.041429
9.758472
##ZVALUE=230
51.577687
56.407452
85.147619
127.528906
162.081718
192.158818
200.193524
191.610456
167.949796
123.105645
97.502470
68.351626
52.412748
47.984719
46.083927
49.824715
53.284764
50.468445
43.791533
37.304759
27.778745
19.409657
10.980964
8.178949
6.837845
6.646514
8.230805
9.452701
11.753440
15.927553
16.989708
21.284819
22.185445
25.525689
28.652549
29.033422
32.673478
32.484531
30.704737
32.172799
32.209754
32.270551
29.343963
29.626489
26.714802
26.832819
27.428865
25.323629
21.957755
22.868514
21.325946
21.277666
20.506978
19.138455
19.089580
16.825795
17.146468
16.408563
17.295480
15.479922
17.255545
16.722679
16.265512
15.342832
17.190576
14.824867
16.618967
15.329719
15.734434
16.968846
18.203855
19.545555
18.123984
19.915700
19.902587
21.050572
20.358562
20.356774
20.096898
17.507672
18.124580
17.275810
15.510917
15.892982
14.981627
14.596581
14.365911
12.118816
12.803674
13.652444
14.361739
13.049841
13.101697
13.029575
12.427568
13.164878
##ZVALUE=235
17.329454
20.729899
40.766001
93.409419
149.075985
221.184492
281.406641
346.902609
376.688838
366.881490
310.732722
261.850953
181.364417
127.620697
87.780952
72.574615
66.932440
72.210431
80.089569
83.173513
77.180862
63.936710
50.300956
34.772754
24.737716
14.405847
12.398958
10.202527
9.822845
11.293888
12.102723
16.681552
17.771721
21.211505
20.779967
24.418831
26.726723
26.993752
28.852820
29.512644
28.852820
28.391480
28.593540
27.676821
27.121902
26.248693
24.547577
25.146604
26.316643
21.432638
22.940636
23.263693
21.743774
20.026565
19.986629
19.639730
19.798875
20.243526
18.319488
18.590689
18.962622
19.089580
17.851591
18.527508
18.494725
17.081499
18.666983
19.294620
20.096898
20.343661
21.920800
22.276640
22.390485
23.961663
25.855899
23.560524
24.928451
24.576783
23.816824
22.127628
23.288727
22.764802
20.063519
19.177794
19.843578
18.939972
18.904805
19.043684
18.021464
18.646717
20.147562
17.678738
18.295646
16.813874
15.990734
16.653538
##ZVALUE=240
1.608729
2.307892
7.445812
20.974874
58.329701
101.928711
207.079649
297.650695
429.037809
499.388576
564.827919
556.471944
507.516861
398.358703
308.687687
199.085474
141.853690
103.581548
91.217756
95.940828
107.347965
113.344789
111.144781
98.206997
80.985427
67.442656
49.144626
33.316612
21.476746
17.102957
14.134645
14.040470
15.359521
16.143918
18.140674
19.892454
21.349788
22.682548
22.385716
23.509860
24.494529
24.945736
24.473667
22.840500
23.737550
24.329424
22.516847
22.419691
20.705462
19.672513
21.294951
20.405650
20.528436
19.219518
18.495917
19.067526
18.841624
20.180941
20.831823
20.131469
19.553900
19.304752
18.948913
19.067526
21.014810
20.438433
20.249486
21.753907
21.004677
23.068786
24.441481
24.070740
26.543736
24.203658
28.432608
27.462840
27.404428
27.551651
28.317571
27.203560
25.168657
25.486946
23.879409
24.650693
22.779703
22.723675
23.140907
22.930503
23.003817
19.876957
22.760630
19.873977
20.955801
19.646883
19.779801
20.200610
##ZVALUE=245
1.335740
1.748800
1.751781
2.258420
3.705621
15.798807
38.053989
104.677677
187.215805
291.294456
456.018448
576.508641
666.025877
685.051680
645.960569
554.473996
405.254960
300.355554
248.355865
128.916502
103.132725
101.871490
107.804537
120.188594
128.335953
120.424628
112.435818
94.788671
74.602962
54.997802
40.083528
25.848746
19.541979
18.137693
15.968680
16.993880
17.636418
16.534925
18.609762
18.280745
20.166636
18.818974
18.011928
17.677546
16.681552
18.259883
17.777681
17.938614
17.330647
17.420650
16.930699
17.082691
17.232895
17.660856
17.560720
17.077923
17.482638
18.915534
18.487573
17.623901
18.370748
19.192696
19.685626
18.734932
19.942522
18.774867
19.894838
19.827485
20.268559
20.707846
22.817850
24.401546
23.770928
25.354624
26.561618
25.470853
26.663542
25.516748
24.497509
24.163723
23.672581
23.053885
23.082495
21.421909
21.241903
21.212697
20.366907
21.509528
21.689534
21.159649
20.485520
19.643903
20.591617
20.579696
18.956661
18.754601
##ZVALUE=250
1.387596
1.480579
1.550913
1.468658
1.464486
1.591444
2.881885
7.974505
35.191774
76.762438
181.510448
300.745964
430.811644
606.849790
704.323649
792.226791
774.631500
681.158900
573.650599
400.911570
269.235969
178.093910
110.292435
93.469620
101.764798
118.002892
130.995512
135.022998
132.838488
121.317506
108.821988
85.272789
63.995719
45.333505
33.529997
24.758577
21.373630
19.897819
20.077825
18.220544
19.235611
18.316507
17.796755
18.628836
18.180609
17.738938
16.473532
16.500950
17.580986
15.884638
15.740991
16.937852
16.927719
15.813708
17.218590
16.693473
17.003417
16.279817
18.171668
18.873811
19.199848
19.090772
18.725991
19.969940
20.822883
21.073818
20.141602
20.912886
20.187497
22.366643
23.351908
22.681952
23.275614
23.272634
24.482608
23.936629
24.494529
23.087859
23.444891
22.022724
21.721721
20.556450
21.898746
20.027757
21.136999
20.530820
19.774437
19.091964
18.092990
19.151568
18.218756
18.688440
17.822981
17.498732
18.226504
17.625690
##ZVALUE=255
1.254678
1.168847
1.436472
1.362562
1.392961
1.316667
1.690984
1.909733
2.043843
4.251599
23.469925
57.852864
120.396614
257.987976
402.346849
604.013801
736.342669
866.212845
893.135667
835.753679
717.012882
568.646789
350.960493
229.831934
126.886964
93.422532
90.100765
103.896856
125.776529
142.016411
148.914456
149.583817
140.527487
119.137764
96.421838
69.813728
55.256486
38.312674
32.433867
25.401711
23.728609
23.254752
23.765564
21.436810
21.196604
20.348430
21.532774
19.024611
19.377470
19.685626
18.887520
18.949509
18.734932
18.897653
18.851757
18.101931
17.254949
17.542839
19.336939
19.044876
20.004511
20.071864
20.052791
21.133423
20.194650
20.501614
20.393729
21.116734
22.004843
21.979809
22.202730
22.042990
22.487640
23.613572
23.078918
23.361444
22.571683
21.592975
21.885633
22.094846
21.411777
19.000769
20.312667
19.681454
19.178987
18.873811
19.090772
18.098950
18.307567
16.365647
17.800927
16.724467
16.449690
16.459823
16.141534
16.104579
##ZVALUE=260
1.406670
1.140833
0.935793
1.461506
1.396537
1.374483
1.350641
1.560450
1.406670
1.614690
1.476407
3.014803
10.025501
40.189624
87.460876
173.628926
355.829000
516.234636
737.391710
878.909826
991.036892
982.802510
853.890777
696.223974
528.775454
314.647555
200.590491
116.344690
86.986423
92.776418
109.767914
141.098499
156.510472
172.105432
168.032646
150.414705
134.250522
107.042789
83.923936
62.196851
48.675537
36.115646
32.857656
28.822422
26.726723
24.787784
23.685694
23.772717
22.422671
22.412539
21.606684
20.475984
20.697713
19.301772
19.686818
19.453764
18.888712
19.774437
18.544793
18.668771
19.860864
18.046498
19.865632
18.569827
19.565821
20.449758
20.262599
19.387603
20.066500
20.455718
20.831823
21.961927
21.637678
21.690726
22.082925
20.963550
21.155477
20.946860
20.035505
19.223690
18.983483
19.230843
18.006563
18.865466
17.885566
17.435551
16.785860
17.063618
16.581416
16.953945
15.949607
15.895963
15.067458
15.107989
15.474558
15.092492
##ZVALUE=265
0.911951
0.773668
0.965595
1.143813
1.080632
0.993609
1.179576
1.095533
1.165867
1.196861
1.374483
1.320839
1.712441
2.041459
4.512668
25.767684
62.777400
156.867504
280.200839
510.414839
702.508688
890.574455
1015.696526
1015.696526
980.548859
849.156976
619.307756
446.293950
256.228447
163.883567
109.534860
90.352893
104.133487
131.746531
155.101418
177.996755
182.022452
173.859000
161.217451
137.756467
113.904476
82.964897
66.449642
49.743652
39.934516
31.714439
29.310584
28.079748
27.466416
24.281740
23.838878
22.792816
21.416545
20.990968
20.298958
19.179583
19.318461
18.402934
17.564893
18.742681
17.968416
18.331409
17.833710
17.419457
17.539859
17.722845
17.661452
16.691685
18.057823
18.277764
18.325448
18.364787
18.759966
18.860698
18.128753
18.450618
18.335581
18.134713
18.432736
16.955733
16.373992
16.625524
15.845895
15.778542
15.466809
15.328526
15.119910
14.916658
14.714599
14.739633
14.847517
14.127493
14.673471
13.818741
14.404655
13.386607
##ZVALUE=270
0.960827
1.067519
0.831485
0.996590
0.977516
1.115799
1.216531
1.099706
1.050830
1.257658
1.567602
1.376867
1.335740
1.436472
1.689792
1.902580
3.133416
10.152459
31.231642
105.053782
210.460424
431.891680
634.254813
903.502703
1015.861630
1015.861630
1015.861630
988.752842
816.482902
623.619556
376.363993
244.048834
133.159757
94.762444
90.794563
109.950900
137.716532
161.333680
181.093812
183.378458
180.144906
161.107779
140.254498
109.941959
85.617900
59.905648
47.036409
36.237836
30.312538
26.678443
24.589896
23.481846
21.832585
20.589828
20.075440
19.869804
18.704534
18.244982
16.733408
17.265677
16.493797
16.715527
15.383959
16.094446
15.561581
15.539527
14.661551
15.620589
15.389919
15.623569
16.043782
15.821457
16.682744
16.998649
16.603470
16.371608
16.518831
15.367866
15.621781
15.107989
15.288591
14.906526
14.553666
14.279485
13.587475
13.575554
14.238954
13.512969
14.125705
13.497472
13.258457
12.484789
12.969971
12.076497
13.242960
12.606978
##ZVALUE=275
0.944734
0.980496
1.012683
1.020432
1.073480
1.012683
0.810623
1.181960
1.012683
1.295805
1.202822
0.987649
1.246929
1.358986
1.388788
1.404881
1.460910
1.931787
1.771450
5.369782
20.867586
62.377453
177.086592
327.460766
597.039461
798.320770
1004.380584
1015.861630
1015.861630
1015.861630
990.085006
738.015771
529.079437
292.592645
181.738734
96.516609
73.696971
81.997514
100.731850
131.655931
150.529742
169.712901
172.132850
166.180730
150.726438
123.505592
103.779435
75.432658
57.052970
40.742755
30.924678
23.472905
20.583868
19.064546
18.083453
17.776489
16.875863
15.852451
16.154647
15.327930
15.489459
15.143752
14.351606
14.406443
14.210939
13.926625
14.727712
14.746785
14.162660
14.421940
14.724731
14.782548
14.632940
15.478730
15.378594
15.442967
16.015768
14.554858
15.032887
14.546514
14.464855
13.782978
13.791919
13.712645
13.141632
12.459755
13.349652
13.332963
13.057590
12.369752
12.165904
12.275577
12.894869
11.965632
12.632608
12.579560
##ZVALUE=280
0.885725
0.858903
1.133680
1.041889
1.038909
0.937581
1.236796
1.196861
1.152754
1.179576
1.269579
1.390576
1.578927
1.351833
1.381636
1.419783
1.421571
1.752973
1.654625
1.951456
2.192855
2.742410
13.002753
45.789480
141.362548
255.874991
470.398664
682.337880
956.335664
1016.024947
1016.024947
1016.024947
1016.024947
829.258561
622.733831
354.345441
217.424631
104.086995
65.375566
54.151416
66.003799
91.426969
113.889575
139.031410
152.356625
159.941912
154.772997
138.041973
119.915605
89.912415
69.143772
46.413541
34.524798
24.087429
19.720793
16.070604
14.940500
14.654994
14.288425
14.221668
13.816953
13.819933
13.843775
14.157891
14.221668
13.971925
13.814569
13.597608
14.016628
14.028549
14.565587
14.635921
15.013814
15.089512
14.848709
15.131831
15.635490
15.290976
15.029907
14.083982
14.910698
14.172792
13.906956
14.458895
13.838410
13.720989
14.074445
13.157725
13.270974
12.690425
13.512969
12.512803
13.204813
12.576580
12.458563
12.609959
##ZVALUE=285
1.038909
0.954866
1.020432
1.124740
1.126528
1.201630
1.018643
1.192689
1.240969
1.337528
1.326799
1.251698
1.419783
1.152754
1.260638
1.542568
1.528859
1.502633
1.446605
1.924634
1.883507
1.785755
2.139807
2.360940
7.058978
22.836924
79.126954
162.052512
346.040726
540.784001
760.405660
1012.187600
1016.117930
1016.117930
1016.117930
960.194468
753.936768
469.152927
295.606852
140.428543
76.071620
41.221976
40.513873
58.180690
77.719688
104.605556
123.774409
141.214728
150.559545
146.082640
135.184526
112.579465
91.486573
64.908862
46.593547
30.161738
21.271706
16.076565
14.023781
13.131499
12.708902
12.988448
13.027787
12.706518
13.096929
13.285875
13.923645
14.309883
13.478994
14.250875
14.438629
14.896989
15.306473
15.285611
15.395880
14.881492
14.947653
15.416741
15.013814
15.106797
14.657974
14.511943
14.587641
14.807582
14.388561
14.170408
14.192462
14.063716
14.584661
13.903975
13.332963
13.642907
13.004541
13.426542
13.220906
12.592673
##ZVALUE=290
0.610948
0.818968
0.687838
0.617504
0.797510
0.743866
0.847578
0.868440
0.813603
0.782609
0.853539
0.849962
1.000762
1.125932
0.884533
1.191497
0.971556
1.178980
1.014471
1.057982
1.393557
1.511574
1.372695
1.665950
1.822710
1.875758
3.044605
9.507537
45.285821
103.119016
241.374969
415.800810
635.969639
943.330526
1015.861630
1015.861630
1015.861630
1015.861630
883.318782
592.044592
390.167832
196.714997
104.027987
41.397810
28.526783
35.407543
48.167706
71.075559
92.689991
117.201805
132.923722
143.519640
143.210888
127.610564
109.264851
81.751943
62.976480
42.616725
30.138493
19.343495
15.541911
12.903810
12.240410
11.971593
11.954904
11.921525
12.709498
12.976527
12.744665
13.322830
13.309717
14.042854
13.935566
14.830828
14.870763
14.599562
14.315844
14.559627
14.953613
14.622808
14.568567
14.371872
14.624596
14.874935
14.654994
14.749765
13.873577
13.785958
13.846755
13.683438
14.217496
13.440847
13.459921
13.293624
13.216734
12.819767
##ZVALUE=295
0.744462
0.737906
0.721812
0.787973
0.562668
0.822544
0.738502
0.631809
0.724792
0.821948
0.893474
0.799894
0.730753
0.909567
0.721812
0.924468
0.905991
0.923872
1.104474
1.042485
1.037717
1.003742
1.240969
1.348853
1.662970
1.540780
1.678467
1.922846
2.141595
3.894567
14.444590
64.809918
144.585967
333.708525
530.599952
829.173923
1015.096903
1015.867591
1015.867591
1015.867591
993.010998
715.265870
496.222973
261.920691
143.674612
53.853989
28.215647
22.434592
29.544830
46.935678
64.490438
89.801550
107.386708
127.048492
136.390924
133.517981
122.485757
101.333857
83.018541
58.167577
43.184757
28.216839
20.243526
14.951825
12.622476
11.955500
11.699796
11.708736
11.638999
12.445450
12.187958
13.393760
13.652444
14.093518
14.158487
14.355779
14.508963
14.275908
14.176965
14.842749
14.616847
14.791489
14.512539
14.876723
13.978481
14.795661
14.682412
14.466643
13.912916
13.893843
14.624000
13.508797
13.570786
13.049841
13.229847
12.733936
##ZVALUE=300
0.756979
0.807643
0.680685
0.759959
0.676513
0.752807
0.807643
0.581741
0.758767
0.830889
0.748634
0.861883
0.811815
0.813603
0.877976
0.888705
0.929832
0.796914
0.973940
1.015663
1.041889
0.961423
0.901818
1.095533
1.362562
1.266599
1.446605
1.353621
1.665950
1.768470
1.970530
2.333522
9.668469
32.395720
110.132694
216.778517
437.453985
656.170845
955.478549
1015.861630
1015.861630
1015.861630
1015.861630
884.902477
588.194728
383.649468
192.631483
103.479624
39.186478
20.011663
19.076467
26.014447
41.606426
56.835413
81.192851
100.459456
118.604898
127.329826
123.949647
118.402839
99.661946
82.487464
59.595704
43.990612
28.577447
21.060705
15.198588
12.491941
11.793971
11.776686
12.267828
12.340546
12.706518
13.077855
13.150573
13.320446
13.752580
13.348460
13.833642
14.057755
14.045835
14.232993
14.517903
14.271736
14.974475
14.525652
14.637709
14.253855
14.223456
13.868809
14.043450
14.016628
13.545752
13.358593
12.755990
12.962818
##ZVALUE=305
0.687838
0.509620
0.819564
0.608563
0.692606
0.638962
0.664592
0.730753
0.710487
0.742674
0.645518
0.856519
0.770688
0.804663
0.720620
0.886917
0.917912
0.857711
0.807643
0.860691
1.006722
1.135468
0.977516
1.193881
0.898838
1.086593
1.173615
1.270771
1.267791
1.290441
1.392961
1.540780
1.714826
1.958609
3.650784
22.001863
62.262416
175.345540
315.298438
575.364828
804.397464
1015.861630
1015.861630
1015.861630
1015.861630
932.224989
723.569989
459.215641
285.534859
130.038857
63.136816
22.777915
13.945699
16.984940
25.184751
40.085912
55.707693
77.392459
93.993545
114.144683
121.739507
119.302869
112.589002
95.226765
78.963637
57.142973
41.587949
28.366446
20.340681
14.717579
12.552738
12.109876
12.087822
12.618899
12.518764
12.980700
12.712479
13.212562
13.047457
12.679696
13.499856
14.088750
13.935566
14.044642
14.309883
14.063716
13.913512
13.778806
13.947487
13.541579
13.146996
13.430715
13.701916
13.132691
12.478828
12.875795
##ZVALUE=310
0.632405
0.580549
0.556707
0.569820
0.507832
0.629425
0.683665
0.457764
0.669956
0.661612
0.598431
0.653863
0.867844
0.826716
0.736713
0.751615
0.672936
0.595450
0.614524
0.638962
0.826716
0.811815
0.860691
0.961423
1.015663
1.099706
0.981688
1.055598
0.978708
1.406670
1.169443
1.456738
1.411438
1.560450
1.763701
1.805425
2.183914
9.396672
31.819940
107.090473
210.879445
431.784987
647.628903
948.845744
1015.861630
1015.861630
1015.861630
1015.861630
907.875896
607.069731
406.399965
206.307769
109.356642
38.400888
17.199516
12.164712
14.837980
23.096800
32.717586
50.895810
66.774487
88.787675
102.726817
113.786459
114.411712
107.421875
94.769597
74.849725
59.204698
39.342642
29.572845
20.711422
16.134977
13.239980
12.309551
12.224913
12.314916
12.447834
12.462735
12.520552
13.018847
12.540817
13.148785
13.042688
13.501644
12.726784
13.346672
13.130903
13.349652
13.201833
12.943745
12.369752
12.698770
12.190938
12.158751
12.106895
##ZVALUE=315
0.595450
0.579953
0.613928
0.524521
0.624657
0.642538
0.699759
0.638962
0.746846
0.641942
0.650883
0.650883
0.571609
0.761747
0.736713
0.667572
0.712872
0.552535
0.662804
0.818968
0.884533
0.760555
0.734925
0.768900
0.762939
0.848770
0.919700
1.066923
0.949502
1.154542
1.201630
1.144409
1.235604
1.317859
1.363754
1.314878
1.700521
2.033710
1.845956
4.429817
15.986562
67.852736
148.165822
333.852768
540.822744
862.563848
1015.861630
1015.861630
1015.861630
1015.861630
959.081650
753.149986
465.477705
292.294621
134.269595
65.390468
20.709634
11.256933
11.445880
13.801455
21.257997
29.981732
47.228932
62.540770
83.866715
96.241832
106.624961
108.205676
99.896789
89.227557
70.894957
56.832433
39.168000
28.537512
20.346642
16.246438
13.258457
11.722445
12.003779
11.912584
11.641979
12.256503
12.373924
12.620687
12.390614
12.588501
12.661815
12.311935
12.475848
12.482405
12.009740
11.791587
11.703968
11.730790
11.678934
11.892915
##ZVALUE=320
0.533462
0.686646
0.583529
0.435710
0.446439
0.567436
0.659823
0.489950
0.641942
0.673532
0.777841
0.739694
0.642538
0.693798
0.644922
0.621676
0.588894
0.678897
0.765920
0.821948
0.860691
0.786781
0.730753
0.672936
0.774860
0.870824
0.816584
1.020432
1.001954
1.050830
1.120567
1.071692
1.041889
1.020432
1.230836
1.312494
1.387596
1.349449
1.640916
1.898408
1.940727
2.301931
7.453561
39.490461
97.816586
246.164799
413.512588
694.516897
923.312902
1015.859842
1015.859842
1015.859842
1015.859842
859.071016
626.616478
349.811912
196.528435
79.991817
36.607981
13.279915
9.304881
10.068417
12.532473
19.183755
28.395653
43.130517
57.808757
76.808929
90.681911
101.670623
103.918910
97.116828
84.580779
67.269802
52.794814
37.974715
28.125644
19.473433
15.337467
12.966990
11.922717
11.775494
11.331439
11.807680
11.839867
11.523962
11.241436
11.533499
11.750460
11.528730
11.328459
11.267662
11.159778
11.129975
10.808706
11.427999
##ZVALUE=325
0.362992
0.472665
0.539422
0.621676
0.608563
0.545979
0.452995
0.563860
0.636578
0.615716
0.634789
0.511408
0.666976
0.644922
0.524521
0.664592
0.719428
0.556707
0.556707
0.547767
0.694990
0.590682
0.783801
0.662804
0.942945
0.626445
0.723600
0.825524
0.856519
0.728965
0.907779
0.927448
0.928640
0.939965
0.962615
1.095533
1.106858
1.077652
1.246929
1.357794
1.472831
1.655817
1.609921
2.013445
3.992915
24.296641
63.627958
171.966553
310.793519
575.876832
803.154707
1015.847921
1015.847921
1015.847921
1015.847921
940.698981
711.940527
433.170795
259.498954
115.234852
54.933429
17.598867
9.657741
8.756518
9.274483
12.630820
17.841458
27.877688
40.239692
58.667660
73.127747
86.699724
94.449520
96.511841
91.270804
77.997446
64.642429
48.636794
36.391616
24.538636
18.449426
14.130473
12.411475
11.484623
11.287928
11.221766
10.995865
11.167526
10.937452
10.964870
10.677576
10.795593
10.459423
10.599494
10.615587
10.754466
##ZVALUE=330
0.461936
0.396967
0.500679
0.484586
0.292659
0.482798
0.536442
0.576973
0.487566
0.384450
0.572801
0.634789
0.588894
0.396967
0.570416
0.572801
0.703931
0.515580
0.499487
0.505447
0.477433
0.652671
0.656843
0.588894
0.777841
0.839829
0.665784
0.809431
0.809431
0.793934
0.635982
0.756979
0.818968
0.804663
0.715852
0.892878
1.033545
0.970960
1.063943
0.991821
1.200438
1.201630
1.293421
1.325607
1.424551
1.949668
2.388954
10.997653
36.939979
121.315718
232.047439
461.099744
677.613020
974.280834
1015.799642
1015.799642
1015.799642
1011.126637
825.967789
532.525778
342.551470
157.629848
80.262423
27.746558
12.058616
8.393526
8.020997
9.303689
11.469722
18.299818
25.847554
39.714575
52.971840
70.840716
81.828833
90.580583
90.440512
84.198713
75.603724
59.592724
46.081543
32.571554
24.647713
17.948747
14.509559
12.144446
11.213422
10.739565
10.320544
10.342598
10.586977
10.239482
10.251999
10.556579
10.232925
10.384917
##ZVALUE=335
0.553727
0.561476
0.404716
0.480413
0.448823
0.418425
0.596642
0.502467
0.434518
0.568628
0.363588
0.460744
0.367761
0.434518
0.386834
0.596642
0.452995
0.654459
0.589490
0.625849
0.398755
0.632405
0.619888
0.526905
0.562668
0.616908
0.691414
0.775456
0.525713
0.599623
0.849962
0.813603
0.894666
0.838637
0.719428
0.893474
0.769496
0.751615
0.908971
1.046658
1.076460
0.948906
1.001954
1.186728
1.480579
1.337528
1.293421
1.466870
1.882911
4.611611
17.156601
70.201755
147.725940
329.923630
527.166724
829.170942
1007.048488
1015.845537
1015.845537
1015.845537
902.591944
620.180964
422.551036
218.091607
113.980770
38.944483
16.389489
8.637905
7.850528
8.091927
9.083748
11.778474
16.447902
26.285648
35.585761
51.678419
63.303709
76.484680
84.146857
84.955692
80.127716
69.105625
58.815479
45.003891
35.766959
24.580956
19.252896
14.139414
11.870861
10.420680
10.090470
9.932518
9.732842
9.337664
9.810925
9.930730
##ZVALUE=340
0.575781
0.582933
0.547767
0.488758
0.458956
0.606775
0.492930
0.488758
0.436902
0.445843
0.458956
0.583529
0.313520
0.624657
0.481606
0.585914
0.682473
0.654459
0.603795
0.577569
0.640750
0.586510
0.673532
0.646710
0.647902
0.661612
0.688434
0.657439
0.688434
0.683665
0.584722
0.712872
0.795722
0.692606
0.770688
0.633597
0.793934
0.932813
0.865459
0.921488
0.989437
0.940561
1.067519
1.246929
0.998974
1.105666
1.282692
1.223683
1.361966
1.632571
1.675487
2.516508
8.603930
42.471886
104.660988
257.796645
436.813831
723.626018
921.397805
1015.861630
1015.861630
1015.861630
982.630849
722.799897
506.340861
266.587734
147.243738
59.018731
23.680925
9.225607
7.630587
7.932782
7.968545
9.304881
11.041760
17.057657
24.082661
35.580993
46.470761
62.584877
71.960688
79.044700
79.437494
74.270964
68.558455
55.649877
44.444799
32.752752
25.157928
17.980933
14.235973
11.561513
10.094643
9.517670
9.467602
9.233952
##ZVALUE=345
0.542998
0.405908
0.521541
0.429749
0.506639
0.421405
0.387430
0.550747
0.491738
0.501871
0.527501
0.632405
0.629425
0.488758
0.393987
0.542998
0.539422
0.529885
0.582933
0.527501
0.592470
0.429749
0.603795
0.699759
0.594854
0.526905
0.533462
0.561476
0.882745
0.736713
0.659823
0.724792
0.608563
0.842810
0.651479
0.855923
0.632405
0.764728
0.822544
0.735521
0.972748
0.982881
0.957847
0.922680
0.980496
1.039505
1.045465
1.080632
1.168847
1.233816
1.198649
1.349449
1.585484
1.862645
3.935695
23.889542
66.614747
177.806616
313.770771
567.376614
774.083734
1004.179716
1015.861630
1015.861630
1015.861630
810.970664
597.807765
199.770927
168.919563
86.897612
30.108690
13.352633
8.089542
7.662773
7.366538
7.551908
8.452535
10.749698
15.657544
21.755695
34.000874
43.820739
56.306720
64.937472
73.154569
74.000955
70.653558
65.008998
52.371621
43.621659
32.371879
24.378896
17.230511
13.609529
10.772943
10.064840
##ZVALUE=350
0.564456
0.469685
0.473857
0.504851
0.358820
0.717640
0.518560
0.521541
0.469685
0.400543
0.415444
0.582933
0.599623
0.557899
0.588894
0.520945
0.603795
0.670552
0.474453
0.567436
0.482798
0.421405
0.564456
0.589490
0.521541
0.543594
0.587702
0.557899
0.610948
0.580549
0.767708
0.717640
0.667572
0.646710
0.753999
0.808835
0.669956
0.715852
0.664592
0.728965
0.757575
0.846982
0.775456
0.820756
0.854731
0.927448
0.990629
1.062751
1.155734
1.332760
1.387596
1.231432
1.384616
1.169443
1.498461
1.812577
2.256632
11.663437
37.670732
119.385719
227.783918
449.658632
650.435686
902.573466
1015.861630
1015.861630
1015.861630
885.334015
679.335594
405.877829
248.278975
114.027858
52.415729
16.103983
8.621812
7.367730
6.950498
7.131696
7.042885
7.954836
9.854436
14.336705
19.789934
29.542446
37.666559
49.738884
58.725476
65.405965
67.667961
65.850616
60.837865
49.276948
41.817427
31.435490
24.404526
17.512441
##ZVALUE=355
0.564456
0.490546
0.521541
0.377893
0.601411
0.559688
0.531673
0.587702
0.608563
0.475645
0.485778
0.410676
0.512600
0.542998
0.591874
0.489950
0.358820
0.535846
0.537634
0.591874
0.617504
0.531673
0.782609
0.513792
0.541806
0.715852
0.603795
0.586510
0.570416
0.700951
0.734925
0.588894
0.623465
0.576973
0.614524
0.720620
0.738502
0.639558
0.648499
0.650883
0.773668
0.844598
0.900626
0.703931
0.765920
0.778437
0.894666
1.035929
0.974536
0.989437
0.922680
1.154542
1.058578
1.157522
1.084805
1.327991
1.444817
1.627803
1.841784
5.575418
20.170808
78.307986
161.916614
339.662433
530.823469
808.779001
980.512500
1015.861630
1015.861630
943.448544
753.038526
484.020710
301.275849
134.544969
65.556765
22.791624
10.076761
7.056594
6.728768
6.386638
6.554723
6.972551
7.806420
9.335876
11.640787
18.022656
24.037957
34.139752
42.205453
52.172542
57.731867
61.832666
60.167909
54.593682
48.404932
38.477778
##ZVALUE=360
0.584722
0.569820
0.482798
0.539422
0.577569
0.649691
0.523925
0.464916
0.524521
0.399947
0.592470
0.511408
0.516772
0.535846
0.431538
0.668764
0.596642
0.436902
0.488758
0.596642
0.464916
0.460744
0.506639
0.724792
0.550747
0.507832
0.666976
0.695586
0.597835
0.442863
0.589490
0.511408
0.622869
0.602603
0.767708
0.744462
0.700951
0.819564
0.796914
0.834465
0.688434
0.712872
0.944734
0.832677
0.622869
0.849962
0.852942
1.011491
0.851750
0.851750
0.968575
1.057982
0.967979
1.157522
1.109838
1.075864
1.260638
1.315475
1.492500
1.525879
1.776814
2.781749
8.536577
40.773749
100.175738
247.812867
408.253670
662.299991
864.392519
1015.861630
1015.861630
1001.273990
848.979950
580.616593
388.310552
190.284848
98.727942
36.190748
14.720559
7.146597
6.664991
6.407499
6.338954
6.269813
6.208420
6.727576
7.581711
10.098815
13.594627
19.961596
27.280450
37.124753
44.010878
52.091479
55.305958
55.192709
##ZVALUE=365
0.437498
0.525713
0.438690
0.525713
0.416636
0.494719
0.413656
0.482798
0.536442
0.528693
0.533462
0.581741
0.456572
0.457764
0.437498
0.599623
0.672936
0.610948
0.649691
0.492930
0.588894
0.418425
0.582933
0.408888
0.677705
0.578761
0.706911
0.664592
0.622869
0.635982
0.630617
0.443459
0.506639
0.557899
0.645518
0.683665
0.721812
0.601411
0.699759
0.713468
0.790954
0.800490
0.667572
0.652671
0.587702
0.881553
0.720620
0.776649
0.816584
0.975728
0.761747
0.696778
0.966787
0.867844
0.886917
1.020432
1.057982
1.051426
1.015663
1.253486
1.239777
1.512766
1.838803
2.064705
4.124641
22.706985
61.755776
166.801810
309.054852
563.668013
770.717859
986.579657
1015.861630
1015.861630
914.777517
682.095885
484.223962
258.394480
140.328407
50.858855
21.064878
7.641912
6.374717
6.057620
5.831718
5.813837
5.489588
5.637407
5.705953
6.816983
8.525848
12.279749
16.253591
24.019480
30.450821
39.372444
##ZVALUE=370
0.466704
0.367761
0.591874
0.525713
0.494719
0.493526
0.391603
0.563860
0.552535
0.484586
0.442863
0.397563
0.432730
0.424981
0.442863
0.438690
0.593662
0.552535
0.556707
0.487566
0.578761
0.350475
0.588894
0.474453
0.498891
0.550747
0.490546
0.410676
0.494719
0.581741
0.580549
0.493526
0.662804
0.423789
0.583529
0.520945
0.567436
0.779629
0.611544
0.661612
0.771880
0.705719
0.623465
0.682473
0.793934
0.739694
0.768900
0.684857
0.686646
0.732541
0.767708
0.722408
1.045465
0.933409
0.929832
1.059771
0.980496
1.041889
1.055598
1.081824
0.982881
1.184940
1.245737
1.430511
1.694560
1.711845
2.337694
11.599660
39.047003
128.721595
239.127874
454.524755
660.993457
920.245647
1015.861034
1015.861034
971.915722
757.483840
558.348894
313.570499
177.168846
70.171952
31.837821
11.426806
6.272793
5.459785
5.492568
5.114675
5.301833
5.145669
5.314946
5.384684
5.793571
7.705688
9.959936
14.394522
##ZVALUE=375
0.426769
0.450611
0.433922
0.472665
0.339746
0.349879
0.419617
0.556707
0.439882
0.571609
0.390410
0.439882
0.340939
0.361800
0.348687
0.439882
0.515580
0.471473
0.458956
0.513792
0.483990
0.484586
0.620484
0.534654
0.485778
0.456572
0.555515
0.487566
0.601411
0.554919
0.500679
0.583529
0.509620
0.731945
0.676513
0.666976
0.575781
0.637770
0.727773
0.597835
0.826716
0.698566
0.546575
0.790954
0.709891
0.513792
0.631809
0.532866
0.691414
0.711679
0.785589
0.757575
0.677705
0.696778
0.762939
0.817776
0.801682
0.820756
0.736713
0.790954
0.947714
1.011491
1.043677
1.033545
1.117587
1.226664
1.356602
1.647472
1.977682
5.808473
21.184683
77.640414
166.987777
369.024873
566.423535
834.729671
992.034674
1015.861630
1015.861630
855.809450
663.409829
406.172872
253.222585
116.447806
57.121515
18.738508
8.201599
5.368590
5.209446
4.914999
4.922748
4.814863
4.753470
4.821420
4.991889
5.298853
##ZVALUE=380
0.487566
0.384450
0.552535
0.463724
0.499487
0.320673
0.456572
0.317693
0.379682
0.486970
0.427961
0.344515
0.451803
0.289679
0.415444
0.415444
0.419617
0.496507
0.385642
0.305772
0.399947
0.434518
0.408888
0.547767
0.390410
0.583529
0.551939
0.555515
0.509620
0.542998
0.674725
0.608563
0.537634
0.615716
0.448823
0.644922
0.636578
0.727773
0.672936
0.521541
0.497699
0.489950
0.674725
0.603795
0.597835
0.670552
0.606775
0.606775
0.658631
0.697970
0.657439
0.631809
0.738502
0.653863
0.704527
0.725985
0.735521
0.643730
0.667572
0.874996
0.726581
0.932813
1.084805
1.111627
1.009703
0.983477
1.111627
1.363754
1.409650
1.575947
1.665950
3.223419
11.373758
54.310560
126.936436
297.699571
477.083921
737.476945
924.492478
1015.861630
1015.861630
910.563469
743.737817
516.036749
344.653726
169.465542
86.810589
30.428767
12.451410
5.809665
5.051494
4.604459
4.517436
4.411936
4.296899
4.360676
##ZVALUE=385
0.426769
0.448823
0.563860
0.416636
0.420809
0.459552
0.591874
0.715852
0.414848
0.370741
0.177622
0.373721
0.469685
0.494719
0.328422
0.515580
0.490546
0.300407
0.464916
0.514984
0.358820
0.400543
0.423789
0.388622
0.396967
0.462532
0.394583
0.494719
0.622869
0.599623
0.711679
0.494719
0.592470
0.595450
0.729561
0.594854
0.717640
0.567436
0.746846
0.607967
0.491738
0.767708
0.704527
0.639558
0.532866
0.663996
0.649691
0.607967
0.535846
0.751615
0.600815
0.514984
0.680685
0.591874
0.606775
0.682473
0.748634
0.774860
0.746846
0.830889
0.753999
0.760555
0.692606
0.776649
0.979900
0.872612
1.071692
1.074672
1.307726
1.380444
1.491904
1.660585
1.709461
2.103448
5.432963
31.311512
82.941651
208.557844
362.167954
633.490682
833.258033
1013.239622
1015.861630
993.923545
858.646035
618.918538
437.032580
236.375928
134.194493
54.685473
22.126436
6.597638
4.903674
4.533529
4.255772
4.146695
##ZVALUE=390
0.421405
0.412464
0.246763
0.385642
0.419617
0.343919
0.432730
0.494719
0.505447
0.472665
0.564456
0.500679
0.512600
0.416636
0.483990
0.494719
0.278950
0.542998
0.414848
0.396967
0.305772
0.425577
0.346899
0.407696
0.578761
0.518560
0.574589
0.590682
0.605583
0.489950
0.538826
0.712872
0.711679
0.690818
0.748634
0.687838
0.787973
0.702739
0.675917
0.763535
0.665784
0.665784
0.668764
0.646710
0.665784
0.609756
0.643730
0.897646
0.806451
0.626445
0.553727
0.676513
0.780821
0.687838
0.740886
0.737906
0.802875
0.716448
0.899434
0.667572
0.834465
0.775456
0.875592
0.771880
0.740886
1.032948
0.992417
1.027584
1.249909
1.264811
1.337528
1.561642
1.464486
1.474619
1.500845
1.589656
2.817512
17.372966
55.432916
171.417594
318.591595
577.736497
767.218471
980.473757
1015.866995
1015.866995
983.137488
760.771036
571.362972
343.199968
197.878480
80.403686
36.266446
10.270476
5.215406
4.464984
##ZVALUE=395
0.443459
0.407696
0.406504
0.512600
0.358820
0.360608
0.218749
0.239611
0.352859
0.431538
0.442863
0.327826
0.457764
0.399947
0.531673
0.557899
0.367761
0.429749
0.553727
0.397563
0.398755
0.445843
0.394583
0.475645
0.374913
0.511408
0.561476
0.421405
0.777841
0.676513
0.674725
0.830889
0.828505
0.860691
0.790954
0.775456
0.814795
0.786781
0.787973
0.978708
0.917912
0.750422
0.779629
0.578761
0.644922
0.630617
0.695586
0.745654
0.755787
0.933409
0.717640
0.768900
0.694990
0.800490
0.639558
0.880957
0.765920
0.673532
0.757575
0.721812
0.758767
0.773668
0.780821
0.660419
0.742674
0.788569
1.008511
1.032948
1.012683
1.182556
1.270771
1.237988
1.307726
1.228452
1.393557
1.462698
1.329780
1.535416
1.971722
9.098649
34.138560
117.850900
222.883821
423.267484
623.406768
893.434882
1015.861630
1015.861630
1015.861630
886.003971
686.758757
419.377685
264.338851
123.292804
58.197975
18.668771
##ZVALUE=400
0.539422
0.274777
0.463724
0.443459
0.469685
0.406504
0.575781
0.501871
0.558496
0.483990
0.466704
0.491738
0.325441
0.650883
0.381470
0.603795
0.466704
0.481606
0.599623
0.503659
0.509620
0.568628
0.576973
0.652671
0.500679
0.664592
0.509620
0.606775
0.606775
0.649691
0.628829
0.745654
0.832677
0.881553
1.041889
1.095533
0.882745
1.031756
0.902414
0.994802
0.984669
0.816584
0.822544
0.865459
0.796914
0.890493
0.805855
0.881553
0.827909
0.781417
0.704527
0.824928
0.832677
0.818968
0.793934
0.698566
0.796914
0.924468
0.751615
0.674725
0.818968
0.756979
0.883937
0.904799
0.810623
1.007915
1.051426
1.090765
1.136661
1.265407
1.379848
1.273751
1.303554
1.356602
1.311898
1.301765
1.248717
1.646876
1.508594
1.598597
1.814961
4.849434
17.832518
66.734552
144.544840
323.016644
512.286425
782.952905
959.829688
1015.941501
1015.941501
939.865708
755.705833
489.605665
317.738652
158.543587
##END
