##TITLE=FAAI0552
##FORMAT=SPECTACLE-ASCII V-1.2
##DATA TYPE=ULTRAVIOLET SPECTRUM
##SECOND TYPE=ULTRAVIOLET SPECTRUM
##DATE=03/22/18
##TIME=13:27:00
##SPECTROMETER/DATA SYSTEM=SPECTACLE
##XUNITS=NM EM
##YUNITS=ENERGY
##YFACTOR=1
##FIRSTX=220
##LASTX=410
##NPOINTS=96
##3DDATA=Equidistant
##ZUNITS=NM EX
##FIRSTZ=210
##LASTZ=400
##ZPOINTS=39
##XYDATA=(Y..Y)
##ZVALUE=210
3.560781
3.371835
3.214478
3.290772
3.649592
3.093481
2.990961
3.304482
3.253818
2.739429
2.432466
2.236962
2.425909
2.245903
2.232790
2.340674
2.489686
2.421737
2.333522
2.734661
2.682805
2.880692
3.220439
3.138781
3.828406
4.186630
5.572438
6.431937
7.327795
8.331537
10.172725
11.212826
11.946559
12.205839
13.373494
13.170838
13.014674
12.850761
13.357997
11.776686
12.008548
11.710525
10.056496
9.778738
9.536743
9.969473
9.232759
8.401871
8.280873
7.776618
7.664561
7.560849
7.397532
6.503463
6.174445
6.266832
6.102920
6.005764
5.615950
5.637407
5.078912
5.858541
5.680919
5.858541
5.784631
5.533695
6.299615
5.612969
6.904602
8.293986
9.352565
10.410547
12.049675
13.083816
13.780594
14.873743
13.214946
13.879538
12.309551
12.814999
10.303855
9.413958
8.683801
7.928610
7.114410
5.718470
5.875826
4.690886
5.056858
4.105568
5.121827
4.468560
4.525781
5.048513
5.320907
7.087588
##ZVALUE=215
10.961890
10.477901
8.640885
7.838607
6.311536
5.712509
6.537437
5.545616
6.582737
7.181764
5.608797
5.451441
3.946424
3.829598
3.182888
2.438426
2.911687
2.304912
2.657771
3.248453
3.016591
2.858639
3.065467
3.553629
4.216433
5.474687
6.356835
8.585453
10.824800
13.736486
15.179515
15.696883
18.552542
19.005537
20.220876
20.939708
21.865964
20.785928
19.773841
19.312501
17.847419
17.039776
16.890764
16.317964
13.399720
13.483763
12.905598
12.199879
12.002587
10.924935
11.051893
10.669827
8.983612
8.196831
7.800460
7.455945
8.112788
7.779598
6.993413
7.329583
6.454587
6.895661
5.696416
6.332994
5.923510
6.096959
6.017685
7.130504
7.562637
8.259416
8.272529
9.168983
10.809898
11.486411
13.489723
14.022589
13.208985
12.473464
11.513829
10.453463
10.489821
10.529757
8.822680
7.434487
6.377697
6.437898
4.784465
4.822612
4.924536
4.582405
4.533529
4.626513
3.914833
4.070997
4.915595
4.513860
##ZVALUE=220
33.282638
36.495924
33.000708
30.156970
29.149652
21.770000
19.123554
14.598966
13.196468
14.796853
15.364885
15.492439
15.390515
11.761785
11.640787
7.659793
5.629659
3.971457
4.633665
3.074408
2.765656
3.892779
3.442764
4.145503
4.833937
7.109642
9.890795
12.378693
15.023947
17.678738
20.920634
24.973750
28.652549
29.559731
30.400753
28.766990
31.876564
31.543970
28.779507
27.288795
28.051734
25.095940
23.885965
21.711588
20.288825
19.616485
18.539429
17.753839
17.084479
15.219450
13.633966
14.027953
12.182593
10.059476
11.007786
10.295510
8.976460
9.292960
9.585619
8.811951
8.172989
7.804632
7.857680
7.026792
6.978512
7.855892
7.421970
6.872416
8.764863
8.809566
8.834600
11.164546
11.978745
12.411475
13.126731
13.343692
13.718605
12.522936
13.711452
11.812449
10.959506
9.922981
9.139776
8.265972
8.016825
7.079840
5.719662
4.951954
5.016923
5.678535
5.243421
5.495548
5.390644
4.838705
4.642606
4.955530
##ZVALUE=225
56.663752
57.454705
68.444610
82.850456
87.790489
83.617568
72.778463
57.237744
46.011806
35.223961
27.269721
26.267767
25.277734
27.678609
27.974844
23.455620
22.389889
16.226768
11.824965
7.984638
5.690455
3.844500
4.375577
4.642606
5.503893
7.795691
9.837747
12.395978
15.488863
20.756721
24.139881
27.885437
29.795766
33.143759
32.467842
33.017993
33.789873
35.593510
34.655929
32.723546
31.479001
29.675961
27.083755
23.918748
24.871826
21.364689
21.311641
18.366575
17.530918
15.874505
14.256835
14.986992
14.209747
13.448000
12.734532
11.957884
11.232495
10.221601
11.295676
10.271668
9.395480
9.938478
9.322762
9.745955
9.020567
8.967519
9.284616
9.805560
8.678436
9.615421
10.706782
11.946559
13.132691
13.252497
14.349818
13.369918
12.442470
13.227463
12.345910
11.592507
10.452867
10.495782
9.116530
8.722544
8.219481
8.132458
6.870627
5.947948
7.134676
6.175637
5.074739
6.132722
5.806684
5.949736
6.352663
6.839633
##ZVALUE=230
45.147538
50.894618
76.570511
118.590593
147.097707
184.320807
197.358727
181.632638
162.392855
133.869648
91.304779
72.124600
51.894784
44.274926
44.595599
48.099756
48.167706
49.591660
44.372678
36.205649
26.006699
16.484857
13.300776
7.331967
6.874800
7.695556
8.264780
11.690855
13.810992
15.515685
17.117858
21.456480
23.441911
24.815798
26.892424
25.345683
24.224520
27.359724
26.970506
26.153922
25.588870
23.789406
20.742416
20.642877
19.751787
19.111633
17.052889
15.529990
14.399886
16.152859
14.283657
14.706850
12.318492
12.372732
12.267828
11.786819
11.306405
11.464953
10.605454
11.213422
11.944771
10.080934
10.189414
10.688901
9.770989
10.437965
10.252595
11.330843
12.031794
12.009740
12.061000
13.268590
14.582872
16.011000
15.839934
15.097857
15.673637
15.188456
14.076829
13.475418
12.314916
11.109710
10.833740
10.145903
9.146929
9.150505
8.849502
9.099841
8.740425
7.898808
7.496476
7.669926
8.114576
7.780790
7.379651
7.281899
##ZVALUE=235
15.296936
18.828511
36.171675
81.825852
129.809976
202.778578
257.105827
324.042439
348.162651
333.980918
306.575894
232.586861
172.351003
116.664767
87.472796
70.961714
69.282651
75.762868
80.533624
78.394413
74.942708
63.387752
44.448972
35.412908
23.328662
16.808510
12.029409
9.350777
9.949803
10.816455
11.122823
13.584495
15.217662
15.032887
16.576648
16.806722
18.824935
17.176867
16.172528
15.754700
16.751885
15.180707
15.212893
14.063716
14.889836
14.494658
13.348460
13.004541
12.356639
12.026429
11.237860
12.067556
12.305975
10.206699
11.402965
11.110902
11.901855
10.548830
10.495782
10.234714
9.724498
9.800792
9.750724
10.406971
11.402965
11.498928
11.558533
11.535883
12.149811
13.433695
14.091730
15.273690
17.143488
15.562773
16.985536
16.531944
16.222000
16.785860
17.614961
14.939904
13.787746
13.769865
12.559891
12.229681
12.400746
12.328625
11.801720
10.478497
10.791421
11.005998
9.612441
10.663867
10.130405
9.790659
10.912418
9.955764
##ZVALUE=240
2.469420
2.087951
5.367994
21.860003
46.521425
101.608634
167.549849
291.278958
387.026668
475.391746
540.223718
544.441938
486.573577
407.809615
296.598673
213.539600
135.843754
103.864670
93.853474
96.159577
101.828575
116.400719
109.184980
98.949671
84.723830
62.318444
48.099756
30.545592
23.092628
14.594793
12.286901
13.291836
12.598634
12.740493
12.632608
14.249682
14.913678
14.382601
15.085936
14.157891
14.624596
13.747811
14.509559
14.499426
13.987422
13.503432
15.425682
12.218952
13.880730
13.412833
13.357997
11.358857
13.020635
13.123751
12.882948
12.106895
11.701584
11.425614
12.273788
11.311769
12.114644
11.389852
11.169910
11.841655
11.497736
10.980964
11.415482
13.256669
13.117790
14.778972
14.772415
15.825629
18.766522
18.395782
18.452406
19.178987
18.421412
18.221736
17.743707
16.229749
15.709996
15.798807
13.875961
14.713407
14.431477
13.014674
13.539791
13.109446
13.251901
11.902452
12.666583
12.504458
12.204647
12.429953
11.616945
11.916757
##ZVALUE=245
1.448989
1.369715
1.286864
1.670718
4.055500
12.617707
41.372776
87.510943
188.375711
291.427970
444.310904
551.102757
632.330775
660.953522
631.854534
526.151657
421.437621
286.165476
196.517706
124.777555
103.280544
95.583797
108.501911
120.730996
129.117966
121.348500
107.571483
95.975995
73.739886
55.717826
42.838454
28.207898
20.842552
17.961860
16.639829
16.101599
17.113686
16.604662
16.395450
17.630458
16.534925
15.933514
16.886592
15.843511
15.254617
15.223622
15.653968
14.475584
13.987422
14.387965
13.638735
13.100505
12.425780
12.244582
11.283755
11.058450
11.129975
11.880994
11.406541
10.374784
11.548996
9.831786
9.895563
10.130405
10.805726
11.053681
10.613799
10.794997
11.767745
12.065768
13.032556
12.463927
14.497638
15.650988
15.756488
16.237497
14.842749
15.701652
15.394688
14.084578
14.837980
13.572574
12.697577
13.094544
12.095571
11.316538
12.251735
12.517571
11.640787
11.116862
11.089444
10.769963
11.563897
10.575652
11.053681
12.302995
##ZVALUE=250
1.012683
1.073480
1.232624
1.461506
1.623631
1.603961
2.245903
9.226799
27.707815
78.190565
148.588419
291.465521
421.073437
590.736866
685.720444
762.541890
750.115514
657.476783
560.494661
381.762981
260.794759
181.175470
108.247995
91.066957
100.653768
116.046667
132.959485
135.553479
134.691596
125.461817
104.003549
91.193914
66.176653
48.639774
35.850406
28.342605
24.346709
23.228526
21.774769
22.492409
21.947622
22.306442
19.710660
19.714832
18.956661
18.034577
18.087626
15.920997
15.948415
16.718507
15.202761
13.880730
12.790561
13.933778
12.463927
11.654496
11.002421
12.191534
10.479689
11.817813
9.469986
10.445714
9.733438
10.116696
9.757876
9.764433
9.191632
9.646416
11.113882
11.020899
11.664629
12.963414
12.017488
13.999939
13.479590
14.619827
14.129877
14.147758
12.442470
12.928843
11.233687
12.650490
12.296438
11.388659
10.688901
10.655522
10.795593
10.743737
10.327697
10.888577
11.091828
10.990500
11.072755
10.590553
10.973811
10.042787
##ZVALUE=255
1.042485
1.192689
1.323819
1.152754
1.269579
1.305938
1.796484
1.470447
1.787543
4.210472
21.505952
55.954456
113.040805
241.941810
373.461843
576.638579
705.452561
819.959641
861.485600
804.989934
697.781444
549.534559
348.818898
224.805474
125.640631
95.091462
90.172887
105.014443
128.727555
145.488977
156.779885
158.268809
147.491693
124.623775
106.508732
78.443885
62.852502
47.143698
38.796663
33.076406
30.327439
28.972626
29.008985
25.954843
25.108457
25.197864
22.800565
22.085905
20.772815
20.693541
18.853545
16.316772
16.430616
13.398528
14.056563
13.111830
12.709498
12.456775
11.812449
11.357665
10.892749
10.515451
9.625554
10.236502
9.519458
9.095669
8.552670
8.895993
9.881854
10.697842
11.023879
10.547638
11.450648
12.628436
12.420416
11.953712
11.708736
12.439489
11.138916
11.389852
10.846853
10.394454
10.780692
10.240674
10.163784
9.770989
10.033846
9.494424
9.682775
9.293556
9.399652
9.975433
9.382963
9.440780
10.206699
9.287596
##ZVALUE=260
1.224875
1.150966
0.920892
1.273751
1.042485
1.316667
1.367927
1.650453
1.514554
1.617670
1.846552
2.194643
7.659793
36.365986
80.500841
192.714930
312.694907
515.456796
684.338808
875.424743
948.621035
947.245955
830.999017
684.945583
459.610820
320.486426
191.583633
126.218796
92.854500
97.903609
116.593838
148.721933
168.887973
181.813836
181.907415
163.648725
145.805478
117.871761
96.494555
71.982741
57.305694
45.054555
38.819909
34.722686
33.121705
29.777884
28.480887
25.911927
23.924708
23.080707
21.692514
19.661784
18.841624
17.306805
16.390681
14.624596
13.395548
13.644695
11.835694
12.008548
11.126995
10.232925
9.954572
10.053515
9.052753
8.723736
9.601712
9.219646
8.901954
9.173751
9.883642
9.774566
10.401607
10.531545
11.587739
10.942817
10.512471
10.557771
10.461807
9.817481
9.503961
9.478927
9.568930
9.031892
8.477569
8.578897
9.343624
9.062886
9.051561
9.052753
9.374619
8.049607
8.236766
9.086728
8.344650
9.152889
##ZVALUE=265
0.975728
1.021624
1.003742
1.142621
1.073480
1.116991
1.185536
1.457930
1.173615
1.513958
1.207590
1.460910
1.825690
1.944900
4.740953
17.755628
61.958432
133.705735
285.900831
446.754694
683.449507
862.318873
1013.535857
1015.849710
945.027471
804.796815
644.173026
414.411426
282.739997
163.486004
115.720630
102.819800
116.927624
148.907900
168.163776
189.307928
197.569728
185.681581
173.411965
148.115754
122.645497
92.932582
76.519847
56.431890
44.931769
36.690831
32.605529
29.238462
28.263927
25.367737
23.786426
21.306872
19.604564
18.363595
17.131567
15.914440
14.386773
14.089942
13.542771
12.568831
11.769533
10.862947
9.726882
9.673834
9.466410
9.908676
8.904934
8.989573
9.231567
9.552836
9.351969
10.003448
9.753704
10.183454
10.858774
9.958744
9.900928
9.376407
9.377599
9.363890
9.227991
8.825660
8.811951
8.635521
8.809566
8.732677
8.303523
8.578897
8.691549
8.029938
8.370876
8.098483
8.109808
8.018613
8.654594
8.018613
##ZVALUE=270
1.248717
0.959635
0.892878
1.034737
1.100898
1.109838
1.012683
1.054406
1.119971
1.314878
1.269579
1.305938
1.322627
1.379848
1.766682
1.754761
2.764463
10.628700
32.105446
104.831457
208.624005
361.257792
624.839664
832.721591
1015.861630
1015.861630
1015.861630
982.296467
778.130889
591.122508
418.087840
238.370895
154.269934
105.009675
103.565454
125.604868
147.258639
172.923803
188.758969
192.092657
188.402534
165.922642
143.716931
113.025904
90.113878
62.053800
49.638748
36.557913
31.508803
26.005507
23.606420
21.187663
20.402670
19.032955
16.316772
15.972853
15.236735
13.406873
12.954473
12.379885
12.129545
10.909438
9.865761
9.498596
9.180903
9.305477
8.671880
9.330511
9.081960
9.737611
9.017587
9.734631
9.544492
8.899570
9.767413
9.585619
9.004474
9.157658
9.185672
8.230805
8.282661
8.396506
8.233786
7.942915
8.068681
7.067919
7.850528
7.751584
7.472634
7.098913
7.594824
7.516742
8.211732
7.469654
7.461905
7.388592
##ZVALUE=275
0.925660
0.797510
0.836849
0.690818
0.886917
0.901818
0.913739
0.835657
0.838637
0.898838
0.913739
0.983477
1.021624
1.227856
1.276731
1.479983
1.538992
1.507998
1.834631
4.819632
19.248724
55.560470
164.634585
306.110978
556.733012
754.728913
978.378654
1015.748978
1015.748978
1015.748978
963.586569
725.553036
525.238514
299.651623
187.479854
103.348494
83.062649
89.361668
107.263923
133.677721
152.751803
171.517730
177.016854
167.405009
150.993466
125.102997
102.695823
73.627830
56.074858
37.103891
27.716756
20.331740
17.138720
15.829802
14.367700
12.990832
12.068748
11.860728
10.936856
10.623932
9.860992
9.110570
9.412766
9.010434
8.065701
8.185506
8.305907
7.922649
8.828640
8.440614
8.964539
9.004474
8.794665
8.818507
9.451509
8.699894
8.779764
8.442998
8.816719
8.338690
7.998943
7.872581
7.746816
7.313490
7.427931
7.515550
7.267594
6.938577
6.868839
6.998777
6.734729
6.668568
6.224513
6.455779
6.850958
6.825924
##ZVALUE=280
0.862479
0.839829
0.853539
0.869632
0.856519
0.843406
0.849962
0.938773
0.911951
0.920892
0.958443
1.019835
1.136661
1.219511
1.136661
1.179576
1.248717
1.279712
1.387596
1.654625
1.714826
2.366900
11.417866
40.393472
128.424764
237.339735
439.835787
643.489957
907.605886
1015.861630
1015.861630
1015.861630
1015.861630
811.097622
605.486631
353.884697
215.585828
106.188655
64.793825
53.252578
64.278841
89.293718
111.462474
137.893558
149.850845
155.684948
152.242780
131.759644
115.005970
86.628795
66.168904
42.676926
30.398965
19.295812
13.621449
11.339784
9.544492
9.149909
7.912517
8.500814
8.287430
8.115768
7.967949
7.971525
7.615685
7.914901
7.685423
7.618666
7.442832
7.744431
8.108616
8.430481
8.636713
8.384585
8.579493
8.641481
8.499622
8.149743
8.085966
7.901788
7.788539
7.035732
7.232428
7.002950
6.956458
7.342696
7.112622
6.529689
6.522536
6.442666
6.847978
6.393790
6.728768
6.594658
6.311536
6.124973
##ZVALUE=285
0.848770
0.996590
0.816584
0.889897
0.927448
0.778437
0.847578
1.041889
0.635982
0.983477
0.752807
0.952482
1.014471
0.991821
0.935793
1.308918
1.231432
0.944734
1.352429
1.389980
1.303554
1.589656
1.925826
1.966953
6.192923
21.365881
73.879957
146.786571
318.850875
499.109626
699.704885
963.925719
1015.861630
1015.861630
1015.861630
923.419595
727.945566
457.794666
289.185643
138.014555
73.047876
36.477447
36.266446
53.547621
72.450638
102.326870
120.344758
138.155818
143.371820
141.287446
129.030943
106.109977
87.180734
60.338974
41.979551
24.430752
17.050505
10.551810
8.755922
7.538795
6.960630
6.885529
6.882548
7.195473
7.163882
6.983876
7.181764
7.524490
7.157922
7.959604
7.563829
8.048415
8.228421
8.015633
8.065701
8.057952
8.290410
7.492900
7.673502
7.577538
7.303953
7.540584
7.172823
7.090569
6.893873
7.034540
7.168651
6.993413
6.641746
6.557703
6.441474
6.712675
6.352663
6.179810
6.307960
6.180406
##ZVALUE=290
0.667572
0.735521
0.766516
0.832677
0.700951
0.741482
0.880957
0.835657
0.820756
0.951886
0.848770
0.851750
0.887513
1.002550
0.788569
0.820756
1.151562
1.055598
0.964999
1.224875
1.301765
1.351833
1.439452
1.486540
1.681447
1.665950
2.812743
8.302927
40.769577
95.144510
187.751651
389.460921
591.993928
886.631012
1015.857458
1015.857458
1015.857458
1008.609533
845.933557
572.404861
379.487872
191.198587
101.404786
40.842891
26.860833
34.554601
45.930743
68.402886
88.817477
115.477443
128.299594
138.018727
135.242939
124.578476
106.037855
77.847838
58.779716
37.546754
25.882721
14.936924
11.399984
8.235574
7.179976
6.889701
6.531477
7.086992
6.617904
7.210970
6.837845
7.968545
7.822514
7.772446
7.996559
8.171797
8.121729
8.116961
7.410645
7.338524
7.501841
7.175803
7.839799
7.122755
7.024407
7.130504
6.990433
6.861687
6.570816
6.604791
6.673932
6.665587
6.228685
6.212592
5.847812
5.956888
6.377697
5.852580
##ZVALUE=295
0.611544
0.511408
0.721812
0.545979
0.799894
0.604987
0.801682
0.647902
0.730753
0.624657
0.724792
0.499487
0.778437
0.748634
0.831485
0.935793
1.026988
1.060963
0.845790
1.194477
1.040697
1.114607
1.170635
1.274943
1.364946
1.448989
1.750588
1.541972
1.942515
3.663898
13.773441
59.324503
134.244561
311.199427
499.735475
786.717534
979.920030
1015.849710
1015.849710
1015.849710
967.862010
689.329505
483.388901
257.587433
140.493512
52.934885
27.430654
21.220446
28.281808
45.952797
62.284470
87.703466
105.654001
123.663545
133.383870
129.933953
120.255947
99.325776
80.429912
54.664612
40.316582
24.265647
16.246438
10.985732
8.526444
7.066727
6.945729
6.841421
7.204413
7.442832
7.863641
7.273555
7.640719
7.903576
8.109808
7.819533
7.559657
7.366538
7.375479
7.402897
6.947517
7.057786
6.807446
6.524920
6.610751
6.517768
6.650686
6.549954
6.747842
6.595850
6.079674
6.277561
6.135702
6.144643
5.850792
5.746484
##ZVALUE=300
0.731945
0.513792
0.515580
0.615716
0.651479
0.576973
0.526905
0.645518
0.691414
0.828505
0.852942
0.823736
0.786781
0.752807
0.812411
0.764728
0.680685
0.730753
0.822544
0.835657
0.797510
0.836849
1.071692
0.932813
1.140833
1.151562
1.518726
1.384616
1.669526
1.640916
1.811981
2.095699
8.747578
30.160546
102.774501
201.675892
409.235954
615.816712
901.597738
1015.861630
1015.861630
1015.861630
1015.260816
858.696699
574.249625
374.729633
187.928677
100.387931
38.126707
19.307733
18.377900
25.702715
41.114688
55.731535
80.692768
98.112822
117.158890
124.898553
123.483539
115.787983
96.828938
80.073476
56.363940
40.392876
25.169849
16.829967
10.809898
8.444786
7.124543
6.860495
7.308722
7.347465
7.211566
7.456541
7.593632
7.523894
7.338524
7.073879
7.074475
7.223487
6.969571
6.715655
6.439686
7.044673
6.599426
6.491542
6.332994
6.587505
6.321669
6.401539
6.172657
6.068945
6.115437
6.012917
6.065965
5.786419
##ZVALUE=305
0.661612
0.593662
0.664592
0.582933
0.715852
0.696778
0.810623
0.732541
0.773668
0.705719
0.816584
0.799894
0.776649
0.880957
0.778437
0.851750
0.835657
0.761747
0.820756
0.822544
0.864863
1.059771
0.820756
0.996590
1.075864
0.972748
1.094937
1.221895
1.177788
1.304746
1.452565
1.670718
1.685619
2.079606
3.715754
20.889640
57.922602
162.885785
293.230414
536.599755
752.478838
999.544859
1015.886664
1015.886664
1015.886664
899.626613
703.860521
449.779630
281.434655
129.080415
62.607527
22.322536
13.499856
16.298890
23.423433
39.052963
53.992867
76.223612
93.717575
111.102462
117.983818
118.302703
110.113621
93.382597
75.899959
52.679777
38.149953
24.155974
17.082691
10.368824
8.412600
6.920695
7.265806
7.192492
7.077456
6.575584
7.042885
6.649494
6.757975
6.556511
6.718636
6.690621
6.591678
6.596446
6.736517
6.350875
6.218553
5.952716
6.226897
6.462932
5.923510
5.809665
6.043911
5.672574
5.922914
5.688667
##ZVALUE=310
0.751615
0.302792
0.654459
0.642538
0.655651
0.734925
0.493526
0.702739
0.807643
0.597835
0.604987
0.752807
0.629425
0.783801
0.768900
0.683665
0.693798
0.706911
0.862479
0.816584
0.785589
0.711679
0.768900
0.869632
1.102686
0.824928
1.034737
1.063943
1.153946
1.415610
1.234412
1.251698
1.274943
1.421571
1.600981
1.885891
2.121925
8.113980
29.152632
97.835660
192.774534
398.952961
609.843731
899.353027
1015.861630
1015.861630
1015.861630
1015.861630
865.537524
583.365560
389.997959
196.720958
104.045868
36.856532
16.125441
10.610819
13.782978
21.874905
31.479001
49.213767
65.249801
87.075830
100.196004
110.270977
112.787485
104.536414
92.671514
72.569847
56.186914
36.191940
25.833845
16.132593
11.809468
8.027554
7.127523
6.735921
6.615520
6.599426
6.303787
6.175637
6.080866
6.251931
5.875826
6.025434
6.362796
6.343722
6.315708
5.990863
5.933642
6.022453
6.019473
5.887747
5.897880
5.401969
5.928874
5.648732
##ZVALUE=315
0.597835
0.360608
0.590682
0.786781
0.594854
0.527501
0.612736
0.648499
0.507832
0.563860
0.627637
0.680685
0.670552
0.660419
0.580549
0.872612
0.660419
0.696778
0.753999
0.636578
0.642538
0.839829
0.663996
0.697970
0.815988
0.610948
0.965595
0.842810
0.969768
0.992417
0.983477
1.137853
1.247525
1.221895
1.406670
1.306534
1.336932
1.643896
2.011657
3.848672
14.960766
61.845779
135.238767
305.998921
496.897697
800.916553
990.991592
1015.861630
1015.861630
1015.861630
963.992476
695.361495
489.818454
261.027813
140.761733
51.305890
22.093654
10.200739
9.810925
13.267994
19.066930
31.812787
43.861866
62.933564
77.815652
95.894933
104.183555
106.468797
99.688768
84.819794
70.731640
51.744580
37.409663
23.178458
15.801787
10.038614
7.978678
6.345510
6.354451
5.864501
6.037951
5.869865
6.131530
6.252527
6.164908
5.984902
5.969405
6.119609
6.002784
5.961657
5.937815
5.890727
5.664825
5.337000
5.373955
5.676746
##ZVALUE=320
0.450611
0.525713
0.578761
0.557899
0.560880
0.548959
0.536442
0.765920
0.668764
0.617504
0.674725
0.615716
0.707507
0.667572
0.572801
0.478625
0.537634
0.634789
0.668764
0.638962
0.717640
0.750422
0.732541
0.701547
0.693798
0.711679
0.864863
0.783801
1.058578
0.906587
1.017451
0.900626
0.986457
0.947714
1.120567
1.296997
1.096725
1.174808
1.363754
1.389980
1.739860
2.075434
6.767511
37.375689
89.999437
228.582621
381.087661
640.595555
849.793553
1015.861630
1015.861630
1015.861630
1015.861630
823.064446
602.871776
339.100957
191.868544
77.869892
35.188794
12.285709
8.950830
9.048581
11.213422
17.701983
25.659800
41.223764
54.946542
73.780417
86.625814
97.844601
100.682974
94.419718
83.074570
65.216422
50.453544
33.066869
23.434758
15.029907
10.404587
7.317662
6.579757
5.799532
5.717874
6.088614
5.573630
5.631447
5.589724
5.694628
5.481839
5.504489
5.350709
5.656481
5.565882
5.492568
5.579591
5.444884
##ZVALUE=325
0.514984
0.544786
0.278950
0.442863
0.264645
0.261664
0.282526
0.354648
0.431538
0.492930
0.456572
0.386834
0.452995
0.441670
0.511408
0.439882
0.395775
0.485778
0.572801
0.450611
0.459552
0.602603
0.642538
0.472665
0.591874
0.555515
0.654459
0.642538
0.667572
0.798702
0.617504
0.805855
0.793934
0.834465
0.805855
0.989437
0.912547
0.937581
1.200438
1.292825
1.065731
1.265407
1.548529
1.665950
3.541708
22.152662
58.618784
155.833960
282.242894
532.304645
739.415884
994.326472
1015.730500
1015.730500
1015.730500
888.151526
678.193569
413.898826
250.162482
109.908581
52.574873
16.461611
8.816719
7.441640
8.127689
10.986924
15.468001
25.594831
37.503839
55.753589
69.564581
83.565712
93.063712
94.372630
88.076591
74.771643
61.593652
44.901967
32.662749
20.227432
14.189482
9.272695
7.223487
5.984902
5.992651
5.418658
5.414486
5.332828
5.402565
5.249977
5.335808
5.164742
5.204678
5.065799
5.446672
5.087852
##ZVALUE=330
0.364780
0.320673
0.374913
0.299811
0.230670
0.282526
0.367761
0.415444
0.419617
0.440478
0.260472
0.453591
0.323653
0.532866
0.324845
0.356436
0.343919
0.352859
0.377893
0.296831
0.416636
0.338554
0.374913
0.380874
0.511408
0.562668
0.592470
0.470877
0.648499
0.557899
0.661612
0.575781
0.568628
0.658631
0.713468
0.695586
0.912547
0.993609
0.893474
0.904799
0.962615
1.141429
1.094937
1.322627
1.475811
1.512766
1.993775
9.260774
30.329823
102.286935
202.373862
408.992767
606.836677
884.341598
1015.699506
1015.699506
1015.699506
968.597531
781.206489
514.397621
330.419540
154.906511
77.125430
27.365685
11.262894
6.764531
6.667972
7.573962
9.783506
16.113520
24.009943
37.795901
50.837994
68.677664
78.609586
86.917877
88.077784
81.185699
72.515607
55.214763
42.439699
28.569698
20.939708
13.975501
10.350943
7.522702
6.274581
5.562901
5.310774
5.176663
5.226731
4.965663
5.116463
5.005598
5.021691
5.086660
##ZVALUE=335
0.552535
0.499487
0.591874
0.495911
0.489950
0.574589
0.570416
0.669956
0.568628
0.519753
0.442863
0.543594
0.426769
0.653863
0.492930
0.650883
0.525713
0.472665
0.532866
0.630617
0.437498
0.449419
0.671744
0.737906
0.641942
0.663996
0.736713
0.726581
0.794530
0.767708
0.668764
0.802875
0.736713
0.666976
0.932813
0.706911
0.916719
0.778437
0.830889
0.895858
0.965595
1.013875
1.039505
1.213551
1.094937
1.209974
1.426935
1.587868
1.819730
4.407763
15.964508
64.608455
136.147738
304.842591
490.975976
773.903728
967.027545
1015.861630
1015.861630
1015.352011
875.674486
600.585938
409.598947
213.476419
111.504793
37.691593
15.704632
7.734895
6.724596
6.788969
7.706881
10.369420
14.739633
23.975968
33.332705
49.076676
61.305761
74.381828
79.967976
82.075000
76.946616
64.460635
55.072904
41.693449
31.638741
20.960569
14.609694
9.639859
7.803440
6.311536
5.584955
5.542636
5.217791
4.874468
5.054474
4.961491
##ZVALUE=340
0.488758
0.496507
0.440478
0.518560
0.464916
0.353456
0.644922
0.532866
0.475645
0.582933
0.415444
0.604987
0.453591
0.468493
0.420809
0.554919
0.490546
0.645518
0.641942
0.559688
0.567436
0.578761
0.620484
0.639558
0.624657
0.580549
0.675917
0.631809
0.613928
0.588894
0.558496
0.767708
0.543594
0.780821
0.737906
0.952482
0.739694
0.863671
0.769496
0.695586
0.741482
0.910759
0.845790
0.930429
1.067519
1.083612
0.989437
1.307726
1.261830
1.376867
1.734495
2.405643
7.817745
38.932562
97.070932
241.730809
407.067537
668.612719
871.663690
1015.861630
1015.861630
1015.861630
942.449570
697.031021
496.660471
269.021988
147.469640
54.672956
22.272468
8.697510
6.619692
6.402731
6.660819
7.542968
9.741783
14.782548
21.680593
32.792687
44.468641
59.337616
69.291592
76.316595
76.537728
71.796775
63.801408
51.130652
40.671825
28.758645
21.443963
14.171600
10.212660
7.146597
6.087422
5.361438
5.262494
5.000830
##ZVALUE=345
0.573993
0.515580
0.438690
0.495911
0.415444
0.512600
0.502467
0.454783
0.429749
0.384450
0.458956
0.433922
0.539422
0.452995
0.390410
0.651479
0.486970
0.563860
0.527501
0.539422
0.456572
0.388622
0.467896
0.638962
0.457764
0.514984
0.728965
0.761747
0.680685
0.801682
0.720620
0.633597
0.668764
0.686646
0.686646
0.736713
0.678897
0.744462
0.846982
0.791550
0.819564
0.774860
0.733733
0.829697
0.923872
0.913739
1.104474
1.016855
1.097918
1.185536
1.090765
1.326799
1.464486
1.694560
3.612638
21.626949
59.764981
163.738728
293.310881
533.332825
729.324818
972.473025
1015.861630
1015.861630
1004.501581
784.790516
587.560534
348.121524
196.474791
77.343583
33.871531
11.518598
7.199645
6.628633
6.164908
6.227493
6.936789
8.773804
12.447834
20.826459
29.264688
42.769909
52.563548
62.481761
68.242550
70.812702
68.233609
59.992671
51.955581
39.788485
30.495524
19.793510
14.509559
9.815693
7.722974
5.797744
##ZVALUE=350
0.532866
0.441670
0.444651
0.425577
0.432730
0.498891
0.462532
0.506639
0.331998
0.502467
0.456572
0.497699
0.519753
0.473857
0.520945
0.498891
0.435710
0.628829
0.492930
0.649691
0.514984
0.506639
0.549555
0.730753
0.495911
0.460744
0.525713
0.540614
0.550747
0.694990
0.607967
0.547767
0.636578
0.853539
0.726581
0.593662
0.768900
0.597835
0.729561
0.634789
0.695586
0.839829
0.738502
0.795722
0.786781
0.926852
0.840425
0.903606
0.865459
1.039505
1.041889
1.054406
1.131892
1.288652
1.267791
1.765490
2.278686
10.431409
34.516454
109.412670
210.796595
423.357487
616.028905
864.564776
1007.068753
1015.861630
1015.861630
872.036815
673.468709
404.292941
249.328613
114.660859
52.995682
15.339851
7.734895
6.352663
5.953908
5.711913
5.649924
6.466508
7.965565
12.473464
17.890930
25.914907
34.584403
47.166944
55.168867
61.985850
65.081716
62.858462
57.199597
47.219992
38.407445
27.059913
20.402670
13.560653
##ZVALUE=355
0.367761
0.578761
0.419617
0.396967
0.422597
0.474453
0.517964
0.513792
0.381470
0.466704
0.590682
0.591874
0.340939
0.516772
0.558496
0.536442
0.580549
0.624657
0.441670
0.444651
0.509620
0.632405
0.484586
0.366569
0.466704
0.618696
0.507832
0.531673
0.417829
0.651479
0.610948
0.674725
0.840425
0.632405
0.562668
0.583529
0.743866
0.648499
0.513792
0.707507
0.781417
0.736713
0.907779
0.890493
0.771880
0.969768
0.823736
0.829697
0.923872
0.882745
0.886917
0.882745
1.086593
1.115799
1.208782
1.368523
1.321435
1.509786
1.668930
5.001426
18.287897
71.209669
147.490501
313.859582
496.246815
764.897466
935.330987
1015.861630
1015.861630
914.045572
743.389726
498.081446
315.276980
140.899420
67.788959
20.731688
8.879900
5.968809
5.751848
5.231500
4.946589
5.278587
5.905628
7.669926
9.925961
15.712976
21.454692
31.924844
39.496422
48.833489
56.111813
58.761835
57.527423
52.186847
44.993758
35.362840
##ZVALUE=360
0.387430
0.520945
0.349879
0.428557
0.357628
0.463724
0.670552
0.548959
0.618696
0.414848
0.500679
0.467896
0.533462
0.493526
0.552535
0.458956
0.492930
0.664592
0.675917
0.476837
0.493526
0.469685
0.486970
0.612736
0.603795
0.526905
0.545979
0.579953
0.450611
0.688434
0.578761
0.565648
0.545979
0.594854
0.634789
0.590682
0.598431
0.772476
0.783801
0.769496
0.821948
0.712872
0.689626
0.726581
0.672936
0.844598
0.836849
0.854731
0.907779
0.955462
0.866652
0.923872
0.924468
0.915527
1.014471
1.290441
1.274943
1.300573
1.389980
1.547933
1.654625
2.685785
8.227825
37.271976
92.557669
229.035616
380.509496
618.208647
815.937519
1001.938581
1015.861630
974.092484
826.749802
565.980673
378.677845
187.249780
97.807646
35.251975
13.798475
6.184578
5.527735
5.206466
5.089641
4.892945
4.916787
5.115867
6.152987
8.609891
11.936426
17.796755
24.933815
34.358501
41.191578
48.640966
52.350760
53.210855
##ZVALUE=365
0.486970
0.572801
0.384450
0.427961
0.504851
0.574589
0.437498
0.463724
0.631809
0.544786
0.479817
0.527501
0.548959
0.513792
0.592470
0.584722
0.464916
0.394583
0.322461
0.445843
0.407696
0.499487
0.444651
0.500679
0.569820
0.596642
0.679493
0.657439
0.570416
0.478625
0.748634
0.786781
0.629425
0.509620
0.711679
0.737906
0.650883
0.586510
0.602603
0.529885
0.672936
0.654459
0.784993
0.628829
0.585914
0.726581
0.791550
0.783801
0.924468
0.872612
0.849962
0.771880
0.843406
0.907779
0.939965
1.010895
0.997782
1.139641
1.107454
1.255870
1.325607
1.602769
1.657605
1.902580
3.647804
20.829439
57.707429
153.871775
284.783840
526.164770
711.115003
917.117596
1008.386612
995.234847
876.366496
644.644499
460.564494
254.075527
138.668418
49.552917
19.984841
6.804466
5.505681
4.934669
4.855990
4.469752
4.334450
4.358888
4.433990
5.319715
6.834865
10.322928
14.725924
22.168756
28.773546
37.316680
##ZVALUE=370
0.485778
0.506639
0.480413
0.565648
0.491738
0.466704
0.313520
0.427961
0.577569
0.387430
0.383854
0.528693
0.704527
0.446439
0.327826
0.427961
0.455976
0.624657
0.616908
0.496507
0.371933
0.568628
0.629425
0.493526
0.572801
0.536442
0.458956
0.488758
0.553727
0.616908
0.578761
0.494719
0.509620
0.486970
0.559688
0.704527
0.568628
0.578761
0.564456
0.681877
0.756979
0.443459
0.703931
0.702739
0.680685
0.700951
0.803471
0.631809
0.764728
0.750422
0.706911
0.598431
0.807643
0.832677
0.792742
0.789762
0.856519
0.900626
0.920892
1.079440
1.028776
1.165867
1.265407
1.525879
1.517534
1.803637
2.255440
10.613799
35.801530
117.404461
219.227672
415.176749
607.626438
850.916505
972.840786
1004.624963
924.922824
731.038451
539.840460
303.366780
170.693994
67.221522
30.473471
10.769963
5.768538
4.869699
4.458427
4.174709
3.981590
3.842711
3.979802
3.963709
4.441738
5.958676
8.622408
12.721419
##ZVALUE=375
0.465512
0.492930
0.463724
0.287890
0.419617
0.354648
0.447631
0.389814
0.438690
0.538826
0.452995
0.458956
0.454783
0.478625
0.380874
0.546575
0.452995
0.513792
0.411868
0.389814
0.642538
0.502467
0.652671
0.621676
0.544786
0.662804
0.620484
0.529885
0.436902
0.651479
0.269413
0.520945
0.628829
0.355840
0.605583
0.608563
0.707507
0.538826
0.604987
0.587702
0.619888
0.583529
0.568628
0.701547
0.567436
0.701547
0.633597
0.581741
0.467896
0.652671
0.731945
0.631809
0.692606
0.653863
0.645518
0.759959
0.798702
0.799894
0.717640
0.867844
0.892878
1.032948
1.061559
1.028776
1.183748
1.080632
1.440644
1.497865
1.737475
5.427599
18.839836
68.383813
149.715543
332.590938
514.057875
763.337612
915.912986
1005.646586
979.102850
812.124014
631.215572
385.804772
245.352983
121.422410
59.856772
18.716455
7.664561
4.618764
4.365444
3.936887
3.673434
3.804564
3.612638
3.640652
3.663898
4.128814
##ZVALUE=380
0.468493
0.596642
0.427961
0.472665
0.465512
0.411868
0.453591
0.353456
0.450611
0.352859
0.404716
0.451803
0.394583
0.567436
0.324845
0.470877
0.418425
0.528693
0.435710
0.492930
0.452995
0.541806
0.560880
0.409484
0.556707
0.594854
0.442863
0.418425
0.443459
0.530481
0.465512
0.400543
0.454783
0.468493
0.570416
0.658631
0.608563
0.560880
0.632405
0.597835
0.665784
0.529885
0.544786
0.695586
0.645518
0.674725
0.692606
0.711679
0.625849
0.634789
0.585914
0.683665
0.532866
0.766516
0.664592
0.824928
0.788569
0.870824
0.769496
0.794530
0.850558
0.860691
0.965595
0.890493
0.980496
0.987649
1.102686
1.151562
1.284480
1.531839
1.735687
2.925992
10.185838
48.670769
113.155842
266.842842
430.177450
670.506954
845.853686
991.081595
997.333527
867.901444
717.885494
502.447486
338.312984
166.037679
84.998608
29.197931
11.755824
5.155802
4.031658
3.624558
3.714561
3.621578
3.499985
3.428459
##ZVALUE=385
0.421405
0.430942
0.367761
0.264645
0.445843
0.406504
0.330806
0.272989
0.469685
0.481606
0.310540
0.463724
0.297427
0.393987
0.425577
0.504851
0.502467
0.405908
0.467896
0.393987
0.469685
0.523925
0.365973
0.421405
0.396967
0.537634
0.578761
0.513792
0.653863
0.615716
0.635982
0.612736
0.534654
0.514984
0.811815
0.562668
0.695586
0.629425
0.683665
0.747442
0.617504
0.578761
0.591874
0.710487
0.753999
0.698566
0.660419
0.664592
0.633597
0.585914
0.431538
0.756979
0.633597
0.680685
0.672936
0.708699
0.723600
0.519753
0.679493
0.437498
0.821948
0.734925
0.534654
0.727773
0.825524
0.869632
0.937581
1.036525
1.225471
1.295805
1.488924
1.495481
1.592636
1.940727
4.824400
27.273893
71.338415
181.901455
324.142575
569.511652
754.722953
933.689475
982.286930
936.427712
819.423795
601.802468
427.392721
233.594775
131.754875
53.691864
21.660924
6.024837
4.094839
3.603697
3.444552
3.403425
##ZVALUE=390
0.304580
0.355840
0.428557
0.283718
0.351667
0.333786
0.471473
0.309944
0.373721
0.386834
0.396967
0.510812
0.582933
0.439882
0.552535
0.452995
0.355840
0.354648
0.313520
0.407696
0.361800
0.413656
0.451803
0.492930
0.565648
0.570416
0.560880
0.656843
0.426769
0.590682
1.018643
0.745654
0.787973
0.598431
0.898838
0.803471
1.020432
0.765920
0.901818
0.732541
0.679493
0.730753
0.717640
0.690818
0.754595
0.555515
0.680685
0.732541
0.532866
0.608563
0.649691
0.663996
0.526905
0.730753
0.682473
0.634789
0.588894
0.699759
0.668764
0.737906
0.657439
0.688434
0.700951
0.826716
0.606775
0.726581
0.850558
0.956655
1.200438
1.321435
1.174808
1.296997
1.414418
1.510978
1.358986
1.576543
2.312660
13.950467
44.461489
138.060451
260.236859
483.622551
656.423569
850.181580
955.844522
981.480479
903.439522
715.626478
544.284582
331.508517
192.570686
78.319907
35.050511
9.666681
4.669428
3.639460
##ZVALUE=395
0.243783
0.543594
0.433922
0.388622
0.432730
0.399947
0.406504
0.405908
0.434518
0.343919
0.394583
0.373721
0.367761
0.483990
0.465512
0.517964
0.420809
0.488758
0.413656
0.372529
0.509620
0.530481
0.363588
0.376701
0.397563
0.390410
0.559688
0.613928
0.525713
0.619888
0.822544
0.972748
0.848770
0.938773
0.930429
1.010895
0.841618
0.965595
0.755787
0.911951
0.851750
0.797510
0.849962
0.603795
0.688434
0.661612
0.628829
0.679493
0.494719
0.623465
0.703931
0.566840
0.717640
0.713468
0.542998
0.671744
0.764728
0.652671
0.751615
0.747442
0.645518
0.720620
0.740886
0.736713
0.754595
0.798702
0.888705
0.808835
0.923872
1.022816
1.060963
1.265407
1.230836
1.353621
1.258850
1.204610
1.251698
1.324415
1.837611
7.791519
29.174685
100.211501
190.385580
359.904766
532.616973
771.768689
914.380550
1003.004909
972.852707
823.553801
644.180775
398.197770
252.003670
117.940903
56.624413
17.968416
##ZVALUE=400
0.440478
0.341535
0.374913
0.515580
0.428557
0.296831
0.302792
0.394583
0.302792
0.410676
0.480413
0.456572
0.404716
0.450611
0.377893
0.476837
0.428557
0.439882
0.469685
0.448823
0.399947
0.377893
0.351667
0.523925
0.441670
0.476837
0.742674
0.701547
0.881553
0.815988
0.932813
0.898838
1.007915
1.055598
0.928640
0.995994
0.988841
0.933409
1.078844
0.895858
0.928640
0.905991
0.932813
0.867844
1.002550
0.942945
0.858903
0.746846
0.622869
0.685453
0.669956
0.643730
0.650883
0.684857
0.725985
0.654459
0.572801
0.722408
0.711679
0.677705
0.607967
0.758767
0.633597
0.571609
0.886917
0.673532
0.792742
0.949502
0.921488
1.043677
0.989437
1.176000
1.153946
1.200438
0.844598
1.144409
0.960827
1.138449
1.318455
1.448989
1.514554
4.074574
14.856458
54.669976
120.410919
270.162821
432.958603
666.913986
822.565556
951.350927
969.970822
852.805972
700.532794
465.627909
307.347775
155.242682
##END
