##TITLE=FKDZ0102
##FORMAT=SPECTACLE-ASCII V-1.2
##DATA TYPE=ULTRAVIOLET SPECTRUM
##SECOND TYPE=ULTRAVIOLET SPECTRUM
##DATE=03/22/18
##TIME=12:37:38
##SPECTROMETER/DATA SYSTEM=SPECTACLE
##XUNITS=NM EM
##YUNITS=ENERGY
##YFACTOR=1
##FIRSTX=220
##LASTX=410
##NPOINTS=96
##3DDATA=Equidistant
##ZUNITS=NM EX
##FIRSTZ=210
##LASTZ=400
##ZPOINTS=39
##XYDATA=(Y..Y)
##ZVALUE=210
2.861619
2.933741
2.100468
2.555847
3.208518
2.740622
3.088713
2.885461
3.242493
2.596974
2.639890
2.199411
2.481937
1.990795
1.985431
2.348423
2.736449
2.504587
3.180504
2.849698
3.635883
4.292727
3.402829
3.333688
3.854632
4.541874
4.972816
5.268455
6.613731
7.509589
7.683635
8.065701
8.820891
9.491444
9.332895
9.239912
10.171533
9.399652
10.327697
9.568930
9.087920
9.332895
8.692741
8.642673
8.020997
7.868409
8.219481
8.086562
7.173419
7.608533
6.989837
7.540584
7.013679
7.179976
7.074475
7.678866
6.682873
6.583929
6.718636
5.290508
6.060600
6.243587
6.551743
5.859733
6.824732
7.011890
7.010698
7.764697
8.438826
9.998679
12.359619
13.498664
14.870763
17.938614
18.000603
19.247532
18.111467
18.718839
18.398762
15.447736
14.983416
13.839602
11.757612
10.340810
9.735823
6.521940
6.382465
4.992485
5.517602
5.367994
5.958676
6.237626
6.209612
5.793571
5.655885
5.793571
##ZVALUE=215
10.137558
8.948445
8.115768
6.637573
5.327463
5.834699
5.133748
5.120635
6.316900
6.237626
5.272627
5.154610
3.844500
3.472567
3.073812
2.806783
3.009439
2.890825
3.283620
3.131628
3.113747
3.109574
3.760457
3.475547
5.773902
4.640818
5.443692
7.611513
9.014606
10.075569
12.146831
11.948943
15.257597
13.699532
14.762878
16.566515
15.784502
15.108585
14.369488
14.604926
15.591979
13.882518
12.759566
13.211966
12.344718
10.980964
12.297630
10.635853
10.439754
8.717775
9.776950
8.961558
8.607507
8.605719
8.613467
8.745790
7.498860
7.655621
7.092953
7.659793
7.820725
6.664991
6.585717
7.034540
7.474422
7.583499
6.422997
7.774830
8.759499
9.005666
10.464787
12.524724
13.196468
14.312863
15.604496
16.727448
16.988516
16.928911
14.860630
12.742877
13.291836
12.004972
11.242628
10.318756
8.575916
6.982684
6.707907
6.187558
5.663633
5.761981
5.815625
5.163550
5.731583
5.296469
5.570650
5.988479
##ZVALUE=220
31.116605
30.163527
32.178760
29.751658
26.256442
21.961927
17.465949
13.709664
12.855530
12.103915
11.801720
12.517571
12.977719
10.834932
9.600520
7.873774
6.234646
4.723668
4.210472
3.498793
3.857613
3.917813
3.682971
4.563928
5.334616
6.660819
8.123517
11.059642
12.390614
14.889836
17.260909
19.300580
18.810630
21.570921
23.403764
23.086667
22.908449
22.860765
22.018552
22.326708
21.035671
20.113587
17.623901
18.050671
18.218756
17.208457
14.585853
14.445782
14.287829
12.998581
13.058782
12.273788
11.575818
11.075735
11.435747
9.476542
10.005832
9.924769
9.760857
9.397864
8.915663
9.388924
8.442998
8.739829
8.169413
9.013414
8.416772
9.229779
10.449886
10.542870
10.917783
11.456609
15.155673
14.701486
16.335845
15.781522
16.724467
16.539693
15.970469
15.477538
13.814569
12.055635
11.655688
10.151863
8.659959
7.950664
7.472634
7.394552
7.833838
7.324815
6.367564
6.140471
6.825924
6.411672
5.933642
5.591512
##ZVALUE=225
55.288672
55.583715
67.940950
81.509948
84.803700
84.114671
77.458620
58.582425
44.775605
34.402609
26.270747
23.556948
24.182796
26.483536
25.986433
24.406910
20.367503
16.203523
11.467934
8.615851
6.609559
4.905462
4.425645
4.955530
4.836917
6.933808
8.380413
12.500882
14.441609
16.283989
19.327998
22.489429
24.774671
25.657415
26.171803
26.738644
27.079582
27.974844
27.319789
27.735829
26.874542
24.559498
22.018552
21.475554
20.671487
19.478798
18.922687
16.193986
16.569495
15.555620
14.567971
14.389753
14.269948
13.207793
13.038516
12.062788
11.488795
11.112690
10.331869
10.780692
10.460615
9.996891
10.092854
9.726882
10.138750
10.591745
10.173917
10.300875
10.962486
12.107491
12.451410
13.336539
14.738441
15.463829
17.085671
16.859770
17.735958
17.348528
16.117692
15.223622
14.572740
11.320710
11.676550
10.567904
9.668469
9.314418
8.027554
7.964969
7.727742
7.623434
7.490516
8.344650
6.918907
7.450581
8.410811
7.950664
##ZVALUE=230
49.954653
52.120686
80.501437
131.098628
161.463618
192.903876
206.669569
194.948912
176.157951
148.538947
105.553865
72.903633
49.638748
43.112636
44.962764
49.359798
49.461722
48.843622
45.050979
39.073825
26.569963
18.629432
13.441443
8.700490
7.501841
7.166862
7.733703
9.771585
12.043715
12.848973
14.397502
17.923713
19.277930
21.069646
21.363497
22.187829
22.159815
21.903515
21.608472
22.146702
21.197796
20.357966
20.540953
19.255877
17.943978
16.147494
15.767813
15.463829
14.282465
14.132857
14.938712
14.442801
13.418794
12.720823
12.965798
13.756752
13.956428
12.755990
12.200475
12.061000
12.566447
11.902452
11.922717
11.293888
11.891723
12.136698
12.086630
12.949705
13.299584
14.867783
14.882684
17.050505
16.920567
17.454624
18.029809
17.946959
20.388961
17.823577
17.459989
16.692877
14.353991
12.859702
14.027953
13.372898
12.430549
11.792779
10.457635
10.070801
11.797547
10.364652
10.879636
10.075569
10.117888
10.107756
9.941459
9.196997
##ZVALUE=235
15.869737
18.491745
38.505793
93.611479
147.458911
230.234861
296.143889
358.719826
395.671725
377.798676
338.097811
257.274508
195.187926
128.589869
94.126463
78.378916
74.695945
75.955987
81.678629
84.406734
72.070956
64.503551
46.458840
33.576488
23.430586
16.710758
11.869669
9.686947
9.724498
11.359453
11.242628
12.665987
13.497472
13.624430
13.353825
14.727712
14.237761
14.555454
15.734434
14.268756
14.325976
14.451742
14.373660
14.185905
14.136434
13.125539
12.795925
13.174415
11.425614
13.376474
12.914538
11.934638
11.601448
13.205409
11.854768
13.463497
11.368990
12.121797
11.990666
12.485981
12.995601
12.137890
12.471676
12.985468
13.156533
14.221668
14.549494
13.419986
13.567805
16.302466
15.857816
17.992854
19.545555
20.993948
22.880435
22.441745
20.024776
21.188855
19.843578
19.131899
18.777847
16.790628
16.357899
15.145540
15.343428
14.535785
13.801455
14.699697
13.312697
12.572408
13.167858
13.683438
13.687611
13.023615
12.235641
13.481975
##ZVALUE=240
2.025962
2.180934
5.925894
25.088787
55.165887
119.130611
196.872950
327.492952
432.099700
523.806810
605.131984
611.525774
541.471839
456.053019
333.911777
232.654810
142.836571
108.529925
95.330477
96.528530
107.632875
112.875700
108.973980
95.303655
82.962513
61.432719
45.108795
30.094981
21.017790
15.123487
12.646914
12.200475
11.914968
12.277961
11.822581
12.164712
12.985468
12.085438
12.089610
13.753772
13.260841
12.387633
14.054775
13.755560
12.325644
12.878776
11.843443
13.001561
12.629628
12.569427
13.627410
13.863444
12.718439
12.490749
11.196733
11.865497
11.915565
12.341738
12.426972
12.814999
11.656880
12.900829
12.693405
12.121797
12.686849
13.909936
13.156533
14.650822
15.159845
17.194748
16.807914
20.760894
21.353960
21.500587
20.936728
21.382570
22.316575
22.031665
21.308661
18.869638
20.567775
19.033551
19.160509
16.446710
17.345548
17.581582
17.033815
16.978979
16.268492
15.342832
15.055537
14.787912
14.798641
15.782714
14.719963
15.126467
##ZVALUE=245
1.751781
1.830459
1.679659
2.451539
5.368590
14.914870
49.252510
98.381639
213.663578
333.777666
515.991449
631.295443
723.525882
745.123029
703.201890
593.598485
480.106473
320.335627
224.607587
135.705471
102.116466
93.787909
109.042525
121.669769
126.457810
119.907856
111.401677
96.121430
71.920753
53.271651
42.071939
26.891828
21.663904
14.995933
15.166998
14.515519
15.319586
14.486909
14.549494
13.854504
14.572740
13.936758
13.993979
14.489889
14.180541
14.189482
14.309883
12.961626
13.148785
13.564825
12.587905
12.017488
13.034940
12.609959
12.228489
11.581779
12.236834
11.371970
11.838675
12.352467
12.273788
11.299849
11.476874
10.686517
12.348890
12.916923
12.750626
14.419556
13.849735
13.779998
17.312765
17.037988
19.045472
19.907951
18.743873
19.860864
19.012690
18.877983
19.920468
18.344522
18.115640
17.013550
15.777946
16.076565
15.423894
15.181899
15.415549
14.944673
14.179945
16.325712
16.088486
13.870597
14.156699
13.297796
13.670921
12.867451
##ZVALUE=250
1.079440
1.516938
1.350641
1.225471
1.435876
2.013445
2.555847
11.588931
30.925870
71.814656
180.856586
310.205817
504.584908
642.771721
797.469020
864.090919
850.208998
769.096017
676.716566
457.257628
311.923623
179.550648
120.655894
94.136000
98.054409
116.080642
129.576921
137.344003
133.304000
122.617483
107.146502
84.489584
63.369870
43.772459
34.349561
24.572611
21.058917
20.106435
19.603968
19.954443
17.931461
18.344522
18.106699
17.566681
16.396642
17.587543
16.435981
15.936494
15.464425
14.387965
14.022589
13.684630
12.758970
12.409687
11.795759
11.657476
12.276769
11.547804
11.514425
11.034608
11.174679
9.921789
10.900497
9.913445
11.401772
10.647774
10.553598
10.875463
11.983514
12.493730
12.907982
14.769435
14.684796
15.566945
16.984940
17.662644
16.487837
17.307997
16.753674
16.231537
15.488863
13.850927
13.523698
14.725924
13.931990
14.079809
13.775826
13.672709
15.162826
12.772679
12.808442
14.106631
12.553930
13.224483
13.282895
12.627840
##ZVALUE=255
1.360774
1.179576
1.088977
1.348853
1.425743
1.299977
1.649857
1.600981
1.996756
4.778504
25.606751
63.931942
129.535794
280.375481
432.868600
658.054948
813.084841
965.113640
994.419456
936.663747
804.216862
635.354519
399.621725
257.964730
139.358640
101.948977
91.266632
101.903677
128.314495
141.132474
148.938894
150.140524
139.466524
121.055841
97.976923
72.398782
56.917667
40.512681
33.064485
26.911497
25.714636
24.085641
23.227930
22.348762
22.743940
21.126866
20.092726
19.013882
18.503666
17.936826
16.365647
15.520453
14.597774
14.388561
14.434457
13.208985
11.878610
11.507869
12.550950
10.814667
11.342764
11.076927
10.830760
11.567473
10.624528
11.383891
10.350943
11.021495
11.244416
11.684895
12.729764
13.009906
12.920499
13.969541
14.591813
15.148520
14.321804
14.599562
13.379455
13.878942
13.190508
12.582541
12.594461
12.196898
11.972785
12.237430
12.160540
11.999607
11.887550
11.620522
11.192560
11.204481
11.533499
11.576414
11.738539
11.627674
##ZVALUE=260
1.229644
1.113415
1.240969
1.106858
1.287460
1.217723
1.465678
1.585484
1.614690
1.780987
2.115965
3.374815
10.387897
44.814944
97.624660
229.767561
368.295908
594.924688
788.914561
1008.123755
1015.880704
1015.880704
980.349779
803.778768
529.910922
368.706584
208.986998
133.676529
90.271831
94.182491
118.649602
138.179660
160.330534
169.850588
168.754458
156.242847
132.441521
111.969709
83.274841
65.196753
49.304962
39.114952
31.981468
29.353499
27.550459
26.236773
25.322437
23.697615
22.386909
21.524429
19.952655
17.761588
18.335581
16.729832
16.277432
15.593767
14.249682
12.944937
12.525916
12.504458
11.736751
11.209846
11.796951
11.586547
10.737777
10.144711
10.063648
10.023713
10.596514
10.802746
11.475682
12.618899
12.298822
13.099909
12.723804
13.632774
13.348460
12.676716
12.894869
12.084842
12.206435
11.349916
10.636449
10.615587
11.096597
10.843873
11.355877
11.737943
10.675788
10.688901
10.392666
11.015534
10.332465
10.861754
10.607839
10.659695
##ZVALUE=265
1.082420
1.117587
1.315475
1.107454
1.292825
1.338720
1.607537
1.230836
1.494884
1.632571
1.779795
1.788735
1.735687
2.152920
5.361438
27.696490
67.550540
174.976587
310.716629
563.117862
782.419443
985.013843
1015.861630
1015.861630
1015.861630
959.928632
711.304545
507.662892
293.914676
183.653831
122.306943
93.898773
103.325844
133.985877
158.501863
176.033974
184.068680
176.993608
161.922574
136.573911
114.618540
86.328983
66.500902
48.779845
39.531589
31.715631
29.521585
27.646422
25.760531
23.453832
21.941662
20.051599
19.390583
18.815994
17.499924
16.667843
15.215874
14.114976
13.406873
12.588501
11.718869
11.629462
11.143684
11.135936
10.402799
10.767579
10.858774
10.240674
10.328889
11.232495
11.115670
11.601448
11.877418
12.275577
12.220740
11.663437
12.983680
11.709929
11.464953
10.412931
10.844469
10.775924
10.361671
11.042953
9.777546
9.932518
9.913445
9.877682
10.195971
10.230541
10.447502
9.391904
9.813905
10.615587
10.833740
9.922981
##ZVALUE=270
1.130700
1.076460
1.102686
1.140833
1.125932
1.223683
1.106858
1.309514
1.252890
1.131892
1.495481
1.754761
1.684427
1.620650
1.755953
1.934767
3.040433
13.066530
39.666891
129.712820
247.469544
417.062640
729.883909
964.978933
1015.861630
1015.861630
1015.861630
1015.861630
891.949534
682.258606
426.335931
274.807811
148.140788
102.736950
95.169544
110.486746
139.526725
159.279704
178.276896
182.532668
177.283883
160.865784
134.813786
109.993815
81.732869
64.544678
45.652986
36.685467
28.912425
25.420785
22.658706
20.965934
19.929409
18.249750
16.906857
15.967488
15.169978
14.730692
13.846755
12.896657
12.627840
11.364818
11.902452
10.576844
10.355711
9.832978
9.480715
9.943843
10.032654
10.586977
11.381507
10.444522
11.346936
11.229515
10.875463
11.881590
10.901690
11.640787
10.763407
10.432601
10.122657
10.163784
9.759665
9.833574
9.904504
9.583831
9.307861
9.467602
9.293556
9.560585
9.211898
8.913875
9.595752
9.030700
9.745955
9.444952
##ZVALUE=275
0.972748
1.131892
0.831485
0.845790
1.203418
0.964999
1.131892
1.067519
1.021624
1.246929
1.281500
1.296997
1.253486
1.502633
1.661777
1.632571
1.709461
2.115965
2.290606
6.415844
22.209883
19.840598
190.350413
357.226729
659.710765
884.828568
1015.861630
1015.861630
1015.861630
1015.861630
1015.861630
858.847499
551.982522
355.137587
183.924437
113.424659
76.998472
81.018806
105.555654
125.461817
148.962736
164.978504
169.234872
164.463520
148.710608
128.497481
97.721815
78.400970
53.056479
39.577484
26.926994
21.614432
17.812848
16.706586
15.077591
14.409423
13.763905
13.057590
12.724996
12.172461
11.397600
10.722876
10.775924
10.471940
9.932518
10.005832
9.504557
9.509921
9.234548
9.938478
10.350943
10.533929
10.674000
10.838509
11.358857
10.815859
10.439754
10.871887
10.424852
10.447502
9.690523
9.996891
10.021925
10.091662
8.858442
9.204745
8.865595
9.148717
8.951426
8.917451
8.980632
9.033680
9.354949
9.159446
8.277893
8.732677
##ZVALUE=280
0.848770
1.057982
0.875592
1.022816
1.021624
0.964999
0.993609
1.055598
1.125932
1.189709
1.443624
1.275539
1.174808
1.291633
1.461506
1.582503
1.374483
1.344681
1.508594
1.910925
2.027750
2.750754
14.097691
49.148798
154.622793
280.274749
521.139503
753.831863
1015.861630
1015.861630
1015.861630
1015.861630
1015.861630
955.131650
711.859465
410.237908
250.916481
117.301941
68.315864
52.863955
63.345432
89.003444
109.444857
134.497881
148.538947
153.780580
150.488615
134.617686
114.514828
87.342858
66.380501
45.245886
31.532645
19.898415
15.951991
12.307763
11.539459
10.705590
10.240674
10.248423
9.937882
9.901524
9.514689
9.409785
9.110570
9.526610
8.811951
9.090900
9.597540
10.172725
9.617805
10.145903
10.376573
10.625720
10.705590
10.304451
10.340810
10.181665
10.062456
9.715557
9.525418
8.781552
8.966923
9.165406
8.952618
9.020567
8.885860
8.664727
8.821487
8.866787
8.657575
8.802414
8.705854
8.641481
8.948445
8.634925
##ZVALUE=285
0.810623
0.843406
0.888705
0.880957
0.816584
0.892878
0.762939
1.012683
1.032948
0.880957
0.966787
1.044869
1.092553
1.112819
1.245737
1.126528
1.236796
1.080632
1.398921
1.473427
1.637936
1.434684
1.871586
2.142787
7.123947
24.067760
84.979534
180.398822
390.712023
605.382919
789.018869
1015.861630
1015.861630
1015.861630
1015.861630
1015.861630
869.830847
548.519492
348.929763
167.733431
87.191463
41.213632
38.294792
54.485798
73.618889
100.614429
121.643543
138.060451
143.405795
140.433908
129.465461
107.490420
86.239576
61.465502
44.369698
27.347803
18.690825
12.568831
9.822845
9.239912
9.100437
8.434653
8.200407
8.735657
8.017421
9.132624
8.740425
8.890629
9.005666
8.736849
9.260774
9.762645
9.643435
10.226965
10.132790
10.331869
9.570718
10.012984
9.554625
9.143949
9.362698
8.877516
8.964539
8.532405
9.027719
9.169579
8.882880
8.822680
8.686781
8.390546
8.689761
8.758903
8.487701
8.375645
8.415580
8.713603
##ZVALUE=290
0.745654
0.891685
0.890493
0.782609
0.801682
0.953674
0.664592
0.876784
1.148582
0.996590
1.010895
0.873804
0.853539
1.136661
0.919700
0.957847
1.030564
1.188517
1.234412
1.193881
1.148582
1.432896
1.774430
1.618862
2.114773
2.196431
3.223419
10.255575
47.872663
114.438534
225.591660
470.691919
719.932914
1015.861630
1015.861630
1015.861630
1015.861630
1015.861630
1003.927588
695.533752
459.950566
229.161978
121.308565
47.330856
29.168725
34.983754
47.085881
69.607496
89.559555
114.078522
126.931667
138.307810
134.464502
122.800469
105.195642
78.796744
59.426427
39.526820
27.257800
16.528964
12.458563
8.674860
8.042455
7.941723
7.682443
7.819533
8.000731
8.428693
8.816719
9.010434
9.360909
9.226799
9.248853
9.614825
9.776950
9.570718
9.987950
9.207726
9.619594
9.382963
9.269714
9.321570
9.442568
9.382963
9.162426
9.009838
8.891821
8.755922
8.604527
8.983612
8.688569
8.895993
8.138418
8.451939
8.480549
8.401871
##ZVALUE=295
0.782609
0.895858
0.797510
0.796914
0.755787
0.707507
0.773668
0.869632
0.787973
0.810623
0.873804
0.887513
0.762939
0.956655
0.934601
0.987649
0.963807
0.994802
1.160502
1.042485
1.270771
1.124740
1.126528
1.721978
1.449585
1.546741
1.768470
1.973510
2.375841
4.212856
16.139746
69.293976
160.704851
375.642776
604.515672
953.342915
1015.861630
1015.861630
1015.861630
1015.861630
1015.861630
847.193003
589.133501
313.106775
170.379877
62.070489
31.429529
22.231936
28.835535
46.005845
61.827898
86.760521
104.540586
123.507977
130.559802
128.071904
118.479729
97.312927
80.442429
55.227876
40.577650
24.914742
17.593503
11.233687
9.179711
8.140802
7.729530
7.991791
7.876754
7.903576
8.199811
8.693933
9.085536
9.692907
9.438992
9.570718
9.311438
9.114742
9.161830
9.627938
8.994937
9.109974
9.058714
8.905530
8.941889
8.728504
8.817911
9.352565
8.938909
8.717775
8.647442
8.662939
8.531809
8.541942
8.008480
8.469820
##ZVALUE=300
0.673532
0.773668
0.796914
0.790954
0.637770
0.622869
0.691414
0.812411
0.822544
0.867844
0.749826
0.763535
0.881553
0.806451
0.794530
0.858903
0.953674
0.742674
1.051426
1.118779
1.056790
1.182556
1.337528
1.353621
1.477599
1.464486
1.638532
1.540780
1.863837
1.783967
1.982450
2.601743
10.295510
36.851764
123.281479
241.353512
501.438975
750.243664
1015.861630
1015.861630
1015.861630
1015.861630
1015.861630
1012.326479
699.445605
456.931591
227.662921
122.163892
44.831634
21.140575
18.378496
25.303960
39.450526
55.583715
78.551769
97.588897
116.644502
122.777820
122.636557
114.553571
96.048713
80.185533
56.179762
40.895939
25.771856
17.355680
11.767745
9.224415
8.147955
8.141994
8.641481
8.706450
8.386970
9.111762
9.109974
8.726716
9.498596
9.196997
9.089708
8.932948
9.392500
8.996725
9.126663
9.208918
9.256601
8.806586
8.815527
8.846521
8.739829
8.933544
8.685589
8.688569
8.571744
8.447766
8.511543
8.449554
##ZVALUE=305
0.610948
0.633597
0.587702
0.678897
0.725985
0.790954
0.670552
0.740886
0.693798
0.619888
0.817776
0.691414
0.728965
0.948906
0.678897
0.872612
0.788569
0.993609
0.983477
1.043677
0.978708
1.009703
1.011491
1.201630
1.358986
1.242757
1.198649
1.313686
1.550913
1.567602
1.607537
1.896620
2.075434
2.308488
4.260540
23.824573
67.539811
194.717050
350.477695
653.349757
913.535953
1015.861630
1015.861630
1015.861630
1015.861630
1015.861630
857.637525
540.521741
338.736773
156.805515
75.834990
25.390983
14.551878
16.416907
23.410916
37.347674
53.085685
76.233745
91.308951
108.703971
115.223527
116.054416
108.235478
91.461539
75.520873
52.928925
38.464665
24.579763
17.300844
11.257529
9.755492
8.456707
8.522868
8.700490
8.958578
8.939505
8.791685
8.974671
8.653998
9.069443
8.768439
8.737445
9.344816
8.944869
8.929968
8.889437
8.250475
9.285808
9.075999
8.734465
8.764863
8.479953
8.529425
8.608699
8.580685
8.638501
##ZVALUE=310
0.766516
0.684857
0.670552
0.710487
0.646710
0.627637
0.639558
0.653863
0.670552
0.772476
0.684857
0.817776
0.710487
0.761747
0.780821
0.741482
0.673532
0.849962
0.858903
0.883937
0.919700
0.968575
0.854731
1.022816
1.121759
0.985861
1.271963
1.137853
1.148582
1.397729
1.343489
1.363754
1.711845
1.633763
1.970530
2.189875
2.801418
10.349751
34.982562
118.419528
236.738920
490.215421
742.180943
1015.861630
1015.861630
1015.861630
1015.861630
1015.861630
1015.861630
716.993809
476.706624
239.186883
126.002431
43.659806
18.751621
11.225939
14.262795
21.741986
31.634569
48.803687
64.850450
86.464882
98.888874
109.024644
110.096931
103.536844
91.402531
72.645545
56.216717
37.031770
26.682615
17.314553
13.275743
10.434985
9.542704
8.752942
8.424520
8.598566
8.554459
8.657575
8.849502
8.520484
8.733869
8.783937
9.035468
8.965731
8.849502
9.207726
9.035468
9.067655
9.125471
8.647442
8.827448
8.480549
8.667707
8.452535
##ZVALUE=315
0.620484
0.619888
0.653863
0.712872
0.671744
0.687838
0.748634
0.563860
0.591874
0.592470
0.710487
0.686646
0.833869
0.772476
0.678897
0.733733
0.795722
0.747442
0.858903
0.735521
0.845790
0.849962
0.999570
0.847578
0.936985
1.050830
1.174808
1.055598
1.161695
1.087785
1.218915
1.032948
1.366735
1.269579
1.533628
1.615882
1.817942
1.845956
2.103448
4.599690
17.590523
73.541999
164.154768
374.312401
612.446666
977.003574
1015.858650
1015.858650
1015.858650
1015.858650
1015.858650
867.181420
613.117814
323.714018
175.812840
63.495636
26.084781
10.992885
10.403991
13.844967
18.893480
30.397773
43.068528
62.097907
77.408552
95.007420
103.057623
104.369521
98.661780
83.797574
69.828629
52.691698
39.310455
25.059581
17.873645
12.292862
10.266900
9.023547
8.338690
8.594990
8.641481
8.331537
8.955598
8.720756
9.051561
9.051561
9.111762
8.853674
8.932948
8.915663
8.854866
8.602738
8.402467
8.883476
8.630753
8.231997
##ZVALUE=320
0.636578
0.644922
0.751615
0.566840
0.698566
0.568628
0.761747
0.623465
0.657439
0.751615
0.647902
0.660419
0.832677
0.693798
0.674725
0.532866
0.643730
0.855923
0.783801
0.915527
0.911951
0.949502
0.719428
0.784993
0.762939
1.062751
1.013875
1.007915
0.956655
0.979900
0.975728
1.124740
1.221895
1.285672
1.342893
1.225471
1.397729
1.621842
1.753569
1.683831
2.054572
2.906919
7.486939
40.449500
105.973482
280.200839
467.657447
785.901546
1010.143757
1015.866995
1015.866995
1015.866995
1015.866995
998.890400
756.402612
421.893001
241.846442
101.566911
45.164824
14.731884
8.977652
9.674430
11.457801
17.712712
25.589466
41.138530
54.887533
73.490739
86.368918
98.590851
100.166798
94.698668
84.153414
65.224767
51.609874
35.420656
25.775433
17.361641
13.026595
10.007620
9.314418
8.683801
9.100437
8.878708
8.361936
8.644462
8.585453
8.724928
8.769631
8.720756
8.549690
8.567572
8.562803
8.484721
8.572936
8.376837
##ZVALUE=325
0.577569
0.584722
0.467896
0.549555
0.649691
0.573993
0.591874
0.613928
0.705719
0.644922
0.549555
0.477433
0.450611
0.695586
0.586510
0.770688
0.775456
0.427961
0.546575
0.386834
0.677705
0.825524
0.740886
0.673532
0.863671
0.896454
0.796914
0.954866
0.844598
1.003742
0.891685
0.799894
1.077652
1.148582
1.109838
1.182556
1.103878
1.244545
1.266599
1.386404
1.440644
1.485944
1.811981
2.140403
4.192591
26.155710
70.559978
190.250874
346.617699
654.238462
915.076733
1015.795469
1015.795469
1015.795469
1015.795469
1015.795469
844.615698
520.197749
314.769745
138.333440
65.367818
20.088553
10.016561
8.367896
8.645654
11.829734
16.372800
25.933981
37.051439
55.138469
68.943501
83.516836
91.984868
92.673898
88.581443
75.690746
63.116550
46.575665
34.920573
23.043752
16.877651
11.688471
10.492802
9.127855
8.805990
8.667707
8.578897
8.616447
8.407831
8.550882
8.443594
8.452535
8.430481
8.384585
8.378625
8.252859
##ZVALUE=330
0.604987
0.545979
0.659823
0.494719
0.450611
0.612736
0.498891
0.450611
0.598431
0.567436
0.544786
0.542998
0.564456
0.670552
0.641942
0.622869
0.787973
0.603795
0.662804
0.593662
0.782609
0.843406
0.700951
0.718832
0.636578
0.897646
0.824928
0.859499
0.885725
0.940561
1.032948
1.039505
0.999570
0.877976
0.953674
1.172423
1.121759
1.118779
1.283884
1.138449
1.232624
1.453757
1.552701
1.667738
1.796484
1.896620
2.488494
10.832548
36.918521
128.706694
248.855948
504.527688
750.800967
1015.855670
1015.855670
1015.855670
1015.855670
1015.855670
982.519984
642.094612
415.203571
192.433596
96.144676
33.010840
13.802648
8.286834
7.988811
8.711815
10.897517
17.316937
24.278760
37.508607
49.890876
67.389607
78.385472
87.370872
88.006854
83.179474
72.932839
56.954622
44.927001
31.409860
23.472905
16.551614
13.087988
10.485649
9.277463
8.913875
8.645654
8.484721
8.297563
8.428693
8.128881
7.966757
8.147955
8.054972
##ZVALUE=335
0.515580
0.519753
0.509620
0.661612
0.462532
0.651479
0.577569
0.688434
0.584722
0.617504
0.440478
0.585914
0.707507
0.642538
0.604987
0.546575
0.555515
0.665784
0.599623
0.591874
0.621676
0.628829
0.593662
0.643730
0.595450
0.741482
0.776649
0.728965
0.718832
0.765920
0.932813
0.830889
0.793934
0.737906
0.882745
0.871420
0.929832
0.874996
1.083612
1.135468
1.208782
1.344681
1.350641
1.222491
1.472831
1.653433
1.749992
1.814961
2.174973
5.313754
18.999577
77.950954
167.539716
379.474759
611.083508
970.402956
1015.861630
1015.861630
1015.861630
1015.861630
1015.861630
759.973526
517.810583
268.795490
140.150785
47.459602
19.414425
8.836985
7.806420
7.950664
8.683801
11.308789
15.530586
24.088621
34.343600
49.687624
61.399937
74.218512
80.184937
82.126856
76.889992
65.627694
56.547523
43.602586
33.583641
22.889972
17.680526
12.494922
10.210872
8.884668
8.400679
8.166432
7.944703
7.837415
7.789731
7.823706
##ZVALUE=340
0.616908
0.597835
0.606775
0.578761
0.646710
0.544786
0.363588
0.517964
0.636578
0.432730
0.769496
0.535846
0.552535
0.656843
0.661612
0.779629
0.742674
0.559688
0.701547
0.588894
0.641942
0.649691
0.708699
0.656843
0.708699
0.789762
0.741482
0.812411
0.671744
0.691414
0.832677
0.740886
0.846982
0.974536
0.848770
0.750422
0.875592
0.849962
1.038909
0.880957
1.030564
1.233816
1.094937
1.140833
1.194477
1.408458
1.378655
1.508594
1.695752
1.782775
1.939535
2.752542
9.165406
47.822595
119.462609
299.600959
503.273606
832.106471
1015.861630
1015.861630
1015.861630
1015.861630
1015.861630
879.551768
632.026792
338.963866
184.236765
68.135858
27.335882
9.974837
7.919669
7.662773
7.752776
8.851886
11.095405
16.090870
22.592545
33.343434
45.021772
59.796572
68.963766
76.943636
77.250600
72.431564
65.107942
52.880645
42.988658
32.047629
23.780465
15.971661
12.302995
9.407997
8.321404
7.958412
7.917881
7.334948
##ZVALUE=345
0.567436
0.538826
0.315905
0.729561
0.611544
0.519753
0.459552
0.712872
0.527501
0.521541
0.452995
0.595450
0.538826
0.659823
0.585914
0.686646
0.416636
0.720620
0.604987
0.560880
0.535846
0.691414
0.481606
0.573993
0.672936
0.665784
0.651479
0.553727
0.685453
0.632405
0.770688
0.748634
0.676513
0.831485
0.702739
0.872612
0.780821
0.777841
0.849962
1.047850
1.011491
0.864863
0.983477
0.978708
1.036525
1.195669
1.055598
1.302958
1.164675
1.413822
1.484752
1.757741
1.757741
2.172589
4.102588
26.528835
76.718926
211.496949
367.922783
659.318566
909.402966
1015.861630
1015.861630
1015.861630
1015.861630
982.747674
741.294622
439.352989
248.065591
98.761916
43.498874
14.587641
8.573532
7.850528
7.622838
7.525682
8.059740
10.504723
13.490915
21.542907
30.248761
42.765737
52.806735
62.277913
68.489909
71.668625
69.434643
61.686635
52.949786
41.825771
32.215714
22.359490
17.001629
11.689663
9.478927
7.861853
##ZVALUE=350
0.513792
0.581741
0.504851
0.525713
0.612736
0.530481
0.517964
0.515580
0.538826
0.594854
0.590682
0.452995
0.596642
0.489950
0.511408
0.665784
0.585914
0.653863
0.528693
0.753999
0.658631
0.783801
0.725985
0.590682
0.707507
0.691414
0.675917
0.606775
0.633597
0.716448
0.843406
0.671744
0.654459
0.582933
0.687838
0.571609
0.615716
0.782609
0.781417
0.755787
0.848770
0.952482
0.892878
0.937581
0.984669
0.972748
1.022816
1.081824
1.056790
1.137853
1.226664
1.296997
1.556873
1.485944
1.664758
1.811981
2.866983
10.014772
48.649907
114.995837
284.972787
480.048656
797.631741
1009.961963
1015.873551
1015.873551
1015.873551
1015.873551
794.705749
538.129807
270.964503
148.479939
55.720806
22.087693
9.226799
7.466674
6.780624
6.721616
6.682873
7.126927
9.736419
13.012886
18.866658
25.856495
36.712885
46.013594
56.112409
62.280893
65.705776
64.023733
57.021976
49.425960
38.477778
30.214787
21.126866
16.494989
##ZVALUE=355
0.548959
0.468493
0.389814
0.515580
0.402927
0.566840
0.554919
0.591874
0.723600
0.649691
0.564456
0.591874
0.697970
0.519753
0.586510
0.660419
0.631809
0.575781
0.574589
0.562668
0.735521
0.539422
0.564456
0.626445
0.641942
0.655651
0.555515
0.675917
0.766516
0.662804
0.521541
0.673532
0.662804
0.724792
0.744462
0.727773
0.816584
0.786781
0.905991
0.766516
0.793934
0.882745
0.834465
1.063943
0.951886
1.028776
1.018643
0.990629
1.046658
1.024604
1.234412
1.148582
1.165867
1.353621
1.383424
1.522899
1.575947
1.853704
2.107620
6.047487
22.588968
89.971423
187.522769
395.870805
624.451637
960.534811
1015.861630
1015.861630
1015.861630
1015.861630
929.046869
601.231456
377.283692
167.787671
82.529783
28.183460
11.517406
6.922483
6.772876
6.311536
6.306767
6.369948
6.958842
8.511543
11.009574
16.404986
22.349954
31.932592
40.154457
49.916506
55.810809
59.129000
57.829618
52.353740
46.097636
36.635995
##ZVALUE=360
0.547767
0.472665
0.486970
0.433922
0.555515
0.516772
0.490546
0.520945
0.504851
0.641942
0.486970
0.628829
0.460744
0.691414
0.571609
0.634789
0.560880
0.676513
0.614524
0.514984
0.667572
0.448823
0.758767
0.584722
0.574589
0.533462
0.592470
0.529885
0.661612
0.532866
0.626445
0.709891
0.767708
0.807643
0.842810
0.916719
0.734925
0.879765
0.758767
0.757575
0.838637
0.754595
0.655651
0.723600
0.980496
1.044869
0.940561
1.132488
1.074672
1.139641
1.044869
1.266599
1.042485
1.206994
1.232624
1.278520
1.224875
1.424551
1.619458
1.866817
2.222657
3.291965
9.571910
46.521425
115.952492
289.050937
480.852723
786.897540
1008.314490
1015.861630
1015.861630
1015.861630
1015.861630
725.778937
488.337874
240.063667
124.521852
44.156909
17.126799
7.360578
6.412864
6.261468
6.107688
5.971789
5.693436
6.357431
7.020831
9.659529
12.778640
19.021630
25.807619
35.177469
42.597651
49.746633
52.600503
53.216815
##ZVALUE=365
0.606775
0.545979
0.574589
0.726581
0.343919
0.545979
0.432730
0.484586
0.481606
0.582933
0.589490
0.492930
0.617504
0.473857
0.544786
0.610948
0.611544
0.701547
0.646710
0.511408
0.514984
0.454783
0.609756
0.544786
0.611544
0.575781
0.629425
0.683665
0.783801
0.775456
0.740886
0.702739
0.843406
0.640750
0.790954
0.731945
0.706911
0.715852
0.662804
0.845790
0.748634
0.838637
0.761747
0.837445
0.676513
0.757575
0.759959
0.895858
0.946522
1.020432
0.903606
1.056790
1.035929
1.044869
1.199841
1.148582
1.238585
1.177788
1.285672
1.387596
1.628995
1.672506
1.961589
2.480745
4.360676
23.705959
70.014000
199.612975
365.858674
657.752752
902.102590
1015.861630
1015.861630
1015.861630
1015.861630
832.176805
593.871474
327.658653
179.157853
66.245794
26.328564
8.418560
6.342530
5.814433
5.517602
5.542636
5.492568
5.375743
5.166531
6.318688
7.704496
11.191964
15.211701
22.280812
28.865933
36.853552
##ZVALUE=370
0.431538
0.498891
0.687838
0.603795
0.629425
0.443459
0.496507
0.454783
0.561476
0.668764
0.571609
0.506639
0.442863
0.469685
0.462532
0.543594
0.597835
0.656843
0.601411
0.679493
0.585914
0.503659
0.430942
0.518560
0.615716
0.627637
0.642538
0.669956
0.532866
0.595450
0.759959
0.734925
0.708699
0.587702
0.554919
0.740886
0.768900
0.644922
0.744462
0.601411
0.712872
0.655651
0.837445
0.737906
0.805855
0.657439
0.771880
0.787973
0.722408
0.910759
0.802875
0.824928
0.964999
0.861883
0.976920
0.989437
1.211762
1.078844
1.251698
1.105666
1.328588
1.492500
1.539588
1.678467
1.741648
2.017617
3.011823
10.106564
53.116679
132.191777
315.966010
508.276820
812.861919
1015.536785
1015.861630
1015.861630
1015.861630
970.245600
651.616454
424.207449
200.218558
103.109479
38.095713
15.179515
6.349683
5.595684
5.272627
4.943609
4.838705
4.921556
4.559755
4.988909
5.456805
6.642938
9.671450
13.243556
##ZVALUE=375
0.433922
0.430942
0.425577
0.428557
0.394583
0.427961
0.548959
0.371933
0.522733
0.589490
0.511408
0.591874
0.483990
0.382662
0.571609
0.608563
0.491738
0.572801
0.678897
0.530481
0.716448
0.638962
0.557899
0.605583
0.517964
0.499487
0.470877
0.609756
0.563860
0.615716
0.729561
0.628829
0.612736
0.536442
0.513792
0.573993
0.734925
0.709891
0.721812
0.657439
0.645518
0.444651
0.563860
0.837445
0.785589
0.768900
0.870824
0.769496
0.560880
0.658631
0.915527
0.900626
0.871420
0.754595
0.737906
0.724792
0.760555
0.941753
0.990629
1.109838
1.067519
1.036525
1.094937
1.056790
1.129508
1.285672
1.550913
1.874566
2.244711
6.554723
23.233891
87.562799
189.479589
422.427654
655.452609
980.058908
1015.861630
1015.861630
1015.861630
1015.861630
829.108953
511.765480
319.387913
146.824718
72.346926
22.359490
9.079576
5.209446
4.847646
4.610419
4.764795
4.545450
4.451871
4.264712
4.487634
4.680753
##ZVALUE=380
0.383854
0.592470
0.528693
0.492930
0.541806
0.540614
0.414848
0.533462
0.390410
0.602603
0.494719
0.354648
0.415444
0.523925
0.319481
0.440478
0.346899
0.525713
0.482798
0.470877
0.513792
0.496507
0.658631
0.600815
0.683665
0.648499
0.441670
0.477433
0.524521
0.538826
0.455976
0.696778
0.661612
0.514984
0.761747
0.574589
0.709891
0.746846
0.634789
0.559688
0.610948
0.763535
0.469685
0.688434
0.710487
0.625849
0.706911
0.648499
0.764728
0.652671
0.716448
0.838637
0.743866
0.696778
0.665784
0.766516
0.911951
0.884533
0.915527
1.055598
1.075864
0.930429
0.946522
1.021624
1.264811
1.306534
1.374483
1.428723
1.471639
1.867414
2.380610
3.081560
15.877485
50.209761
156.658888
293.406844
561.468005
820.474625
1015.861630
1015.861630
1015.861630
1015.861630
909.856558
682.188869
399.096012
233.717561
95.914602
43.502450
11.899471
5.848408
4.715919
4.508495
4.218817
4.212856
4.073977
4.036427
##ZVALUE=385
0.491738
0.447631
0.461936
0.438690
0.531673
0.405908
0.507832
0.411868
0.488758
0.500679
0.529885
0.537634
0.534654
0.497699
0.517964
0.589490
0.487566
0.536442
0.502467
0.352859
0.387430
0.407696
0.468493
0.593662
0.619888
0.417829
0.656843
0.523925
0.410676
0.647902
0.592470
0.614524
0.587702
0.802875
0.647902
0.643730
0.636578
0.718832
0.672936
0.651479
0.723600
0.699759
0.715852
0.534654
0.566840
0.727773
0.690818
0.555515
0.652671
0.831485
0.791550
0.544786
0.831485
0.625849
0.667572
0.710487
0.558496
0.715852
0.661612
0.895858
0.925660
0.842810
0.980496
0.752807
0.877976
0.961423
1.060963
1.398921
1.277924
1.441836
1.586676
1.813769
1.940727
2.472997
5.826950
34.293532
90.101957
232.310891
407.644510
716.066957
956.902504
1015.861630
1015.861630
1015.861630
1015.861630
781.334639
555.123687
303.155780
172.849894
69.539547
27.279854
7.505417
4.918575
4.168749
3.920794
4.024506
##ZVALUE=390
0.526905
0.420809
0.441670
0.474453
0.462532
0.453591
0.624657
0.370741
0.374913
0.391603
0.410676
0.398755
0.382662
0.487566
0.529885
0.370741
0.473857
0.607967
0.470877
0.434518
0.497699
0.581741
0.553727
0.460744
0.298619
0.429749
0.556707
0.615716
0.635982
0.709891
0.652671
0.672936
0.765920
0.761747
0.684857
0.819564
0.721812
0.673532
0.577569
0.799894
0.609756
0.685453
0.565648
0.854731
0.647902
0.770688
0.580549
0.672936
0.599623
0.691414
0.654459
0.803471
0.642538
0.749826
0.840425
0.657439
0.779629
0.741482
0.781417
0.761747
0.856519
0.877976
0.810623
0.874996
0.787973
0.942945
1.122952
1.226664
1.193881
1.384616
1.478791
1.618862
1.585484
1.610518
1.728535
1.844764
3.006458
17.620921
54.753423
168.755651
318.250656
606.074929
844.258666
1015.861630
1015.861630
1015.861630
1015.861630
932.269692
708.326697
431.492925
250.807405
100.391507
45.649409
13.652444
5.956888
4.202724
##ZVALUE=395
0.454783
0.450611
0.311732
0.357628
0.328422
0.397563
0.343919
0.381470
0.417829
0.477433
0.490546
0.372529
0.537634
0.442863
0.423789
0.546575
0.481606
0.589490
0.632405
0.444651
0.460744
0.407696
0.547767
0.465512
0.459552
0.561476
0.480413
0.533462
0.607967
0.672936
0.669956
0.709891
0.684857
0.760555
0.820756
0.752807
0.741482
0.645518
0.655651
0.792742
0.851750
0.685453
0.600815
0.715852
0.829697
0.695586
0.679493
0.654459
0.674725
0.732541
0.699759
0.679493
0.711679
0.689626
0.657439
0.796914
0.662804
0.665784
0.910759
0.695586
0.804663
0.819564
0.812411
0.722408
0.861883
0.878572
1.111627
1.185536
1.167655
1.071692
1.323819
1.288652
1.404881
1.374483
1.541972
1.563430
1.505613
1.687407
2.068877
9.665489
35.609603
125.450492
241.391659
463.462472
691.035986
994.760990
1015.861630
1015.861630
1015.861630
1015.861630
854.473710
532.154441
331.020951
144.220591
67.519546
20.739436
##ZVALUE=400
0.381470
0.415444
0.257492
0.504851
0.371933
0.408888
0.361800
0.523925
0.269413
0.342727
0.356436
0.506639
0.297427
0.377893
0.432730
0.378489
0.356436
0.321865
0.500679
0.447631
0.347495
0.469685
0.535846
0.439882
0.344515
0.304580
0.497699
0.499487
0.472665
0.473857
0.755787
0.778437
0.767708
0.652671
0.746846
0.614524
0.725985
0.649691
0.680685
0.804663
0.628829
0.709891
0.705719
0.651479
0.625849
0.674725
0.670552
0.661612
0.571609
0.675917
0.759959
0.644922
0.734925
0.723600
0.795722
0.762939
0.705719
0.797510
0.706911
0.665784
0.710487
0.854731
0.671744
0.842810
0.619888
0.617504
0.903606
0.864863
1.226664
1.000762
1.238585
1.279712
1.215935
1.106858
1.132488
1.318455
1.400709
1.392961
1.533628
1.699924
1.825690
4.926920
18.428564
70.597529
155.572891
352.780819
562.101603
874.045491
1015.808582
1015.808582
1015.808582
1015.808582
929.991007
618.927479
407.141447
203.687549
##END
