##TITLE=FKDZ0101
##FORMAT=SPECTACLE-ASCII V-1.2
##DATA TYPE=ULTRAVIOLET SPECTRUM
##SECOND TYPE=ULTRAVIOLET SPECTRUM
##DATE=03/22/18
##TIME=12:34:22
##SPECTROMETER/DATA SYSTEM=SPECTACLE
##XUNITS=NM EM
##YUNITS=ENERGY
##YFACTOR=1
##FIRSTX=220
##LASTX=410
##NPOINTS=96
##3DDATA=Equidistant
##ZUNITS=NM EX
##FIRSTZ=210
##LASTZ=400
##ZPOINTS=39
##XYDATA=(Y..Y)
##ZVALUE=210
2.427697
2.786517
2.785921
2.891421
2.650619
2.238750
2.885461
2.413988
2.953410
2.901554
2.127886
2.088547
1.752973
2.092719
2.551675
2.758503
2.453923
2.579689
3.294945
2.609491
3.521442
3.614426
3.945827
3.658533
3.346801
3.853440
3.838539
4.567504
4.158616
5.103946
4.485846
4.863739
4.427433
5.305409
5.809665
5.516410
5.816817
5.498528
6.429553
5.999804
5.380511
5.805492
5.755424
5.194545
6.047487
5.567670
5.509853
6.309748
5.915761
5.398989
6.226897
6.454587
6.624460
6.194711
5.584955
6.359816
5.716681
5.495548
6.210804
6.284714
5.796552
5.457997
6.021857
6.856918
5.823970
6.542802
6.720424
7.850528
8.861423
9.034872
10.697842
13.060570
15.511513
16.624928
16.591549
18.605590
15.748739
17.327666
16.065836
14.545918
13.664961
11.918545
10.587573
9.382963
8.495450
7.903576
5.823970
6.080866
5.532503
5.205870
6.371737
5.823970
5.638599
4.990697
6.271601
6.230474
##ZVALUE=215
9.229779
9.605885
8.772612
6.687641
6.074905
5.627871
5.049706
5.429983
7.086992
5.403757
5.535483
5.231500
4.124641
3.647804
3.027916
2.978444
2.981424
2.885461
3.381968
2.846718
3.278852
3.252625
3.603697
3.728867
3.627539
3.776550
4.733801
5.252957
5.182624
4.605651
5.620718
5.472898
6.831884
6.963611
6.659627
6.469488
6.225705
7.021427
7.258654
6.706715
6.694794
6.900430
6.566644
6.647706
6.557703
6.583929
6.714463
6.146431
6.537437
6.892681
5.655885
6.377697
5.944967
5.926490
5.986691
6.003976
7.197857
6.060600
6.508827
5.566478
6.387830
6.120801
6.895661
6.974936
6.532669
6.659627
7.429719
6.862879
9.103417
9.865761
12.083650
13.245940
13.694763
14.179945
16.272664
16.054511
15.548468
16.017556
16.120672
15.064478
13.852715
12.462735
11.441708
10.509491
8.457899
7.544756
7.351637
5.757809
5.932450
5.535483
5.798936
5.827546
5.379915
5.293489
6.023645
6.337762
##ZVALUE=220
30.481815
31.474829
31.219721
28.204918
26.072860
20.720959
16.628504
13.583899
12.064576
12.763739
13.773441
12.854934
12.668967
11.297464
9.547472
7.695556
5.709529
4.937649
4.157424
3.239512
2.989769
3.872514
3.804564
3.633499
4.519820
5.330443
4.482865
5.481839
5.841851
7.096529
7.628798
7.642508
7.742643
8.709431
8.735657
7.473826
8.716583
8.518696
8.424520
8.176565
7.388592
7.662773
8.475780
7.941723
8.195639
7.774830
8.199811
6.207824
8.041859
8.061528
6.582737
6.009936
8.571744
6.640553
6.937981
7.854700
7.504821
6.959438
7.422566
7.669926
6.753802
6.249547
6.724000
7.342696
7.400513
8.336902
8.740425
8.709431
8.505583
10.223985
11.589527
12.498498
15.109777
15.738606
16.918778
17.124414
16.760826
16.077757
16.759634
14.015436
13.281703
13.250709
11.516809
10.388494
8.242726
8.108616
8.427501
6.374717
5.720854
6.722808
6.133914
6.414652
6.135702
5.417466
5.569458
5.835891
##ZVALUE=225
50.314665
54.561496
68.478584
82.052946
89.578629
81.672668
76.141953
56.730509
43.255687
34.418702
27.720928
22.862554
26.383996
25.238991
28.945804
23.784637
19.897819
17.215610
12.661815
8.442998
7.015467
4.690886
4.690886
4.693866
4.918575
4.811883
6.265640
6.561875
7.086992
7.972717
8.168817
8.473992
9.167790
9.949803
9.623766
8.929968
10.746717
9.516478
10.427833
9.462833
9.134412
9.322762
9.608865
8.619428
8.586645
8.885860
8.066893
8.709431
9.216666
9.028912
7.488728
8.215904
7.249713
8.955598
7.529855
9.170771
8.479953
7.921457
9.285808
8.477569
7.340908
8.242726
8.127689
8.995533
8.921623
8.575916
8.885860
10.378957
10.466576
11.306405
10.612607
14.673471
14.931560
16.097426
16.017556
17.115474
16.287565
15.540719
13.849735
13.862848
13.379455
12.344718
11.309981
11.126995
9.317994
9.555817
8.355975
7.588863
7.994771
7.819533
7.340908
7.410645
7.303953
8.491874
7.129908
8.369684
##ZVALUE=230
50.000548
52.816868
80.705881
124.922991
158.158541
192.361474
203.588009
197.973847
172.696710
146.676898
104.887486
73.908567
49.791932
43.938756
47.565699
48.887730
52.430630
47.550797
42.083859
35.264492
29.657483
17.964840
12.654662
7.915497
6.002784
5.875826
6.205440
7.346869
7.108450
7.963777
8.977652
9.056926
8.879900
9.711981
10.651946
9.011626
10.069609
10.049939
9.097457
10.005832
9.609461
10.367632
9.943843
9.872913
9.272695
9.124875
9.276867
8.842945
8.280873
10.004640
10.099411
9.065866
8.211732
8.287430
9.418726
9.754896
9.230971
9.693503
9.615421
9.721518
9.907484
8.986592
10.138750
10.040998
10.706782
11.458993
10.104775
11.152625
11.923909
12.226701
13.861656
15.410781
16.197562
17.479658
18.510818
17.137527
17.789602
18.678904
15.269518
14.687777
15.149713
14.141798
13.195872
12.779832
11.350513
10.612607
10.474920
10.221601
8.693933
9.890795
8.801818
8.546710
9.408593
8.999705
8.254647
8.415580
##ZVALUE=235
16.287565
19.998550
41.363835
93.452930
146.758556
229.698420
294.624567
364.765525
391.324759
382.445455
332.589746
276.906490
185.216665
131.926537
94.162822
76.582432
70.341825
78.828931
82.012415
79.733729
77.505708
64.560771
50.850511
36.660433
24.552941
13.958812
12.516975
8.341670
6.641746
7.583499
8.039474
8.121729
8.282661
8.901954
9.178519
9.339452
9.308457
8.938909
9.498596
8.779764
8.669496
9.513497
9.974837
9.449720
9.066463
9.623766
10.002851
9.287596
10.363460
9.270906
9.586811
9.853840
10.233521
9.337664
9.500980
10.195971
10.954738
9.609461
9.582639
10.194778
9.580851
11.095405
10.896921
10.969639
10.359883
11.467934
11.625886
12.846589
14.409423
13.957620
16.307831
17.157793
19.026995
19.560456
20.175576
20.664930
19.133687
19.247532
19.678473
18.016696
17.503500
16.001463
14.707446
14.149547
14.176965
14.364719
14.124513
13.157725
12.222528
12.743473
12.697577
12.346506
13.305545
12.348890
12.243986
12.371540
##ZVALUE=240
1.895428
2.223849
7.982850
19.404888
58.402419
106.528997
205.380917
309.996605
447.302461
534.351468
600.948930
591.068864
547.636747
435.791612
335.137844
209.383965
148.366690
104.211569
90.771914
96.206665
106.383562
112.976432
109.691620
99.061728
80.440640
65.550804
45.114756
31.003952
19.616485
14.365911
10.844469
9.224415
8.695722
8.010864
9.271502
9.087920
8.882880
8.881688
8.578897
8.706450
8.752942
9.048581
8.794665
8.992553
8.467436
8.250475
8.155704
9.577870
9.774566
8.962750
9.605885
8.890629
10.450482
8.881688
9.702444
10.489821
10.593534
10.357499
10.048747
10.261536
11.404753
10.702610
11.427999
10.870695
12.498498
10.888577
12.000799
14.565587
15.170574
16.567707
15.578866
17.688870
19.821525
19.923449
21.510720
21.967888
20.692945
20.419955
19.208789
19.704700
17.848611
16.117692
16.650558
16.865730
15.283823
15.898943
14.724731
15.977621
14.553666
15.938878
14.754534
14.703870
14.778972
15.386939
13.582706
13.419986
##ZVALUE=245
1.745820
1.767874
1.733899
1.777411
4.514456
13.882518
47.961473
99.567771
217.460990
329.741836
509.775877
619.145632
711.598992
734.238625
701.036453
577.729940
467.527509
319.380760
220.314860
127.998590
102.965832
97.215772
110.512972
122.122765
125.420690
122.832656
106.017590
94.701648
70.453882
51.603913
37.745833
23.352504
15.445948
10.837913
9.475946
8.783937
9.004474
8.870959
8.938909
8.775592
8.166432
7.663965
8.786917
9.128451
8.472800
8.900762
8.353591
8.845925
8.092523
8.639693
8.471608
7.797480
9.273887
8.768439
8.229613
9.601712
8.202791
8.119941
8.209944
8.900762
8.549690
8.361936
10.040998
9.833574
9.965897
10.899901
11.713505
11.056662
12.593865
13.687611
14.368892
14.860630
17.471910
17.629862
17.599463
18.038750
19.488931
19.091964
18.369555
17.910600
16.666651
15.843511
15.047789
14.722943
14.765859
13.687611
13.575554
14.523864
14.393926
13.518929
14.728904
13.036728
13.094544
13.459921
13.427734
13.340712
##ZVALUE=250
1.345873
1.243949
1.242757
1.552701
1.564622
1.969934
2.768636
7.897615
37.055612
81.664920
194.628835
319.616795
462.382436
657.292008
766.502023
850.484967
848.099589
741.188526
625.409484
436.026454
291.416645
193.781853
114.563704
94.251633
101.031661
113.558769
129.565597
133.038759
130.306482
119.077563
101.175904
75.804591
60.541630
35.565495
23.462772
15.132427
11.289716
9.582639
8.952618
8.574724
8.450747
8.923411
9.785891
9.167790
8.904934
9.018779
8.915663
8.789897
8.633733
8.628964
8.348823
8.031726
7.677674
8.483529
8.100867
8.229613
8.453727
8.067489
7.914901
8.643866
7.975698
7.982850
8.701682
8.845925
8.405447
8.395910
9.888411
10.020733
10.626912
11.639595
12.574792
13.537407
14.730692
15.029907
14.753938
15.759468
15.414953
14.797449
14.478564
15.852451
14.923811
13.862848
12.680888
12.294650
13.264418
13.692975
12.616515
12.621880
13.375878
12.771487
12.928843
12.522936
11.699796
12.811422
12.556911
12.697577
##ZVALUE=255
1.452565
1.272559
1.107454
1.294613
1.382828
1.240969
1.571774
1.856685
2.143979
4.686713
25.863647
63.454509
128.585696
273.780823
425.129533
654.928684
811.546445
945.401788
976.051688
917.242765
784.820914
623.721480
394.369960
253.982544
132.592916
96.836686
85.371733
97.948909
120.079517
130.970478
138.738751
137.683749
128.029585
102.775693
83.035827
56.067705
41.183829
24.122596
16.684532
11.965632
10.366440
8.862615
9.910464
8.770823
8.803606
9.208918
9.300709
9.025931
8.576512
8.545518
8.817911
8.132458
7.871985
7.822514
8.600950
7.736683
7.583499
7.593632
8.382797
8.275509
7.673502
7.425547
8.391738
7.961988
7.843971
7.805824
8.140802
8.763671
9.285808
10.578632
11.426806
11.870861
12.897849
12.441874
12.949705
13.724566
13.432503
13.054609
13.517737
13.080835
11.866689
11.868477
10.944605
11.378527
11.362433
10.978580
11.326671
11.407733
11.268854
11.501908
11.524558
10.937452
11.182427
11.080503
10.828972
12.244582
##ZVALUE=260
1.307726
1.230836
1.326799
1.273751
1.501441
1.622438
1.306534
1.312494
1.782775
1.659989
1.971722
2.759695
9.260774
39.515495
89.705586
223.510861
367.790461
599.272847
779.801607
988.786817
1015.935540
1015.935540
951.987505
781.325698
522.649884
353.552699
203.631520
126.038790
84.057450
82.738996
97.961426
124.199986
138.236880
146.002769
143.311620
128.233433
110.140443
83.167553
61.744452
41.140914
27.940869
17.757416
13.775826
10.911822
10.326505
9.979606
9.933710
10.083914
9.441972
9.368658
9.141564
9.004474
8.709431
8.387566
8.375645
8.580685
8.075833
8.048415
7.876754
7.398725
7.484555
7.228851
7.497668
7.725954
7.625818
8.522868
8.416772
8.507967
9.363890
9.093881
9.713769
10.440946
11.090636
11.141896
11.470914
12.193918
12.567639
11.734962
11.770725
11.688471
10.684729
11.198521
10.085702
10.674000
10.712743
11.013746
10.009408
10.482669
10.473728
11.078715
10.108948
10.450482
10.449886
11.217594
10.703802
10.602474
##ZVALUE=265
1.064539
1.130700
1.461506
0.942945
1.289845
1.202822
1.180768
1.433492
1.308918
1.439452
1.706481
1.631975
1.739860
2.450943
5.745888
28.421879
70.116520
179.359913
313.007832
564.327836
784.829855
972.599983
1015.861630
1015.861630
1015.861630
934.675932
683.616996
482.752919
269.656777
163.971782
91.047883
73.597431
79.645514
107.522607
129.249692
148.129463
152.649879
145.686865
132.032633
107.158422
86.461902
58.586001
42.178631
26.186705
17.998815
13.803840
11.330843
10.788441
9.767413
9.846687
9.465814
9.069443
8.935928
9.148717
8.735657
8.169413
8.450747
7.827878
7.726550
7.699728
7.278919
7.338524
7.654428
8.097887
7.511973
7.713437
7.784963
7.693768
8.567572
8.559823
9.330511
10.250807
10.168552
11.126995
11.132956
10.784864
10.637641
10.921955
9.954572
10.072589
10.510683
10.097623
9.689927
9.360909
9.845495
9.661913
9.096861
9.948611
9.964705
9.809732
9.636879
9.622574
9.624958
9.161830
9.483695
9.955764
##ZVALUE=270
1.011491
1.018643
0.979900
1.101494
0.897646
1.032948
1.308918
1.170635
1.427531
1.372695
1.301765
1.388788
1.482964
1.441836
1.588464
2.316833
2.663732
12.304783
37.517548
121.984482
242.930651
418.737531
726.884007
960.348845
1015.861630
1015.861630
1015.861630
1015.861630
868.726969
650.833845
444.437861
234.300494
133.833885
71.455836
64.476728
82.913637
103.756785
133.917928
146.534443
153.001547
149.701834
134.534836
111.469626
82.786679
64.020753
38.774610
27.870536
18.100739
13.502836
11.440516
9.805560
9.410977
9.069443
9.698868
8.603930
8.703470
8.235574
8.560419
8.164644
7.921457
8.028746
7.757545
7.687807
7.767677
7.442832
7.556677
7.663965
7.736683
8.012652
8.397698
9.502769
9.351969
9.860992
10.113716
10.232925
10.428429
10.287762
10.234714
10.182858
9.760857
9.440780
9.540915
9.584427
9.481907
9.051561
9.487867
9.201765
9.066463
9.176731
9.499788
9.356737
9.904504
8.882880
9.220839
8.977652
8.835793
##ZVALUE=275
1.025796
0.894666
0.906587
0.943542
1.076460
0.996590
1.080632
1.164675
1.138449
1.335740
1.249909
1.331568
1.278520
1.629591
1.399517
1.389980
1.664758
1.727939
2.067685
6.221533
22.955537
62.932968
189.253688
352.821946
644.726753
870.985985
1015.861630
1015.861630
1015.861630
1015.861630
1014.689803
818.921924
582.156777
312.542915
177.731514
83.017945
55.266619
58.928728
77.097416
103.952885
126.508474
145.502687
150.932670
144.246817
132.175684
105.055571
85.721612
59.708953
43.233633
26.693940
18.512607
12.024641
10.142922
8.582473
8.589625
8.029938
7.730722
8.051991
7.671714
7.768869
7.850528
7.864833
7.660985
7.640719
7.602572
7.356405
7.759929
7.714629
7.680655
8.556843
8.340478
8.990765
9.438992
10.156631
10.146499
10.248423
9.845495
9.572506
9.264946
9.432435
9.349585
9.154677
8.875728
8.662939
8.511543
8.998513
8.337498
8.291602
8.627772
8.311868
8.197427
8.472800
8.941889
8.385777
8.367896
9.032488
##ZVALUE=280
1.015663
0.966787
0.888705
1.000762
1.052618
1.046658
0.885725
1.200438
1.071692
1.037717
1.067519
1.212955
1.298785
1.351833
1.330972
1.414418
1.377463
1.508594
1.705885
1.911521
1.972914
2.389550
14.377832
49.136877
152.227879
281.392932
516.737700
743.298531
1013.303995
1015.861630
1015.861630
1015.861630
1015.861630
924.964547
683.510900
389.927626
233.410001
103.905797
57.323575
43.564439
54.214597
78.137517
101.152658
126.124620
139.397979
146.771669
140.918493
127.885938
106.794834
79.059601
59.923530
38.289428
25.838614
15.903711
11.527538
8.146763
7.965565
7.599592
7.328987
7.473826
7.503629
7.453561
7.657409
7.122755
7.261634
7.184744
7.697940
7.759929
8.248687
8.883476
8.518696
8.711815
9.095669
9.549856
9.859800
9.792447
9.475946
8.875728
9.047985
9.108782
8.826852
9.003878
8.430481
8.880496
8.927584
8.187890
8.223653
8.617640
8.715987
8.346438
8.032918
8.178949
7.988811
8.404851
8.438826
8.032918
##ZVALUE=285
1.012683
0.972748
0.966787
1.102686
0.823736
0.843406
0.978708
0.906587
0.992417
0.994802
0.955462
0.995994
1.030564
0.988841
1.234412
1.211762
1.470447
1.217723
1.375675
1.496673
1.572967
1.698732
1.902580
2.388954
6.906986
24.776459
85.593462
179.039836
375.611782
592.080951
833.636522
1015.871763
1015.871763
1015.871763
1015.871763
1015.871763
847.943425
529.618859
328.968763
155.794621
79.612732
37.288666
35.505891
50.891638
69.762468
99.210739
116.890669
134.286880
140.363574
136.400461
126.001835
103.735924
83.831549
57.751536
40.733814
23.546815
16.155839
10.476708
8.158684
7.327795
7.446408
6.885529
7.125735
6.868839
6.996989
7.132888
7.453561
7.120967
7.584691
7.883906
7.999539
8.791685
9.002686
8.771420
9.229779
9.064674
9.270906
8.695722
8.373857
8.947849
8.373857
8.060932
8.672476
8.451939
8.242726
8.400679
8.315444
8.216500
8.308887
8.382797
7.630587
7.813573
7.682443
7.573962
7.773638
8.065701
##ZVALUE=290
0.915527
0.781417
0.618696
0.763535
0.691414
0.887513
0.916719
0.960827
0.915527
0.917912
1.016855
0.866652
0.930429
1.108646
1.130700
1.102686
1.274943
1.008511
1.327991
1.479983
1.367927
1.328588
1.498461
1.628995
1.878738
2.172589
3.283620
9.984970
49.346685
113.243461
264.101624
457.202792
696.637034
1011.210680
1015.861630
1015.861630
1015.861630
1015.861630
988.417864
669.438839
444.461703
222.250819
114.064813
43.922663
27.725697
33.438802
46.254992
68.571568
89.096427
111.671686
125.438571
137.336850
134.271979
120.018721
102.211833
76.397657
57.079792
35.696626
24.850965
15.069842
10.917783
7.926822
7.339716
6.655455
6.332994
6.874800
6.908774
6.759763
7.172823
7.535815
7.818937
8.201599
8.431673
8.646846
8.962750
8.549690
8.504987
8.737445
8.198619
8.281469
8.379817
8.211732
8.527637
8.230805
8.032918
8.008480
8.543730
8.507967
8.124709
8.413792
8.089542
8.043647
7.491708
8.014441
8.164644
7.916689
##ZVALUE=295
0.687838
0.775456
0.775456
0.925660
0.805855
0.835657
0.995994
0.934601
0.883937
0.906587
0.860691
0.694990
1.042485
0.932813
0.971556
0.857711
1.004934
1.169443
1.021624
1.215935
1.223683
1.104474
1.447797
1.447797
1.683831
1.694560
1.853704
2.048612
2.237558
4.400611
16.287565
70.577860
160.274506
371.148586
593.571663
938.323736
1015.904546
1015.904546
1015.904546
1015.904546
1015.904546
814.214945
570.186973
299.628973
162.461996
59.617758
29.554963
21.427870
27.446747
44.302940
59.512854
85.545778
103.929639
121.878982
129.493475
127.382874
115.925670
95.439553
77.388883
54.405928
38.922429
23.564696
15.985966
9.891987
7.932782
6.545782
6.864667
7.031560
6.985664
7.498860
7.660985
7.779598
8.462667
8.501410
8.430481
8.443594
8.567572
8.811951
8.183718
8.379817
8.183718
8.007884
8.003712
8.215904
8.157492
8.361936
8.301735
8.423924
8.079410
7.881522
7.746816
7.623434
7.792711
7.955432
8.054972
7.835627
##ZVALUE=300
0.694990
0.632405
0.795722
0.799894
0.799894
0.725985
0.742674
0.837445
0.706911
0.787973
0.856519
0.722408
0.921488
0.900626
0.831485
0.772476
1.051426
1.065731
1.015663
1.151562
0.965595
0.954866
1.096725
1.192689
1.330972
1.248717
1.360774
1.727939
1.828671
1.964569
2.050996
2.596974
10.380745
36.846995
124.228597
242.016912
492.362976
740.620494
1015.861630
1015.861630
1015.861630
1015.861630
1015.861630
999.631882
679.640770
441.197753
221.713781
116.950870
41.275620
19.603968
17.987490
24.896860
38.816929
54.773688
77.733994
96.289515
114.000440
121.672750
120.374560
112.790465
94.229579
77.156425
54.594874
39.301515
24.231672
17.110705
10.730624
8.483529
7.344484
7.260442
7.443428
7.697940
7.641912
8.229613
8.111000
7.916689
8.382797
8.169413
7.794499
7.850528
8.145571
8.552670
7.775426
8.068681
8.243918
8.365512
7.881522
8.071661
7.777810
7.902980
8.302927
7.847548
7.938743
7.858872
7.778406
7.610917
##ZVALUE=305
0.521541
0.606775
0.612736
0.722408
0.678897
0.771880
0.644922
0.731945
0.667572
0.651479
0.711679
0.643730
0.849962
0.645518
0.774860
0.685453
0.823736
0.926852
0.934601
1.049638
1.000762
1.017451
1.089573
1.061559
1.195669
1.303554
1.456738
1.416802
1.487732
1.606941
1.766682
1.951456
1.957417
2.530813
5.075932
19.483566
80.009699
175.110698
389.665961
605.612993
941.902995
1015.861630
1015.861630
1015.861630
1015.861630
1015.861630
810.355544
563.770533
298.910737
165.746808
63.422918
28.063655
13.148785
15.527606
23.950934
35.260916
54.996610
71.075559
94.143748
105.473995
115.911961
116.584897
105.241537
93.400478
72.049499
54.022670
36.555529
25.150776
15.272498
10.706782
8.590817
7.835627
7.703900
7.796884
7.834435
7.831454
7.768869
7.830858
8.007884
7.916689
8.197427
7.923841
8.234978
8.506775
8.396506
8.231997
7.846951
7.987618
7.936954
8.450747
7.954836
7.813573
7.501841
7.765889
7.815957
7.506609
##ZVALUE=310
0.720620
0.724792
0.720620
0.744462
0.746846
0.686646
0.785589
0.819564
0.863671
0.820756
0.786781
0.852942
0.744462
0.933409
1.020432
0.884533
0.786781
1.005530
0.855923
1.113415
0.903606
0.892878
1.113415
1.150966
0.909567
1.307726
1.252890
1.251698
1.250505
1.326799
1.413822
1.537800
1.463890
1.693964
1.953840
2.001524
2.410412
10.080934
35.013556
119.513869
235.179663
488.768816
736.020803
1015.926600
1015.926600
1015.926600
1015.926600
1015.926600
1011.663675
699.607730
464.998484
231.525898
122.223496
42.835474
18.056631
11.817813
13.965964
21.401644
31.032562
48.548579
64.301491
85.395575
97.506642
109.055638
110.293627
102.188587
90.422630
71.823597
54.639578
35.645962
26.278496
17.266870
12.649894
9.726882
8.655787
8.049607
7.942915
7.903576
7.862449
7.836819
7.798672
8.254647
8.103848
8.135438
8.288622
8.208752
8.388758
8.231997
8.269548
8.432865
8.049607
7.947683
7.677674
8.071661
7.871985
7.789731
##ZVALUE=315
0.635982
0.671744
0.609756
0.548959
0.708699
0.606775
0.626445
0.764728
0.741482
0.749826
0.658631
0.669956
0.544786
0.732541
0.561476
0.718832
0.827909
0.870824
0.758767
0.789762
0.776649
0.786781
0.758767
0.924468
0.964999
0.892878
1.004934
1.083612
0.999570
0.997782
1.109838
1.239777
1.224875
1.389980
1.342893
1.422763
1.757741
1.987815
2.067685
4.721880
17.347932
74.535608
164.949894
371.947885
607.420802
972.983837
1015.856862
1015.856862
1015.856862
1015.856862
1015.856862
846.172571
595.234632
317.215919
171.472430
61.494708
25.042892
10.969639
10.162592
13.441443
18.695593
30.719638
42.023659
60.849786
77.080727
94.216466
103.155971
103.653669
98.562837
83.794594
69.276690
50.991774
38.330555
23.939610
17.206669
11.117458
9.485483
8.497834
7.928610
7.927418
7.748604
7.889867
8.033514
8.114576
8.084774
8.241534
8.092523
8.422732
8.151531
8.073449
7.835627
7.860661
7.824898
7.895827
7.941723
7.898808
##ZVALUE=320
0.489950
0.455976
0.531673
0.504851
0.551939
0.638962
0.618696
0.545979
0.597835
0.544786
0.544786
0.516772
0.664592
0.497699
0.564456
0.434518
0.773668
0.585914
0.434518
0.598431
0.509620
0.865459
0.846982
0.628829
0.744462
0.786781
0.931621
0.791550
0.889897
0.914931
1.081824
1.115799
1.125932
1.074672
1.321435
1.259446
1.285672
1.480579
1.569986
1.852512
1.781583
2.524853
7.862449
44.746995
110.250711
280.053616
469.387770
788.477659
1010.285616
1015.780568
1015.780568
1015.780568
1015.780568
985.778570
738.347769
410.746932
234.805942
98.710656
43.096542
13.472438
8.651614
9.405613
11.254549
17.706752
25.265813
41.721463
54.024458
73.222518
87.062716
97.734928
99.642873
92.398524
83.053708
65.067410
50.610900
34.073591
25.070906
16.191602
12.411475
9.252429
8.663535
8.042455
7.742643
8.115768
7.915497
8.073449
7.908940
8.136630
7.713437
7.753968
7.865429
7.919669
8.061528
7.401705
7.585883
7.474422
##ZVALUE=325
0.582933
0.577569
0.560880
0.626445
0.639558
0.663996
0.660419
0.765920
0.679493
0.597835
0.547767
0.646710
0.693798
0.682473
0.745654
0.504851
0.554919
0.712872
0.716448
0.717640
0.775456
0.845790
0.740886
0.716448
0.855923
0.831485
0.962615
0.888705
1.070499
0.870824
0.797510
0.773668
0.989437
1.080632
1.062751
1.002550
1.304746
1.234412
1.426935
1.498461
1.610518
1.793504
1.904964
2.173781
4.072785
25.722980
70.893764
196.996927
351.691842
646.981001
906.455517
1015.861630
1015.861630
1015.861630
1015.861630
1015.861630
830.302835
504.619479
312.608480
138.665438
64.608455
19.333959
9.676814
8.199811
8.738637
11.588931
16.349554
26.787519
38.184524
55.551529
70.275664
84.425807
91.722608
93.087554
87.283850
74.844956
61.768889
45.511723
34.130812
22.286773
16.156435
11.335611
9.450912
8.233786
8.051991
8.192658
7.724762
7.753968
7.763505
7.871985
7.705688
7.880926
7.853508
7.926822
7.900596
7.586479
##ZVALUE=330
0.566840
0.517964
0.559688
0.520945
0.654459
0.530481
0.490546
0.612736
0.475645
0.654459
0.563860
0.597835
0.572801
0.539422
0.642538
0.695586
0.576973
0.696778
0.527501
0.653863
0.724792
0.538826
0.727773
0.702739
0.691414
0.808835
0.776649
0.835657
0.726581
0.897646
0.889897
1.041889
0.951886
0.940561
1.055598
1.116991
1.128912
1.122952
1.062751
1.106858
1.317859
1.457930
1.466870
1.683831
1.789927
1.983643
2.795458
8.716583
44.343472
111.063719
277.201533
465.016961
792.160630
1014.201641
1015.861630
1015.861630
1015.861630
1015.861630
930.846930
680.373907
377.998948
215.451717
87.285638
38.005710
11.638999
8.169413
7.985830
8.491874
11.559725
16.290545
26.412606
36.358833
52.112937
64.888597
79.719424
85.716844
87.556839
82.610846
70.515871
58.770776
42.061806
32.167435
22.185445
17.012954
12.105703
9.848475
8.479953
8.085966
7.883906
7.760525
7.629991
7.491708
7.263422
7.405877
7.531643
7.311702
##ZVALUE=335
0.427961
0.544786
0.545979
0.529885
0.425577
0.494719
0.703931
0.483990
0.467896
0.630617
0.554919
0.442863
0.566840
0.529885
0.568628
0.598431
0.642538
0.644922
0.532866
0.568628
0.732541
0.703931
0.773668
0.683665
0.854731
0.800490
0.764728
0.693798
0.663996
0.865459
0.713468
0.796914
0.989437
0.887513
0.827909
0.918508
0.985861
1.144409
1.130700
1.176596
1.377463
1.350641
1.302958
1.335740
1.417994
1.515746
1.647472
1.916885
2.108812
5.160570
18.967986
78.904629
169.512630
379.760861
608.064532
959.970951
1015.861630
1015.861630
1015.861630
1015.861630
1015.861630
742.969513
504.528880
261.375904
135.694742
45.623779
18.543601
8.811951
7.801652
7.726550
8.427501
11.232495
15.319586
24.818778
34.657717
49.696565
61.326623
73.690414
79.463720
81.383586
76.682568
66.195726
55.846572
41.734576
32.620430
22.527575
16.727448
11.802912
9.574890
8.195639
7.679462
7.329583
7.336736
7.551908
7.273555
7.250905
##ZVALUE=340
0.510812
0.447631
0.621676
0.537634
0.722408
0.478625
0.467896
0.604987
0.606775
0.479817
0.431538
0.642538
0.722408
0.620484
0.558496
0.651479
0.528693
0.543594
0.550747
0.659823
0.594854
0.726581
0.722408
0.627637
0.716448
0.740886
0.804663
0.775456
0.587702
0.817776
0.852942
0.780821
0.842810
0.814795
0.800490
0.758767
0.906587
0.869632
0.974536
0.866652
0.978708
1.090765
1.271963
1.104474
1.245737
1.396537
1.499653
1.576543
1.652837
1.717806
1.787543
2.412796
12.251735
40.472746
132.419467
265.194774
541.683435
781.900883
1015.861630
1015.861630
1015.861630
1015.861630
1015.861630
914.322734
577.214956
360.578895
165.701509
77.470541
22.824407
9.923577
7.713437
7.466674
7.947683
8.358955
10.686517
14.551878
22.578835
32.281876
46.404600
57.676435
70.284605
75.430870
76.759458
73.133707
64.894557
54.309964
41.280985
32.066703
21.887422
16.061664
11.567473
9.111762
7.874966
7.307529
7.055998
6.859899
##ZVALUE=345
0.577569
0.656843
0.628829
0.540614
0.587702
0.633597
0.400543
0.524521
0.482798
0.341535
0.578761
0.459552
0.567436
0.595450
0.513792
0.610948
0.538826
0.560880
0.604987
0.615716
0.517964
0.669956
0.611544
0.711679
0.439882
0.580549
0.587702
0.490546
0.685453
0.892878
0.760555
0.567436
0.700951
0.808835
0.733733
0.777841
0.853539
0.862479
0.779629
0.762939
0.793934
0.829697
1.055598
1.077652
0.988841
1.091957
1.154542
1.132488
1.122952
1.319647
1.431704
1.555681
1.718998
1.950860
4.230738
26.481748
74.921846
203.937888
365.826488
661.450624
908.703804
1015.861630
1015.861630
1015.861630
1015.861630
974.511504
725.852847
430.073738
241.231918
95.683932
42.094588
13.934970
8.399487
7.499456
7.261634
7.142425
7.913709
9.910464
13.483763
20.953417
29.591918
41.604638
52.089691
62.311888
67.513585
70.953965
68.269968
60.306787
52.334666
40.497780
31.526685
21.219850
16.122460
11.570454
9.302497
7.728934
##ZVALUE=350
0.427961
0.439882
0.522733
0.505447
0.659823
0.455976
0.557899
0.757575
0.481606
0.491738
0.479817
0.625849
0.484586
0.489950
0.466704
0.513792
0.562668
0.576973
0.485778
0.682473
0.570416
0.633597
0.431538
0.550747
0.603795
0.826716
0.649691
0.676513
0.758767
0.727773
0.856519
0.728965
0.642538
0.799894
0.800490
0.693798
0.700951
0.646710
0.792742
0.794530
0.859499
0.829697
1.039505
0.929832
1.030564
0.946522
1.112819
1.032948
1.120567
1.074672
1.312494
1.453757
1.508594
1.569986
1.657605
1.923442
2.851486
13.099909
42.331815
136.494637
260.466933
521.399975
757.194757
1015.857458
1015.857458
1015.857458
1015.857458
1015.857458
830.690861
497.700572
306.296945
141.567588
64.711571
18.753409
9.022951
7.306933
6.985664
6.533861
6.543994
7.351637
8.985996
13.660789
18.412471
26.965737
34.528971
46.343803
55.214763
62.150955
64.010620
63.116550
58.087707
47.685504
39.241910
28.626919
21.162629
15.124679
##ZVALUE=355
0.608563
0.555515
0.575781
0.542998
0.507832
0.584722
0.653863
0.589490
0.676513
0.592470
0.677705
0.573993
0.531673
0.535846
0.535846
0.465512
0.354648
0.612736
0.621676
0.730753
0.599623
0.303984
0.663996
0.549555
0.677705
0.633597
0.590682
0.723600
0.620484
0.741482
0.669956
0.747442
0.735521
0.699759
0.830889
0.841618
0.812411
0.720620
0.720620
0.856519
0.879765
0.778437
0.973940
0.934601
0.914931
1.025796
0.992417
1.012683
1.033545
1.015663
1.121759
1.029968
1.263618
1.350641
1.363754
1.458526
1.664758
1.845956
2.188683
4.226565
26.155710
73.203444
199.871659
358.376503
657.410026
904.544592
1015.861630
1015.861630
1015.861630
1015.861630
867.922902
633.271933
358.596444
197.646618
74.852705
31.566620
10.248423
7.443428
6.425977
6.204844
6.441474
6.111860
6.938577
8.073449
11.330843
15.473962
23.427606
30.521750
41.407943
49.006939
55.778623
58.126450
57.594776
53.030849
44.563413
37.925839
##ZVALUE=360
0.554919
0.507832
0.574589
0.580549
0.585914
0.641942
0.526905
0.557899
0.691414
0.529885
0.516772
0.637770
0.700951
0.709891
0.667572
0.655651
0.572801
0.679493
0.541806
0.668764
0.626445
0.637770
0.721812
0.653863
0.545979
0.652671
0.607967
0.689626
0.701547
0.755787
0.555515
0.732541
0.584722
0.837445
0.804663
0.723600
0.731945
0.882745
0.700951
0.767708
0.892878
0.784993
0.800490
0.818968
0.919700
0.938773
0.913739
1.016855
1.038909
1.019835
1.114607
0.979900
1.151562
1.166463
1.310706
1.304746
1.303554
1.552701
1.608729
1.841784
2.154708
3.108978
9.708405
46.725869
115.800500
288.605690
480.935574
781.368017
1005.747914
1015.861630
1015.861630
1015.861630
1011.173725
711.258650
474.800467
233.798623
121.893883
43.762922
16.621947
7.228851
6.199479
6.098747
5.869865
5.926490
6.089807
6.042719
7.255673
9.510517
12.384653
18.791556
25.490522
34.986734
41.855574
49.933791
52.625537
53.056479
##ZVALUE=365
0.613928
0.428557
0.616908
0.398755
0.445843
0.365973
0.502467
0.608563
0.688434
0.518560
0.602603
0.431538
0.566840
0.466704
0.523925
0.535846
0.484586
0.507832
0.516772
0.565648
0.688434
0.686646
0.653863
0.594854
0.609756
0.696778
0.653863
0.621676
0.764728
0.701547
0.741482
0.704527
0.757575
0.793934
0.697970
0.766516
0.811815
0.716448
0.712872
0.758767
0.838637
0.738502
0.649691
0.883937
0.886917
0.843406
0.901818
0.876784
0.765920
0.937581
1.049638
1.043677
1.038909
1.162887
1.144409
1.110435
1.230836
1.150966
1.338720
1.705885
1.448989
1.931787
1.972914
2.317429
4.401803
25.491714
71.465969
191.009641
355.918407
660.238862
894.054770
1015.861630
1015.861630
1015.861630
1015.861630
821.464658
585.010648
323.265791
173.545480
62.015653
24.102926
7.929802
6.121993
5.801916
5.498528
5.409718
5.345941
5.050898
5.158782
5.852580
7.782578
11.176467
14.842749
22.836924
28.901696
37.186742
##ZVALUE=370
0.568628
0.452995
0.380874
0.527501
0.456572
0.446439
0.606775
0.560880
0.549555
0.572801
0.503659
0.720620
0.568628
0.562668
0.565648
0.538826
0.542998
0.638962
0.623465
0.506639
0.498891
0.538826
0.488758
0.619888
0.762939
0.611544
0.655651
0.606775
0.663996
0.571609
0.470877
0.524521
0.519753
0.756979
0.550747
0.616908
0.857711
0.814795
0.729561
0.718832
0.838637
0.832677
0.675917
0.714660
0.800490
0.834465
0.886917
0.740886
0.876784
0.889897
0.802875
0.897646
0.838637
0.973940
1.091957
1.005530
1.125932
1.119971
1.030564
1.346469
1.278520
1.336932
1.624823
1.562834
1.839995
1.926422
2.810955
13.835430
44.604540
141.682625
272.610784
526.735783
769.037008
1015.861630
1015.861630
1015.861630
1015.861630
925.158858
690.673590
396.674871
226.620436
89.306831
39.279461
11.455417
6.399751
5.383492
5.170703
4.785657
4.917979
4.769564
4.730821
4.648566
5.209446
6.832480
8.777976
13.466477
##ZVALUE=375
0.462532
0.393987
0.517964
0.549555
0.529885
0.555515
0.390410
0.591874
0.586510
0.439882
0.520945
0.443459
0.715852
0.429749
0.709891
0.558496
0.568628
0.552535
0.555515
0.598431
0.495911
0.388622
0.639558
0.516772
0.508428
0.523925
0.468493
0.565648
0.480413
0.534654
0.646710
0.544786
0.602603
0.684857
0.651479
0.583529
0.617504
0.674725
0.824928
0.697970
0.748634
0.733733
0.579953
0.645518
0.676513
0.617504
0.702739
0.760555
0.835657
0.728965
0.729561
0.843406
0.702739
0.671744
0.794530
0.888705
0.813603
0.840425
0.939965
1.059771
0.993609
1.014471
1.179576
1.209974
1.362562
1.565814
1.558661
1.851916
2.114773
6.494522
23.555756
86.801648
189.167857
420.913696
647.356510
964.476466
1015.861630
1015.861630
1015.861630
1012.711525
816.656947
505.116582
313.641429
144.194961
70.915818
22.107959
8.983612
5.456805
4.951954
4.553795
4.424453
4.215837
4.343987
4.251599
4.206896
4.657507
##ZVALUE=380
0.508428
0.522733
0.481606
0.628829
0.449419
0.458956
0.507832
0.420809
0.368953
0.425577
0.434518
0.508428
0.565648
0.483990
0.587702
0.502467
0.470877
0.595450
0.375509
0.560880
0.575781
0.640750
0.380874
0.486970
0.623465
0.484586
0.628829
0.603795
0.616908
0.788569
0.537634
0.591874
0.605583
0.534654
0.461936
0.447631
0.565648
0.477433
0.596642
0.530481
0.545979
0.613928
0.642538
0.777841
0.830889
0.714660
0.569820
0.823736
0.618696
0.601411
0.736713
0.773668
0.608563
0.877976
0.918508
0.813603
0.840425
0.898838
0.764728
0.890493
0.829697
0.918508
0.987649
1.057982
1.010895
1.254678
1.196861
1.321435
1.706481
1.844764
2.136827
3.558397
12.590885
61.136484
142.783523
337.374806
543.092489
847.002864
1015.854478
1015.854478
1015.854478
1015.854478
911.550522
635.926723
427.711010
210.329890
106.398463
36.035776
14.414787
5.677938
4.813671
4.416704
4.306436
4.152656
4.001856
3.956556
##ZVALUE=385
0.487566
0.486970
0.444651
0.481606
0.555515
0.358820
0.311732
0.431538
0.499487
0.495911
0.428557
0.437498
0.428557
0.422597
0.478625
0.478625
0.569820
0.567436
0.609756
0.556707
0.552535
0.432730
0.518560
0.493526
0.573993
0.457764
0.433922
0.582933
0.472665
0.525713
0.542998
0.659823
0.656843
0.607967
0.576973
0.609756
0.438690
0.488758
0.602603
0.631809
0.611544
0.712872
0.582933
0.642538
0.621676
0.693798
0.701547
0.630617
0.545979
0.658631
0.707507
0.678897
0.739694
0.823736
0.769496
0.759959
0.817776
0.873804
0.824928
0.879765
0.855923
0.980496
0.952482
0.958443
1.188517
1.110435
1.117587
1.269579
1.224875
1.614690
1.628995
1.758933
2.056956
2.336502
6.186962
34.416914
89.921951
232.654810
406.377912
708.753467
945.021510
1015.862823
1015.862823
1015.862823
1015.862823
768.870711
547.599792
297.598839
168.586969
68.227649
26.847720
7.327795
4.819632
3.990531
3.834963
4.045963
##ZVALUE=390
0.382662
0.519753
0.430942
0.346899
0.473857
0.410676
0.317693
0.439882
0.388622
0.426769
0.327826
0.533462
0.329614
0.482798
0.421405
0.386834
0.362992
0.518560
0.561476
0.480413
0.526905
0.519753
0.608563
0.523925
0.445843
0.436902
0.471473
0.555515
0.374913
0.464916
0.473857
0.567436
0.498891
0.656843
0.573993
0.660419
0.710487
0.460744
0.691414
0.552535
0.648499
0.678897
0.595450
0.556707
0.536442
0.604987
0.538826
0.714660
0.555515
0.706911
0.701547
0.619888
0.613928
0.687838
0.921488
0.674725
0.827909
0.915527
0.767708
0.842810
0.898838
0.779629
0.890493
0.974536
0.968575
0.916719
1.002550
1.155734
1.190901
1.332760
1.547933
1.624823
1.528859
1.717806
1.714826
2.000928
3.307462
17.331839
55.494905
174.508691
327.394605
616.085529
837.281942
1015.865803
1015.865803
1015.865803
1015.865803
917.090774
700.154901
424.443483
245.098472
98.506808
43.753982
11.566877
5.358458
4.028678
##ZVALUE=395
0.392795
0.473857
0.429749
0.516772
0.556707
0.516772
0.250936
0.463724
0.524521
0.476837
0.542998
0.579953
0.515580
0.498891
0.330806
0.586510
0.371933
0.380874
0.515580
0.350475
0.542998
0.440478
0.572801
0.459552
0.479817
0.424981
0.610948
0.498891
0.403523
0.512600
0.762939
0.527501
0.721812
0.573993
0.691414
0.686646
0.636578
0.649691
0.774860
0.639558
0.712872
0.616908
0.709891
0.636578
0.622869
0.518560
0.587702
0.655651
0.610948
0.889897
0.663996
0.853539
0.734925
0.506639
0.656843
0.749826
0.747442
0.892878
0.737906
0.927448
0.886917
0.771880
0.778437
0.864863
0.922680
0.913739
0.981688
1.185536
1.299977
1.159906
1.582503
1.551509
1.519918
1.479983
1.570582
1.523495
1.434684
1.789927
2.037883
9.814501
35.964847
126.151443
240.606666
463.512540
684.506893
987.159610
1015.869975
1015.869975
1015.869975
1015.869975
840.868950
520.339608
323.644876
140.613914
66.563487
20.722747
##ZVALUE=400
0.426769
0.416636
0.415444
0.576973
0.338554
0.330806
0.363588
0.371933
0.389814
0.359416
0.516772
0.430942
0.498891
0.621676
0.391603
0.452995
0.472665
0.517964
0.392795
0.370741
0.488758
0.577569
0.454783
0.526905
0.418425
0.518560
0.419617
0.613928
0.639558
0.566840
0.674725
0.557899
0.613928
0.688434
0.573993
0.571609
0.495911
0.503659
0.732541
0.741482
0.585914
0.792742
0.642538
0.585914
0.509620
0.644922
0.545979
0.674725
0.544786
0.685453
0.669956
0.699759
0.625849
0.561476
0.725985
0.737906
0.780821
0.732541
0.789762
0.577569
0.733733
0.600815
0.725985
0.789762
0.941753
0.984669
1.060963
0.948906
1.126528
1.193881
1.235604
1.404881
1.411438
1.344681
1.319647
1.268983
1.378655
1.319647
1.533628
1.613498
1.824498
4.804730
18.416643
74.558854
161.093473
357.085466
566.043854
875.650644
1015.861630
1015.861630
1015.861630
1015.861630
928.051472
641.348958
425.417423
213.249922
##END
