##TITLE=10-2
##FORMAT=SPECTACLE-ASCII V-1.2
##DATA TYPE=ULTRAVIOLET SPECTRUM
##SECOND TYPE=ULTRAVIOLET SPECTRUM
##DATE=04/04/18
##TIME=13:03:10
##SPECTROMETER/DATA SYSTEM=SPECTACLE
##XUNITS=NM EM
##YUNITS=ENERGY
##YFACTOR=1
##FIRSTX=220
##LASTX=450
##NPOINTS=116
##3DDATA=Equidistant
##ZUNITS=NM EX
##FIRSTZ=210
##LASTZ=400
##ZPOINTS=39
##XYDATA=(Y..Y)
##ZVALUE=210
23.545623
22.895932
18.797517
13.932586
12.272596
10.315776
9.741783
10.157824
7.404685
6.746650
5.790591
4.535913
3.875494
4.240870
4.291534
4.348755
4.559755
5.508661
5.509853
5.046725
5.924702
6.363988
6.911755
7.232428
8.870959
9.687543
10.952950
11.253953
10.968447
11.296868
12.319684
14.348626
13.905764
14.539957
15.089512
14.761686
14.939904
13.326406
16.657710
12.813807
15.185475
15.996695
14.441609
14.683604
15.183687
13.954639
14.380813
15.164614
13.601780
14.006495
14.786720
16.644597
15.112758
14.937520
15.011430
15.356541
14.169812
14.127493
14.239550
13.826489
14.016628
14.517903
13.351440
14.045835
13.318658
15.357733
15.559793
17.594695
18.670559
22.194982
25.076866
28.606653
33.121705
35.494566
39.860606
39.755702
40.763617
42.087436
37.173629
37.762523
32.591820
29.962659
26.187897
21.842718
18.761754
17.612576
14.847517
12.438893
13.603568
16.349554
18.846989
26.572943
30.478835
39.840937
47.904849
60.657859
67.847967
80.248713
83.827972
98.662972
98.610520
95.863938
102.211833
98.899603
96.684694
85.129738
83.057880
70.165992
64.583421
53.708553
42.774677
33.137798
28.419495
23.256540
20.293593
20.398498
##ZVALUE=215
77.483654
81.480742
57.515502
45.906901
33.193827
23.773909
16.541481
18.555522
15.848875
15.084743
12.752414
11.665821
9.011626
6.462932
5.682707
5.435944
5.720854
5.064607
5.913973
6.992817
6.364584
6.215572
7.259846
7.671714
8.289814
9.172559
10.109544
11.358857
14.180541
13.606548
13.910532
13.981462
15.466809
15.905499
16.728640
15.268922
17.235875
16.541481
15.394688
16.035438
17.639995
16.266704
16.621947
16.725659
16.230941
17.195940
16.772747
16.506910
16.652942
16.454458
17.709732
17.999411
16.798973
17.585754
18.340945
17.069578
16.554594
17.610788
16.229749
15.576482
16.198754
17.060637
16.012788
16.333461
16.362667
16.135573
16.278625
18.451810
20.348430
22.683740
24.887919
28.064847
32.005906
34.178495
37.539601
39.981604
37.593842
38.264990
36.413670
35.608411
31.353831
28.673410
23.558736
21.661520
19.120574
16.056895
14.129877
14.441609
11.711717
12.903810
12.297630
12.752414
12.547970
14.774799
18.257499
22.429824
32.953620
42.379498
57.335496
67.681670
86.770654
98.894835
118.469000
127.995610
141.128898
147.908926
150.690675
157.248974
146.663785
142.603517
136.380792
122.078657
111.308694
94.437599
77.291727
59.767962
##ZVALUE=220
180.142522
181.861520
177.799463
160.195827
134.332776
96.749663
70.759654
45.732856
35.476685
29.358864
26.655793
25.841594
24.851561
20.167828
16.949773
13.758540
10.831952
7.582903
6.825924
6.402731
6.615520
7.471442
6.972551
7.905960
8.570552
9.344816
10.189414
10.562539
12.163520
12.804866
14.500618
13.990998
14.594793
16.989708
15.336871
16.041994
15.113950
16.932487
17.603636
17.698407
18.529892
19.313693
18.473864
19.922853
19.574761
20.495653
20.100474
21.922588
19.824505
20.242929
19.551516
18.001795
20.210743
20.926595
20.226836
20.307899
19.643903
19.139647
18.780828
17.421842
18.157959
17.798543
18.136501
16.142726
18.497705
19.099712
18.354654
18.688440
21.907687
23.149848
26.417971
28.617978
33.606887
36.213994
40.489435
40.949583
40.686727
39.984584
38.492680
37.166476
33.083558
30.007958
26.531816
23.572445
19.862652
17.184615
15.062690
15.151501
14.722943
13.404489
13.843775
13.892651
13.737679
13.360977
11.693835
13.623834
13.051629
13.499856
14.519691
20.661950
26.357770
40.510893
53.861737
78.683496
94.743967
123.130679
146.784782
178.068876
200.685859
223.983526
233.928561
245.043635
251.109004
243.541598
235.464573
215.546489
##ZVALUE=225
233.363509
236.173868
291.743875
311.563611
311.862826
286.268592
246.552825
170.507431
128.116608
79.492927
58.797598
44.821501
42.880774
39.680600
39.823651
35.910606
29.124618
23.400784
20.108819
12.469888
9.817481
9.526610
7.803440
8.269548
8.996725
9.246469
10.367632
10.825992
12.323856
12.170672
13.560653
13.001561
14.215708
17.111897
16.164780
18.495917
18.580556
19.290447
20.703673
19.464493
20.665526
19.669533
21.244884
21.464825
20.676851
22.163987
20.694733
22.643805
20.707846
21.360517
21.912456
22.339821
21.503568
22.220612
22.532940
20.911694
21.321774
23.404956
20.899773
21.981597
22.763610
21.374822
21.331906
21.988750
23.364425
20.828843
21.442771
21.833777
22.682548
24.968982
28.989911
30.966997
33.988953
35.711527
35.490990
37.081838
34.390688
35.457611
32.749772
30.675530
28.371811
27.086735
23.807883
20.156503
20.461679
17.186999
16.140938
16.068816
15.426874
14.449954
12.805462
14.334917
13.362765
13.465881
13.710856
14.361739
13.990998
13.469458
13.279915
12.726784
14.116764
12.985468
14.603734
17.680526
27.694702
36.035776
55.730939
83.615780
106.959939
145.853758
177.297592
220.922828
259.817839
308.274627
338.406563
370.889902
##ZVALUE=230
152.343512
169.937611
265.646577
361.723900
450.483561
543.314815
560.625792
519.456863
450.339913
337.510705
240.807533
144.966841
99.066496
71.217418
63.383579
60.205460
62.540770
58.747530
54.125786
41.759610
32.937527
25.339723
16.381741
12.960434
10.372996
9.835958
11.696815
11.340976
13.139844
12.858510
13.023615
12.504458
13.604760
13.884902
16.027689
16.859770
19.495487
18.677711
19.709468
20.799637
19.483566
21.570921
21.901727
21.674633
23.196936
24.455786
25.174618
25.000572
24.852753
24.372935
23.754835
26.041865
25.496483
24.018884
24.122596
24.358630
24.291873
23.959875
25.342703
23.884773
23.269653
24.621487
22.917986
23.229718
22.086501
23.397803
24.229884
26.408434
25.699735
29.637814
30.554533
31.739473
35.947561
38.109422
39.414763
39.144754
37.349463
36.781430
32.488704
31.790733
28.048754
26.294589
21.810532
21.464825
20.589828
18.114448
17.549992
17.514825
16.294718
17.093420
16.712546
16.338825
16.364455
16.373992
16.553998
15.094876
14.724731
16.103983
14.294982
14.294982
13.826489
14.162660
15.626550
14.628768
15.272498
14.885664
16.091466
16.647577
20.164847
29.508471
45.708418
69.739819
101.836920
148.622990
202.308893
266.342759
##ZVALUE=235
43.602586
46.282411
128.969550
217.022896
338.348746
526.731610
676.133633
833.122730
893.535614
841.559768
754.511952
564.730763
413.621664
250.433683
171.540976
108.777881
91.078877
90.879798
95.150471
89.576840
84.198713
69.952607
55.704713
44.661760
28.283596
22.580624
17.299652
14.367700
13.738871
13.756752
13.040900
14.152527
14.689565
15.241504
16.747713
15.743971
17.656684
18.762946
20.837784
20.115972
19.034743
22.581816
25.467873
22.111535
23.715496
24.686456
25.042892
23.841858
24.027824
25.689602
25.635958
25.360584
23.895502
24.289489
24.340749
22.662878
23.632646
24.905801
26.706457
24.400949
24.018884
24.024844
25.015473
23.627877
25.283694
23.794770
26.161671
27.252436
27.324557
29.633641
31.500459
33.169985
36.205649
38.690567
40.991902
40.664673
39.203763
36.577582
34.798980
33.823848
29.303432
28.005838
24.731755
24.540424
23.405552
20.301938
19.624829
18.878579
17.777681
16.993880
16.155839
17.092824
17.380714
16.575456
16.660690
17.269850
17.784834
17.858744
16.405582
16.674995
16.939640
16.305447
13.854504
16.348958
16.550422
15.688539
16.420484
15.753508
16.834736
17.390847
15.765429
15.670657
18.230677
22.834539
35.190582
60.814619
##ZVALUE=240
4.246831
4.407763
17.449856
48.480630
108.857751
251.269937
423.102975
709.895492
927.037001
1016.001701
1016.001701
1016.001701
1016.001701
918.666720
705.248713
432.563424
290.177464
174.892545
125.898719
114.623904
121.855736
123.818517
121.802688
106.648803
92.228651
67.947507
53.136945
38.989782
27.425885
20.202994
16.425848
16.851425
15.808940
16.706586
17.439723
18.162727
18.916726
18.474460
19.277930
20.307899
21.052957
22.675991
22.359490
25.331974
22.731423
22.361875
24.018884
24.912953
25.964975
24.829507
25.405884
26.140809
24.950504
23.580790
24.274588
23.890734
24.211407
24.976730
22.811890
24.342537
23.032427
24.673939
24.853945
24.445653
24.668574
25.014877
26.252866
25.974512
28.120875
31.377673
29.897690
34.007430
37.951469
38.383603
41.861534
39.957762
38.331747
35.408735
35.810471
33.569932
30.197501
28.592944
24.437904
23.734570
22.302866
21.509528
19.858479
18.982887
19.626617
19.410849
17.834902
17.894506
18.530488
18.274784
18.029809
17.885566
17.684698
16.823411
18.201470
17.221570
17.133951
16.838908
15.671849
17.266870
16.910434
18.486977
16.362667
15.852451
17.690659
16.594529
18.343925
17.050505
16.373992
17.436743
16.657710
16.901493
##ZVALUE=245
2.748966
2.117753
2.590418
3.281832
7.657409
30.510426
81.101656
221.393704
383.590460
686.829686
956.047773
1016.001701
1016.001701
1016.001701
1016.001701
1016.001701
974.071622
645.002723
440.467000
239.515901
163.111687
120.381713
123.377442
136.918426
138.934851
133.245587
120.672584
99.799633
83.078742
61.440468
44.596791
29.933453
22.622943
17.112494
16.145706
16.433597
17.441511
18.462539
17.866492
17.922521
19.147992
19.974709
21.582842
20.766854
21.059513
22.656918
21.129847
20.173788
21.761656
22.885799
21.061897
22.046566
22.380948
20.821691
23.774505
21.305680
19.418597
21.083951
21.254420
20.436645
21.432638
21.315813
21.286607
20.454526
20.048618
19.981861
21.834970
21.365881
23.067594
25.808811
27.367473
29.707551
31.346679
33.251643
33.021569
34.328699
31.364560
28.790832
28.393865
25.715828
26.209950
24.184585
20.377636
20.414591
17.994642
18.291473
17.063618
16.917586
15.803576
16.547441
15.662909
15.691519
14.841557
15.711784
16.031861
15.640855
15.966892
15.461445
14.862418
15.758872
15.330911
15.531778
14.603734
15.624762
15.822649
14.950633
15.466809
15.372634
15.394688
14.840961
14.757514
14.638901
14.854670
15.340447
14.263988
15.042424
##ZVALUE=250
2.890825
2.238750
2.541542
2.717972
3.071427
3.332496
4.312992
21.145940
63.284636
176.973939
335.414410
656.107664
960.841775
1016.001701
1016.001701
1016.001701
1016.001701
1016.001701
1016.001701
905.466080
627.727509
351.337790
211.471915
126.545429
114.723444
130.641460
142.511725
146.407485
145.471692
130.919814
105.536580
86.242557
63.789487
45.982599
32.489896
23.305416
19.186735
17.475486
18.022656
17.987490
17.962456
18.772483
19.630790
20.118952
20.094514
20.941496
20.718575
20.820498
21.031499
22.065639
20.948648
20.235777
20.816922
19.927621
19.927621
19.440651
19.764900
19.220710
18.820763
17.723441
17.841458
19.286871
17.124414
18.126965
16.989708
17.335415
17.869473
18.489957
19.942522
22.882819
22.290945
26.012659
25.726557
26.542544
28.076768
28.108954
26.313663
25.808811
22.802949
22.846460
19.387603
19.860864
17.539859
16.238689
16.077757
15.003681
14.434457
13.702512
13.457537
14.252663
14.090538
12.814999
13.534427
13.483763
13.383627
14.447570
13.474822
13.720989
14.040470
12.651682
13.720989
13.429523
13.511777
12.468696
13.068914
14.529824
13.393760
13.502836
14.168620
13.399720
13.549924
13.219714
13.597608
12.511611
12.852550
13.445616
##ZVALUE=255
2.234578
2.652407
2.444983
2.461672
2.505779
2.368689
3.138781
3.554821
3.471971
12.416840
42.508841
138.413906
283.557773
591.952801
889.266729
1016.001701
1016.001701
1016.001701
1016.001701
1016.001701
1016.001701
1016.001701
839.399695
532.201529
262.919664
160.599947
112.027526
114.161968
138.855577
149.161816
156.549811
152.155757
137.787461
116.934776
89.381933
70.910454
46.997666
34.368634
25.527477
21.310449
20.448565
20.521879
20.211935
20.225644
21.883845
21.050572
21.405816
21.911860
21.471977
22.009611
20.919442
19.285679
21.046996
20.277500
20.109415
19.530654
19.548535
18.879771
18.759966
17.786622
17.240644
16.774535
17.520785
17.000437
16.605854
17.499924
16.424656
16.580820
18.300414
18.478632
19.956827
21.167994
22.669435
23.290515
22.977591
22.635460
22.717714
21.543503
20.398498
19.472837
16.353726
16.152859
14.906526
13.316870
13.348460
12.812614
12.970567
12.312531
12.286901
11.802912
12.103915
12.148619
11.630654
12.115836
11.078715
11.088848
11.096597
11.470914
11.998415
12.767911
11.592507
11.506677
11.904836
11.636615
12.415648
12.004972
11.746883
11.779666
12.454987
11.722445
11.761785
11.122823
11.891723
11.264682
11.650920
12.103915
##ZVALUE=260
2.258420
1.741648
1.935959
2.205968
2.507567
2.424717
2.720952
2.660751
2.563596
2.586842
3.691912
6.900430
23.692846
97.531676
205.318928
467.990637
769.322515
1016.001701
1016.001701
1016.001701
1016.001701
1016.001701
1016.001701
1016.001701
1016.001701
684.548020
435.696840
285.220742
133.146644
102.899671
116.527677
139.450431
160.058737
165.530443
164.564848
148.935914
122.918487
101.697445
72.556734
53.561926
39.967895
29.999614
24.961829
24.942756
25.278926
24.268627
24.721622
23.901463
25.330782
22.802949
24.053454
23.067594
22.770762
22.643805
21.140575
21.190643
20.794868
19.855499
20.493865
18.649697
17.415881
17.489791
17.670989
17.173886
17.280579
16.580820
16.079545
16.093850
17.370582
17.405748
18.627644
19.472837
20.133853
21.381974
20.151734
20.249486
19.040704
18.808842
16.721487
16.641617
15.704632
14.994740
13.845563
13.411641
11.538863
11.649728
11.684895
11.754632
11.241436
10.579824
10.691881
10.308623
10.767579
10.471940
9.803772
10.428429
10.681748
10.553598
10.955930
9.789467
10.521412
10.405779
9.737611
10.683537
10.708570
10.243654
10.880828
10.571480
11.266470
10.454655
10.855794
11.129975
10.529757
10.202527
10.546446
10.863543
##ZVALUE=265
1.704693
1.843572
1.910925
1.690984
2.230406
1.822710
1.983643
2.199411
2.038479
2.477765
2.839565
2.898574
3.101826
4.359484
13.182759
66.547990
155.326724
377.835631
660.539865
1016.001701
1016.001701
1016.001701
1016.001701
1016.001701
1016.001701
1016.001701
1016.001701
952.794552
608.688593
356.290936
161.315799
105.367899
99.240541
119.990706
150.323510
168.666840
171.559453
168.267488
151.852965
127.612948
106.521845
75.959563
56.931973
43.000579
35.220981
29.492974
27.895570
28.171539
27.172565
27.275681
27.659535
27.354956
25.375485
26.167631
24.717450
22.483468
22.752881
21.654963
21.824837
20.184517
20.079613
19.513965
19.104481
18.500686
17.629862
17.371774
16.390681
16.809702
16.992688
17.220974
18.172860
18.249750
19.699931
20.300746
18.788576
18.822551
17.722845
17.083883
16.155839
14.134645
13.608932
12.801886
12.296438
11.728406
11.365414
11.444688
10.659695
9.703636
10.430813
10.415912
9.944439
9.555817
9.617805
9.775758
9.708405
9.670854
9.540915
9.190440
10.260940
9.469986
9.557605
9.419918
9.892583
10.060668
9.037852
9.449720
10.138750
9.861588
10.082722
9.680986
9.655952
9.786487
9.023547
10.021925
9.305477
10.076761
##ZVALUE=270
1.686811
1.752973
1.779795
1.740456
1.826882
1.908541
1.981854
1.997948
1.940727
2.409816
2.362728
2.150536
2.512932
2.700686
3.256798
3.424883
5.360842
30.893683
91.314912
276.048779
521.481037
977.315903
1016.001701
1016.001701
1016.001701
1016.001701
1016.001701
1016.001701
1016.001701
1016.001701
870.333910
536.635518
250.109434
129.944682
83.985925
96.010566
129.114985
152.644515
169.851780
177.426934
174.014568
161.111951
134.874582
112.914443
82.679987
64.777732
48.689842
40.454865
33.804774
32.414794
29.950738
29.046535
28.598905
27.941465
26.882887
25.838614
25.851727
23.910999
22.999644
22.281408
22.025704
20.953417
20.265579
18.915534
18.646717
18.326640
17.882586
17.582774
17.840862
17.819405
18.507838
18.341541
18.440485
19.489527
18.523932
18.424988
17.099977
16.212463
15.361905
14.841557
14.319420
12.690425
11.730790
11.567473
11.241436
10.560751
10.493994
10.163784
10.317564
10.230541
9.295940
9.668469
8.948445
9.316802
9.409785
9.040833
9.191632
9.093881
8.540750
8.978844
8.651614
8.884668
9.038448
9.023547
9.362698
9.311438
10.099411
8.836985
9.923577
9.685755
9.378791
9.631515
9.522438
9.584427
8.987784
9.315610
##ZVALUE=275
1.821518
1.563430
1.642704
1.774430
1.690984
1.459718
1.554489
1.884699
1.752973
1.774430
2.149940
2.279878
2.098680
2.381802
2.323985
2.549887
2.833605
3.602505
3.754497
13.063550
49.937963
182.441473
386.758447
846.841931
1016.001701
1016.001701
1016.001701
1016.001701
1016.001701
1016.001701
1016.001701
1016.001701
1016.001701
725.459456
334.548950
175.225735
82.950592
77.381730
104.346871
128.373504
151.130557
176.984668
184.623599
178.236961
163.720846
137.515664
113.222599
87.197423
68.854690
53.366423
41.143894
35.564899
30.994415
29.024482
27.801991
26.644468
26.106834
25.576949
24.104714
23.787618
22.308826
21.822453
20.915866
20.650625
19.862652
18.734932
18.167496
18.269420
17.703772
17.572641
18.720627
19.343495
19.123554
18.797517
19.368529
18.588901
17.044544
16.255975
15.288591
15.238523
13.427734
12.575984
11.988878
11.714697
10.801554
10.374784
9.919405
9.498000
10.126829
9.911656
9.676814
9.356737
9.432435
8.980632
9.204745
9.158850
8.876920
8.744597
8.242726
8.917451
8.820891
8.550882
9.055734
8.132458
8.646846
8.133650
8.892417
9.155869
8.670688
8.880496
8.695722
8.840561
8.133650
8.496642
8.445978
8.279681
##ZVALUE=280
1.492500
1.314878
1.603961
1.701713
1.701713
1.681447
1.744628
1.520514
1.786947
1.899600
1.937747
1.872778
2.113581
2.069473
2.004504
2.111793
2.386570
2.406836
2.827644
3.420711
3.798008
5.114675
29.395819
100.785494
315.952897
577.927828
1012.275815
1016.001701
1016.001701
1016.001701
1016.001701
1016.001701
1016.001701
1016.001701
1016.001701
949.174762
469.513535
240.561962
96.033812
65.825582
78.664422
99.835992
132.152438
152.701735
173.657537
179.063678
173.777938
157.951713
133.849978
110.454559
82.898736
63.901544
45.446754
37.088990
29.423833
26.987791
25.259852
23.547411
22.681952
22.805929
21.448731
21.560788
20.250678
20.231605
19.273758
18.356442
18.056631
17.524958
17.575622
17.786622
17.442703
18.210411
18.185973
19.069910
17.614961
17.828941
17.052889
15.731454
15.250444
14.405847
12.522936
12.142658
11.492968
11.161566
10.948777
10.837913
10.333657
9.794831
9.641647
9.320974
8.990765
9.407997
9.097457
8.969903
8.121729
8.727908
8.691549
8.392930
8.763671
8.125901
9.026527
8.946657
8.450747
8.866787
8.595586
8.892417
8.994937
8.670688
8.586645
8.529425
8.546710
8.441806
8.307695
8.178949
8.235574
8.158684
##ZVALUE=285
1.429915
1.185536
1.301765
1.269579
1.075864
1.534820
1.381636
1.571774
1.620650
1.617670
1.604557
1.628995
1.847744
1.882911
1.712441
2.031922
1.962781
2.057552
2.396703
2.515912
2.708435
3.279448
3.344417
4.516840
11.582971
67.139864
168.525577
351.065993
774.414539
1016.001701
1016.001701
1016.001701
1016.001701
1016.001701
1016.001701
1016.001701
1016.001701
1016.001701
674.690604
381.034613
151.716471
75.056553
54.910779
68.023801
95.893741
118.508935
144.717693
159.753561
168.319941
165.718794
149.857998
130.812526
102.431774
80.852509
56.261420
41.601658
29.125810
24.435520
21.489859
19.888878
19.098520
18.699765
17.939806
17.692447
17.141700
16.433597
16.431808
16.411543
16.683936
16.613603
16.557574
16.582608
16.566515
17.811656
16.787648
16.366839
15.500784
14.887452
13.174415
12.977719
12.832880
11.810660
11.081696
11.357665
10.144711
10.438561
9.834766
9.533763
9.537935
9.910464
9.442568
9.508729
8.713603
8.719563
9.241700
8.758903
8.779764
8.664727
8.020997
8.473992
8.345842
8.753538
8.752942
8.825660
8.536577
8.173585
8.391738
8.890629
8.475780
8.428693
8.226633
8.479953
8.055568
8.229613
8.291602
7.393956
##ZVALUE=290
1.342893
1.295805
1.153946
1.269579
1.120567
1.210570
1.383424
1.293421
1.354814
1.678467
1.554489
1.391768
1.614690
1.553893
1.776814
1.830459
1.781583
1.788735
2.306700
2.252460
2.115965
2.247691
2.695918
2.965927
3.616810
3.834963
6.124973
20.904541
103.233457
238.629580
566.356778
949.340463
1016.001701
1016.001701
1016.001701
1016.001701
1016.001701
1016.001701
1016.001701
1016.001701
949.044824
552.603006
227.588415
104.704499
44.391751
45.315623
63.525438
82.724690
112.034678
132.390857
153.261423
159.694552
156.239867
143.799782
120.421648
97.770691
68.509579
51.904917
34.986734
26.430488
19.841790
17.490983
15.949607
15.260577
14.416575
14.310479
14.487505
14.601946
14.624596
15.109777
15.138984
15.766621
15.525818
15.252829
14.927983
15.209913
13.528466
13.457537
12.818575
12.479424
11.391640
10.989904
10.806918
10.426641
10.457635
10.165572
10.023713
9.606481
9.333491
9.155869
8.994937
9.160638
8.615851
8.777976
8.614659
8.329749
8.625984
8.731484
8.447766
8.427501
8.747578
8.484721
8.408427
8.085966
8.770823
8.722544
8.654594
8.838773
8.448958
8.065701
8.209944
8.134842
7.964969
8.163452
7.854700
7.863641
##ZVALUE=295
1.239777
1.144409
1.200438
1.183748
1.160502
1.052618
1.227856
1.022816
1.307726
1.281500
1.375675
1.341701
1.478791
1.514554
1.650453
1.676679
1.496673
1.784563
1.666546
1.927614
1.977682
1.970530
2.369881
2.553463
2.649426
3.037453
3.316998
3.720522
4.334450
8.084774
47.369599
138.005614
394.892693
746.151805
1016.001701
1016.001701
1016.001701
1016.001701
1016.001701
1016.001701
1016.001701
1016.001701
1016.001701
754.023790
326.380730
150.090456
50.949454
33.532977
41.572452
55.453777
81.030726
98.581910
124.932528
138.099790
149.252415
146.559477
132.000446
115.163922
88.018775
69.034696
46.215653
33.346415
22.788644
17.700791
14.170408
13.237596
12.649894
13.004541
12.986660
12.970567
13.668537
13.761520
14.229417
14.004707
13.472438
13.582706
13.109446
12.753606
12.100935
11.469722
10.586977
10.336637
10.429621
10.216832
10.111928
9.946823
9.665489
9.561777
9.111762
9.240508
8.886456
9.087920
8.599758
8.868575
8.516908
8.389950
8.707643
8.190870
8.488894
8.338690
8.041859
8.449554
8.789897
8.491874
8.473992
8.633733
8.159876
8.217692
8.461475
8.303523
8.221865
8.192658
8.261800
7.835627
7.928610
7.624626
##ZVALUE=300
1.006722
0.998974
1.024604
0.994802
1.260638
1.203418
1.173615
1.333952
1.162887
1.442432
1.302958
1.349449
1.322627
1.391768
1.449585
1.502633
1.526475
1.406670
1.758933
1.559854
1.734495
1.891851
2.040863
2.151728
2.416968
2.563000
2.574921
2.741814
3.153682
3.594756
4.047751
5.099773
22.426844
81.229806
273.723602
535.112023
1008.831859
1016.001701
1016.001701
1016.001701
1016.001701
1016.001701
1016.001701
1016.001701
1016.001701
980.506539
496.724844
255.857706
87.046623
35.929680
27.876496
35.245419
51.883459
68.269968
92.494488
112.668872
132.805705
139.776468
139.178634
126.983523
106.466413
87.721944
63.145757
47.907829
30.738711
22.648573
16.225576
13.593435
12.588501
12.470484
12.399554
12.734532
12.712479
12.590885
12.720823
12.071729
11.840463
11.426806
11.189580
10.391474
9.995699
10.354519
10.340810
9.916425
9.521842
9.468794
9.233952
9.328723
9.123683
9.097457
8.516908
8.762479
8.566976
8.753538
8.528829
8.329749
8.525848
8.426905
8.294582
8.202791
8.193851
8.510947
8.377433
8.193851
8.468628
8.367896
8.556843
8.456707
8.194447
8.476973
7.902980
8.595586
7.979870
7.753968
7.835627
7.755756
##ZVALUE=305
1.131892
1.012683
0.977516
1.157522
0.974536
1.196861
1.169443
1.132488
1.009703
1.115799
0.969768
1.273751
1.261830
1.375675
1.467466
1.420975
1.442432
1.419783
1.583695
1.547933
1.487732
1.568794
1.807809
1.917481
1.953840
2.154708
2.289414
2.133846
2.523661
2.688766
2.761483
3.106594
3.606677
4.391670
10.888577
43.929815
181.288719
395.818949
872.956514
1016.001701
1016.001701
1016.001701
1016.001701
1016.001701
1016.001701
1016.001701
1016.001701
1016.001701
693.625808
367.974639
132.854581
52.809715
21.971464
23.362637
32.101870
44.542551
67.812800
84.707737
108.002424
121.904612
131.570697
131.582618
119.295716
104.416609
81.747770
63.464642
42.825937
29.807687
19.896626
15.494823
12.755990
12.594461
12.214780
11.993647
11.621714
11.502504
10.985732
10.824800
10.164976
9.940863
10.018945
9.758472
9.762645
9.525418
9.283423
9.102821
9.086728
8.424520
8.840561
8.464456
8.474588
8.557439
8.390546
8.459687
8.591413
8.300543
8.351803
8.662939
8.173585
8.492470
8.176565
8.226633
8.339882
8.131862
8.735657
8.392930
8.289814
8.261800
8.569956
8.493662
8.336902
8.186698
8.104444
7.991791
8.029938
7.701516
##ZVALUE=310
1.000762
1.235604
0.851750
0.953674
1.141429
0.901818
1.197457
0.953674
1.096725
0.902414
1.084805
1.037717
1.033545
1.135468
1.221895
1.198649
1.210570
1.419783
1.241565
1.436472
1.340508
1.503825
1.439452
1.559854
1.720786
1.766682
1.778603
1.886487
2.211928
2.248883
2.376437
2.624989
2.926588
3.194809
3.396869
3.740788
5.470514
18.172860
100.930929
242.325664
596.485734
973.451734
1016.001701
1016.001701
1016.001701
1016.001701
1016.001701
1016.001701
1016.001701
1016.001701
990.725756
611.453652
241.892934
99.377632
27.986765
17.465949
20.760894
27.110577
40.505528
54.819584
76.920986
95.042586
114.080906
120.807886
122.178793
114.599466
98.433495
82.541704
58.433414
42.895675
28.144717
21.355748
16.247630
13.323426
11.342764
10.936856
10.224581
9.544492
9.612441
9.132624
9.062886
8.778572
8.741617
8.486509
8.503795
8.556843
8.741617
8.861423
8.714795
8.756518
8.502603
8.583665
8.261800
8.366704
8.349419
8.380413
7.999539
8.178949
8.353591
8.445978
8.247495
8.018613
8.352995
8.115768
8.173585
7.834435
8.784533
8.481741
8.447766
8.377433
8.333921
8.111000
8.495450
8.207560
7.734895
7.974505
##ZVALUE=315
0.855923
0.838637
0.984669
0.938773
0.959635
0.944734
0.881553
0.862479
0.814795
1.107454
0.769496
0.941753
0.985861
1.059771
0.996590
1.123548
1.210570
1.088977
1.263618
1.346469
1.516938
1.503825
1.450777
1.581907
1.534820
1.468658
1.494884
1.674891
1.781583
1.833439
2.000928
2.083778
2.231598
2.379417
2.716780
2.915859
3.314614
3.785491
4.453659
8.451939
51.409602
149.696469
434.270501
783.087611
1016.001701
1016.001701
1016.001701
1016.001701
1016.001701
1016.001701
1016.001701
1016.001701
1016.001701
776.319504
352.287889
157.537460
39.522648
17.446876
15.445948
17.406940
25.417805
34.945607
53.466558
69.425702
89.929700
103.614926
114.754438
116.292834
106.629729
94.175935
72.688460
57.644844
40.709972
30.198693
19.836426
14.984608
11.220574
9.892583
9.191632
8.697510
8.446574
8.582473
8.620620
8.424520
8.161664
8.180737
7.865429
8.477569
8.365512
8.139610
8.433461
8.693933
8.330941
8.086562
7.783771
7.958412
8.088946
7.815957
7.926822
7.845759
7.830858
8.405447
7.939935
8.167624
8.212924
8.431673
8.250475
8.456707
8.269548
8.105636
8.116961
8.370876
8.115768
8.045435
7.868409
7.726550
##ZVALUE=320
0.746846
0.933409
0.841618
0.885725
0.575781
0.710487
0.871420
0.875592
0.761747
0.883937
1.023412
1.152754
1.019835
1.047850
1.077652
1.004934
1.107454
0.954866
1.016855
1.274943
1.205802
1.280904
1.487732
1.395941
1.320839
1.459718
1.450777
1.316667
1.658797
1.539588
1.775622
1.998544
2.061725
2.247691
2.220869
2.370477
2.571940
2.713799
2.968907
3.460646
3.765821
4.807711
22.970438
81.815720
286.349654
575.026870
1016.001701
1016.001701
1016.001701
1016.001701
1016.001701
1016.001701
1016.001701
1016.001701
1016.001701
961.472988
448.376536
226.772428
73.283911
27.389526
13.122559
13.869405
16.940832
21.420717
33.165812
45.333505
64.975619
80.598593
99.033713
108.134747
108.840466
103.216767
89.392662
74.881911
53.966641
40.941834
25.773644
17.825961
12.272000
10.244846
8.871555
8.585453
8.075833
8.088946
7.835627
7.834435
7.523894
7.461905
8.257627
8.085966
7.595420
7.903576
7.703900
7.798672
8.067489
7.928610
7.980466
7.926822
7.836819
8.075833
7.943511
7.956624
8.086562
8.169413
7.994771
8.421540
8.152723
8.419752
8.130670
8.162856
8.265972
8.099675
7.938743
7.706881
7.933974
7.764697
##ZVALUE=325
0.844598
0.967979
0.699759
0.886917
0.867844
0.827909
0.844598
0.774860
0.929832
0.847578
0.755787
0.782609
0.941753
1.115799
1.044869
0.862479
0.950694
1.114607
0.970960
0.990629
1.035929
1.162887
1.142621
1.239777
1.341701
1.248717
1.249909
1.027584
1.302958
1.484752
1.560450
1.670718
1.646876
1.765490
1.947880
2.100468
2.153516
2.294779
2.466440
2.629757
2.937913
3.415942
3.599524
4.273653
11.868477
48.738718
190.598965
405.128002
898.464918
1016.001701
1016.001701
1016.001701
1016.001701
1016.001701
1016.001701
1016.001701
1016.001701
1016.001701
600.980520
323.845744
112.598538
41.112900
13.618469
11.394620
12.315512
14.334917
21.107793
29.443502
46.487451
61.342716
82.255602
93.373656
102.570653
103.814602
94.374418
83.782673
65.569878
50.098896
33.510923
23.968816
16.170740
12.049675
8.878708
8.311868
7.450581
7.705688
7.346869
7.694960
7.383823
7.609725
7.674694
7.269979
7.608533
7.861853
7.570982
7.573962
7.279515
7.635951
7.345676
7.696748
7.673502
7.811785
7.920861
8.294582
8.089542
8.259416
7.990599
8.193851
8.141994
8.093715
7.664561
8.041859
8.122921
7.615685
7.759929
7.365942
##ZVALUE=330
0.814795
0.760555
0.680685
0.802875
0.770688
0.747442
0.846982
0.816584
0.893474
1.057982
0.804663
0.930429
0.846982
0.895858
0.991821
0.762939
0.983477
0.908971
1.040697
1.121759
1.108646
0.834465
1.053810
1.191497
1.075864
1.093745
1.146793
1.211762
1.282692
1.458526
1.515746
1.438856
1.547933
1.382828
1.528859
1.677871
1.714826
1.917481
1.999736
2.018809
2.387762
2.354980
2.570748
3.118515
3.489852
3.807545
5.703568
21.497607
116.228461
274.507999
656.076670
1012.521982
1016.001701
1016.001701
1016.001701
1016.001701
1016.001701
1016.001701
1016.001701
1016.001701
784.724951
426.352620
159.591436
65.730810
18.365979
11.290908
10.836720
11.508465
14.542937
19.942522
30.795932
41.939616
58.320761
72.192550
88.572502
94.157457
95.224977
89.784861
74.908733
61.892867
44.290423
33.198595
22.378564
16.612411
11.437535
9.324551
7.960796
7.623434
7.155538
7.204413
6.879568
7.334948
6.832480
7.413626
7.325411
7.718801
7.646680
7.432699
7.459521
7.268786
7.509589
7.689595
7.965565
8.019805
7.466674
7.667542
7.774830
8.018613
7.904768
8.076429
7.973909
8.183718
7.482767
7.724762
7.597804
7.293820
##ZVALUE=335
0.799894
0.666976
0.684857
0.602603
0.703931
0.620484
0.750422
0.665784
0.831485
0.739694
0.779629
0.612736
0.771880
0.822544
0.875592
0.908971
0.832677
0.990629
0.960827
0.991821
1.023412
1.114607
1.091957
0.992417
0.942945
1.046658
0.912547
1.143813
1.212955
1.418591
1.422763
1.336932
1.272559
1.307726
1.285672
1.535416
1.695752
1.623631
1.730919
1.669526
1.947880
2.107620
2.129674
2.246499
2.448559
2.863407
2.993941
3.419518
4.240870
7.824898
52.773952
159.419775
454.958677
825.873613
1016.001701
1016.001701
1016.001701
1016.001701
1016.001701
1016.001701
1016.001701
1016.001701
980.604887
603.849888
246.513486
106.571913
29.132962
12.690425
10.289550
10.285974
11.517406
13.300776
19.594431
27.000904
39.652586
51.424503
68.136454
78.901649
87.437630
88.117719
81.768632
71.628690
56.591630
46.981573
32.322407
24.001598
15.856624
11.975765
8.860826
7.651448
7.209778
6.954670
7.183552
7.148981
7.014871
7.211566
7.120967
7.093549
6.979704
7.153749
7.096529
7.288456
7.370710
7.578731
7.843971
7.993579
8.136630
7.795691
7.763505
7.907748
7.821918
7.720590
7.580519
7.580519
7.279515
7.092953
##ZVALUE=340
0.650883
0.634789
0.643730
0.575781
0.778437
0.728965
0.670552
0.790954
0.778437
0.810623
0.690818
0.808835
0.704527
0.843406
0.912547
0.942945
0.743866
0.824928
0.832677
0.928640
0.865459
1.028776
0.921488
1.072884
0.921488
1.141429
1.032948
1.036525
0.997782
1.127720
1.147985
1.165867
1.287460
1.394749
1.330972
1.507998
1.346469
1.513958
1.432896
1.558661
1.538992
1.818538
1.751781
2.036691
2.165437
2.281666
2.604723
2.487898
3.076792
3.146529
3.747940
4.989505
28.639436
96.479654
317.463875
632.093549
1016.001701
1016.001701
1016.001701
1016.001701
1016.001701
1016.001701
1016.001701
1016.001701
1016.001701
775.012970
342.062712
157.685876
40.090680
15.125871
10.293722
10.204911
10.079741
10.768771
12.982488
17.281771
25.963783
36.049485
52.046776
62.950850
75.246692
81.477761
81.793666
77.509880
68.285465
57.368875
42.840838
33.062696
22.023916
16.187429
11.148453
8.933544
7.885695
7.480979
7.181764
7.048845
6.952882
7.089972
7.054806
6.939769
7.015467
6.804466
7.233620
7.365942
7.617474
7.526875
7.854700
7.968545
7.800460
7.793903
7.578731
7.727742
7.644892
7.513762
7.214546
7.215738
##ZVALUE=345
0.694990
0.728965
0.624657
0.668764
0.686646
0.759959
0.722408
0.696778
0.812411
0.687838
0.671744
0.728965
0.624657
0.830889
0.824928
0.690818
0.779629
0.908971
0.969768
0.877976
0.864863
0.815988
0.684857
0.910759
1.008511
0.920892
0.948906
0.994802
1.141429
1.124740
1.164675
1.165867
1.061559
1.084805
1.148582
1.303554
1.367927
1.409650
1.367927
1.478791
1.584888
1.441836
1.523495
1.753569
1.702905
1.983643
2.019405
2.230406
2.195835
2.424717
2.941489
3.060699
3.720522
4.176497
11.365414
49.098730
210.247636
439.179540
929.801464
1016.001701
1016.001701
1016.001701
1016.001701
1016.001701
1016.001701
1016.001701
1016.001701
961.836576
442.037582
208.199620
60.918927
22.056699
11.539459
10.518432
9.674430
9.111762
9.372830
10.858774
15.829802
22.294521
35.195947
44.016838
58.148503
66.742897
73.972940
76.560974
72.058439
64.848661
53.540468
43.545961
32.171607
23.309588
16.269684
12.063980
9.042621
8.194447
7.573962
7.092953
6.808639
7.113814
6.874800
6.731749
7.220507
7.090569
7.580519
7.651448
7.436872
7.583499
7.706881
7.717609
7.592440
7.552505
7.300973
7.140636
7.343888
7.416606
##ZVALUE=350
0.607967
0.644922
0.752807
0.621676
0.704527
0.666976
0.689626
0.738502
0.694990
0.753999
0.755787
0.803471
0.663996
0.836849
0.869632
0.792742
0.941753
0.780821
0.674725
0.720620
0.804663
1.047850
0.774860
0.958443
0.968575
0.975728
0.885725
1.216531
0.879765
0.983477
0.986457
1.101494
1.134872
1.102686
1.197457
1.113415
1.287460
1.229644
1.218915
1.293421
1.315475
1.587868
1.685619
1.676679
1.747608
1.829863
1.880527
1.861453
1.857877
2.148747
2.418756
2.396703
2.747774
2.674460
3.607869
3.672838
5.937815
23.407936
120.391846
280.711651
681.280494
1016.001701
1016.001701
1016.001701
1016.001701
1016.001701
1016.001701
1016.001701
1016.001701
1016.001701
600.732565
310.505629
98.003745
34.413934
12.493730
9.688735
8.711815
8.032918
7.854700
8.306503
10.708570
13.901591
20.645857
28.289557
40.306449
49.603581
61.957836
67.060590
69.801807
67.558885
60.775876
52.537918
40.743947
31.828880
21.830797
17.375946
12.258887
9.978414
8.358955
7.400513
7.282495
7.036924
7.111430
7.090569
7.071495
7.658601
7.303953
7.551908
7.676482
7.420778
7.314682
7.437468
6.923676
7.122755
7.013679
7.010698
##ZVALUE=355
0.684857
0.754595
0.648499
0.658631
0.848770
0.669956
0.721812
0.733733
0.661612
0.854731
0.715852
0.761747
0.932813
0.863671
0.819564
0.887513
0.885725
0.984669
0.822544
0.764728
0.848770
1.025796
0.782609
0.925660
0.895858
0.894666
0.932813
0.976920
1.070499
1.084805
1.133680
1.006722
1.098514
1.256466
1.015663
1.129508
1.306534
1.287460
1.297593
1.227856
1.568794
1.543760
1.357794
1.582503
1.701713
1.585484
1.827478
1.867414
1.798868
1.985431
2.132654
2.229810
2.294779
2.472997
2.833605
3.093481
3.413558
3.676414
4.466772
10.314584
64.877868
186.573863
511.142015
888.058543
1016.001701
1016.001701
1016.001701
1016.001701
1016.001701
1016.001701
1016.001701
1016.001701
753.817558
408.657789
146.649480
55.758953
13.928413
9.257793
8.262992
7.751584
7.622838
7.460713
8.008480
9.012818
12.505651
17.134547
26.076436
34.074783
46.119690
54.228902
62.496662
64.328909
62.634945
58.041811
48.715472
41.551590
31.472445
23.827553
16.591549
12.917519
9.730458
8.248687
7.359982
7.121563
7.080436
7.203817
7.370710
7.549524
7.182956
7.464886
7.244945
7.208586
6.797910
6.680489
6.549954
6.678700
##ZVALUE=360
0.772476
0.923872
0.751615
0.823736
0.883937
0.731945
0.742674
0.655651
0.684857
0.790954
0.669956
0.777841
0.802875
0.763535
0.872612
0.899434
0.702739
0.879765
0.982881
0.878572
0.930429
0.955462
1.031756
1.000762
1.045465
0.883937
0.985861
0.775456
0.993609
0.964999
1.007915
1.039505
1.195669
1.055598
1.262426
1.298785
1.118779
1.401901
1.155734
1.223683
1.305938
1.321435
1.399517
1.437664
1.603961
1.477599
1.737475
1.595616
1.725554
1.696944
1.980662
1.879930
2.105832
2.402663
2.428889
2.468824
2.752542
2.724528
3.149509
3.615618
4.097819
5.719662
29.624701
93.142986
301.244855
590.950847
1016.001701
1016.001701
1016.001701
1016.001701
1016.001701
1016.001701
1016.001701
1016.001701
946.460962
559.571385
215.578675
85.503459
20.386577
9.875894
8.373857
7.870793
7.111430
6.887913
6.568432
6.914735
8.109808
10.399818
14.653802
20.289421
30.573606
38.554668
48.837662
54.928660
58.997869
58.878660
55.009723
49.534440
39.379597
32.375455
23.754835
18.283725
13.213754
10.589957
8.518696
7.470846
7.555485
7.318854
7.092953
6.968975
6.843805
6.584525
6.558895
6.284714
6.020665
6.053448
##ZVALUE=365
0.760555
0.724792
0.775456
0.736713
0.623465
0.756979
0.851750
0.935793
0.844598
0.835657
0.946522
0.827909
0.765920
0.739694
0.770688
0.871420
0.775456
0.784993
0.690818
0.686646
0.856519
0.859499
0.914931
0.999570
0.952482
0.924468
1.039505
1.076460
0.871420
0.943542
0.925660
0.975728
0.983477
1.016855
0.930429
0.971556
1.306534
1.114607
1.180768
1.284480
1.327991
1.319647
1.339912
1.240969
1.442432
1.367927
1.385808
1.522899
1.644492
1.599789
1.584888
1.692772
1.730919
1.808405
1.958609
2.102852
2.104640
2.503991
2.661943
2.746582
3.015995
3.686547
3.708005
4.452467
12.442470
45.997500
186.603665
406.328440
928.301811
1016.001701
1016.001701
1016.001701
1016.001701
1016.001701
1016.001701
1016.001701
1016.001701
723.854899
308.884978
135.969520
33.951998
12.852550
8.095503
7.708669
6.816983
6.662607
6.304979
6.168485
6.425977
7.256866
9.672642
12.961626
18.774867
24.968982
34.562945
40.987730
48.018694
52.758455
54.415464
52.270889
46.981573
40.401816
31.970739
25.452971
18.085837
14.171600
10.397434
8.578897
7.720590
6.828904
6.750822
6.422997
6.269813
5.987883
5.763769
5.566478
##ZVALUE=370
0.656843
0.571609
0.765920
0.747442
0.593662
0.653863
0.687838
0.673532
0.611544
0.674725
0.789762
0.905991
0.692606
0.786781
0.759959
0.720620
0.723600
0.778437
0.835657
0.846982
0.735521
0.894666
0.755787
0.922680
0.877976
0.843406
0.912547
1.004934
1.020432
0.963807
0.785589
0.941753
0.987649
1.027584
1.022816
0.986457
1.025796
1.068711
1.192689
1.194477
1.284480
1.128912
1.273751
1.406670
1.271963
1.265407
1.294613
1.278520
1.402497
1.479983
1.611710
1.443624
1.515746
1.586676
1.738667
1.620650
1.738667
1.992583
2.100468
1.937747
2.524853
2.738833
2.730489
3.008842
3.610849
3.893971
6.492734
24.658442
132.115483
310.667753
701.147914
1016.001701
1016.001701
1016.001701
1016.001701
1016.001701
1016.001701
1016.001701
1016.001701
869.723558
393.372774
196.643472
65.856576
23.223758
8.417964
7.125735
6.448627
6.312728
6.186962
6.089807
6.045699
6.179810
7.221699
8.902550
12.044907
15.832782
22.705793
28.335452
35.930872
42.627454
48.428774
50.718784
48.736930
45.654774
38.633943
32.618642
25.034547
18.360615
14.651418
11.522770
8.808970
7.303953
6.569624
5.830526
5.571842
5.323887
##ZVALUE=375
0.608563
0.694990
0.723600
0.717640
0.683665
0.698566
0.651479
0.546575
0.759959
0.663996
0.544786
0.595450
0.700951
0.663996
0.539422
0.667572
0.778437
0.731945
0.714660
0.695586
0.785589
0.818968
0.724792
0.842810
0.739694
0.935793
0.861883
0.866652
0.751615
0.934601
0.805855
0.941753
0.956655
0.793934
0.991821
0.941753
0.909567
0.993609
0.977516
0.980496
1.088977
1.053810
1.011491
1.024604
1.146793
1.052618
1.053810
1.247525
1.235604
1.291633
1.321435
1.267791
1.251698
1.441836
1.168847
1.585484
1.571774
1.554489
1.520514
1.624823
1.690984
2.008677
1.997948
2.348423
2.372861
2.516508
3.078580
3.545880
4.338622
15.401840
57.351589
211.961865
454.826951
966.015458
1016.001701
1016.001701
1016.001701
1016.001701
1016.001701
1016.001701
1016.001701
985.298753
629.659891
278.049707
131.705403
36.867857
13.380647
7.243752
6.997585
6.550550
6.350875
6.255507
6.193519
6.256700
6.385446
7.008910
7.640719
10.238886
13.068914
19.085407
24.576783
33.189654
39.512515
45.618415
48.025846
47.815442
45.176744
40.007830
34.827590
27.078986
21.422505
16.014576
12.111664
9.040833
7.097721
6.270409
##ZVALUE=380
0.698566
0.533462
0.441670
0.672936
0.620484
0.523925
0.629425
0.615716
0.635982
0.630617
0.508428
0.474453
0.661612
0.703931
0.690818
0.651479
0.621676
0.746846
0.555515
0.579953
0.732541
0.659823
0.902414
0.867844
0.809431
0.810623
0.797510
0.791550
0.874996
0.882745
0.767708
0.993609
0.969768
1.108646
0.906587
0.970960
1.111627
0.985861
1.001954
1.007915
1.006722
1.092553
1.017451
0.951886
1.075864
1.015663
0.876784
1.142621
1.060963
1.230836
1.183748
1.159906
1.295805
1.176000
1.372695
1.266599
1.455545
1.515746
1.564622
1.658797
1.624823
1.740456
1.835823
1.958609
2.015829
2.145767
2.371669
2.770424
3.247857
3.618598
4.125834
8.279681
31.845570
153.529048
353.883505
822.153687
1016.001701
1016.001701
1016.001701
1016.001701
1016.001701
1016.001701
1016.001701
1016.001701
856.676102
411.757827
209.846497
74.330568
25.993586
8.328557
7.210970
6.991625
6.883740
6.746650
6.724000
6.652474
6.291866
6.267428
6.297827
7.012486
8.740425
12.496710
16.734600
23.697615
29.313564
36.917925
41.638613
45.209527
45.696497
43.632984
40.427446
34.030676
28.298497
20.805597
16.434789
11.788607
##ZVALUE=385
0.481606
0.595450
0.576973
0.411868
0.613928
0.644922
0.467896
0.521541
0.585914
0.596642
0.564456
0.604987
0.568628
0.610948
0.643730
0.561476
0.549555
0.839829
0.681877
0.754595
0.552535
0.681877
0.666976
0.753999
0.810623
0.909567
0.791550
0.979900
0.809431
0.791550
1.088977
0.954866
1.069903
1.070499
1.120567
0.974536
1.091957
1.065731
1.125932
1.111627
0.983477
1.099706
1.098514
1.059771
1.048446
1.031756
0.987649
1.067519
1.042485
1.093745
1.132488
1.276731
1.250505
1.190901
1.306534
1.161695
1.367927
1.380444
1.444817
1.428723
1.485944
1.566410
1.602769
1.480579
1.796484
1.760721
2.073646
2.400875
2.662539
2.831817
3.157854
3.534555
3.902912
4.650950
16.392469
63.444972
244.667530
518.685579
1008.654833
1016.001701
1016.001701
1016.001701
1016.001701
1016.001701
1016.001701
1016.001701
1014.021039
681.648850
300.761461
142.378807
42.156577
13.710856
7.509589
7.297993
6.602407
6.530881
6.275773
6.155968
5.571842
5.657673
5.533695
5.661845
6.258488
7.591844
10.536909
13.875961
19.683838
26.164651
31.726956
36.496520
40.769577
42.459965
41.554570
38.280487
33.374429
26.702881
##ZVALUE=390
0.576973
0.526905
0.439882
0.540614
0.532866
0.438690
0.518560
0.650883
0.654459
0.509620
0.552535
0.799894
0.517964
0.599623
0.442863
0.604987
0.598431
0.550747
0.539422
0.531673
0.621676
0.663996
0.622869
0.658631
0.662804
0.760555
0.857711
0.785589
0.826716
1.153946
1.130700
0.890493
1.102686
1.139641
1.093745
1.031756
1.042485
1.171827
1.099706
1.179576
1.257658
1.288652
1.237988
1.195669
1.254678
1.197457
1.127720
1.143813
1.038909
1.129508
1.156926
1.203418
1.216531
1.135468
1.255870
1.215935
1.286864
1.239777
1.492500
1.418591
1.321435
1.604557
1.317859
1.429915
1.619458
1.833439
2.190471
2.177954
2.352595
2.640486
2.702475
3.078580
3.182888
3.212690
3.409982
3.769994
7.782578
34.513474
169.466734
399.479866
932.151675
1016.001701
1016.001701
1016.001701
1016.001701
1016.001701
1016.001701
1016.001701
1016.001701
910.797715
458.176732
233.334899
75.742006
25.934577
8.643866
7.092953
6.673932
6.257892
6.045699
5.773902
5.905628
5.663633
5.298853
5.455613
5.533695
6.093979
7.283688
9.440780
11.977553
15.524626
21.825433
26.419759
32.671690
36.900640
39.610863
39.750934
##ZVALUE=395
0.572801
0.467896
0.655651
0.406504
0.435710
0.413656
0.460744
0.607967
0.639558
0.513792
0.648499
0.543594
0.556707
0.645518
0.522733
0.619888
0.605583
0.539422
0.691414
0.608563
0.579953
0.774860
0.721812
0.771880
0.828505
0.735521
0.862479
0.782609
0.998974
1.028776
0.886917
0.932813
0.913739
1.116991
1.216531
1.204610
1.136661
1.268983
1.087785
1.243949
1.299977
1.224875
1.277924
1.198649
1.216531
1.365542
1.330972
1.293421
1.221895
1.238585
1.305938
1.107454
1.126528
1.148582
1.219511
1.445413
1.397729
1.225471
1.361966
1.329780
1.363754
1.498461
1.462698
1.421571
1.564622
1.613498
1.751781
1.945496
2.244711
2.435446
2.722740
2.655983
2.805591
2.662539
2.816916
2.863407
3.273487
3.664494
5.405545
18.716455
102.796555
261.532664
642.557740
1002.282500
1016.001701
1016.001701
1016.001701
1016.001701
1016.001701
1016.001701
1016.001701
1016.001701
581.768751
314.197540
121.479630
48.577785
12.991428
7.570982
6.665587
6.349683
6.351471
6.186962
6.127954
6.009936
5.805492
5.876422
5.609989
5.617738
5.834699
6.724596
7.607937
10.223985
13.173819
18.314719
23.081899
29.853582
##ZVALUE=400
0.672936
0.671744
0.779629
0.605583
0.522733
0.628829
0.549555
0.496507
0.529885
0.427961
0.450611
0.435710
0.499487
0.641942
0.760555
0.624657
0.585914
0.477433
0.582933
0.694990
0.758767
0.641942
0.679493
0.670552
0.674725
0.776649
0.823736
0.828505
0.852942
0.921488
1.063943
0.994802
1.074672
1.055598
1.268983
1.043677
1.217723
1.200438
1.013875
1.216531
1.145601
1.349449
1.263618
1.267791
1.217723
1.124740
1.229644
1.215935
1.282692
1.120567
1.131892
1.213551
1.463890
1.402497
1.255870
1.408458
1.489520
1.442432
1.336932
1.329780
1.249909
1.398921
1.256466
1.480579
1.528859
1.424551
1.678467
1.948476
2.236962
2.253652
2.410412
2.512932
2.705455
2.563000
2.421737
2.449751
2.665520
2.760887
3.046989
3.418922
3.999472
9.070635
52.607656
153.389573
442.282557
812.405944
1016.001701
1016.001701
1016.001701
1016.001701
1016.001701
1016.001701
1016.001701
1016.001701
778.133869
453.115702
184.201598
82.893968
24.878979
9.868741
6.498694
6.685853
6.307960
6.532669
6.658435
6.787777
6.464720
6.275773
5.975962
5.816817
5.337596
5.424619
5.754828
6.768703
8.648634
12.335777
##END
