##TITLE=10-3
##FORMAT=SPECTACLE-ASCII V-1.2
##DATA TYPE=ULTRAVIOLET SPECTRUM
##SECOND TYPE=ULTRAVIOLET SPECTRUM
##DATE=04/04/18
##TIME=13:07:18
##SPECTROMETER/DATA SYSTEM=SPECTACLE
##XUNITS=NM EM
##YUNITS=ENERGY
##YFACTOR=1
##FIRSTX=220
##LASTX=450
##NPOINTS=116
##3DDATA=Equidistant
##ZUNITS=NM EX
##FIRSTZ=210
##LASTZ=400
##ZPOINTS=39
##XYDATA=(Y..Y)
##ZVALUE=210
21.223426
21.932721
15.260577
11.337996
10.775924
11.471510
10.138750
9.023547
7.862449
6.502867
5.113482
4.763603
3.804564
3.419518
3.640652
4.036427
4.112720
4.127622
4.242659
5.587935
4.216433
5.862713
6.487966
7.007718
7.526875
8.536577
8.745790
9.598732
10.924935
12.312531
11.433959
11.841655
11.852980
12.509823
14.255643
13.840795
14.475584
14.258623
13.415813
14.121532
12.957454
14.201999
14.022589
15.161633
12.511611
14.348626
14.254451
13.918877
13.044477
14.518499
12.766719
13.701916
13.490915
13.342500
12.786984
12.751818
13.165474
13.583899
12.807846
13.042688
12.183785
12.286901
13.045669
13.025999
12.475848
12.262464
13.033748
13.522506
14.767647
17.932653
20.395517
23.060441
26.085973
28.542876
28.630495
31.123757
31.704903
28.589964
28.028488
25.053620
26.846528
22.244453
18.877983
17.513633
14.521480
11.780858
12.224913
10.763407
10.387897
15.083551
18.316507
21.640658
27.263761
34.341812
42.699575
52.394867
60.198903
66.558719
75.443983
83.466768
89.478493
85.674524
90.296865
86.515546
84.044933
81.121922
75.393915
68.467855
60.695410
50.188899
38.521886
29.884577
26.000738
19.629598
17.894506
20.526648
##ZVALUE=215
73.492527
74.251890
56.383610
46.263933
33.947825
23.715496
19.673705
17.819405
16.385913
14.756918
13.203621
10.429621
8.690953
7.626414
6.480813
5.238652
5.338788
5.377531
5.159974
5.506873
6.070733
6.214976
7.775426
7.536411
8.748770
9.019971
11.978745
13.320446
13.059974
13.978481
14.475584
14.703870
16.460419
17.520785
16.695857
18.485785
17.419457
17.860532
18.981695
18.198490
17.152429
18.975735
19.623637
18.361807
18.613935
18.993616
18.354654
18.474460
19.811988
20.473599
19.936562
20.680428
20.115972
18.839836
20.572543
20.003915
19.086599
19.522905
19.016862
19.840598
19.085407
18.895864
18.249750
18.897653
18.441677
20.393729
20.897985
20.306706
23.081899
25.974512
29.083490
32.655597
36.711693
38.330555
42.188764
43.461919
44.013858
43.833852
43.243766
39.698482
37.707686
35.600662
31.799674
27.663708
26.035905
21.496415
20.948648
16.843677
16.366839
14.384985
15.546679
18.051863
17.950535
21.692514
27.915835
33.954978
40.404797
54.489970
61.644912
74.222684
88.538527
103.917718
115.788579
134.457946
144.874454
149.285793
150.043964
150.932670
153.101683
148.999691
141.809583
128.503442
122.091770
99.811554
89.695454
68.442822
##ZVALUE=220
158.767700
160.944462
156.995654
137.537718
124.594569
90.189576
68.451762
40.870905
33.336878
27.912855
25.643706
24.908781
24.807453
20.292997
16.869903
12.619495
9.277463
7.962584
7.133484
6.464720
6.759763
6.119609
7.718801
8.350611
9.184480
9.630919
9.447932
10.088682
13.128519
12.351871
13.227463
13.668537
15.920997
15.944839
18.625855
17.571449
18.642545
19.946694
20.027757
20.809770
21.444559
20.916462
21.925569
21.585822
22.081733
21.319985
20.801425
21.555424
22.541881
21.618605
23.417473
21.283627
23.056865
21.991730
22.457838
21.180511
21.416545
23.084879
21.412969
21.905899
20.849705
21.481514
22.237897
21.838546
20.544529
21.582842
22.586584
20.507574
25.038719
26.481748
32.599568
34.256577
38.151741
40.864944
41.710734
44.671893
44.859648
46.307445
42.920709
40.116906
37.418604
36.650896
33.059716
29.683709
25.356412
22.782683
18.572807
17.434955
16.436577
14.765859
16.473532
16.962886
20.338893
19.616485
22.628903
24.111867
26.084781
28.139949
31.029582
33.459663
43.040514
52.536726
66.064596
82.334876
102.101564
122.520924
153.431892
180.019736
189.377666
216.039419
226.952434
242.834687
243.121982
243.842006
247.001648
227.703452
##ZVALUE=225
198.827982
206.624866
255.566835
285.146832
287.989974
278.059840
236.184597
171.263814
125.124454
82.030892
57.291985
44.696927
42.462945
40.846467
37.546754
34.988523
30.288696
21.709800
18.025637
12.878776
9.541512
8.618832
7.453561
9.664893
9.682775
9.448528
11.312962
11.198521
13.493896
11.490583
13.070703
16.288757
15.128851
15.091896
18.020868
18.384457
20.292997
20.810962
20.478964
22.297502
22.080541
23.871660
23.204684
24.510622
23.108721
25.774837
23.535490
25.943518
25.044680
25.501847
26.729703
27.603507
26.616454
25.630593
27.042627
25.452971
24.781823
24.618506
24.721622
26.116967
25.278926
25.331974
25.450587
25.605559
24.056435
23.529530
22.978783
24.105906
26.048422
28.202534
32.349825
34.798980
36.519766
37.785769
42.064786
42.241812
39.405823
38.726926
35.287738
34.165978
29.992461
30.019879
26.104450
26.053786
21.218657
20.042658
18.411875
18.234849
17.586946
16.974807
17.889738
20.560622
21.373630
23.596883
26.192665
27.305484
31.251907
30.352473
34.689903
36.209822
33.075809
35.870671
35.953522
35.792589
43.636560
50.580502
70.649981
91.789961
120.487809
150.156617
182.745457
232.069492
259.461999
305.485725
333.622694
359.264612
##ZVALUE=230
135.106444
142.990947
236.861706
322.062969
420.089960
471.127629
500.189662
470.922589
399.428010
322.354436
205.960870
140.000582
95.905662
64.831972
60.315728
64.196587
60.796738
60.414672
52.469969
41.203499
34.174919
24.557710
16.038418
13.855696
10.292530
10.689497
10.871887
10.840893
12.552738
12.797713
14.781952
14.803410
15.385747
17.220974
16.740561
18.624663
21.184683
22.806525
22.808909
22.496581
24.037957
24.741888
24.386644
26.228428
25.155544
26.863813
26.010871
26.940703
28.181672
24.295449
27.527809
27.733445
26.614666
26.301742
27.006865
25.607944
25.437474
25.216937
26.806593
25.492907
24.845600
24.863482
23.289919
24.659634
22.744536
22.180676
24.002790
24.768710
26.178956
26.181936
28.390884
30.355453
32.431483
33.850670
35.034418
32.344460
33.520460
30.873418
32.393932
29.783845
25.988817
24.218559
20.913482
19.132495
19.022822
16.669631
15.567541
14.979839
16.206503
16.435981
16.612411
13.800859
15.691519
16.471744
16.385913
16.184449
15.818477
16.605854
17.354488
16.805530
16.157627
15.841722
15.347600
17.387867
16.229749
16.568899
16.060472
18.039942
20.970702
28.709769
38.711429
64.782500
90.647936
138.518810
169.546604
227.420926
##ZVALUE=235
36.448836
37.724972
97.744465
172.076821
283.037424
457.928777
584.109426
712.954998
765.964985
727.832913
641.734600
488.953590
352.745652
215.327740
145.805478
99.288821
86.723566
89.701414
89.834929
89.573860
83.498955
71.845651
58.521628
43.632984
29.491782
20.515919
14.339685
12.136698
11.243820
11.003613
12.209415
12.020469
13.414621
13.127923
15.326738
15.355945
16.758442
18.525720
18.801689
19.800663
20.037889
21.724701
21.891594
23.393631
23.746490
23.087859
25.118589
25.199652
25.745630
24.494529
24.691820
26.234984
24.460554
22.107959
25.062561
23.990870
25.128722
23.484826
22.369623
23.302436
24.275780
23.643970
24.430752
22.327900
24.676919
21.891594
24.778843
23.050904
25.606751
25.560856
28.366446
30.027628
32.133460
32.086968
32.480955
31.140447
33.346415
30.956864
27.511716
28.437972
25.516748
24.572611
21.617413
19.528866
19.914508
16.623735
16.885996
17.529726
17.394423
17.018914
16.101599
16.005635
14.892817
15.086532
15.480518
14.686584
14.110804
15.154481
14.466643
14.714599
14.772415
15.708804
15.090704
14.719963
14.675856
16.013980
15.143752
15.733838
15.650988
14.698505
15.668869
14.973879
14.101863
20.840764
28.379560
52.122474
##ZVALUE=240
4.054904
3.477931
13.798475
39.776564
94.381571
216.865540
365.390778
625.832677
822.125673
1011.824012
1016.001701
1016.001701
1003.679633
780.183673
601.318479
378.071666
247.697830
153.170824
120.151639
114.937425
114.920735
121.889710
121.133924
102.412701
89.619756
64.089894
51.250458
41.169524
26.805997
18.551946
16.608834
14.499426
14.568567
14.584661
16.484857
17.533898
16.668439
16.941428
19.153953
19.397736
19.881725
21.247864
22.662878
23.455620
23.529530
24.825931
25.551915
24.692416
23.396611
24.358630
23.912787
25.165677
24.397969
25.059581
25.396943
24.279952
24.073720
24.319887
24.802685
23.950934
25.480986
24.507642
25.287867
22.843480
24.367571
24.123788
24.815798
24.926662
27.472973
28.375983
28.960705
29.655695
31.576753
32.543540
33.642650
33.143759
33.230782
30.358434
28.566718
29.597878
26.137829
26.155710
23.592710
21.469593
21.215677
18.940568
17.842650
18.911958
18.249750
17.166734
16.693473
16.806722
16.908646
16.873479
15.839934
16.874671
16.623735
16.522408
15.573502
16.369820
16.304851
16.833544
16.677976
16.804934
16.717911
15.691519
17.338991
17.441511
17.301440
16.713738
16.077757
15.670657
15.728474
14.180541
15.723705
15.792847
##ZVALUE=245
2.789497
2.597570
3.142953
3.301501
6.824732
26.726723
68.930984
190.816522
336.194634
597.885847
843.867660
1016.001701
1016.001701
1016.001701
1016.001701
1016.001701
837.504864
554.821491
368.462801
200.691819
140.714645
114.385486
121.946931
134.429932
135.619640
129.999518
117.437840
102.737546
80.602765
62.143803
41.008592
29.830933
20.065904
17.096996
16.063452
16.390681
16.061664
16.666651
17.609000
16.438961
19.447803
18.664598
19.106865
19.227862
20.662546
20.234585
19.893646
20.319819
21.611452
21.556616
20.972490
19.801855
23.016930
20.435452
21.391511
20.621419
21.080971
20.415783
20.715594
22.004843
21.200776
20.073652
20.657778
20.900965
20.288825
20.588636
18.896461
20.547509
21.474957
22.737980
24.538636
25.887489
28.765798
27.469993
30.263662
30.016899
26.379824
26.362538
23.939610
23.320913
22.169948
20.732880
20.175576
19.287467
16.411543
16.093850
15.405416
16.014576
15.806556
16.174912
16.311407
15.385747
14.255643
14.572740
15.558600
15.222430
14.512539
14.076829
15.796423
13.796687
13.589859
14.347434
15.537739
16.046762
15.563965
16.626716
13.820529
15.886426
15.132427
14.737844
14.100671
14.739633
16.278625
15.246868
15.271902
14.583468
##ZVALUE=250
2.118945
2.363920
2.295971
2.676845
2.704859
2.838969
4.240870
17.432570
52.903891
145.717859
288.059711
569.621921
831.170678
1016.001701
1016.001701
1016.001701
1016.001701
1016.001701
1016.001701
759.139061
516.334772
281.579494
175.385475
114.117861
114.410520
129.012465
139.735937
146.871805
145.146847
128.758550
107.427835
90.053678
62.382817
44.650435
27.849674
22.807717
18.998981
16.042590
16.983747
18.214583
18.182993
18.688440
19.260645
19.886494
20.730495
20.040870
21.091700
21.070838
20.266771
20.589828
20.962954
20.772815
20.912886
20.300746
22.478700
18.658638
19.325614
19.067526
20.494461
18.141866
18.731952
19.071698
18.351674
18.894672
17.814636
18.789768
17.616749
19.554496
20.051599
19.556880
21.620989
21.744967
23.532510
25.702715
25.139451
24.711490
24.214983
24.030805
22.455454
21.301508
19.890666
18.086433
16.667843
16.384721
15.555620
13.761520
13.720989
14.459491
13.163686
13.797879
13.831854
13.390779
12.555718
13.847947
12.574792
13.264418
12.658834
13.346672
13.545752
13.075471
13.254881
13.617873
12.626648
12.915730
13.192892
13.590455
13.317466
13.033748
13.626814
14.013648
12.936592
13.761520
13.891459
13.184547
12.792945
14.392734
##ZVALUE=255
2.030730
2.072453
2.461672
2.408624
2.268553
2.403855
2.849698
2.939701
3.242493
9.817481
32.462478
112.539530
233.911872
497.601628
754.534006
1016.001701
1016.001701
1016.001701
1016.001701
1016.001701
1016.001701
1002.843380
728.005767
400.111675
233.147740
127.378702
106.122494
109.536648
133.722425
146.982670
157.690644
154.125690
135.716796
116.678476
88.047981
67.904592
47.156811
34.354925
24.094582
21.105409
20.033717
20.592809
19.934773
22.484660
21.460652
22.946000
23.058653
22.660494
23.023486
23.169518
23.363829
22.579432
21.259785
21.872520
21.679997
21.154881
20.474792
19.553900
19.487739
20.041466
18.971562
19.203424
19.197464
18.749833
19.258857
17.578602
19.147992
18.847585
18.594861
19.245744
21.292567
20.828843
20.871758
22.875667
22.869706
21.467805
21.265745
20.238757
18.393993
18.515587
16.751885
15.864968
14.826655
13.438463
12.819767
13.653636
12.759566
11.971593
11.583567
12.394786
11.801720
12.992620
11.740923
11.655688
11.165738
12.017488
11.814833
11.456609
11.711717
11.371970
10.987520
11.610985
12.386441
11.287928
13.196468
12.229681
12.596846
12.314916
12.188554
11.675954
12.437701
12.490749
11.879802
12.314916
12.621880
12.034774
##ZVALUE=260
1.866817
2.026558
1.862645
2.156496
2.266765
2.118945
2.317429
2.217889
2.594590
2.728701
3.010631
5.111694
18.463731
74.627399
161.635876
385.839939
634.985566
1004.104018
1016.001701
1016.001701
1016.001701
1016.001701
1016.001701
1016.001701
963.028669
566.457510
361.572504
182.907581
115.335584
98.986626
114.077926
138.284564
157.325864
165.261626
161.371827
145.538449
121.714473
98.563433
72.313547
53.961873
40.079951
30.657649
27.231574
25.302768
24.558902
25.459528
25.654435
25.698543
25.609732
25.727749
26.099682
25.992990
25.088787
25.019646
23.749471
22.547841
22.324920
22.048950
21.927953
21.042824
20.222664
19.258857
19.814968
18.802881
18.100739
19.283891
18.857718
18.137693
18.191934
18.459558
18.388629
20.524859
20.470619
20.632744
20.292997
20.067692
19.020438
17.359853
17.245412
16.102791
14.553666
14.747977
13.769865
12.604594
12.341738
12.519956
11.752844
11.319518
11.339784
10.812879
10.660887
11.155605
9.887815
10.343790
10.753870
10.862947
9.968877
10.015965
10.488629
10.506511
11.480451
11.114478
10.614991
10.978580
10.920763
10.757446
11.117458
10.893941
11.022687
11.473894
11.622906
10.710955
10.718703
10.744929
10.845661
10.628700
##ZVALUE=265
1.622438
1.799464
1.568794
1.686811
1.856685
2.034903
2.020597
2.019405
2.216697
2.138615
2.351999
3.011823
2.727509
3.708601
9.182692
48.618913
119.855404
306.430459
536.819696
976.336002
1016.001701
1016.001701
1016.001701
1016.001701
1016.001701
1016.001701
1016.001701
862.722993
461.909771
273.828506
133.411884
91.880560
98.019838
118.726492
147.958994
166.085958
171.712637
168.482661
146.720409
134.305954
100.983977
81.640482
59.240460
47.391653
36.250949
31.852722
30.234456
30.170679
28.987527
29.577613
30.071735
30.249953
27.932525
28.955936
26.783943
26.532412
25.952458
24.384856
24.183989
22.833943
23.229718
22.012591
20.992756
20.703673
20.229816
19.472837
18.910766
19.171834
19.652843
19.987822
19.834638
19.767880
19.681454
19.997954
19.479990
19.245744
18.530488
17.371774
15.842915
15.958548
14.774799
13.287663
12.733936
12.394786
12.797713
11.444688
11.013746
11.038780
10.444522
10.847449
10.615587
9.992719
10.913610
10.368824
10.361671
10.427833
10.237694
10.347962
9.944439
10.553598
10.469556
10.533929
10.213852
10.585785
10.745525
10.225773
10.617971
10.961890
9.870529
10.665655
10.401607
10.469556
10.328889
10.781884
10.491610
10.009408
##ZVALUE=270
1.392961
1.664758
1.648664
1.733899
1.605749
1.699924
1.582503
2.188683
1.681447
2.036691
1.973510
2.211928
2.470613
2.242923
2.748966
2.819896
4.458427
22.991896
68.997741
224.679708
429.247618
863.463879
1016.001701
1016.001701
1016.001701
1016.001701
1016.001701
1016.001701
1016.001701
1016.001701
709.204674
433.750749
197.958946
106.764436
80.114603
97.588897
126.764774
149.308443
172.236562
179.364681
175.486803
161.659718
138.775706
115.932822
85.702538
68.764687
50.097704
42.622685
37.770867
35.843849
34.093857
33.771992
32.455921
31.769872
31.160712
29.912591
28.790832
27.743578
27.022958
26.441813
25.102496
23.812652
22.406578
22.141933
21.812916
20.920634
21.207929
20.289421
19.997954
20.476580
20.565987
19.927621
20.507574
20.180941
20.028949
19.909739
17.658472
17.434955
16.030669
15.669465
15.055537
14.001727
13.333559
12.942553
12.249947
11.764765
11.408925
11.184812
10.101795
10.902882
10.233521
9.924769
9.692907
9.627938
9.677410
10.059476
9.785891
9.728670
9.714961
9.255409
9.620786
10.222793
9.918809
9.928942
10.168552
10.432601
10.047555
10.424852
10.383725
9.548664
10.705590
10.106564
9.274483
9.479523
9.538531
9.634495
##ZVALUE=275
1.581907
1.233816
1.597404
1.536608
1.826882
1.406670
1.507998
1.736879
1.810789
1.796484
1.638532
1.728535
2.036691
2.348423
2.258420
2.404451
2.466440
3.331900
3.468990
10.910630
39.699674
151.715875
328.740478
717.999935
1016.001701
1016.001701
1016.001701
1016.001701
1016.001701
1016.001701
1016.001701
1016.001701
964.221954
601.212978
276.196599
144.878626
78.686476
77.266693
105.016828
127.753615
151.677728
175.659657
183.375478
181.010962
168.571472
140.516758
117.110610
89.151859
72.114468
56.000948
44.058561
38.735867
35.092831
33.277869
32.346845
30.634999
29.427409
28.733611
27.404428
27.433634
25.992990
26.065707
24.287701
24.328828
22.590756
21.628737
22.242665
20.945668
20.232797
20.806789
20.089746
20.941496
19.918680
20.523667
20.516515
19.338727
18.594861
17.666817
17.031431
15.701652
14.155507
14.420748
13.192892
12.210608
12.198687
11.782646
11.387467
11.349916
11.121631
10.629892
10.448694
10.317564
10.013580
9.359717
10.076761
9.799600
9.448528
9.600520
9.364486
9.037852
9.851456
9.382963
9.912848
9.225607
9.534955
9.517670
9.920597
9.672642
9.591579
9.655952
9.765625
9.416938
9.601712
9.385943
8.946657
9.382963
##ZVALUE=280
1.434684
1.232624
1.268983
1.329780
1.514554
1.285672
1.746416
1.489520
1.478791
1.534820
1.611710
1.774430
1.866817
1.857877
1.984835
1.917481
2.257824
2.447963
2.836585
2.961755
3.454685
6.027818
22.653937
109.784007
248.825550
581.125617
921.134949
1016.001701
1016.001701
1016.001701
1016.001701
1016.001701
1016.001701
1016.001701
1016.001701
710.947514
409.596562
172.673464
91.678500
65.190792
78.460574
104.120970
129.921436
159.160495
171.559453
181.496739
177.998543
157.835484
141.447783
110.546947
87.404847
65.421462
50.521493
38.706660
33.466816
29.393435
28.431416
26.678443
26.872754
25.490522
25.208592
23.568869
23.082495
22.656918
22.005439
21.501780
21.135807
20.085573
20.327568
19.737482
20.686984
20.722747
20.188689
19.785762
19.503832
18.793941
18.039942
17.741919
16.134977
15.564561
14.314651
13.729930
12.606978
12.846589
12.303591
11.540651
11.904836
10.636449
10.866523
10.674596
9.742975
10.201931
9.871721
9.539723
9.696484
9.684563
9.156466
9.506941
9.143949
9.371638
9.618998
9.791851
9.266734
9.606481
9.570718
9.703636
9.072423
9.528995
9.500980
9.336472
9.204745
9.417534
9.161830
8.949637
9.480715
9.301901
##ZVALUE=285
1.405478
1.358986
1.101494
1.351833
1.045465
1.036525
1.326799
1.429915
1.522899
1.248717
1.431704
1.659989
1.477599
1.656413
1.633763
2.036691
1.991987
2.278686
2.202988
2.350807
2.381802
3.050566
3.061891
4.020929
10.359883
57.092905
145.516396
301.617980
673.223734
1011.160016
1016.001701
1016.001701
1016.001701
1016.001701
1016.001701
1016.001701
1016.001701
987.854600
534.995794
298.436880
124.390721
67.643523
55.489540
69.670677
96.241832
118.724704
145.754814
161.128640
171.375871
165.070891
152.225494
132.550001
103.521943
83.581805
58.090687
45.823455
32.046437
27.155876
24.303794
22.650957
21.792650
21.568537
21.468997
20.430684
19.469857
19.388795
18.963814
18.913746
19.104481
18.918514
18.174648
18.940568
17.791986
18.281937
18.379688
17.345548
16.501546
16.236901
15.098453
14.223456
13.483763
12.931824
12.070537
12.257695
11.567473
11.354685
11.350513
11.098981
10.945797
10.341406
10.081530
10.374784
9.643435
9.472966
9.668469
9.292960
9.743571
9.333491
9.762645
9.259582
9.257793
9.427667
9.113550
9.134412
9.335876
9.006858
9.442568
9.079576
9.599924
8.922815
9.162426
9.153485
8.763671
9.080768
8.253455
8.734465
##ZVALUE=290
1.181960
0.983477
1.239777
1.221895
1.286864
1.227856
1.277924
1.241565
1.267791
1.503825
1.192689
1.500845
1.505613
1.466870
1.609921
1.602769
1.539588
1.782775
2.117753
2.121925
2.362728
2.327561
2.516508
2.877712
2.940893
3.827810
4.658699
24.024844
78.132749
193.473697
485.924482
827.451944
1016.001701
1016.001701
1016.001701
1016.001701
1016.001701
1016.001701
1016.001701
1016.001701
855.059028
409.713387
210.275650
77.733994
43.253899
47.372580
60.340762
85.479617
107.179880
129.410625
152.457952
158.611536
157.639980
145.692825
120.863914
100.361705
71.240664
53.971410
36.552548
28.808713
21.849871
19.478798
17.918944
17.576814
17.248988
16.459823
16.457438
16.964674
16.146898
15.952587
16.909838
16.721487
16.532540
16.661882
15.816689
15.687943
15.239716
14.411807
13.252497
13.091564
12.762547
12.134910
11.710525
11.297464
11.190772
10.984540
10.675788
10.655522
10.237694
10.232925
10.157824
9.953976
9.217858
9.479523
9.307861
9.310842
9.125471
9.297729
9.191632
9.364486
9.510517
9.042621
9.572506
8.976460
9.598732
9.328723
9.607673
9.524822
9.484887
9.516478
9.090900
8.903742
8.533597
8.879900
8.686781
8.724928
##ZVALUE=295
0.980496
1.039505
1.063943
1.061559
1.065731
1.205802
1.208782
1.393557
1.244545
1.118779
1.390576
1.290441
1.319647
1.274943
1.344681
1.638532
1.664758
1.687407
1.677871
1.854897
1.695752
1.918674
1.990795
2.283454
2.337694
2.630949
2.946854
3.058910
3.760457
6.702542
41.045547
120.154023
343.274474
657.474995
1016.001701
1016.001701
1016.001701
1016.001701
1016.001701
1016.001701
1016.001701
1016.001701
962.857008
603.677034
263.261795
123.468637
45.764446
31.713843
41.732788
54.138899
79.203844
99.813938
125.069618
139.061809
147.867799
146.455765
130.898952
114.795566
89.655519
70.309639
48.146844
34.592748
23.778677
18.734932
15.912652
14.226437
14.050603
14.563799
14.144778
14.452934
14.719963
14.694929
15.004873
14.801621
14.428496
13.734698
13.536811
13.026595
12.693405
12.050867
11.987686
11.775494
10.922551
10.818839
10.807514
10.791421
9.748936
10.013580
9.823442
10.220408
9.845495
9.512901
9.604692
9.376407
9.136796
9.433627
9.393692
9.179711
9.622574
9.677410
9.527802
8.972883
9.427667
9.468794
9.213686
9.087920
9.236932
9.368658
9.510517
9.231567
9.048581
9.244680
9.178519
8.846521
8.825660
8.957982
##ZVALUE=300
1.062751
1.017451
0.959635
0.978708
0.797510
1.000762
0.971556
1.126528
1.205802
1.110435
1.166463
1.238585
1.189709
1.208782
1.385808
1.475811
1.354814
1.316667
1.476407
1.401901
1.675487
1.828671
1.856685
2.098680
2.115965
2.017617
2.377629
2.328753
2.694726
2.740622
3.386736
3.932714
16.951561
68.045855
239.940882
471.087694
950.258970
1016.001701
1016.001701
1016.001701
1016.001701
1016.001701
1016.001701
1016.001701
1016.001701
818.246007
403.509736
208.953023
70.392489
33.020973
26.943684
34.223795
49.593449
66.836476
91.860890
112.579465
131.756663
137.116909
138.660669
128.938556
107.382536
89.046955
63.172579
48.275590
31.905770
23.307800
16.476512
13.949871
12.559891
13.201833
12.799501
12.676716
13.414621
13.432503
13.150573
12.419820
12.463927
12.299418
11.506677
11.153817
11.025667
10.528564
10.401607
10.060668
9.867549
10.151863
9.804964
9.660721
9.534955
9.901524
9.537935
9.443760
9.259582
9.133816
9.379983
9.068847
9.254813
9.181499
8.990765
9.341836
9.563565
9.321570
9.343624
9.147525
9.400845
9.885430
9.383559
9.363890
9.454489
9.378791
9.187460
9.550452
9.001493
8.818507
9.064674
8.755922
##ZVALUE=305
0.925660
0.827909
0.857711
0.895858
0.740886
1.081824
0.864863
1.082420
1.067519
1.067519
1.167655
1.008511
1.097918
1.191497
1.291633
1.231432
1.234412
1.231432
1.328588
1.328588
1.243949
1.426935
1.525879
1.587868
1.517534
1.930594
1.965761
2.110600
2.302527
2.430677
2.591610
3.298521
3.314614
3.596544
9.918809
38.874745
161.198378
350.045562
773.868561
1016.001701
1016.001701
1016.001701
1016.001701
1016.001701
1016.001701
1016.001701
1016.001701
986.722708
529.542565
288.003683
107.999444
44.836402
21.319985
22.686720
31.848550
44.275522
66.129565
84.280968
106.683969
120.227933
131.109953
129.663944
116.780996
103.319883
80.342889
62.154531
42.140484
31.274557
20.111799
15.623569
12.929440
12.439489
12.467504
12.145638
11.885762
11.490583
11.135936
10.857582
10.177493
10.305643
10.075569
10.381937
9.626746
9.644628
9.842515
9.282827
9.259582
9.236932
9.261966
9.261966
8.944869
9.098649
8.742809
9.042621
9.173751
8.650422
9.157658
9.051561
8.827448
9.005666
9.103417
9.453893
9.143949
9.450912
9.803772
9.127855
9.582639
9.827614
9.324551
9.700656
9.309649
9.603500
9.306669
9.152889
9.430647
8.758903
##ZVALUE=310
0.855923
0.902414
0.846982
0.856519
0.882745
0.849962
0.863671
0.920892
1.015663
0.970960
0.986457
1.069903
0.995994
0.948906
1.040697
1.210570
1.108646
0.899434
1.190901
1.171827
1.124740
1.306534
1.522899
1.521707
1.636744
1.674891
1.883507
1.896620
1.879930
1.885891
1.923442
2.159476
2.511740
2.655983
3.327727
3.411770
4.804730
15.590787
87.800622
209.793448
517.400503
885.121822
1016.001701
1016.001701
1016.001701
1016.001701
1016.001701
1016.001701
1016.001701
1016.001701
769.562721
447.648764
181.104541
80.360770
24.941564
16.336441
19.692779
26.639700
39.782524
53.852797
75.653791
94.534755
113.356709
120.270848
122.190714
115.842819
98.277926
81.343651
57.382584
42.417645
28.147697
21.196604
14.842749
12.814999
11.746883
10.640621
10.265708
10.153651
9.986758
9.573698
9.703636
9.738803
9.031892
9.231567
9.237528
8.866787
8.894801
8.995533
9.115934
8.974671
9.057522
8.752942
8.804798
8.954406
8.808970
8.425713
8.884668
8.788705
8.777976
8.951426
8.499622
9.382963
9.133816
9.091496
9.577870
9.367466
9.316802
9.634495
9.620786
9.355545
9.745955
9.215474
9.213686
9.465814
9.400845
9.068847
##ZVALUE=315
0.746846
0.852942
0.726581
0.760555
0.720620
0.683665
0.794530
0.994802
0.841618
0.958443
0.694990
1.013875
1.070499
0.889897
1.115799
1.025796
0.990629
1.039505
1.082420
1.106858
1.157522
1.234412
1.457930
1.409650
1.372695
1.295805
1.399517
1.564622
1.582503
1.798868
1.933575
1.888871
2.127886
2.216697
2.620816
2.506971
2.914667
3.351569
3.838539
6.987453
43.784976
128.689408
369.503498
670.522451
1016.001701
1016.001701
1016.001701
1016.001701
1016.001701
1016.001701
1016.001701
1016.001701
970.314741
614.591837
274.725556
123.059750
32.401681
15.760660
14.094710
16.952753
23.973584
34.230947
51.556826
67.443848
88.282824
102.146864
113.444924
114.672780
106.379986
93.580484
72.533488
57.236552
40.566921
29.372573
19.394755
14.945865
10.812879
9.729862
9.384751
9.022951
8.780956
8.314848
8.534789
8.399487
8.493662
8.610487
8.473992
8.610487
8.535981
8.530617
8.595586
8.784533
8.475780
8.655787
9.016991
8.984804
8.616447
8.696914
9.003878
8.761883
8.964539
9.192824
8.910894
9.122491
9.198785
9.563565
9.410977
9.824634
9.621978
9.706616
9.584427
9.669662
9.385943
9.520650
9.260774
9.380579
##ZVALUE=320
0.700951
0.705719
0.828505
0.771880
0.840425
0.829697
0.820756
0.901818
0.799894
0.857711
0.974536
0.898838
0.881553
0.817776
0.955462
0.928640
1.125932
0.933409
1.075864
1.123548
1.059771
1.111627
1.038909
1.354814
1.362562
1.324415
1.324415
1.438856
1.477599
1.296997
1.632571
1.670718
1.739860
1.940727
2.245903
2.139807
2.414584
2.535582
2.747774
3.174543
3.327727
3.990531
20.088553
70.678592
247.318745
494.089723
967.478752
1016.001701
1016.001701
1016.001701
1016.001701
1016.001701
1016.001701
1016.001701
1016.001701
815.213919
364.033580
182.442665
61.122775
23.549795
12.143850
12.690425
16.091466
20.802617
32.260418
44.194460
64.007640
81.264973
98.156929
105.853677
107.853413
103.037953
88.118911
73.912740
53.798556
41.152835
26.278496
18.502474
12.320876
10.127425
8.827448
8.185506
8.270741
8.103848
8.006692
7.958412
8.012652
8.246899
8.551478
7.853508
8.250475
8.253455
8.154511
8.599758
8.484721
8.477569
8.845925
8.709431
8.896589
8.835793
8.953810
9.046793
9.153485
9.436607
9.515882
9.512901
9.832978
9.697676
9.593964
9.558797
9.879470
9.676814
9.758472
9.639859
9.685755
9.517670
##ZVALUE=325
0.740886
0.754595
0.836849
0.816584
0.970960
0.767708
0.734925
0.752807
0.758767
0.833869
0.813603
0.820756
0.840425
0.968575
0.810623
0.745654
0.906587
0.956655
0.802875
0.933409
0.944734
1.084805
1.204610
1.187921
1.146793
1.296997
1.219511
1.243949
1.147985
1.291633
1.482964
1.408458
1.319647
1.544952
1.674891
1.798868
2.016425
2.162457
2.368689
2.410412
2.747774
2.957582
3.389716
3.755689
10.118484
42.045712
164.328814
347.628593
772.759914
1016.001701
1016.001701
1016.001701
1016.001701
1016.001701
1016.001701
1016.001701
1016.001701
956.864953
499.085784
266.912580
91.811419
34.188628
12.336969
11.133552
11.438727
13.841987
20.524859
29.392838
45.554638
60.857534
81.605911
91.552734
101.084709
101.846457
94.760656
83.775520
64.584613
49.847960
33.075809
24.041533
16.512871
12.021661
9.356737
8.180737
7.870793
7.675886
7.349849
7.685423
7.829666
7.823706
7.826686
8.057952
8.212924
8.325577
8.176565
8.161664
8.353591
8.409619
8.676648
8.748770
9.042621
9.201765
9.247661
9.336472
9.702444
9.241700
9.580851
9.649992
9.852648
9.917617
10.119677
9.668469
9.574890
9.865761
9.614825
9.249449
##ZVALUE=330
0.901818
0.732541
0.752807
0.688434
0.794530
0.718832
0.709891
0.627637
0.660419
0.786781
0.719428
0.791550
0.927448
0.884533
0.749826
0.790954
0.846982
0.771880
1.012683
0.990629
0.874996
0.950694
0.999570
1.051426
1.122952
1.140833
1.149774
1.111627
1.328588
1.224875
1.111627
1.274943
1.255870
1.375675
1.571774
1.541972
1.684427
1.685619
1.971722
2.078414
1.985431
2.448559
2.589822
2.637506
2.879500
3.502965
5.286932
18.474460
96.556544
228.998661
548.845530
920.808911
1016.001701
1016.001701
1016.001701
1016.001701
1016.001701
1016.001701
1016.001701
1016.001701
665.699840
362.689495
134.818554
56.204796
16.745925
10.805726
10.230541
10.647774
14.131665
19.049644
30.728579
40.960908
57.755709
70.795417
86.841583
93.460679
93.615651
87.626576
74.526668
60.950518
44.808984
34.366846
22.644997
16.724467
11.407733
9.104609
8.193851
7.417798
7.299781
7.632971
7.498860
7.557869
7.668734
7.864833
8.037686
8.167624
8.181930
8.027554
8.473992
8.807778
8.410811
9.111762
8.930564
8.982420
9.535551
9.426475
9.837747
9.782910
9.941459
9.715557
9.494424
9.834766
9.807944
9.955764
9.401441
9.385943
##ZVALUE=335
0.778437
0.641942
0.684857
0.713468
0.616908
0.748634
0.811815
0.706911
0.752807
0.798702
0.808835
0.760555
0.617504
0.756979
0.777841
0.751615
0.779629
0.791550
0.876784
0.991821
0.965595
0.700951
0.918508
0.959635
0.916719
0.967979
1.052618
1.147985
1.065731
1.058578
1.153946
1.180768
1.205802
1.305938
1.289845
1.370907
1.429915
1.624823
1.655817
1.631975
1.775622
1.982450
2.069473
1.951456
2.398491
2.491474
3.059506
3.238916
3.621578
8.327961
49.639940
138.736963
390.537381
693.492889
1016.001701
1016.001701
1016.001701
1016.001701
1016.001701
1016.001701
1016.001701
1016.001701
853.514671
502.263904
205.685496
89.476705
24.634600
11.900663
9.844899
9.618998
10.862947
12.843609
19.152761
26.143789
39.498806
51.000714
68.437457
79.586506
87.174773
87.959766
81.317425
72.336793
58.016777
46.460629
32.491684
23.926497
16.273856
12.149811
9.211898
8.334517
7.524490
7.662773
7.906556
7.763505
7.930994
8.142591
8.175969
8.026958
8.492470
8.560419
8.257627
8.666515
8.605719
8.759499
9.201765
9.435415
9.446740
9.491444
9.587407
10.075569
9.970665
9.707808
9.451509
9.512901
9.276867
9.237528
##ZVALUE=340
0.626445
0.552535
0.619888
0.674725
0.477433
0.723600
0.738502
0.614524
0.633597
0.706911
0.686646
0.732541
0.734925
0.800490
0.680685
0.695586
0.772476
0.743866
0.880957
0.849962
0.862479
0.921488
0.661612
0.856519
0.880957
0.838637
1.159906
1.127720
0.911951
1.135468
1.034737
0.869632
1.183748
1.161695
1.172423
1.352429
1.358986
1.253486
1.446605
1.522899
1.539588
1.534820
1.866817
1.765490
1.668930
2.046824
2.412796
2.654791
2.829432
2.864599
3.438592
4.774928
25.564432
83.186626
265.272856
528.552532
1010.744572
1016.001701
1016.001701
1016.001701
1016.001701
1016.001701
1016.001701
1016.001701
985.928774
631.057620
279.303789
127.690434
32.851696
13.496876
9.724498
9.357929
9.514689
10.059476
12.438893
16.427636
25.648475
35.893917
51.402450
62.405467
75.961947
79.970956
81.914663
78.158975
67.895651
58.380961
43.191910
33.049583
22.822618
16.607642
11.871457
9.559989
8.512735
8.089542
7.827878
8.217692
7.697940
8.054972
8.222461
8.372664
8.432865
8.420944
8.648634
8.763671
9.176731
9.282827
9.398460
9.479523
9.758472
9.893775
9.569526
9.704828
9.638667
9.665489
9.693503
9.231567
##ZVALUE=345
0.620484
0.620484
0.579953
0.696778
0.635982
0.593662
0.670552
0.585914
0.527501
0.702739
0.663996
0.726581
0.747442
0.708699
0.923872
0.714660
0.779629
0.595450
0.692606
0.819564
0.829697
0.800490
0.908971
0.968575
0.932813
1.108646
1.128912
0.803471
0.993609
0.881553
0.865459
1.067519
1.050830
0.938773
1.226664
1.115799
1.184940
1.212955
1.230836
1.429915
1.309514
1.471639
1.504421
1.498461
1.632571
1.684427
1.683831
1.873970
1.968741
2.065897
2.552867
2.474785
3.012419
3.506541
10.229945
42.032599
172.059536
368.829370
798.671842
1016.001701
1016.001701
1016.001701
1016.001701
1016.001701
1016.001701
1016.001701
1016.001701
813.086033
360.956788
175.180435
57.800412
21.308661
10.285974
9.367466
8.752942
8.577704
9.209514
10.526776
15.445948
22.038817
33.958554
44.481754
58.055520
66.464543
74.032545
75.637698
70.817471
65.258741
53.590536
43.767691
30.887723
23.772717
15.894771
12.820959
9.985566
8.842945
8.264780
7.995963
7.869601
7.782578
8.100867
8.214712
8.896589
8.568764
8.741617
9.074807
8.984804
9.118915
9.672642
9.463429
9.116530
9.613633
9.567738
9.397864
9.250641
8.867979
##ZVALUE=350
0.681877
0.745654
0.718832
0.681877
0.578761
0.765920
0.739694
0.795722
0.699759
0.776649
0.759959
0.598431
0.601411
0.616908
0.826716
0.898838
0.828505
0.770688
0.833869
0.730753
0.618696
0.679493
0.791550
0.817776
0.818968
0.905991
0.784993
0.998974
0.924468
0.964999
0.877976
1.133680
1.066923
1.183748
1.020432
1.131892
1.190901
1.342893
1.210570
1.285672
1.230836
1.253486
1.530647
1.268983
1.396537
1.578927
1.619458
1.765490
1.765490
1.933575
2.131462
2.119541
2.343655
2.601743
2.855659
3.419518
5.578995
21.044612
101.632476
236.147642
571.970940
951.436758
1016.001701
1016.001701
1016.001701
1016.001701
1016.001701
1016.001701
1016.001701
943.105817
459.393859
243.813992
87.198615
31.231642
10.766983
8.791685
8.042455
7.509589
7.538795
7.922649
10.281801
13.696551
20.366907
27.751923
39.691925
48.968792
60.703754
66.711903
69.950819
68.298578
60.498714
52.344799
40.906668
32.259822
22.787452
17.383695
12.834668
10.814667
9.166598
8.290410
7.953644
8.166432
8.130670
8.415580
8.435845
8.523464
9.073615
9.036660
9.174943
8.937716
8.950830
9.027719
8.888841
8.954406
8.762479
8.585453
##ZVALUE=355
0.596642
0.667572
0.612736
0.713468
0.575781
0.603795
0.741482
0.677705
0.701547
0.730753
0.601411
0.667572
0.571609
0.662804
0.759959
0.741482
0.779629
0.735521
0.761747
0.735521
0.829697
0.648499
0.839829
0.821948
0.855923
0.886917
1.022816
0.892878
0.952482
0.825524
0.896454
1.049638
1.023412
1.019835
1.009703
1.017451
1.099706
1.197457
1.162887
1.296997
1.282692
1.222491
1.270771
1.346469
1.376867
1.446605
1.487732
1.648664
1.681447
1.704693
1.772642
1.784563
1.959801
1.956820
2.455711
2.614856
2.791882
3.049970
3.934503
8.387566
54.190755
149.859786
408.442616
723.095536
1016.001701
1016.001701
1016.001701
1016.001701
1016.001701
1016.001701
1016.001701
1016.001701
626.776814
334.725976
122.494698
47.965646
13.039708
8.789897
7.814765
7.577538
7.037520
6.966591
7.252693
8.723736
12.485981
16.775727
25.487542
33.309460
45.345426
53.678751
61.344504
63.907504
62.526464
57.980418
48.643947
41.525960
31.358600
24.061799
17.247796
13.462901
10.162592
9.026527
8.226633
7.991791
8.147955
8.434653
8.588433
8.812547
8.639693
8.289814
8.519888
8.346438
8.567572
7.848740
8.091927
8.225441
##ZVALUE=360
0.758767
0.540614
0.675917
0.534654
0.725985
0.639558
0.849962
0.705719
0.732541
0.626445
0.761747
0.630617
0.837445
0.667572
0.649691
0.767708
0.703931
0.645518
0.958443
0.720620
0.789762
0.832677
0.773668
0.936985
0.901818
0.852942
0.970960
0.935793
1.141429
0.932813
0.892878
0.957847
0.931621
1.021624
0.950694
0.984669
1.036525
1.004934
1.131892
1.104474
1.283884
1.205802
1.362562
1.282692
1.409650
1.398921
1.494884
1.521707
1.434684
1.499653
1.603961
1.878738
1.655817
1.837611
2.095699
2.067685
2.256632
2.505779
2.891421
3.135800
3.582835
4.948974
24.325848
79.026818
261.712670
508.382916
974.027514
1016.001701
1016.001701
1016.001701
1016.001701
1016.001701
1016.001701
1016.001701
797.810555
458.562970
175.996423
71.028471
17.540455
9.104609
7.721782
7.240772
6.832480
6.538630
6.478429
6.611943
8.064508
9.917617
14.918447
20.126700
29.459000
37.288666
47.063828
54.160953
58.470964
58.407784
53.796768
48.646927
39.273500
32.327771
24.102926
18.990636
13.430715
11.002421
9.494424
8.400679
7.804632
7.792711
7.895827
7.826686
7.523894
7.466674
7.590652
7.421970
6.893873
7.020831
##ZVALUE=365
0.651479
0.684857
0.672936
0.619888
0.751615
0.722408
0.679493
0.704527
0.679493
0.672936
0.754595
0.793934
0.840425
0.779629
0.759959
0.787973
0.771880
0.790954
0.693798
0.880957
0.865459
0.688434
0.873804
0.796914
0.870824
0.865459
1.009703
1.036525
0.929832
0.939965
0.862479
0.986457
1.014471
0.847578
0.903606
0.857711
0.992417
0.930429
1.152754
1.045465
1.187921
1.135468
1.303554
1.260638
1.204610
1.343489
1.367927
1.465678
1.459718
1.456738
1.420975
1.589656
1.729727
1.754761
1.762509
1.821518
1.865625
2.006888
2.156496
2.213717
2.751946
3.041625
3.598928
3.866553
9.836555
37.665963
158.541799
344.133973
786.834955
1016.001701
1016.001701
1016.001701
1016.001701
1016.001701
1016.001701
1016.001701
962.767005
584.953427
249.439478
116.705894
34.187436
12.507439
7.705688
7.125735
6.831884
6.252527
5.806684
6.022453
6.066561
6.814599
9.316802
12.356639
18.980503
24.964809
33.203959
40.626526
48.232675
52.000880
53.504705
52.697659
46.538711
40.938854
31.971931
25.682449
18.356442
14.691949
11.325479
8.572936
8.305907
7.584691
7.236600
6.904602
6.610751
6.533861
6.508827
6.455779
##ZVALUE=370
0.716448
0.567436
0.678897
0.604987
0.694990
0.650883
0.621676
0.623465
0.613928
0.631809
0.824928
0.722408
0.654459
0.715852
0.734925
0.796914
0.519753
0.593662
0.693798
1.055598
0.775456
0.672936
0.760555
0.656843
0.718832
0.755787
0.740886
0.947714
0.798702
0.975728
0.821948
0.928640
0.924468
0.860691
0.828505
0.906587
1.022816
1.001954
1.008511
1.072884
0.940561
1.057982
1.057982
0.938773
1.025796
1.087785
1.170635
1.078844
1.382828
1.192689
1.357794
1.301765
1.423955
1.249909
1.485944
1.595616
1.682639
1.644492
1.838803
1.756549
2.023578
2.243519
2.567768
2.740622
2.921820
3.307462
5.477667
19.887686
107.226968
262.896419
620.228648
970.191956
1016.001701
1016.001701
1016.001701
1016.001701
1016.001701
1016.001701
1016.001701
744.029880
354.037881
172.623992
56.367517
20.384789
7.828474
6.560683
6.336570
5.858541
5.681515
5.633831
5.786419
5.911589
7.046461
8.327961
11.381507
15.357733
21.942854
28.094649
36.731958
42.630434
48.536658
50.423741
49.574971
45.934916
39.429665
33.170581
24.846792
18.574595
15.021563
11.398792
9.334683
7.860661
7.083416
6.647706
6.072521
5.944967
##ZVALUE=375
0.640750
0.639558
0.675917
0.544786
0.600815
0.646710
0.654459
0.611544
0.720620
0.618696
0.530481
0.642538
0.567436
0.643730
0.674725
0.659823
0.599623
0.637770
0.619888
0.541806
0.649691
0.686646
0.670552
0.722408
0.737906
0.801682
0.842810
0.851750
0.869632
0.776649
0.750422
0.875592
0.791550
0.910759
0.846982
0.868440
0.917912
0.818968
0.973940
1.024604
0.967979
0.855923
0.965595
1.047850
1.061559
1.010895
1.019835
0.928640
1.092553
1.012683
1.084805
1.222491
1.304746
1.299977
1.388788
1.292825
1.483560
1.355410
1.352429
1.445413
1.629591
1.708865
1.973510
2.038479
2.162457
2.215505
2.511740
2.923608
3.898740
10.179877
60.540438
155.388713
408.069491
733.608007
1016.001701
1016.001701
1016.001701
1016.001701
1016.001701
1016.001701
1016.001701
956.235528
517.755747
284.449458
105.750561
40.737987
10.605454
6.751418
6.113648
5.930662
5.799532
5.878806
5.953908
5.851984
6.266832
6.604791
7.769465
9.501576
13.836622
17.726421
25.429726
31.079650
39.615631
44.110417
48.034787
48.023462
45.263767
38.973689
34.071803
27.232766
21.801591
16.476512
12.744665
9.432435
7.746816
6.480813
##ZVALUE=380
0.528693
0.519753
0.512600
0.629425
0.566840
0.553727
0.550747
0.487566
0.599623
0.575781
0.594854
0.607967
0.755787
0.643730
0.568628
0.652671
0.680685
0.504851
0.731945
0.717640
0.736713
0.664592
0.680685
0.644922
0.713468
0.739694
0.898838
0.812411
0.922680
0.924468
0.965595
0.883937
1.009703
0.765920
1.003742
0.817776
0.930429
0.957847
0.998974
0.742674
0.964999
0.918508
1.001954
0.929832
1.100898
0.990629
0.940561
1.004934
1.186728
1.016855
1.008511
1.107454
1.084805
1.281500
1.398921
1.289845
1.270771
1.310706
1.428723
1.191497
1.505613
1.477599
1.538992
1.487732
1.655817
1.855493
1.951456
2.150536
2.479553
2.979636
3.596544
5.426407
29.480457
94.282627
296.580791
566.128492
1016.001701
1016.001701
1016.001701
1016.001701
1016.001701
1016.001701
1016.001701
1016.001701
711.573958
409.985781
160.069466
69.005489
17.085671
7.728934
6.486773
6.365776
6.179810
6.170869
6.358624
6.229877
5.802512
5.529523
5.835891
6.675720
8.502603
11.380911
16.235709
21.686554
29.536486
35.147667
42.110682
45.357943
45.814514
44.057965
40.401816
34.036636
28.504729
21.225810
16.588569
11.730790
##ZVALUE=385
0.550747
0.720620
0.549555
0.559688
0.651479
0.464916
0.647902
0.429749
0.584722
0.525713
0.517964
0.604987
0.487566
0.529885
0.442863
0.508428
0.321865
0.638962
0.589490
0.600815
0.609756
0.576973
0.555515
0.682473
0.618696
0.817776
0.753999
0.896454
0.943542
0.914931
1.084805
1.019835
0.862479
1.073480
0.918508
1.079440
0.996590
0.940561
1.110435
0.915527
0.946522
0.940561
1.002550
0.938773
1.047850
1.055598
1.072884
0.961423
1.144409
0.990629
1.061559
0.948906
0.872612
1.089573
1.035929
1.159906
1.167655
1.250505
1.201630
1.344681
1.334548
1.197457
1.501441
1.560450
1.595616
1.615882
1.696944
1.856685
2.162457
2.598763
2.939701
3.209710
3.321767
3.916621
13.090968
49.433708
199.501514
424.616933
899.174809
1016.001701
1016.001701
1016.001701
1016.001701
1016.001701
1016.001701
1016.001701
941.557884
586.918592
258.450508
118.576884
31.330585
11.257529
6.944537
6.174445
6.313920
6.067753
6.048679
5.614758
5.417466
5.204678
5.014539
5.002618
6.020665
7.083416
9.906888
14.714599
19.099712
25.993586
31.080842
36.790967
39.867759
42.237639
41.287541
37.713647
33.791661
27.389526
##ZVALUE=390
0.557899
0.490546
0.635982
0.637770
0.603795
0.548959
0.507832
0.461936
0.451803
0.543594
0.537634
0.570416
0.521541
0.578761
0.630617
0.587702
0.640750
0.587702
0.639558
0.631809
0.451803
0.711679
0.515580
0.750422
0.696778
0.623465
0.600815
0.815988
0.883937
0.982881
0.945926
0.885725
1.148582
0.996590
1.071692
1.082420
1.005530
1.014471
1.117587
1.162887
1.089573
1.106858
1.162887
1.039505
1.137853
1.001954
1.223683
1.253486
1.053810
1.187921
1.133680
1.251698
1.127720
1.220703
1.114607
1.202822
1.045465
1.063943
0.978708
1.106858
1.034737
1.241565
1.297593
1.307726
1.420975
1.555681
1.666546
1.748800
2.058744
2.295971
2.409816
2.591610
2.734661
2.719760
2.895594
3.021955
6.221533
26.595592
128.162503
296.626687
694.433451
1016.001701
1016.001701
1016.001701
1016.001701
1016.001701
1016.001701
1016.001701
1016.001701
803.650618
402.831435
200.685859
64.759851
22.231936
7.449985
6.487966
5.983710
5.957484
5.633831
5.762577
5.361438
5.252957
5.092621
5.161762
5.034804
5.467534
6.892681
9.112954
11.702776
15.863776
20.354986
26.689768
31.264424
36.787987
39.232969
39.353967
##ZVALUE=395
0.550747
0.533462
0.463724
0.350475
0.575781
0.473857
0.617504
0.481606
0.609756
0.603795
0.403523
0.501871
0.550747
0.552535
0.501871
0.477433
0.550747
0.596642
0.569820
0.520945
0.680685
0.550747
0.554919
0.623465
0.634789
0.640750
0.879765
0.652671
0.875592
0.762939
0.838637
0.976920
1.007915
1.071692
1.054406
0.996590
1.024604
1.012683
0.976920
1.194477
1.032948
1.243949
1.125932
1.228452
1.038909
1.121759
1.230836
1.222491
1.142621
1.208782
1.065731
1.238585
1.288652
1.218915
1.407862
1.261830
1.147985
1.210570
1.214743
1.134872
1.232624
1.336932
1.375675
1.311898
1.359582
1.343489
1.529455
1.677871
1.899600
2.208948
2.232790
2.284646
2.294779
2.267957
2.169609
2.329946
2.650619
2.750754
4.232526
14.871955
84.886551
210.556984
497.315526
835.376978
1016.001701
1016.001701
1016.001701
1016.001701
1016.001701
1016.001701
1016.001701
991.266370
533.168912
278.158784
99.489689
40.025711
11.164546
6.958842
5.870461
5.746484
5.712509
5.644560
5.725622
5.642772
5.548596
5.446672
5.401969
5.421638
5.598664
6.121993
8.014441
9.837747
13.837814
17.949939
24.356842
30.189753
##ZVALUE=400
0.695586
0.658631
0.615716
0.429749
0.524521
0.652671
0.452995
0.514984
0.366569
0.506639
0.528693
0.389814
0.579953
0.381470
0.442863
0.410676
0.559688
0.562668
0.436902
0.703931
0.689626
0.663996
0.620484
0.533462
0.774860
0.671744
0.801682
0.706911
0.660419
0.903606
0.877976
0.988841
1.113415
1.139641
1.180768
1.095533
0.983477
1.102686
1.257658
1.233816
1.108646
1.153946
1.193881
1.206994
1.232624
1.380444
1.308918
1.154542
1.258850
1.177788
0.989437
1.126528
0.982881
1.080632
1.168847
1.144409
1.271963
1.386404
1.468658
1.164675
1.049638
1.185536
1.226664
1.274943
1.467466
1.482964
1.583695
1.624823
1.795888
2.008677
1.951456
2.182722
2.124906
2.317429
2.134442
2.123713
2.080798
2.452731
2.462864
2.793670
3.513694
7.064939
42.078495
119.352937
341.815948
628.215671
1016.001701
1016.001701
1016.001701
1016.001701
1016.001701
1016.001701
1016.001701
1016.001701
708.877444
414.081812
171.757936
75.047612
19.360781
8.088946
5.957484
5.811453
5.976558
6.393790
6.207824
5.974770
5.959868
5.929470
5.781651
5.257726
5.283952
5.024672
5.648732
6.755590
8.509755
11.558533
##END
