##TITLE=11-3
##FORMAT=SPECTACLE-ASCII V-1.2
##DATA TYPE=ULTRAVIOLET SPECTRUM
##SECOND TYPE=ULTRAVIOLET SPECTRUM
##DATE=04/04/18
##TIME=11:49:03
##SPECTROMETER/DATA SYSTEM=SPECTACLE
##XUNITS=NM EM
##YUNITS=ENERGY
##YFACTOR=1
##FIRSTX=220
##LASTX=450
##NPOINTS=116
##3DDATA=Equidistant
##ZUNITS=NM EX
##FIRSTZ=210
##LASTZ=400
##ZPOINTS=39
##XYDATA=(Y..Y)
##ZVALUE=210
20.463467
20.051599
15.940666
13.283491
11.371970
11.601448
8.971691
7.409453
7.453561
6.597638
4.914999
3.717542
3.505945
3.729463
3.498793
4.475713
4.127622
3.743768
3.157854
4.011989
4.906654
4.329681
5.684495
5.528927
6.827712
7.397532
8.211732
10.463595
9.988546
9.728670
10.415912
11.280775
12.554526
12.710690
13.116598
13.570786
14.202595
13.023615
13.675690
14.063716
12.897849
12.807846
13.816953
15.729666
14.969707
13.244748
13.795495
13.889670
13.715625
14.835000
14.127493
13.078451
12.797713
13.466477
13.075471
13.066530
12.484789
12.184978
13.116598
13.185740
12.201667
12.907982
12.165904
12.511611
13.720989
12.761950
13.412833
15.382767
14.671683
17.246604
19.170642
21.799803
23.746490
26.387572
27.727485
30.580759
29.711723
30.943751
28.656721
26.420951
24.148822
23.881793
20.051599
16.041994
14.853477
12.245774
11.522770
11.850595
11.472702
13.687611
14.558434
21.668673
25.050640
32.204986
38.482547
51.035881
55.298805
63.303709
66.946745
75.331926
74.856877
82.743764
81.863999
78.844428
77.205896
71.995854
66.906810
61.279535
52.659512
44.271946
36.258698
28.896928
23.622513
17.057657
16.859770
16.379952
##ZVALUE=215
69.675446
66.691637
48.824549
40.423870
27.885437
21.470785
18.056631
16.657710
16.553998
14.831424
13.116598
10.933876
7.384419
5.730987
4.660487
4.810691
4.079938
4.089475
4.483461
5.275607
4.541874
4.466772
6.366968
6.921887
7.085800
8.459687
8.776784
8.701682
10.869503
12.328625
11.706948
12.570620
13.113618
14.157891
15.787482
14.887452
16.888976
14.585853
16.574860
17.134547
18.525720
18.635988
17.545819
17.944574
17.986894
16.488433
16.723871
16.574860
17.527938
15.366673
17.505884
17.388463
17.325878
16.942620
17.133951
15.813708
17.057657
14.876723
17.820597
13.731718
16.372800
16.562939
15.850663
14.795661
16.212463
15.977621
16.429424
18.144846
18.737912
21.929741
23.027658
24.061799
26.035905
28.787851
29.643774
32.233596
32.511950
33.433437
29.412508
26.363730
27.724504
24.064779
20.014644
18.561482
17.005801
15.545487
11.555552
11.804700
12.053847
10.932684
10.934472
10.534525
10.877848
11.765957
17.679930
19.464493
27.341843
35.906434
48.796535
55.238605
70.509911
85.788965
95.512867
103.985667
117.129683
126.973987
127.319694
125.499964
125.462413
119.584799
111.099482
106.985569
95.736980
79.251528
63.842535
50.551891
##ZVALUE=220
150.249600
149.922967
142.027736
127.185583
107.477903
79.428554
58.798790
38.725734
30.186772
25.891662
25.891662
23.806691
22.216439
17.035604
14.592409
10.556579
8.507967
7.176995
5.083680
5.230904
5.273819
5.528927
7.161498
6.665587
7.587671
8.116961
8.283854
8.900762
10.350943
11.574626
12.545586
13.213754
13.213754
14.612675
14.745593
17.588735
18.926859
18.508434
19.490719
21.539927
20.122528
20.315647
20.660758
20.746589
21.742582
22.244453
21.481514
20.873547
21.180511
20.564795
21.241903
21.580458
22.810698
20.420551
21.187663
20.442605
22.144914
20.132661
19.014478
21.985769
19.183755
20.142794
20.155907
18.830895
19.021630
18.763542
19.321442
20.608902
21.777749
21.605492
23.985505
26.800632
29.134750
30.436516
33.272505
32.455921
30.989647
31.902790
31.987429
29.915571
29.965639
26.311874
24.501681
21.334887
19.199848
17.006993
14.415979
13.552904
12.320876
12.405515
12.248755
12.678504
10.939837
9.793639
9.599924
11.289716
10.926723
11.024475
12.406707
16.724467
24.501681
36.483407
46.042800
60.579777
81.409812
103.108883
123.950839
149.128437
166.489482
184.009671
190.613866
203.606486
199.113488
193.134546
187.833905
173.232555
##ZVALUE=225
191.046000
194.276571
233.230591
254.430771
258.031487
231.280923
201.740861
141.058564
105.885863
64.893961
48.554540
40.585995
38.104653
38.428903
39.006472
33.264756
26.859641
20.742416
16.325712
11.644959
7.699728
6.950498
7.544756
6.676912
7.898808
7.712841
8.374453
9.260774
9.889603
9.934902
12.079477
12.936592
12.852550
14.925599
16.974807
18.668771
18.260479
19.906759
21.731853
23.737550
23.899674
24.452806
24.911761
25.011897
23.667812
24.934411
24.313927
23.244619
24.986863
26.325583
24.424791
25.341511
25.736690
23.592710
23.462772
23.296475
24.453998
22.956729
23.189783
25.337934
22.413731
22.916794
21.504760
21.841526
20.978451
22.867918
22.130609
21.574497
22.120476
23.794770
26.621819
28.468966
30.134916
31.573772
29.647946
29.359460
29.994845
30.365586
28.391480
27.677417
26.174784
23.262501
20.460486
19.262433
17.133951
15.892982
16.637444
14.190674
15.514493
13.942719
12.532473
11.708736
12.442470
12.459755
12.337565
12.164712
10.706782
12.654662
11.879802
11.518598
10.857582
12.473464
11.476874
15.944839
21.083951
32.157898
47.143698
66.517591
86.851716
118.892789
143.920779
182.073712
210.330486
246.195793
269.481540
286.828876
##ZVALUE=230
125.826597
127.867460
209.872723
286.214948
347.553492
417.965651
430.042744
407.940745
354.128480
261.665583
190.188885
119.226575
83.273649
61.664581
59.198737
57.978630
56.852698
55.220723
48.772693
37.863851
30.379891
21.595955
14.871955
10.696650
8.690953
7.281899
7.799864
9.592772
9.247661
9.753704
10.520816
12.658834
13.492703
15.910864
16.278625
18.445849
19.727945
20.206571
21.676421
23.257732
23.927689
26.356578
25.406480
25.487542
24.409890
26.009679
26.290417
26.095510
27.257800
26.664734
24.289489
25.983453
25.586486
24.611950
24.232864
25.377870
24.714470
22.130609
25.226474
23.956895
23.103952
21.987557
22.977591
22.065639
22.486448
22.762418
22.702813
23.848414
22.971630
24.245977
27.225614
25.403500
26.503801
31.075478
30.489564
31.424761
29.517412
29.224753
26.517510
26.187897
24.893880
22.779703
20.162463
18.520951
17.640591
16.329885
16.214848
16.092658
14.843941
13.974905
13.404489
14.127493
12.653470
14.265776
14.057755
13.423562
13.529658
12.718439
13.234615
12.268424
12.133718
11.640787
11.879802
11.946559
12.000799
12.892485
13.974905
14.460683
18.207431
24.572611
35.971403
57.430863
80.802441
121.304989
159.471631
214.156508
##ZVALUE=235
34.149885
35.602450
90.767741
161.119699
264.375806
399.500728
522.440672
642.224550
687.011480
654.921532
587.652922
449.198484
335.602760
210.672617
139.073730
99.924803
83.873868
84.479451
87.996721
86.552501
79.293847
65.630674
54.563880
39.231777
28.068423
18.248558
14.344454
11.407733
10.040998
11.097789
11.007786
12.560487
12.337565
16.199946
15.164614
15.184879
17.532706
19.030571
19.649863
22.043586
22.379756
20.944476
24.026632
24.113655
23.566484
23.845434
24.283528
21.490455
23.948550
21.851659
23.094416
24.241805
22.762418
22.809505
22.754669
20.350814
20.205975
21.010637
21.507740
21.453500
21.757483
20.332932
20.331740
20.528436
21.195412
20.092726
20.464659
21.221638
24.093986
24.787784
27.364492
26.489496
28.501749
30.351877
30.398965
29.283762
29.483438
27.389526
29.990673
24.500489
25.214553
22.867918
21.269917
20.737648
17.638803
17.906427
18.310547
17.412901
15.939474
15.327930
15.906692
15.261769
15.838742
14.849901
15.746951
13.036728
14.285445
14.242530
15.278459
14.949441
14.629960
14.939904
14.522672
14.204979
14.026761
14.223456
15.275478
14.157891
15.503764
14.854670
14.502406
13.819933
15.518665
20.682812
29.523969
46.076775
##ZVALUE=240
3.658533
3.890991
12.994409
35.744905
83.761811
189.436674
329.878926
561.939478
736.074448
932.271481
1014.267802
1007.132530
929.602981
722.595453
558.493733
347.779989
236.794949
146.851540
118.956566
107.380748
116.698742
121.497512
119.788647
110.057592
86.269975
66.708922
50.317645
36.063790
22.969842
18.780828
13.807416
13.528466
13.126731
12.634993
14.155507
15.156865
17.606616
17.493963
18.103719
18.325448
18.837452
20.953417
20.292997
20.138621
19.748807
20.579696
21.006465
21.147728
20.040870
21.184683
21.617413
23.265481
20.856857
20.471811
20.525455
20.572543
21.066666
21.580458
20.497441
20.579696
18.846989
20.387769
19.956827
20.124912
20.120740
20.378828
22.358894
22.308826
20.432472
24.689436
24.685860
26.570559
31.494498
30.239820
31.355619
33.475757
32.226443
28.263927
30.143857
25.621653
25.016665
22.897720
22.108555
20.952821
20.864606
20.752549
19.254684
18.814802
16.642809
15.969872
16.291738
16.805530
17.306805
17.168522
15.647411
16.763806
15.811920
17.589927
17.579794
15.929937
15.661716
17.062426
15.458465
18.007755
15.709996
14.938712
16.649961
17.313957
15.913844
16.504526
15.361905
14.756918
16.236901
16.100407
13.409853
16.388893
##ZVALUE=245
2.179742
2.205968
2.248883
3.324747
5.537868
24.279952
65.910816
177.741647
302.184820
546.819568
767.259598
1002.438664
1016.001701
1016.001701
1016.001701
954.839587
763.659477
512.910485
349.159837
195.412636
133.646727
112.452507
118.271708
126.776695
134.742856
128.391981
114.666820
95.255971
77.352524
59.426427
38.833618
28.674603
19.955635
15.055537
14.502406
13.564825
15.254617
15.337467
15.260577
16.952753
16.830564
16.287565
17.120838
17.896891
19.062757
17.431974
18.349886
17.858744
17.654896
17.556548
16.905665
17.988682
18.712878
17.831922
19.115806
18.815994
17.657876
18.087626
17.775893
17.978549
18.213987
18.150806
18.590689
19.447803
18.527508
18.551946
19.481778
18.566847
20.288825
21.774769
22.547841
24.240613
25.378466
26.385784
27.082562
27.819872
26.332736
27.285814
24.353862
23.479462
21.579862
20.889640
20.002723
20.209551
17.235875
16.460419
16.007423
15.251637
15.768409
16.204715
17.036796
14.785528
14.258623
14.447570
14.956594
15.438795
14.833808
14.700890
13.809800
15.109777
14.572740
14.436841
14.835000
14.917850
15.047789
14.765859
15.793443
16.019940
15.484691
15.073419
14.567971
13.745427
13.979673
13.801455
13.928413
16.003847
##ZVALUE=250
2.256632
2.452731
2.217889
2.745986
2.408624
2.738833
3.356934
15.973449
48.545003
136.832595
262.255669
522.230864
758.072734
1016.001701
1016.001701
1016.001701
1016.001701
1016.001701
994.413495
689.908862
470.761657
262.215734
164.582729
107.869506
107.885003
129.634738
138.020515
146.326423
141.008496
127.992630
105.058551
87.819695
61.981678
44.033527
28.727651
22.562742
18.936992
16.615987
16.767979
16.590953
17.695427
17.748475
17.943978
17.180443
18.416643
17.525554
18.736720
17.980933
18.434525
17.428994
16.883612
18.617511
19.138455
19.235611
16.771555
18.555522
17.911792
17.876625
17.935634
18.972754
17.395616
18.311739
17.907619
17.309785
17.845631
17.512441
18.866658
18.912554
18.880963
20.713806
21.581650
22.516847
23.426414
22.367835
25.506616
24.784803
24.929643
22.142529
21.163821
20.944476
18.464923
19.699931
17.113686
17.647743
14.930964
16.296506
14.601946
14.670491
13.438463
14.958978
13.530850
13.678670
14.030933
12.993813
12.428761
12.324452
12.666583
14.079809
13.183951
13.476610
13.664961
12.845993
12.898445
13.043880
13.646483
14.536977
14.180541
13.743639
14.128685
14.105439
13.530850
13.154745
13.245940
13.700724
13.262630
13.118982
##ZVALUE=255
1.923442
1.882911
1.988411
2.235770
2.107620
2.267957
1.827478
2.598763
3.010631
8.578897
30.632615
104.837418
215.250850
460.174680
697.422028
1009.727716
1016.001701
1016.001701
1016.001701
1016.001701
1016.001701
929.319859
652.726889
361.997485
220.038891
123.534799
101.880431
106.046796
131.144524
146.579742
153.372884
151.218772
137.056708
114.647746
86.131692
66.661835
45.814514
34.015775
25.589466
21.834970
20.544529
19.755960
20.735860
20.691752
20.446777
20.892620
20.306706
20.571947
20.533800
21.223426
20.512938
20.336509
19.435883
20.197630
19.276738
19.658804
21.593571
20.149946
19.142628
19.144416
19.963980
18.842816
19.144416
19.411445
18.611550
19.643903
19.796491
19.532442
20.139813
20.462871
21.943450
22.440553
22.111535
25.002956
24.251938
23.610592
23.391843
22.886992
20.440817
20.047426
18.483996
17.682910
16.327500
15.296936
14.202595
13.975501
13.545752
13.951659
13.887882
12.924671
12.648702
14.067888
12.575984
13.178587
12.705922
12.195706
11.963844
12.337565
12.608767
11.897683
12.202859
12.375712
12.158751
12.912750
12.567639
13.080835
12.467504
12.710690
13.172626
12.782812
12.007952
12.033582
12.339950
12.517571
13.094544
12.024641
##ZVALUE=260
1.824498
1.430511
1.439452
1.731515
1.869798
1.624823
2.235770
1.922846
2.317429
2.782941
2.883673
4.684925
16.194582
70.001483
152.186751
355.639458
596.124530
977.870822
1016.001701
1016.001701
1016.001701
1016.001701
1016.001701
1016.001701
941.561460
558.695793
350.183845
213.292837
113.289952
96.123815
115.552545
132.607818
155.881643
162.046552
159.335732
146.293640
122.373700
100.407004
69.918633
57.216883
41.190982
32.072663
27.126670
26.023984
24.840832
24.704933
24.874806
25.379658
25.003552
24.149418
24.322867
25.164485
24.108887
24.053454
23.480654
23.253560
24.604797
23.344755
22.377968
23.745894
23.037791
23.662448
22.451878
22.709966
22.124648
21.431446
21.947622
20.949841
21.677613
21.876693
22.694468
23.525953
23.756623
25.020838
24.097562
25.517941
22.000670
22.408962
20.315647
19.110441
18.130541
17.742515
16.625524
16.701818
15.983582
15.398860
14.515519
14.277697
13.405681
13.187528
12.868643
12.932420
12.923479
12.847781
11.739731
11.986494
11.793971
11.717677
11.096597
12.090802
11.833906
11.572838
12.024641
12.285709
11.392832
12.016892
11.965632
11.920929
11.715889
12.113452
12.089610
11.881590
12.145638
11.596680
11.922717
11.703968
##ZVALUE=265
1.462698
1.664758
1.482964
1.679659
1.652837
1.863837
1.735687
1.896620
1.917481
2.420545
2.375841
2.764463
2.507567
3.451705
8.736849
42.758584
109.989643
285.363793
512.204766
947.773457
1016.001701
1016.001701
1016.001701
1016.001701
1016.001701
1016.001701
1016.001701
891.326666
496.266484
296.438932
146.530867
96.846819
97.353458
122.409463
147.127509
165.717602
174.993873
172.712803
150.503516
134.533644
104.656816
84.087849
59.873462
47.498941
37.623644
34.186840
31.087995
29.881597
30.778646
30.098557
29.427409
29.591918
28.994679
27.916431
28.283000
27.825832
26.624799
27.858615
26.831627
27.523637
26.350617
26.591420
25.741458
25.562644
25.413632
25.190711
25.023818
23.752451
25.350451
24.953485
25.372505
25.756955
25.367737
25.922656
25.135875
23.899674
24.114847
23.165941
21.244884
20.303726
19.547939
18.390417
17.373562
16.562939
16.302466
15.307665
14.313459
14.156699
13.635755
12.868643
12.773871
12.942553
12.297630
12.115836
11.470914
11.687875
12.052655
11.585951
11.657476
11.434555
10.994673
11.487603
11.865497
11.327863
11.323690
11.622906
11.053681
11.410713
11.358857
12.044907
11.283755
11.369586
11.318922
11.074543
10.657907
11.169910
##ZVALUE=270
1.233816
1.280904
1.514554
1.388788
1.513958
1.389980
1.681447
1.657605
1.587868
1.923442
1.834631
2.019405
1.991987
2.181530
2.390742
2.902746
4.237890
21.941662
65.941811
213.928819
409.376621
814.824700
1016.001701
1016.001701
1016.001701
1016.001701
1016.001701
1016.001701
1016.001701
1016.001701
736.945868
454.401970
216.448903
118.014812
84.968805
98.867416
131.237507
151.065588
174.906850
179.267526
177.813768
165.898800
138.455629
117.025971
85.471869
67.588687
51.573515
42.356849
37.378669
36.200881
32.681823
32.353997
32.432675
31.934977
32.321811
31.706691
31.187534
32.065511
30.592680
30.960441
29.724836
29.512644
28.624535
27.523637
28.193593
27.426481
28.353930
27.035475
26.882887
26.444793
27.089715
28.067827
26.241541
27.119517
27.320981
25.489926
23.963451
24.167895
22.486448
20.752549
20.282865
19.217730
17.850995
16.497970
16.838908
16.435981
15.071630
15.425682
14.124513
13.891459
13.748407
12.837648
12.574792
12.383461
11.843443
12.356639
11.672974
11.457801
11.985898
11.748672
11.245608
10.863543
11.127591
11.263490
10.815859
10.763407
11.234879
10.817647
11.230707
11.226535
11.288524
10.771751
10.669827
10.559559
10.521412
10.745525
##ZVALUE=275
1.397729
1.541972
1.316667
1.285672
1.560450
1.427531
1.507998
1.421571
1.595616
1.609921
1.443624
1.641512
1.768470
1.886487
2.040863
2.260804
2.836585
2.765656
3.324747
8.197427
36.658645
144.905448
311.896801
683.732033
1014.053822
1016.001701
1016.001701
1016.001701
1016.001701
1016.001701
1016.001701
1016.001701
966.335535
529.523492
300.651789
136.430860
86.790919
82.820654
102.956891
135.880709
158.741474
181.934834
187.249780
180.319548
168.487430
137.119889
114.785433
89.626908
70.675611
53.693652
44.449568
38.400888
35.194755
34.951568
33.840537
32.413602
32.169819
31.904578
32.858849
31.147599
30.963421
30.378699
30.366778
29.536486
30.239820
29.133558
28.087497
28.426647
28.110743
28.233528
27.750731
28.563738
27.401447
27.751923
27.200580
26.126504
26.009679
24.107695
22.214651
21.612644
20.840764
19.122958
18.278956
17.521977
16.650558
15.793443
15.578866
14.449954
14.665723
13.568997
12.988448
12.614727
12.900829
12.771487
12.207627
11.902452
11.931658
11.104941
11.900663
11.168718
11.273623
10.800958
11.027455
10.982752
11.595488
10.756850
11.100769
10.666847
10.959506
10.473728
10.425448
10.040998
10.200739
10.246634
9.599924
9.785891
##ZVALUE=280
1.093745
1.012683
1.386404
1.246929
1.378655
1.253486
1.454949
1.449585
1.452565
1.560450
1.489520
1.579523
1.575947
1.810789
1.585484
2.256632
2.299547
2.211928
2.376437
3.028512
3.048778
5.879998
23.549795
118.587613
269.645452
600.003600
943.540931
1016.001701
1016.001701
1016.001701
1016.001701
1016.001701
1016.001701
1016.001701
1016.001701
708.662868
416.868925
181.151628
99.038482
68.461895
80.034733
109.005570
131.113529
158.536434
170.436502
181.181431
174.392462
154.107809
135.350823
109.305978
89.097619
63.723922
51.047802
40.141940
35.753846
32.606721
31.946898
30.339956
30.664802
30.938983
29.923916
30.339956
29.030442
28.928518
29.145479
28.329492
28.872490
27.234554
27.770996
27.720928
26.642680
28.060675
26.666522
27.016997
26.200414
25.273561
25.154948
23.784637
22.975802
21.796823
21.128654
19.711852
18.338561
17.349720
16.392469
16.027689
15.277863
14.592409
14.270544
13.472438
13.322830
13.302565
12.068748
11.739731
11.669993
11.670589
11.633635
11.102557
10.917783
11.032820
11.756420
10.921955
10.540485
10.663867
10.699630
11.130571
10.099411
9.782910
10.081530
10.049939
10.301471
9.985566
9.892583
9.907484
10.166764
9.233952
##ZVALUE=285
1.126528
1.136661
1.181960
1.169443
1.152754
1.146793
1.116991
1.294613
1.160502
1.513958
1.449585
1.564622
1.515746
1.570582
1.829863
1.858473
1.900792
1.882911
2.092719
2.546906
2.689958
2.806783
3.030896
3.800988
9.859800
66.458583
176.402926
370.591879
785.148740
1016.001701
1016.001701
1016.001701
1016.001701
1016.001701
1016.001701
1016.001701
1016.001701
1007.401943
560.361743
315.094590
130.867958
68.749785
55.482984
68.831444
94.253421
117.650628
142.824650
160.114765
166.226625
163.083673
148.409605
131.543875
101.263523
81.382990
58.928728
45.297742
33.831000
30.443668
27.862787
26.400685
25.627613
25.778413
25.908947
24.608970
24.624467
24.610758
25.485754
25.233626
24.125576
24.321675
24.889708
24.640560
25.300980
24.681687
24.952888
24.094582
22.550821
22.034645
21.062493
19.866824
18.621683
18.080473
17.195940
15.742779
16.157627
15.336871
14.251471
14.099479
13.725758
13.057590
12.500882
12.225509
11.974573
11.888742
11.310577
11.230707
11.013746
11.204481
10.915995
10.976791
10.854602
10.520816
10.426641
9.629726
10.373592
10.424852
9.818673
10.425448
9.987950
9.666681
10.356903
9.741783
9.744763
9.287000
9.675622
9.592772
##ZVALUE=290
1.152754
1.055598
1.007915
1.267791
1.371503
1.151562
1.219511
1.108646
1.282692
1.415610
1.283884
1.275539
1.379848
1.472831
1.511574
1.506805
1.734495
1.558661
1.997948
1.893640
1.996756
2.245903
2.572536
2.638698
3.333688
3.870726
4.832745
24.656653
90.419054
243.077874
616.966486
984.571576
1016.001701
1016.001701
1016.001701
1016.001701
1016.001701
1016.001701
1016.001701
1016.001701
784.675479
460.373759
187.087655
86.225867
40.190816
42.303801
61.620474
79.990625
109.207630
129.393935
148.034692
153.910518
151.075721
141.318440
119.758844
98.608732
68.814754
54.377913
38.166642
30.187964
23.941994
21.853447
21.052957
20.904541
19.477606
19.969940
19.816756
20.212531
19.630790
20.094514
20.491481
20.674467
20.847917
20.621419
20.719767
19.497871
18.408895
17.978549
17.481446
16.743541
16.480684
15.398860
14.615655
14.472604
13.527870
13.559461
13.130903
12.336969
12.343526
11.956692
11.281967
11.316538
10.907650
10.604858
10.930896
10.726452
10.040998
10.199547
10.491610
10.406971
9.721518
10.252595
10.324717
10.045767
10.292530
9.893775
9.595752
9.895563
10.203719
10.170937
9.786487
9.235740
10.027885
9.306669
9.157658
8.858442
##ZVALUE=295
0.928640
1.141429
0.877976
1.032948
0.941753
1.220703
1.021624
1.001954
1.110435
1.268983
1.422763
1.156926
1.264811
1.407862
1.182556
1.529455
1.475811
1.427531
1.677871
1.614690
1.836419
1.870990
1.910925
2.208948
2.399683
2.810955
3.131628
3.372431
4.004836
6.885529
43.355823
136.342049
427.293777
825.768709
1016.001701
1016.001701
1016.001701
1016.001701
1016.001701
1016.001701
1016.001701
1016.001701
950.081944
582.507849
255.537629
117.774606
41.733980
29.103756
38.058758
51.857829
75.924993
95.496774
120.883584
135.295987
145.722628
143.101811
129.511952
113.160610
86.497664
68.482757
46.220422
33.866763
23.439527
18.881559
16.709566
15.060902
15.087724
14.980435
14.966726
14.823675
16.135573
15.612841
16.218424
15.712976
15.694499
15.329719
14.194846
13.927817
13.467669
13.155937
13.107657
12.577772
12.104511
11.124611
11.317730
11.400580
10.836720
10.712743
10.256767
10.366440
9.869933
10.455847
10.253787
10.071993
9.496808
9.480715
9.426475
9.685755
9.312630
9.696484
9.849668
9.750724
9.353757
9.583831
9.498000
9.033680
9.498000
9.387732
9.583831
9.646416
9.360909
9.124875
9.165406
9.147525
9.097457
9.146929
##ZVALUE=300
0.895858
0.869632
0.952482
0.984669
1.113415
1.018643
0.951886
1.102686
0.978708
1.144409
1.128912
1.011491
1.221895
0.987649
1.219511
1.356602
1.329780
1.371503
1.414418
1.414418
1.603961
1.660585
1.619458
1.797676
1.789927
1.936555
2.189875
2.560616
2.631545
3.134608
3.593564
4.966855
14.159679
84.571838
224.871635
609.786510
1001.353860
1016.001701
1016.001701
1016.001701
1016.001701
1016.001701
1016.001701
1016.001701
1016.001701
715.004802
410.003662
167.154670
75.353980
27.809739
22.907853
32.244921
43.862462
65.944791
84.494948
111.668706
126.268864
137.456656
135.109425
121.976733
106.586814
82.129836
64.018965
43.734908
31.456947
20.423532
15.616417
12.442470
12.080669
11.878610
11.959672
12.461543
12.419820
12.681484
12.116432
12.306571
11.830926
11.575818
11.185408
11.305809
10.829568
10.564923
10.567904
10.328889
9.848475
10.185838
10.054708
9.645820
10.104775
9.677410
9.241700
9.399652
9.182692
9.239912
9.610653
8.728504
9.409785
8.897781
9.381771
9.222627
9.636879
8.987784
9.133816
9.855628
9.299517
9.896755
9.373426
9.405613
9.478927
9.511709
9.636879
9.062886
9.062886
9.123683
8.672476
8.806586
##ZVALUE=305
0.861883
0.947714
0.795722
0.743866
0.917912
1.007915
1.015663
0.958443
0.896454
1.014471
1.091957
1.153946
0.985861
1.157522
1.136661
0.993609
0.939965
1.084805
1.176596
1.364946
1.649857
1.427531
1.501441
1.605749
1.675487
1.776814
1.956820
2.168417
2.245903
2.475977
2.672672
2.991557
3.512502
3.897548
9.014606
34.340620
151.533484
359.645486
873.321891
1016.001701
1016.001701
1016.001701
1016.001701
1016.001701
1016.001701
1016.001701
1016.001701
976.663828
514.602661
279.613733
103.842616
42.983890
18.781424
20.375848
30.137897
41.486621
62.525868
80.359578
102.579594
116.264820
126.793981
126.449466
114.975572
100.628734
77.844858
61.092973
40.623546
29.004812
18.323660
14.543533
11.874437
11.361837
11.299849
11.186600
11.009574
10.396838
10.604858
10.375977
10.139942
9.805560
9.578466
9.360909
9.413958
9.406805
9.499788
9.645820
9.409785
9.415746
9.060502
9.115934
9.215474
8.870959
9.177923
8.839965
9.019971
8.842945
8.831620
9.056926
8.641481
8.827448
8.801818
9.263754
9.398460
9.117723
9.679794
9.762645
9.722710
9.342432
9.845495
9.146929
9.684563
9.489655
9.092689
9.074807
9.052753
8.987784
##ZVALUE=310
0.906587
0.750422
0.794530
0.812411
0.900626
0.866652
1.007915
0.855923
1.038909
0.962615
1.037717
1.087785
1.029968
1.136661
1.086593
1.049638
1.008511
1.118779
1.202822
1.030564
1.234412
1.338720
1.451969
1.396537
1.235604
1.435876
1.571774
1.647472
1.880527
2.058744
2.430677
2.352595
2.657771
2.845526
3.188848
3.343821
5.100965
14.448762
81.069469
200.113654
529.291034
942.335725
1016.001701
1016.001701
1016.001701
1016.001701
1016.001701
1016.001701
1016.001701
1016.001701
732.419491
424.910784
174.493790
77.041984
24.548769
15.829802
18.768907
24.312735
38.624406
51.828623
74.169636
91.508627
108.439922
116.733909
118.727684
112.223625
96.893907
81.047416
56.578517
41.396618
26.839972
20.201802
14.500618
12.292862
11.020899
9.959936
9.746552
9.791851
9.035468
8.798838
8.931756
8.776784
9.139776
9.066463
9.026527
8.933544
8.844733
8.893609
8.997917
9.051561
8.932948
8.786917
9.019971
9.041429
9.079576
8.740425
9.356737
8.965731
8.894801
9.179711
9.090900
9.113550
9.335876
9.219646
9.351969
9.203553
9.738803
9.474754
9.455681
9.578466
9.469986
9.548664
9.548664
9.013414
9.408593
8.962750
##ZVALUE=315
0.733733
0.713468
0.516772
0.656843
0.804663
0.781417
0.866652
0.948906
0.955462
0.850558
0.954866
0.991821
1.029968
0.933409
0.970960
1.004934
0.997782
1.085997
1.246929
1.134872
1.205802
1.200438
1.238585
1.190901
1.490712
1.400709
1.439452
1.488924
1.598597
1.729727
1.763701
1.946688
1.987815
2.311468
2.348423
2.569556
3.094673
3.343821
3.565550
6.861687
38.606524
114.271641
347.531438
666.935444
1016.001701
1016.001701
1016.001701
1016.001701
1016.001701
1016.001701
1016.001701
1016.001701
966.764688
601.015687
264.164805
119.556785
32.606721
15.691519
13.818741
15.923977
23.950934
33.593774
51.117539
66.450834
86.500645
101.130605
111.635923
112.447739
105.115771
91.120601
70.727468
56.971908
39.969683
28.840899
18.536448
14.307499
10.675788
9.715557
8.883476
8.341670
8.869767
8.386970
8.175969
8.626580
8.496642
8.928776
8.774996
9.139776
9.088516
8.881688
8.988976
9.113550
9.232759
8.790493
9.122491
8.946657
8.515716
9.318590
9.300709
8.974671
9.240508
9.329915
9.714961
9.621978
9.486675
9.299517
9.847879
10.015965
10.238886
9.822845
9.747744
9.472966
9.780526
9.791851
9.149909
9.346604
##ZVALUE=320
0.911951
0.804663
0.763535
0.743866
0.758767
0.961423
0.816584
0.922680
0.707507
0.833869
0.660419
0.710487
0.746846
0.889897
0.869632
0.887513
0.854731
0.992417
1.004934
1.074672
1.204610
1.172423
1.330972
1.291633
1.369715
1.224875
1.473427
1.411438
1.380444
1.479983
1.402497
1.562834
1.649857
1.784563
1.775622
2.002716
2.293587
2.426505
2.807975
2.996922
3.389716
4.165769
17.947555
61.023831
219.043493
450.563431
941.516757
1016.001701
1016.001701
1016.001701
1016.001701
1016.001701
1016.001701
1016.001701
1016.001701
838.756561
368.142724
183.578730
60.775876
23.789406
12.316704
11.931658
15.279651
20.129681
30.745864
43.288469
61.938763
78.057647
96.432567
104.576945
106.698871
99.968910
86.759925
72.632432
52.547455
39.604902
26.193857
18.448830
12.606978
10.484457
8.916855
8.573532
8.371472
8.399487
8.461475
8.612871
8.830428
8.493662
8.883476
8.578897
8.744597
9.190440
8.834600
8.759499
8.980632
8.869767
9.035468
9.275675
9.504557
9.185672
9.257793
9.293556
9.278655
9.501576
10.018945
9.793639
9.639859
9.728670
9.703636
9.841919
9.906888
9.571910
9.242892
9.268522
9.442568
9.233952
##ZVALUE=325
0.689626
0.563860
0.618696
0.688434
0.603795
0.692606
0.716448
0.792742
0.861883
0.874996
0.784993
0.818968
0.827909
0.846982
0.726581
0.881553
0.719428
0.764728
0.925660
0.915527
0.904799
1.024604
1.098514
1.137853
1.103878
1.042485
1.108646
1.213551
1.247525
1.292825
1.311898
1.571774
1.545548
1.720786
1.436472
1.840591
1.926422
1.894832
2.051592
2.410412
2.339482
2.738833
3.345609
3.596544
9.510517
37.287474
143.779516
311.558843
723.485947
1016.001701
1016.001701
1016.001701
1016.001701
1016.001701
1016.001701
1016.001701
1016.001701
1005.125642
545.853972
285.428762
97.326636
35.054684
12.261868
10.535717
11.557937
13.595819
20.158887
28.288960
44.597983
59.853792
79.798698
90.357661
100.288987
100.826621
93.909502
82.811713
64.708591
51.432848
33.716559
24.549961
15.442967
12.269616
9.755492
8.997917
8.727908
8.471608
8.399487
8.280873
8.747578
8.360744
8.533597
8.435845
8.746982
8.663535
8.548498
9.136796
8.659959
9.106994
9.186864
9.663701
9.224415
9.379983
9.259582
9.569526
9.410977
9.818673
10.034442
10.057688
9.884834
9.999871
9.645820
9.835958
9.625554
9.688735
9.402633
9.097457
##ZVALUE=330
0.640750
0.699759
0.650883
0.599623
0.591874
0.560880
0.614524
0.679493
0.675917
0.778437
0.707507
0.718832
0.888705
0.895858
0.827909
0.779629
0.596642
0.731945
0.802875
0.824928
0.823736
0.939965
1.001954
1.051426
0.945926
1.037717
1.062751
1.036525
1.199841
1.053810
1.107454
1.249909
1.287460
1.355410
1.427531
1.708865
1.687407
1.631975
1.745820
1.833439
2.071857
2.288818
2.397895
2.574921
2.945662
3.369451
4.166961
21.149516
69.930553
227.048397
438.651443
905.042887
1016.001701
1016.001701
1016.001701
1016.001701
1016.001701
1016.001701
1016.001701
1016.001701
801.177621
356.301665
170.055628
52.988529
19.029975
10.312796
9.740591
10.520816
13.546944
19.861460
27.180910
41.494966
55.002570
73.752999
85.074902
92.341900
93.065500
86.829662
76.577663
60.002804
46.597719
31.274557
23.154616
15.829802
12.369752
9.788871
9.115934
8.345842
8.169413
8.437634
8.281469
8.307695
8.572936
8.486509
8.421540
8.587837
8.802414
9.201765
8.854866
9.235740
9.229779
9.459853
9.365678
9.431839
9.683967
9.824634
9.820461
9.438992
9.940863
9.782910
9.488463
9.812713
9.714961
9.695888
9.275675
9.192824
##ZVALUE=335
0.584722
0.546575
0.560880
0.666976
0.570416
0.582933
0.673532
0.717640
0.570416
0.530481
0.574589
0.659823
0.650883
0.682473
0.752807
0.562668
0.675917
0.773668
0.756979
0.829697
0.860691
0.838637
0.888705
0.867844
0.642538
0.993609
0.887513
1.247525
1.006722
0.894666
0.980496
1.213551
1.265407
1.125932
1.197457
1.176000
1.306534
1.427531
1.509786
1.372695
1.613498
1.745820
1.699924
1.805425
2.274513
2.422929
2.795458
2.985597
3.506541
7.329583
43.030977
117.490888
337.004662
608.264804
1016.001701
1016.001701
1016.001701
1016.001701
1016.001701
1016.001701
1016.001701
1016.001701
917.460918
559.545755
238.768458
101.037621
24.660826
11.577606
9.257793
9.400845
10.944605
12.855530
18.972754
26.038885
38.973689
50.698519
68.183541
78.674555
86.158514
87.492466
81.000924
71.443915
57.645440
46.032667
32.978654
24.110675
16.280413
12.862682
10.177493
8.678436
7.888675
8.122921
8.183718
8.107424
8.510947
8.303523
8.403659
8.396506
8.953810
8.620620
8.689761
9.067655
9.189844
9.275675
9.813905
9.316802
9.779930
9.700656
9.328723
9.517670
9.924769
9.536743
9.257793
9.422898
9.230971
8.726716
##ZVALUE=340
0.588894
0.572801
0.533462
0.616908
0.614524
0.496507
0.701547
0.681877
0.601411
0.697970
0.501871
0.566840
0.721812
0.686646
0.654459
0.761747
0.693798
0.578761
0.659823
0.767708
0.712872
0.842810
0.896454
0.841618
0.681877
0.888705
0.863671
0.939965
1.075864
0.768900
0.973940
0.881553
0.935793
0.920892
1.262426
1.207590
1.291633
1.349449
1.295805
1.459718
1.459718
1.586676
1.537800
1.508594
1.800656
1.875758
2.125502
2.092719
2.413988
2.715588
3.042817
3.992915
24.150610
79.168677
245.372653
479.393601
961.099863
1016.001701
1016.001701
1016.001701
1016.001701
1016.001701
1016.001701
1016.001701
998.376608
664.454699
300.703645
140.561461
35.236478
13.302565
9.972453
9.162426
9.305477
9.938478
12.241602
16.396642
25.259852
34.682751
50.267577
63.233972
75.026751
80.107450
81.380606
77.387691
67.972541
57.016611
43.013692
33.534765
22.643805
17.372966
12.361407
10.272861
8.693933
8.486509
7.954836
8.302927
8.155704
8.134842
8.555651
8.507967
8.349419
8.741617
9.025931
9.064674
8.996725
9.337664
9.221435
9.428859
9.297729
9.678602
9.679794
9.134412
9.307861
9.060502
9.303689
8.834600
##ZVALUE=345
0.613928
0.492930
0.751615
0.515580
0.591874
0.629425
0.728965
0.592470
0.481606
0.570416
0.530481
0.538826
0.625849
0.590682
0.543594
0.661612
0.699759
0.805855
0.694990
0.769496
0.898838
0.573993
0.732541
0.875592
0.735521
0.733733
0.817776
0.708699
0.821948
1.020432
1.040697
1.022816
0.946522
0.823736
1.016855
1.071692
1.100898
0.982881
1.123548
1.166463
1.251698
1.313686
1.160502
1.323819
1.480579
1.542568
1.813769
1.888871
2.036691
2.044439
2.429485
2.556443
2.897978
3.359914
9.399652
42.517781
172.715783
347.087979
711.663961
1016.001701
1016.001701
1016.001701
1016.001701
1016.001701
1016.001701
1016.001701
1016.001701
794.520974
366.915464
176.398754
53.708553
20.404458
10.255575
9.500980
8.557439
8.278489
8.930564
10.920763
15.756488
22.429824
33.042431
43.781996
57.207942
66.340566
73.596835
75.697899
71.779490
65.323710
53.455830
43.498874
32.299757
23.917556
16.598701
12.800694
10.160804
9.010434
8.426905
8.231997
8.315444
8.562803
7.950664
8.575916
8.489490
8.722544
8.768439
9.072423
9.093881
8.997917
9.399652
9.153485
9.003878
8.968711
8.736849
8.594990
8.960962
8.642673
##ZVALUE=350
0.614524
0.542998
0.535846
0.563860
0.546575
0.668764
0.645518
0.594854
0.585914
0.696778
0.483990
0.581741
0.681877
0.670552
0.565648
0.747442
0.831485
0.493526
0.491738
0.542998
0.572801
0.625849
0.654459
0.579953
0.785589
0.719428
0.940561
0.772476
0.847578
0.675917
0.769496
0.822544
0.889897
0.865459
0.931621
0.905991
0.950694
1.056790
1.205802
1.148582
1.315475
1.165867
1.235604
1.296997
1.274943
1.386404
1.649857
1.546741
1.659989
1.795888
1.732707
2.058744
2.323985
2.129674
2.716780
2.962947
5.531907
21.655560
102.741718
234.923959
546.887517
892.039537
1016.001701
1016.001701
1016.001701
1016.001701
1016.001701
1016.001701
1016.001701
897.489786
450.304747
243.548751
89.839697
32.720566
10.804534
8.983612
7.738471
7.460713
7.411838
7.880926
10.599494
13.694763
20.705462
27.865767
39.930940
49.551725
60.685873
67.095757
69.899559
67.452788
60.470700
52.588582
40.273666
32.221675
22.433996
17.277598
12.876987
10.578632
8.884668
8.401871
8.340478
8.242726
8.161664
8.306503
8.350611
8.366704
8.660555
8.706450
8.517504
8.582473
8.522868
8.766651
8.603930
8.466840
8.646846
8.251667
##ZVALUE=355
0.481606
0.745654
0.598431
0.509620
0.551939
0.670552
0.627637
0.533462
0.629425
0.488758
0.591874
0.560880
0.626445
0.645518
0.542998
0.671744
0.732541
0.594854
0.714660
0.667572
0.629425
0.676513
0.743866
0.864863
0.737906
0.666976
0.783801
0.681877
0.858903
0.830889
0.783801
0.818968
0.926852
0.868440
0.911951
1.059771
1.009703
0.964999
0.934601
1.093745
1.142621
1.041889
1.043677
1.218915
1.201630
1.376867
1.378655
1.560450
1.533628
1.609921
1.460910
1.546741
1.882911
1.915693
2.042651
2.397895
2.343655
2.902746
3.498793
8.557439
54.795742
152.539611
399.962664
691.506863
1016.001701
1016.001701
1016.001701
1016.001701
1016.001701
1016.001701
1016.001701
1016.001701
615.392923
338.061452
124.369860
50.135851
13.482571
8.626580
7.651448
7.391572
6.959438
7.009506
7.672906
8.886456
12.480617
16.755462
25.499463
32.755733
44.810772
52.829981
60.242414
63.163638
61.989427
57.455897
48.510432
40.679574
30.430555
23.841858
17.267466
13.593435
10.688901
9.332895
8.568764
8.175969
7.978678
8.132458
8.450747
8.380413
8.251667
8.453727
8.210540
8.092523
8.035898
7.862449
7.993579
7.710457
##ZVALUE=360
0.611544
0.448823
0.788569
0.592470
0.521541
0.492930
0.627637
0.714660
0.578761
0.660419
0.602603
0.665784
0.623465
0.699759
0.691414
0.662804
0.652671
0.832677
0.784993
0.668764
0.701547
0.776649
0.884533
0.820756
0.804663
0.821948
0.837445
0.886917
0.820756
0.802875
0.915527
0.807643
0.924468
0.986457
1.046658
0.886917
1.050830
0.931621
0.964999
1.153946
1.025796
1.048446
0.871420
1.127720
1.023412
1.264811
1.443624
1.173615
1.427531
1.509786
1.491904
1.627803
1.702905
1.707673
2.020597
1.835823
2.106428
2.274513
2.593994
2.761483
3.427863
4.518628
22.445917
77.790618
259.026885
493.157506
947.405696
1016.001701
1016.001701
1016.001701
1016.001701
1016.001701
1016.001701
1016.001701
820.837021
495.773554
209.361911
88.425875
21.713972
9.580851
7.474422
7.288456
6.756783
6.500483
6.678700
6.711483
8.156896
10.241866
15.084743
20.302534
29.253960
37.231445
47.097802
53.365827
56.936741
57.592988
53.518414
48.507452
40.067434
33.044815
24.515986
18.796921
13.728738
10.838509
9.073615
8.343458
7.824898
7.783771
7.580519
7.506609
7.763505
7.488728
7.561445
7.142425
7.251501
7.139444
##ZVALUE=365
0.521541
0.643730
0.506639
0.679493
0.536442
0.591874
0.504851
0.654459
0.681877
0.687838
0.703931
0.510812
0.700951
0.636578
0.616908
0.701547
0.496507
0.661612
0.486970
0.685453
0.648499
0.889897
0.830889
0.751615
0.775456
0.731945
0.761747
0.846982
0.787973
0.844598
1.088977
0.892878
0.869632
0.801682
0.911951
0.901818
1.111627
0.993609
1.047850
0.898838
0.990629
1.384616
1.084805
1.022816
1.075864
1.125932
1.243949
1.093745
1.224875
1.384616
1.352429
1.387596
1.568794
1.586676
1.575947
1.662970
1.807809
1.960993
1.852512
2.115965
2.571940
2.832413
3.051758
3.481507
10.086894
37.392974
148.159862
321.956873
739.734769
1016.001701
1016.001701
1016.001701
1016.001701
1016.001701
1016.001701
1016.001701
955.973864
588.951707
259.209871
120.316744
32.292604
12.123585
7.593632
7.213950
6.694794
6.339550
6.055832
5.952716
6.312728
7.001758
8.624792
12.007952
18.152595
24.267435
33.568740
40.416718
47.930479
51.524639
53.051710
51.488876
46.664476
40.595531
31.399727
24.528503
18.472672
14.489889
10.633469
8.793473
7.911921
7.556677
7.342696
6.813407
6.683469
6.872416
6.720424
6.779432
##ZVALUE=370
0.496507
0.551939
0.535846
0.523925
0.465512
0.525713
0.498891
0.538826
0.784993
0.574589
0.550747
0.461936
0.602603
0.510812
0.596642
0.604987
0.667572
0.781417
0.647902
0.695586
0.635982
0.714660
0.670552
0.626445
0.656843
0.682473
0.652671
0.657439
0.748634
0.889897
0.731945
0.904799
0.781417
0.859499
0.803471
0.998974
0.818968
0.838637
0.950694
1.002550
1.008511
0.985861
1.015663
1.052618
0.902414
0.872612
0.960827
0.873804
1.105666
1.183748
1.350641
1.185536
1.222491
1.381636
1.376867
1.435876
1.650453
1.591444
1.521707
1.692772
1.852512
1.977682
2.376437
2.564788
2.569556
3.060699
5.128980
18.962622
99.255443
239.058733
564.240813
904.327035
1016.001701
1016.001701
1016.001701
1016.001701
1016.001701
1016.001701
990.006924
665.503740
320.631862
158.422589
51.538944
19.943714
7.565618
6.519556
6.204844
6.007552
5.760789
5.434752
5.688667
5.651712
6.513596
7.971525
10.860562
14.592409
21.539927
27.626753
36.717653
42.508841
48.355460
50.144792
48.957467
45.870543
39.156675
31.059980
24.786592
18.475652
14.673471
10.910630
9.414554
7.844567
7.030964
6.518960
6.405711
6.424785
##ZVALUE=375
0.507832
0.503659
0.492930
0.438690
0.372529
0.586510
0.543594
0.643730
0.677705
0.633597
0.587702
0.582933
0.481606
0.575781
0.533462
0.530481
0.661612
0.693798
0.502467
0.482798
0.658631
0.684857
0.651479
0.698566
0.788569
0.666976
0.587702
0.697970
0.690818
0.792742
0.747442
0.775456
0.681877
0.658631
0.879765
0.746846
0.821948
0.843406
0.887513
0.814795
0.974536
1.008511
0.952482
0.922680
0.876784
0.992417
0.816584
1.052618
0.968575
1.128912
1.115799
1.019835
1.122952
1.185536
1.007915
1.192689
1.237988
1.258850
1.231432
1.389980
1.568794
1.643896
1.683831
1.880527
1.920462
2.054572
2.501607
2.766848
3.614426
9.945631
58.219433
148.212910
380.590558
684.967637
1016.001701
1016.001701
1016.001701
1016.001701
1016.001701
1016.001701
1016.001701
872.233510
472.118855
260.449648
96.644759
38.047433
10.256767
6.681681
5.975962
5.672574
5.599856
5.494952
5.227923
5.530715
5.520582
6.129742
7.215738
8.795857
13.019443
17.426610
25.061965
31.035542
38.399696
43.447614
47.498941
47.874451
44.636726
38.132668
33.613443
26.730895
21.518469
15.802979
12.322664
9.354949
7.819533
6.478429
##ZVALUE=380
0.556707
0.446439
0.513792
0.490546
0.587702
0.549555
0.563860
0.616908
0.529885
0.414848
0.478625
0.564456
0.509620
0.562668
0.564456
0.555515
0.597835
0.544786
0.551939
0.600815
0.574589
0.538826
0.474453
0.559688
0.495911
0.714660
0.668764
0.744462
0.841618
0.847578
0.802875
0.839829
0.853539
0.923872
0.830889
0.839829
0.953674
0.757575
0.759959
0.803471
0.879765
0.752807
0.798702
0.835657
0.807643
0.887513
0.966787
0.967979
1.076460
0.921488
1.063943
1.088977
0.957847
0.942945
1.045465
1.056790
1.222491
1.201630
1.160502
1.251698
1.283884
1.455545
1.353621
1.332760
1.787543
1.733899
1.979470
2.172589
2.502799
3.078580
3.635883
5.424619
29.485822
93.732476
287.249684
539.256930
999.452472
1016.001701
1016.001701
1016.001701
1016.001701
1016.001701
1016.001701
1016.001701
664.658546
385.182500
153.102875
66.606402
16.693473
7.533431
6.026626
5.588531
5.569458
5.440712
5.251765
5.393624
5.247593
5.088449
5.678535
6.393790
8.327961
11.078715
15.940666
21.679997
29.158592
34.977794
41.089654
44.532418
45.212507
42.707920
39.309859
33.533573
27.719736
20.872951
16.297698
12.140870
##ZVALUE=385
0.500679
0.551939
0.434518
0.518560
0.427961
0.470877
0.558496
0.532866
0.575781
0.450611
0.541806
0.568628
0.428557
0.475645
0.397563
0.524521
0.600815
0.474453
0.565648
0.574589
0.671744
0.604987
0.481606
0.544786
0.581741
0.733733
0.684857
0.719428
0.924468
0.739694
0.818968
0.851750
0.940561
0.697970
0.841618
0.972748
0.964999
1.083612
0.990629
1.043677
1.023412
0.874996
1.019835
0.935793
1.067519
1.203418
0.967979
1.063943
0.817776
1.139641
0.827909
1.037717
0.974536
0.912547
1.053810
1.050830
1.142621
1.089573
1.213551
1.284480
1.374483
1.309514
1.361966
1.353621
1.347661
1.591444
1.595616
1.706481
1.954436
2.270937
2.522469
2.807975
3.049970
3.772974
12.363791
45.471787
175.719857
376.313925
810.436010
1016.001701
1016.001701
1016.001701
1016.001701
1016.001701
1016.001701
1016.001701
866.736770
540.271997
238.797665
112.861991
33.986568
11.936426
6.000996
5.727410
5.352497
5.495548
5.334616
4.978776
4.968643
4.930496
4.906654
5.381703
5.805492
6.930828
9.666681
12.944937
18.956661
25.505424
30.606985
35.325885
39.733648
41.955709
41.075945
38.429499
32.487512
26.682615
##ZVALUE=390
0.348687
0.416636
0.350475
0.365973
0.497699
0.375509
0.565648
0.506639
0.435710
0.562668
0.526905
0.362992
0.454783
0.523925
0.326633
0.506639
0.540614
0.575781
0.484586
0.514984
0.403523
0.473857
0.380874
0.609756
0.781417
0.650883
0.542998
0.699759
0.884533
0.868440
0.905991
0.988841
0.904799
0.940561
1.100898
1.163483
1.169443
1.241565
1.085997
1.225471
1.154542
0.993609
1.082420
1.168847
1.011491
0.901818
0.978708
1.031756
1.097918
1.087785
1.198649
1.094937
0.856519
1.232624
1.196861
1.150966
1.189709
1.155734
1.188517
1.186728
1.243949
1.259446
1.335740
1.393557
1.310706
1.307726
1.513958
1.618862
1.924634
2.082586
2.321601
2.365708
2.497435
2.716780
2.707839
3.077388
6.222725
27.066469
122.761726
279.315710
644.421577
985.959768
1016.001701
1016.001701
1016.001701
1016.001701
1016.001701
1016.001701
1016.001701
751.066804
371.526480
185.242891
60.228705
21.069646
6.705523
6.024837
5.409718
5.251765
5.287528
5.167723
5.091429
5.017519
5.238652
5.032420
5.347729
5.455613
6.693602
8.863807
11.689663
15.949607
20.077825
26.520491
31.257868
36.879778
39.176941
39.337873
##ZVALUE=395
0.569820
0.481606
0.385642
0.563860
0.419617
0.375509
0.435710
0.412464
0.583529
0.372529
0.377893
0.495911
0.537634
0.372529
0.468493
0.560880
0.473857
0.608563
0.495911
0.567436
0.501871
0.691414
0.430942
0.651479
0.606775
0.678897
0.560880
0.651479
0.654459
0.591874
0.739694
0.864863
0.899434
0.962615
1.027584
0.918508
1.036525
1.035929
1.172423
1.192689
1.045465
1.127720
1.112819
1.216531
1.205802
1.222491
1.276731
1.086593
1.061559
0.997782
0.967979
1.000762
1.267791
1.342893
1.163483
1.151562
1.222491
1.200438
1.072884
0.965595
1.153946
1.186728
1.148582
1.193881
1.192689
1.477599
1.587868
1.582503
1.871586
2.042651
2.083778
2.112985
2.044439
2.478957
2.321601
2.406836
2.497435
2.605915
3.950596
15.130639
84.338784
202.032924
470.145941
783.380866
1016.001701
1016.001701
1016.001701
1016.001701
1016.001701
1016.001701
1016.001701
973.007679
520.911813
275.778770
96.495748
38.665533
10.189414
6.269813
5.648732
5.478859
5.508661
5.479455
5.576611
5.478859
5.404949
5.212426
5.221963
4.874468
5.534887
6.180406
7.564425
9.644628
13.571978
17.748475
23.452640
29.885769
##ZVALUE=400
0.601411
0.479817
0.552535
0.437498
0.341535
0.488758
0.342727
0.459552
0.472665
0.515580
0.411868
0.381470
0.373721
0.385642
0.445843
0.364780
0.485778
0.515580
0.546575
0.524521
0.556707
0.574589
0.554919
0.556707
0.633597
0.658631
0.615716
0.741482
0.761747
0.834465
0.764728
0.856519
0.876784
0.988841
0.948906
1.103878
1.006722
1.119971
1.191497
1.070499
1.204610
1.221895
1.278520
1.212955
1.181960
1.141429
1.135468
1.205802
1.020432
1.235604
1.135468
1.140833
1.061559
1.066923
0.938773
1.132488
1.249909
1.087785
1.034737
1.141429
1.012683
1.207590
1.027584
1.215935
1.324415
1.366735
1.350641
1.712441
1.726747
1.888871
1.854897
2.076626
1.901984
2.077818
2.044439
1.993775
1.952648
2.185702
2.375841
2.784729
3.281832
7.318854
42.893887
124.777555
344.741940
616.619587
1016.001701
1016.001701
1016.001701
1016.001701
1016.001701
1016.001701
1016.001701
1016.001701
653.228760
386.169553
162.842870
74.233413
22.486448
8.388758
5.745888
5.486608
5.502701
5.718470
5.801916
5.556941
5.537868
5.257726
5.102754
4.942417
5.030632
4.972816
5.480647
6.283522
8.554459
12.475848
##END
