##TITLE=12-3
##FORMAT=SPECTACLE-ASCII V-1.2
##DATA TYPE=ULTRAVIOLET SPECTRUM
##SECOND TYPE=ULTRAVIOLET SPECTRUM
##DATE=04/04/18
##TIME=11:38:07
##SPECTROMETER/DATA SYSTEM=SPECTACLE
##XUNITS=NM EM
##YUNITS=ENERGY
##YFACTOR=1
##FIRSTX=220
##LASTX=450
##NPOINTS=116
##3DDATA=Equidistant
##ZUNITS=NM EX
##FIRSTZ=210
##LASTZ=400
##ZPOINTS=39
##XYDATA=(Y..Y)
##ZVALUE=210
25.268793
21.878481
18.505454
12.962818
10.966659
10.651946
10.069609
9.014606
8.100867
6.116629
4.410744
4.357696
3.500581
3.261566
3.997684
4.326701
3.715754
3.824830
4.204512
4.735589
5.267859
5.619526
5.681515
6.826520
7.088780
8.553863
8.706450
10.558963
11.128783
11.158586
11.657476
12.443662
12.390614
13.147593
14.837980
13.249516
14.164448
14.118552
14.195442
14.824867
13.466477
12.572408
14.687777
12.148619
13.239980
13.541579
14.584661
14.874935
14.811754
13.979673
14.151931
14.069676
14.453530
13.977885
15.012622
13.371706
13.261437
13.490915
12.369752
14.195442
12.837648
13.923645
13.922453
14.746785
14.673471
15.105605
15.519857
15.310645
17.258525
21.106601
23.468733
29.622912
29.748678
34.911633
36.540627
39.300919
40.922761
41.305423
38.778782
38.930774
35.164952
30.549765
28.394461
23.104548
19.579530
18.059611
15.943646
13.782978
14.453530
17.689466
19.777417
23.525953
30.611753
35.388470
47.773719
55.139661
67.499876
73.360801
80.995560
90.231895
90.723634
96.150637
94.753504
94.691515
85.183978
85.132718
78.106523
67.611933
60.382485
48.299432
40.292740
33.457875
23.976564
20.606518
20.864606
19.578934
##ZVALUE=215
74.564815
71.777701
53.729415
42.339563
31.064749
24.983883
19.390583
15.698671
17.061830
14.087558
12.111664
10.697842
8.113980
6.904602
5.249977
4.459620
4.368424
5.104542
4.809499
4.816651
4.981756
5.656481
5.946755
6.018877
7.202625
9.035468
9.470582
10.409951
10.656714
10.806918
12.114644
12.724996
13.051629
14.107823
14.549494
14.020801
14.454722
14.395714
14.578700
13.463497
16.474724
14.017820
15.485883
16.039610
14.148951
14.750957
15.555620
14.091730
15.152693
14.919639
15.018582
15.567541
15.033484
16.165972
15.290976
16.628504
16.814470
14.752746
16.225576
14.704466
13.664961
13.912916
15.514493
14.629960
16.291738
14.862418
14.831424
16.092658
16.364455
20.694733
23.622513
24.476647
29.023886
31.849742
34.699440
33.540726
35.775900
32.867789
37.469864
33.285618
29.229522
27.038455
25.613904
20.376444
17.961860
16.802549
14.214516
13.484955
11.439919
12.657642
11.343956
11.302829
12.114644
12.825727
16.560555
20.582676
28.910637
34.629703
51.399469
60.701966
78.181624
85.495710
104.385614
112.302899
127.285719
134.198666
136.540532
134.883523
131.146908
124.766827
116.409659
108.584762
98.960996
76.769590
67.937970
49.855709
##ZVALUE=220
157.932639
156.328678
155.842900
138.506889
118.405819
84.846616
64.265728
39.953589
31.020641
26.966929
24.517775
24.059415
21.751523
18.671751
16.642809
11.372566
9.000897
6.098747
6.224513
5.144477
5.972981
5.961657
6.267428
6.528497
8.219481
8.157492
8.378625
10.349751
10.815859
10.453463
11.136532
12.394786
13.004541
14.704466
15.251637
14.301538
15.224814
16.547441
16.094446
17.326474
15.670657
17.157793
17.578602
17.717481
16.990900
17.265677
17.503500
17.439723
16.342998
17.411709
18.013716
17.296672
17.592907
18.169880
18.464923
17.121434
19.008517
18.740892
16.416907
18.310547
17.734766
15.919805
17.366409
17.734766
17.393827
17.286539
18.349886
18.001795
19.317865
21.348000
22.423863
26.341677
28.572679
32.454729
34.066439
34.042001
34.537911
35.423636
32.578707
29.852986
27.998686
26.292801
23.858547
22.590756
19.941926
16.803741
15.126467
13.420582
13.042688
13.482571
11.924505
11.635423
12.031794
11.360645
12.170672
12.682676
12.665987
12.707710
15.068650
20.041466
25.342703
35.447478
51.080585
69.619417
89.004636
107.669830
125.798583
156.343579
173.701644
188.007951
200.556517
210.651755
215.061903
207.178593
199.449658
187.167525
##ZVALUE=225
212.744474
207.219720
252.583623
279.790759
285.200477
256.225467
224.449635
154.065490
116.341710
71.992874
53.011775
41.543841
39.201975
37.681460
38.173795
33.805966
29.441714
22.465587
16.393661
10.790825
9.278655
7.262826
7.134676
7.400513
8.023977
8.925796
9.646416
9.815693
11.971593
11.492968
12.006760
10.740757
13.233423
13.198853
16.100407
15.608668
17.300844
16.826987
16.789436
18.635988
21.110773
21.107793
19.224882
21.224618
19.537807
20.360947
21.082759
21.053553
20.309687
22.103786
21.230578
20.437837
22.277832
22.901893
21.544695
20.352602
21.593571
20.061731
22.305846
21.308661
20.430684
21.352768
20.156503
19.721985
20.352602
18.682480
20.264983
19.892454
21.344423
23.305416
25.150776
28.225780
32.127500
33.494830
33.267736
33.910871
32.796860
33.377409
29.310584
31.955838
29.599667
25.080442
22.039413
20.023584
19.082427
17.767549
15.612841
14.648438
15.199780
13.113618
13.810992
12.998581
13.605952
12.368560
12.207627
12.930632
11.483431
12.386441
12.277961
12.413859
12.264848
12.693405
13.496876
16.218424
25.705695
32.097697
51.256418
76.264739
95.882416
124.481916
154.957771
194.658637
225.822926
265.027881
297.227502
321.918726
##ZVALUE=230
136.778951
139.172673
236.839652
314.150453
390.680432
456.025600
483.571887
450.241566
395.903587
293.255448
217.952728
128.222704
90.785623
62.910914
60.859919
63.575506
62.129498
59.081912
50.866604
40.071607
31.708479
22.025704
15.783906
11.214614
9.702444
9.106994
8.748770
9.045601
9.832978
9.706616
11.913776
11.263490
13.598800
14.129877
16.373992
14.926791
15.586615
17.303824
18.792748
17.658472
19.401908
21.062493
23.103952
21.346807
22.505522
23.124814
22.379756
22.608638
22.401810
22.930503
22.772551
22.941828
22.638440
22.679567
21.033883
20.937920
21.539927
22.268891
21.786690
21.583438
22.074580
21.464825
21.712780
20.308495
20.595789
20.620823
21.408796
22.574663
21.388531
24.437904
26.631951
29.266477
31.166673
33.421516
35.079718
34.602880
35.852790
33.975840
32.567978
29.224753
28.197765
26.548505
23.192763
23.264885
21.348000
18.917918
17.539859
16.902685
15.999675
14.583468
15.355945
14.728904
14.820695
15.756488
13.724566
14.561415
14.707446
13.216734
14.023781
14.935732
13.486743
13.987422
13.741851
13.759732
14.922619
15.354753
14.562607
15.645623
19.647479
28.685927
39.493442
66.512823
93.405843
139.096975
178.161860
230.940580
##ZVALUE=235
38.550496
41.734576
99.664927
185.605884
304.426551
469.660759
605.257750
765.776634
797.985792
766.214728
679.940581
520.233512
379.174948
233.140588
162.230730
109.995604
87.669492
87.126493
91.792941
87.490678
81.828833
70.196986
55.032969
39.990544
27.870536
18.603802
15.481710
11.277795
10.997653
11.545420
12.216568
13.182759
13.402700
13.755560
15.562773
15.481710
16.868711
17.013550
19.271970
19.136667
20.198822
19.178987
20.197630
21.072626
23.277998
21.961927
22.432804
20.583868
22.369623
22.443533
22.039413
21.351576
21.105409
22.131801
21.697879
21.997690
21.071434
21.959543
21.879673
22.724867
22.255778
20.866990
21.100640
21.334887
21.605492
21.082759
21.039844
23.219585
24.351478
24.122000
29.037595
30.032992
33.644438
33.620596
34.669638
35.591722
37.420988
34.161806
34.002662
31.221509
28.272867
26.934743
24.255514
25.165677
21.951795
19.734502
18.458962
19.014478
18.682480
18.513799
17.780662
19.064546
18.061996
16.322732
17.699599
17.389655
18.234849
18.310547
18.484592
16.186833
18.091798
17.761588
17.014742
18.098950
19.738674
19.710660
18.547773
16.888976
17.953515
16.665459
16.986728
16.564727
18.813610
22.492409
34.739971
56.557655
##ZVALUE=240
3.552437
3.387928
15.728474
39.035678
95.995665
223.864913
371.701717
630.844831
840.030909
1016.001701
1016.001701
1016.001701
1016.001701
825.826526
636.254549
399.385691
259.148479
160.000920
120.312572
108.083487
118.496418
126.221776
121.909976
107.330680
93.664527
66.535473
54.214001
38.861632
25.272965
22.178888
16.642809
14.857650
14.703870
14.118552
16.312599
15.683770
17.463565
18.071532
17.333627
18.406510
19.006729
19.580722
20.527840
21.630526
20.862818
20.936728
23.067594
21.402836
21.439791
22.796988
22.289753
21.236539
21.661520
22.054911
20.338893
20.683408
20.755529
19.822717
19.762516
21.664500
20.396709
21.074414
20.523667
20.630956
21.767616
22.136569
22.117496
24.196506
26.372671
25.711656
30.095577
31.739473
35.413504
36.716461
36.778450
37.452579
37.380457
35.654902
34.849644
32.307506
30.791759
28.321743
25.664568
24.844408
24.668574
20.719767
21.826625
20.525455
19.995570
20.463467
20.549893
20.873547
19.893646
21.885633
21.591783
20.096898
21.586418
23.343563
22.227764
21.409988
22.021532
20.689964
21.814704
22.337437
24.102926
19.801855
22.950768
22.314787
22.659898
22.351742
21.280646
23.641586
22.178888
23.333430
20.218492
21.076798
##ZVALUE=245
2.142787
2.564788
2.916455
2.723932
6.384850
27.945638
71.406960
195.663571
359.703898
639.833808
911.736488
1016.001701
1016.001701
1016.001701
1016.001701
1016.001701
899.169445
574.668646
382.702947
207.371712
136.846900
109.999776
122.635961
133.565664
134.124756
127.510428
118.168592
102.104545
77.576637
61.195493
42.503476
30.601621
21.787882
17.811656
14.694929
15.197992
16.079545
16.342998
16.063452
15.946627
17.296672
16.905665
17.692447
17.734766
18.676519
19.124746
17.337799
18.334985
18.724799
18.799901
20.545721
18.950701
19.182563
18.397570
17.849803
18.256903
18.080473
17.392635
17.620921
18.708706
16.764998
18.449426
18.173456
19.495487
17.257929
17.791986
18.556714
19.501448
21.179914
21.864772
25.536418
27.052760
29.546618
29.263496
32.695532
30.311942
30.895472
29.295683
30.015707
28.405786
25.595427
23.417473
21.465421
20.507574
20.128489
18.711686
17.952919
18.763542
19.009709
17.519593
17.488599
19.941926
19.551516
20.457506
20.439625
18.943548
19.620657
19.691586
20.082593
20.089746
22.047758
21.810532
20.242929
20.103455
22.313595
20.767450
20.555854
20.988584
21.573901
20.950437
21.842718
22.245646
21.335483
20.899773
21.560788
20.987988
##ZVALUE=250
2.093911
2.355576
2.192855
2.588630
2.877712
3.173947
3.446937
20.960569
62.546730
181.307793
346.694589
677.319765
972.857475
1016.001701
1016.001701
1016.001701
1016.001701
1016.001701
1016.001701
770.161748
509.600639
276.654959
175.457597
114.907622
109.932423
127.939582
138.734579
144.939423
140.830874
131.754875
107.754469
85.023642
64.007640
44.494867
29.003620
22.395849
17.468929
16.258955
16.443729
16.701818
15.853643
16.250610
16.769767
17.765760
17.100573
17.641783
18.250942
17.710924
18.100739
17.010570
18.918514
17.167926
17.419457
17.236471
17.385483
16.427636
17.245412
17.469525
16.864538
16.704798
17.629862
16.816854
17.225742
16.690493
17.128587
18.000603
17.652512
18.288493
20.293593
22.149682
21.833777
25.737882
27.098656
27.816892
32.076836
30.994415
29.249787
29.060841
26.308894
26.035905
22.471547
23.127794
21.369457
20.101666
17.950535
17.590523
17.316937
16.571879
16.805530
16.632676
17.102957
17.338991
18.568635
18.891692
19.982457
20.384789
20.817518
20.798445
22.450686
21.843910
22.992492
22.508502
23.744702
22.804737
21.959543
22.708774
22.524595
25.706887
23.557544
22.381544
23.382902
23.271441
23.529530
23.553967
22.174716
22.410750
##ZVALUE=255
2.128482
2.126694
1.818538
2.074838
2.069473
2.472997
2.460480
3.010631
3.517866
12.425780
46.790838
160.556436
314.202905
639.247894
931.081772
1016.001701
1016.001701
1016.001701
1016.001701
1016.001701
1016.001701
1006.023884
730.254650
391.393900
243.142843
131.465793
103.815794
113.613605
130.898952
147.059560
152.896643
150.560737
135.124922
111.027956
92.268586
64.151883
46.898723
31.949878
23.371577
19.314885
18.040538
18.842816
17.803907
18.798709
18.124580
18.964410
18.263459
17.447472
18.000603
17.778873
18.922687
17.491579
18.453598
17.840862
16.354918
18.370748
17.504692
17.018914
17.787814
17.420650
16.508698
17.150640
17.122626
16.882420
16.576648
17.277598
16.599894
19.178987
18.336773
19.414425
21.498799
21.851659
23.546815
24.877787
28.170943
26.775599
26.977658
23.857951
24.675727
22.584796
20.798445
18.891692
16.612411
16.278625
16.277432
15.207529
16.229749
16.386509
16.118884
15.699863
17.073750
18.744469
19.241571
21.125674
21.561980
23.339987
24.956465
25.361776
25.266409
25.265813
25.542974
26.052594
25.324821
25.881529
26.832819
26.059747
27.719736
27.285814
27.528405
29.378533
29.002428
28.550625
28.429627
29.074550
27.437806
24.972558
##ZVALUE=260
1.718998
1.819730
1.651645
1.863837
1.705885
2.198815
2.081990
2.619624
2.277493
2.996922
3.048778
8.651614
32.395720
132.324696
279.267430
627.778769
966.950655
1016.001701
1016.001701
1016.001701
1016.001701
1016.001701
1016.001701
1016.001701
989.210010
597.931743
379.392505
257.888436
121.096969
98.812580
117.119551
133.656859
154.410005
161.512494
156.437755
145.313740
119.732618
95.621943
68.595409
54.675937
37.843585
29.398799
23.212433
22.436976
21.389723
21.021962
20.877719
21.073818
21.437407
21.961927
21.107793
20.912886
21.095872
21.761656
19.169450
19.790530
19.681454
18.791556
20.769835
20.665526
18.112659
19.009709
19.589663
18.571615
18.351674
17.946959
18.822551
19.266605
19.271970
19.554496
21.566749
22.464991
23.176670
24.816990
24.686456
23.581982
23.467541
21.940470
20.738840
20.407438
17.316937
18.480420
16.682744
15.779734
15.056729
16.267896
16.000867
16.178489
16.777515
18.794537
20.458698
22.916794
26.483536
29.159784
29.815435
31.758547
32.964945
33.997893
32.113791
34.016967
33.678412
33.462644
32.955408
32.687783
32.702684
33.352971
33.931732
34.027696
34.917593
35.240650
36.209822
34.226775
32.977462
31.638741
30.670762
28.111935
##ZVALUE=265
1.768470
1.720786
1.737475
1.757741
1.995564
2.081990
1.865625
2.047420
1.960993
2.246499
2.386570
2.531409
2.981424
3.615618
9.213686
51.184893
132.822990
333.181024
586.100817
1009.633541
1016.001701
1016.001701
1016.001701
1016.001701
1016.001701
1016.001701
1016.001701
932.309628
506.315827
290.072560
134.609938
93.420744
94.844699
118.181705
149.194002
161.237717
171.191692
163.703561
145.449638
123.643875
102.243423
71.860552
56.133866
38.582683
31.408668
25.129914
23.744702
23.142695
22.356510
22.234917
21.882653
22.680759
22.228956
22.362471
21.991730
20.790696
21.314621
19.352436
20.365715
19.579530
18.811822
19.704700
18.726587
19.190907
18.055439
17.790794
18.041730
16.879439
18.204451
18.470883
19.486547
19.746423
20.059943
20.751953
19.966960
19.835830
19.693971
18.111467
16.154647
16.275644
14.611483
14.941692
14.161468
13.186932
13.154745
12.753606
12.385845
11.583567
11.804700
11.396408
11.216998
11.918545
10.731816
11.494756
12.147427
12.245774
11.421442
11.370778
11.776686
10.908842
11.640787
11.991858
11.521578
11.458993
11.485815
11.878610
11.753440
12.460947
11.415482
11.478662
12.214780
12.019873
11.686683
11.651516
12.106895
11.588931
##ZVALUE=270
1.484752
1.576543
1.312494
1.754761
1.251698
1.471639
1.639724
2.033710
1.775622
2.046824
2.268553
2.096891
2.324581
2.445579
2.920628
3.070831
4.228950
23.170710
69.563985
232.554674
446.003079
892.000794
1016.001701
1016.001701
1016.001701
1016.001701
1016.001701
1016.001701
1016.001701
1016.001701
730.820894
437.741876
195.458531
106.531978
80.423951
94.512701
125.095844
147.420764
168.906450
175.351501
168.699622
157.687664
128.265619
106.533766
78.602433
60.398579
42.840838
32.979846
28.362870
26.599765
26.335716
25.010705
24.579763
24.321675
23.824573
23.740530
23.090839
23.674965
22.498965
21.788478
21.156669
21.039844
20.749569
20.291805
19.718409
18.902421
19.231439
19.173622
18.930435
18.815994
19.167662
20.494461
19.220710
19.791722
19.963980
18.768907
18.851757
17.738938
16.594529
16.415715
14.913678
13.951659
13.951659
13.453960
13.611913
12.894869
12.139678
11.923909
11.800528
11.420846
10.803938
11.029840
10.885596
10.899901
10.783672
10.435581
10.195971
10.472536
10.343790
11.159778
11.019707
10.554790
10.777712
10.706782
10.976791
10.892749
10.814667
10.537505
11.447668
10.493994
11.365414
10.894537
10.996461
10.877848
10.468960
10.999441
##ZVALUE=275
1.302958
1.572967
1.450777
1.145601
1.474619
1.522899
1.677871
1.568794
1.562834
1.912713
1.860857
1.818538
2.076626
2.155900
2.196431
2.458692
2.265573
3.477931
3.350973
10.063648
39.375424
153.631568
337.175727
757.502913
1016.001701
1016.001701
1016.001701
1016.001701
1016.001701
1016.001701
1016.001701
1016.001701
989.004970
625.628829
274.698734
142.403841
75.276494
74.657798
99.224448
122.113824
151.702762
167.075992
176.431537
172.623992
153.732896
133.617520
104.146600
83.519816
59.084892
46.264529
35.315752
30.205846
26.728511
26.602745
25.524497
25.924444
24.675727
23.599863
23.622513
23.630857
22.243857
21.594763
21.105409
20.660758
20.186901
19.917488
19.240975
19.006729
20.152926
19.520521
19.216537
20.128489
20.034909
21.854639
20.848513
20.331740
18.548965
18.517971
16.864538
16.150475
15.011430
14.833808
14.993548
12.743473
12.711883
12.002587
12.465715
12.227893
11.464953
11.359453
11.093616
11.307597
10.743737
10.413527
10.377765
10.212660
10.393858
9.921789
10.284781
10.567904
10.801554
10.345578
10.617971
10.660887
11.258721
10.543466
10.338426
11.186600
10.571480
10.645986
10.017753
11.435747
10.502934
10.213852
10.273457
9.746552
##ZVALUE=280
1.298785
1.139641
1.181960
1.335740
1.066923
1.373887
1.430511
1.519918
1.482964
1.575947
1.549721
1.655817
1.605749
2.016425
1.805425
1.642704
2.096891
2.767444
2.763867
3.117919
3.280640
6.061792
23.641586
115.329623
262.445807
601.133704
961.229801
1016.001701
1016.001701
1016.001701
1016.001701
1016.001701
1016.001701
1016.001701
1016.001701
802.738667
389.008522
197.702646
83.439946
63.267946
74.083805
94.921589
125.340819
146.245956
169.125795
173.551440
165.555477
153.155923
126.902461
103.443861
76.724887
59.610605
42.668581
34.149885
27.061701
25.692582
23.792982
24.330616
22.781491
22.500753
22.793412
21.779537
21.174550
20.517707
20.911694
20.034909
19.075871
19.013882
20.446777
19.830465
20.123720
19.883513
20.931959
20.916462
19.434690
20.213723
18.065572
17.728806
16.619563
16.504526
15.161633
14.111996
13.774633
12.743473
12.811422
11.900663
11.807680
11.433959
12.013912
11.348724
10.365844
10.941625
10.445714
10.551810
10.161996
10.312796
10.225773
10.166764
9.731650
10.121465
9.998679
9.934902
9.672642
9.621978
10.509491
10.541677
10.408759
10.240674
10.373592
10.313988
10.120869
10.018945
10.321736
10.196567
9.562969
9.512901
##ZVALUE=285
1.047850
1.240969
1.096725
1.200438
1.174808
1.335740
1.280904
1.348853
1.417994
1.407862
1.418591
1.256466
1.677871
1.653433
1.705885
1.813769
1.951456
1.908541
2.048612
2.255440
2.483726
2.901554
3.412962
4.239678
11.250973
65.660477
163.357854
328.863859
707.568526
1016.001701
1016.001701
1016.001701
1016.001701
1016.001701
1016.001701
1016.001701
1016.001701
1015.231013
555.161834
307.444930
123.717785
64.257979
50.963759
65.691471
91.351867
115.011930
141.389966
153.768659
165.804625
163.039565
144.337416
127.720833
98.241568
77.715516
54.893494
41.942596
29.486418
24.643540
21.509528
20.427704
19.868612
19.240975
19.058585
19.366741
18.438697
18.228889
18.651485
18.408895
18.478632
18.037558
18.330812
18.007755
19.077659
18.975735
18.587708
17.615557
17.195940
16.562939
15.791655
14.307499
13.625622
13.742447
13.034940
12.534857
12.679696
12.306571
12.046695
11.500716
10.786653
11.138916
10.383725
10.714531
10.427833
10.322928
10.472536
10.380745
9.697676
10.230541
9.750724
9.722710
10.136962
10.062456
10.065436
9.608865
9.503961
9.961724
10.055900
9.462833
9.790659
9.309649
10.134578
9.444952
9.612441
9.281635
9.219646
9.399652
##ZVALUE=290
1.075864
1.129508
0.975728
1.130700
1.048446
1.149774
1.201630
1.189709
1.217723
1.281500
1.460910
1.396537
1.427531
1.381636
1.371503
1.446605
1.694560
1.794696
1.941919
2.124906
2.032518
2.393723
2.502799
2.439618
3.235936
3.627539
4.947782
17.250776
95.155835
236.178637
566.707850
924.320817
1016.001701
1016.001701
1016.001701
1016.001701
1016.001701
1016.001701
1016.001701
1016.001701
783.168077
459.694862
188.659430
86.365938
39.424896
41.562915
59.046745
78.221560
105.876923
126.182437
147.490501
154.520869
151.533484
140.707493
118.216872
95.991492
66.654682
51.108599
33.719540
26.498437
19.842982
17.428994
15.266538
15.190840
14.540553
15.430450
14.723539
14.464855
15.755892
15.880466
16.007423
15.358925
16.272664
16.498566
15.888810
15.646815
14.613867
14.503598
13.793707
13.142824
12.782812
12.094975
11.996627
11.782646
11.043549
10.520816
11.251569
11.095405
10.803938
10.791421
9.813905
10.111928
9.568930
9.627938
9.761453
10.060668
9.500980
9.300709
9.594560
10.084510
9.405613
9.441972
9.523630
9.900928
9.654760
9.477735
9.754896
9.744763
9.498596
9.666681
9.566545
9.628534
9.342432
9.283423
9.355545
9.167790
##ZVALUE=295
0.740886
0.937581
0.890493
0.899434
0.895858
0.993609
0.971556
1.067519
1.027584
1.124740
1.174808
1.220703
1.155734
1.164675
1.345873
1.337528
1.538992
1.537800
1.530647
1.802444
1.660585
1.934767
1.981854
2.247691
2.701879
2.877712
2.980828
3.142953
4.129410
6.661415
43.378472
134.769678
397.273898
738.058686
1016.001701
1016.001701
1016.001701
1016.001701
1016.001701
1016.001701
1016.001701
1016.001701
975.622535
612.906814
265.567899
122.032762
44.376850
29.856563
37.779808
51.250458
74.374676
95.155835
120.024681
133.893490
145.616531
141.373873
128.516555
111.255646
86.258650
68.037510
45.542717
32.828450
21.575689
17.103553
13.851523
12.452602
12.846589
12.439489
12.838840
12.662411
13.357997
13.694763
13.715625
13.701916
14.012456
14.011860
13.188720
12.768507
12.058616
11.947751
11.139512
11.349916
10.908842
10.689497
10.619760
10.391474
10.293722
10.517836
9.865761
9.938478
9.805560
9.195805
9.946823
9.354949
9.584427
9.366870
9.908676
9.510517
9.498596
9.363890
9.480715
9.504557
9.174943
9.776950
9.339452
9.584427
9.514689
9.972453
9.509921
9.332895
9.350777
9.056926
8.976460
9.294748
8.709431
8.904934
##ZVALUE=300
0.968575
0.904799
0.965595
1.211762
1.056790
0.936985
0.888705
0.910759
1.089573
1.072884
1.133680
1.029968
1.064539
1.086593
1.218915
1.309514
1.329780
1.436472
1.501441
1.526475
1.723766
1.685619
1.615882
1.671910
1.950860
2.174973
2.093911
2.541542
2.860427
3.244877
3.876686
4.448891
19.543767
74.983835
276.381969
555.207729
1016.001701
1016.001701
1016.001701
1016.001701
1016.001701
1016.001701
1016.001701
1016.001701
1016.001701
954.656005
474.222898
242.183805
81.307888
33.281446
24.217963
31.701922
47.176480
63.568950
89.359879
107.076764
126.288533
134.261847
134.280920
124.427676
104.173422
86.135864
62.034726
45.810938
29.743910
21.650791
15.080571
12.463927
10.966659
12.023449
11.363626
11.749864
12.390614
12.582541
12.696981
12.394786
11.894703
11.519790
11.104941
10.801554
10.520816
10.622740
10.437965
10.418892
10.087490
9.778738
9.750724
10.154843
9.526610
10.198951
9.381771
9.430647
9.467602
9.613633
9.299517
9.193420
9.000897
9.672642
9.809732
9.729862
9.385943
9.501576
9.427667
9.531975
9.062886
9.860992
9.733438
9.398460
9.565949
8.982420
9.253621
9.784698
9.337664
9.092689
9.336472
8.922815
##ZVALUE=305
1.017451
0.886917
0.905991
0.991821
0.812411
1.031756
0.960827
0.957847
1.076460
0.953674
1.174808
1.214743
0.935793
1.272559
1.235604
1.097918
1.243949
1.437664
1.432896
1.600981
1.523495
1.562834
1.399517
1.695752
1.756549
1.727939
1.992583
2.170801
2.523661
2.538562
2.838969
3.219843
3.806949
4.273653
9.230971
36.005974
158.365965
370.607972
858.994722
1016.001701
1016.001701
1016.001701
1016.001701
1016.001701
1016.001701
1016.001701
1016.001701
1016.001701
804.590583
439.572930
155.999660
57.196617
20.167828
21.080971
30.526519
42.277575
64.210892
81.971884
104.394555
117.372870
127.842426
126.735568
114.025474
101.148486
77.928901
60.844421
41.433573
29.321909
19.280910
15.059710
12.114644
12.313724
11.666417
11.845827
11.594892
11.595488
11.001825
11.086464
11.002421
10.429621
10.568500
10.188818
10.288954
9.808540
10.054708
9.705424
9.829998
9.911656
9.635687
9.462833
9.637475
9.610653
9.469986
9.320974
9.501576
9.611845
9.425879
9.499788
9.231567
9.385943
9.870529
9.901524
9.599924
9.758472
9.640455
9.762645
9.802580
9.318590
9.392500
9.742975
9.850860
9.203553
9.194613
9.580851
9.380579
8.897781
##ZVALUE=310
0.820756
0.893474
0.875592
0.730753
0.816584
0.819564
0.897646
0.723600
0.878572
0.965595
1.031756
1.060963
1.034737
1.060963
0.896454
1.241565
1.074672
1.055598
1.255870
1.146793
1.415610
1.322627
1.552701
1.526475
1.748800
1.536608
1.644492
1.843572
1.757741
2.226830
2.155900
2.331734
2.691746
2.666712
3.102422
3.416538
4.627705
14.199615
77.296495
194.532275
503.562689
883.809924
1016.001701
1016.001701
1016.001701
1016.001701
1016.001701
1016.001701
1016.001701
1016.001701
1016.001701
671.435595
275.093913
118.404627
30.596852
16.019940
19.819736
25.676489
38.404465
52.079558
73.910952
91.700554
111.145973
119.418502
119.045973
113.258958
96.192956
79.993606
56.311488
41.550994
27.461648
20.816922
15.361905
12.434721
11.770725
10.701418
10.654926
10.034442
9.578466
9.964705
10.103583
9.691715
9.784698
9.310842
9.510517
9.672642
9.867549
9.603500
9.599924
9.452701
9.948611
9.314418
9.245872
9.531975
9.005666
9.133816
9.174943
9.391904
9.416938
9.673834
9.629726
9.406805
9.868741
9.491444
9.762645
9.510517
9.476542
9.607673
9.723902
9.155869
9.453893
9.313822
9.151697
9.086728
8.901954
9.003878
##ZVALUE=315
0.793934
0.780821
0.778437
1.010895
0.725985
0.805855
0.904799
0.865459
0.929832
0.955462
0.915527
0.899434
0.855923
0.745654
0.968575
0.944734
0.984669
0.922680
1.009703
1.184940
1.159906
1.259446
1.283884
1.313686
1.309514
1.438856
1.434684
1.340508
1.393557
1.636744
1.686811
1.830459
1.706481
2.142787
2.305508
2.875924
3.038645
3.327727
3.885627
6.836653
37.224889
115.564466
350.115895
657.792687
1016.001701
1016.001701
1016.001701
1016.001701
1016.001701
1016.001701
1016.001701
1016.001701
1016.001701
784.918070
359.932780
163.180828
42.101741
17.046928
14.077425
15.877485
23.842454
33.517480
52.195787
66.927671
86.384416
100.585818
111.983418
113.095641
103.948712
91.217756
70.718527
56.888461
40.274858
29.692650
19.878745
14.786720
11.682510
10.443926
9.447932
9.633899
9.524822
8.897781
9.273887
9.320974
9.058714
9.297729
9.199977
9.395480
9.680986
9.462833
9.408593
9.433627
9.158850
9.105802
9.401441
9.429455
9.372830
9.371638
9.222627
9.382963
9.105802
9.387732
9.314418
9.757876
9.678602
9.637475
9.406805
9.756684
9.891987
9.447932
9.661913
9.551644
9.298921
9.228587
9.190440
9.049773
##ZVALUE=320
0.843406
0.753999
0.731945
0.783801
0.673532
0.676513
0.722408
0.821948
0.830889
0.823736
0.999570
0.994802
0.800490
0.826716
0.836849
0.887513
0.953674
0.908971
1.011491
0.990629
1.122952
1.124740
1.092553
1.244545
1.105666
1.335740
1.293421
1.222491
1.480579
1.602769
1.508594
1.686811
1.723766
1.684427
1.924634
1.985431
2.142787
2.530813
2.733469
3.194809
3.275871
4.442930
14.056563
77.457428
201.585889
532.165766
905.992985
1016.001701
1016.001701
1016.001701
1016.001701
1016.001701
1016.001701
1016.001701
1016.001701
965.559483
475.373864
229.803920
67.730546
25.694966
12.555718
12.164712
15.635490
21.015406
32.001734
44.606924
63.658953
78.095794
97.345710
105.590820
107.254982
102.922916
87.124705
72.551966
53.453445
41.120648
26.829839
19.511580
13.088584
10.916591
9.640455
9.306669
9.098649
9.079576
9.014606
9.132624
8.972883
9.147525
9.105802
9.276867
9.479523
9.223819
9.140968
9.319782
9.392500
9.574890
9.554625
9.551644
9.300709
9.389520
9.572506
9.484887
9.533763
9.646416
9.851456
9.593964
9.715557
9.700656
9.895563
9.605885
9.717941
9.824634
9.470582
8.888841
9.302497
9.094477
##ZVALUE=325
0.776649
0.719428
0.787973
0.804663
0.690818
0.882745
0.689626
0.892878
0.703931
0.851750
0.718832
0.828505
0.805855
0.875592
1.026988
0.842810
0.956655
0.859499
0.909567
0.881553
0.851750
1.066923
1.031756
1.076460
1.178980
1.240969
1.205802
1.126528
1.275539
1.387596
1.372695
1.325607
1.473427
1.633763
1.825690
1.804829
1.894832
1.946688
2.380610
2.382994
2.742410
3.023744
3.215671
3.899932
10.928512
48.973560
182.542801
375.590920
816.025734
1016.001701
1016.001701
1016.001701
1016.001701
1016.001701
1016.001701
1016.001701
1016.001701
1016.001701
605.691671
324.205756
111.274719
39.607882
13.235807
11.176467
11.542439
13.969541
20.282865
28.336644
45.718551
60.151815
80.101490
91.123581
100.517869
101.299882
94.054937
84.310770
64.925551
50.381422
34.207702
24.433732
16.586781
12.877584
10.697842
9.626746
9.267926
8.789897
8.849502
8.891821
9.210706
9.378791
9.023547
9.249449
9.366870
8.995533
9.455681
9.227991
9.337664
9.240508
9.381771
9.537935
9.908676
9.836555
10.074973
10.076761
9.436607
9.861588
9.867549
9.847879
9.972453
9.734631
9.722710
9.518862
9.572506
9.738803
9.319782
9.016991
##ZVALUE=330
0.703931
0.603795
0.776649
0.796914
0.583529
0.641942
0.640750
0.724792
0.781417
0.806451
0.942945
0.721812
0.636578
0.746846
0.736713
0.929832
0.926852
0.730753
0.751615
0.773668
1.062751
0.986457
1.060963
1.201630
1.174808
1.291633
1.129508
1.228452
1.244545
1.245737
1.040697
1.409650
1.437664
1.386404
1.600981
1.204610
1.737475
1.849532
1.879930
1.982450
2.080798
2.321601
2.542734
2.907515
3.351569
3.583431
5.381703
20.924807
114.221573
270.261765
627.800822
980.986953
1016.001701
1016.001701
1016.001701
1016.001701
1016.001701
1016.001701
1016.001701
1016.001701
860.992670
480.517745
178.277493
72.191954
18.982887
11.440516
10.603666
11.370778
14.353991
19.491911
30.755997
41.257739
58.243871
71.626902
86.646676
92.885494
93.315840
87.960958
74.242949
62.296987
46.447515
35.157800
24.118423
18.030405
13.125539
11.083484
9.826422
9.466410
8.874536
8.699894
8.982420
9.174943
9.049773
9.111762
9.369850
9.328723
9.336472
9.517670
9.975433
9.966493
10.404587
10.005832
10.236502
10.168552
10.323524
10.355711
10.295510
10.100603
10.141730
9.712577
9.870529
9.887815
9.837747
9.790659
9.628534
9.359717
##ZVALUE=335
0.534654
0.571609
0.513792
0.523925
0.691414
0.609756
0.453591
0.498891
0.651479
0.565648
0.801682
0.644922
0.712872
0.674725
0.732541
0.777841
0.641942
0.850558
0.932813
0.755787
0.919700
0.901818
0.975728
0.899434
0.872612
1.113415
1.012683
0.904799
0.881553
1.119971
1.293421
1.137853
1.289845
1.397729
1.598597
1.479983
1.545548
1.462698
1.441836
1.796484
1.773834
2.068877
2.056956
2.322793
2.370477
2.748966
2.960563
3.189445
4.174709
10.682940
72.352886
190.565586
498.884916
842.856765
1016.001701
1016.001701
1016.001701
1016.001701
1016.001701
1016.001701
1016.001701
1016.001701
962.190032
608.370900
261.467695
110.540986
28.455853
12.821555
10.544658
10.393858
11.811852
13.641715
19.323826
26.720762
40.231943
51.817894
69.103837
79.133511
87.650418
88.271499
81.399679
72.500706
57.902932
47.230721
33.634901
24.734735
17.709732
13.909936
10.980964
9.713769
9.055734
9.236932
9.166598
9.253621
9.578466
9.369850
9.525418
9.709597
9.758472
9.732842
9.721518
10.129809
10.051727
9.919405
10.245442
10.304451
10.470748
10.038614
10.416508
10.577440
10.231733
10.108948
10.308623
10.274649
9.970665
9.581447
##ZVALUE=340
0.593662
0.608563
0.649691
0.495911
0.711679
0.668764
0.648499
0.605583
0.687838
0.595450
0.607967
0.831485
0.728965
0.726581
0.740886
0.659823
0.867844
0.750422
0.821948
0.705719
0.863671
0.866652
0.814795
0.836849
0.908971
0.891685
0.882745
0.994802
0.894666
1.051426
0.809431
1.086593
1.264811
1.290441
1.204610
1.283884
1.327991
1.345873
1.399517
1.547933
1.780987
1.640916
1.644492
1.832843
2.151728
2.243519
2.488494
2.491474
2.717972
3.178716
3.780723
4.854798
30.694604
112.246871
370.891690
703.845024
1016.001701
1016.001701
1016.001701
1016.001701
1016.001701
1016.001701
1016.001701
1016.001701
1016.001701
703.035593
329.990983
153.410435
37.056804
14.403462
10.607839
10.171533
10.398626
10.878444
13.446808
17.586946
25.914907
35.654902
51.380992
62.685609
75.625777
80.831647
82.538724
78.449845
68.621635
58.368444
44.405460
34.565926
23.586750
18.193722
13.344884
11.312962
10.067821
9.418726
9.616613
9.436607
9.903908
9.705424
9.864569
10.048747
9.754896
9.613633
10.202527
10.195971
10.442734
10.148883
10.532737
10.426641
10.451674
10.377765
10.363460
10.252595
10.129809
10.103583
10.168552
9.672642
##ZVALUE=345
0.611544
0.583529
0.669956
0.619888
0.951886
0.540614
0.683665
0.528693
0.641942
0.574589
0.521541
0.600815
0.677705
0.740886
0.894666
0.664592
0.610948
0.673532
0.680685
0.774860
0.796914
0.837445
0.818968
0.794530
0.789762
1.013875
0.973940
0.898838
0.940561
0.887513
1.065731
1.258850
1.127720
1.086593
1.185536
1.045465
1.362562
1.405478
1.348853
1.273751
1.273751
1.521707
1.581907
1.559854
1.735687
1.794696
1.868606
2.194643
2.363920
2.502799
2.921820
3.025532
3.416538
4.123449
11.504889
52.118897
220.953822
483.534932
988.226533
1016.001701
1016.001701
1016.001701
1016.001701
1016.001701
1016.001701
1016.001701
1016.001701
910.731554
411.895514
201.627612
67.132711
24.038553
11.697412
10.862947
10.053515
9.704828
10.376573
11.609793
16.487837
23.206472
34.509897
45.216680
58.381557
66.545606
74.639916
77.009797
72.956681
66.641569
55.322647
45.713782
32.880902
25.354624
17.846823
14.815927
12.158751
11.423826
10.629892
10.654926
10.408759
10.654926
10.712743
10.931492
10.599494
11.008978
11.150837
11.193752
11.372566
11.458993
11.621714
11.436939
11.374950
11.573434
11.185408
11.008978
10.772943
10.449886
##ZVALUE=350
0.662804
0.656843
0.733733
0.607967
0.531673
0.579953
0.572801
0.622869
0.809431
0.558496
0.703931
0.586510
0.701547
0.792742
0.725985
0.807643
0.815988
0.672936
0.825524
0.778437
0.814795
0.747442
0.857711
0.703931
0.762939
0.887513
0.944734
0.929832
0.858903
0.876784
1.058578
1.057982
0.902414
1.082420
0.988841
1.025796
1.196861
1.107454
1.282692
1.194477
1.232624
1.260638
1.264811
1.306534
1.639724
1.405478
1.620650
1.729727
1.967549
1.980662
2.286434
2.282858
2.621412
2.860427
3.225803
3.447533
5.489588
18.878579
98.789930
249.630809
649.504662
1016.001701
1016.001701
1016.001701
1016.001701
1016.001701
1016.001701
1016.001701
1016.001701
989.244580
516.867638
277.111530
102.888942
37.045479
12.134910
9.939671
9.310842
8.715987
8.238554
8.807778
11.163950
14.366508
21.361709
28.482676
40.691495
49.686432
61.402917
67.541599
70.488453
68.570971
62.653422
52.809715
41.903853
34.108758
24.982691
19.978881
15.610456
13.422966
11.718869
11.272430
11.255741
10.993481
11.061430
11.298656
11.163950
11.409521
11.250973
11.398792
11.795759
11.695623
11.671782
11.595488
11.701584
11.102557
11.312962
10.986924
##ZVALUE=355
0.540614
0.771880
0.584722
0.626445
0.769496
0.641942
0.702739
0.722408
0.711679
0.733733
0.745654
0.844598
0.626445
0.740886
0.698566
0.639558
0.683665
0.731945
0.703931
0.907779
0.838637
0.779629
0.811815
0.887513
0.873804
1.051426
0.886917
0.806451
0.893474
0.948906
1.005530
1.036525
0.946522
1.096725
1.130700
1.307726
1.217723
1.225471
1.308918
1.196861
1.255870
1.296997
1.421571
1.452565
1.372695
1.468658
1.605749
1.663566
1.829863
1.760721
1.996756
2.161860
2.123713
2.493858
2.862811
2.879500
3.214478
3.418922
4.346967
9.098649
50.739646
154.357553
469.443798
865.065455
1016.001701
1016.001701
1016.001701
1016.001701
1016.001701
1016.001701
1016.001701
1016.001701
687.454939
363.165736
132.049918
52.757859
13.844967
9.592772
8.732677
8.226633
8.186698
8.115768
8.971691
10.384917
13.706684
18.140674
26.556849
35.110712
46.390891
54.449439
62.017441
64.699650
63.493848
59.899688
50.915480
43.524504
34.096837
27.000904
20.163655
17.058849
13.471842
12.242794
11.762977
11.621714
11.496544
11.132956
11.518598
11.516809
11.456609
11.411905
11.672974
11.368990
11.231899
11.164546
11.023879
10.853410
##ZVALUE=360
0.712872
0.542998
0.692606
0.741482
0.792742
0.541806
0.727773
0.651479
0.656843
0.672936
0.752807
0.594854
0.792742
0.852942
0.772476
0.641942
0.760555
0.738502
0.745654
0.904799
0.858903
0.931621
0.888705
0.794530
0.957847
1.005530
1.029968
1.003742
0.942945
1.028776
0.966787
1.064539
1.007915
0.998974
1.126528
1.222491
1.201630
1.348853
1.304746
1.272559
1.243949
1.292825
1.484752
1.213551
1.509786
1.298785
1.611710
1.680851
1.886487
1.790524
2.092719
2.112985
2.295971
2.183914
2.449751
2.499819
2.815723
2.922416
3.362894
3.652573
4.189610
5.633831
23.338795
72.927475
260.204673
554.070473
1016.001701
1016.001701
1016.001701
1016.001701
1016.001701
1016.001701
1016.001701
1016.001701
930.463672
531.256795
195.602775
76.677799
19.706488
10.901690
9.219646
8.736849
8.296967
7.987618
7.950664
8.236766
9.573698
11.548996
16.338825
21.919608
31.661987
40.085912
50.322413
55.535436
60.264468
61.039925
57.718754
52.720904
43.638945
36.552548
27.839541
22.504926
17.877817
15.344620
13.065934
12.389421
12.118816
12.256503
12.198687
12.017488
12.115836
11.775494
11.728406
11.578798
11.046529
11.127591
##ZVALUE=365
0.605583
0.704527
0.711679
0.770688
0.656843
0.778437
0.700951
0.681877
0.814795
0.718832
0.632405
0.846982
0.748634
0.713468
0.808835
0.793934
0.866652
0.902414
0.946522
0.792742
0.784993
0.906587
0.921488
0.839829
0.845790
0.801682
1.076460
1.140833
0.963807
1.146793
0.817776
0.922680
1.011491
0.949502
0.957847
1.055598
1.154542
1.195669
1.346469
1.294613
1.209974
1.237988
1.252890
1.470447
1.456738
1.381636
1.566410
1.516938
1.454949
1.591444
1.693964
1.771450
1.801848
1.926422
1.931787
2.173781
2.245903
2.427697
2.496839
2.694726
3.044605
3.491640
4.000664
4.521608
10.051727
35.565495
145.497918
334.936976
840.667486
1016.001701
1016.001701
1016.001701
1016.001701
1016.001701
1016.001701
1016.001701
1016.001701
742.165446
303.894877
133.367777
36.484599
14.019608
8.857846
8.308887
7.764697
7.738471
7.426739
7.419586
8.036494
8.740425
11.272430
15.142560
21.886826
28.019547
37.015676
44.434667
52.375793
56.807995
58.468580
56.881905
51.875710
45.800805
37.290454
30.857921
24.217963
19.419789
16.749501
14.762878
14.077425
13.452768
13.008714
13.341904
12.959838
12.245774
12.350678
11.741519
##ZVALUE=370
0.584722
0.628829
0.479817
0.695586
0.675917
0.604987
0.656843
0.717640
0.639558
0.664592
0.723600
0.756979
0.728965
0.730753
0.705719
0.708699
0.784993
0.727773
0.781417
0.780821
0.778437
0.827909
0.745654
0.864863
0.801682
0.705719
0.916719
0.799894
0.820756
0.879765
0.776649
0.749826
1.030564
0.939965
0.965595
1.094937
1.104474
1.020432
1.088977
0.944734
1.105666
1.218915
1.116991
1.249909
1.143813
1.072884
1.032948
1.253486
1.204610
1.400709
1.356602
1.324415
1.470447
1.639724
1.630783
1.617670
1.771450
1.890659
2.019405
2.186894
2.217889
2.517700
2.614856
2.876520
3.132820
3.573895
5.491972
17.807484
95.525384
241.279602
609.982610
984.948874
1016.001701
1016.001701
1016.001701
1016.001701
1016.001701
1016.001701
1016.001701
964.163542
472.299457
223.124623
65.069795
22.806525
8.977652
7.755756
7.642508
7.395744
7.333755
7.462502
8.217692
8.959770
10.752678
12.765527
16.393661
20.754933
27.969480
34.832954
43.791533
49.922466
55.400729
57.470798
56.304932
52.936673
45.979619
38.240552
32.565594
25.967956
23.108721
19.614697
17.658472
15.908480
15.424490
14.401674
14.026761
13.038516
##ZVALUE=375
0.579953
0.446439
0.486970
0.524521
0.568628
0.560880
0.615716
0.585914
0.582933
0.600815
0.622869
0.649691
0.630617
0.510812
0.643730
0.735521
0.696778
0.710487
0.699759
0.615716
0.680685
0.764728
0.681877
0.751615
0.694990
0.843406
0.641942
0.738502
0.544786
0.674725
0.790954
0.804663
0.816584
0.776649
0.746846
0.868440
1.019835
0.791550
0.940561
0.908971
0.959635
0.977516
0.886917
0.881553
0.970960
1.131892
0.974536
1.051426
1.079440
1.272559
0.967979
1.071692
1.344681
1.298785
1.504421
1.309514
1.320839
1.502633
1.666546
1.558661
1.653433
1.743436
1.947880
2.067685
2.046824
2.463460
2.796650
2.857447
4.020929
9.744763
47.744513
131.282806
383.114815
702.240467
1016.001701
1016.001701
1016.001701
1016.001701
1016.001701
1016.001701
1016.001701
1016.001701
703.672767
387.758613
140.368938
51.776767
12.213588
8.471608
7.689595
8.050799
8.539557
9.022951
9.990931
10.885596
11.826754
13.069510
15.380979
17.407537
21.325946
25.693774
33.316612
39.858818
47.806501
51.816702
56.037903
56.179762
53.602457
48.199892
42.882562
37.061572
30.676723
26.282668
21.705627
19.008517
16.449690
14.981627
##ZVALUE=380
0.501871
0.525713
0.342727
0.478625
0.300407
0.505447
0.602603
0.436902
0.578761
0.509620
0.518560
0.452995
0.630617
0.571609
0.668764
0.567436
0.560880
0.410676
0.516772
0.630617
0.726581
0.514984
0.594854
0.600815
0.713468
0.556707
0.499487
0.659823
0.754595
0.804663
0.785589
0.836849
0.848770
0.953674
0.722408
0.998974
0.956655
0.861883
0.671744
0.848770
0.948906
0.892878
0.813603
0.907779
0.874996
0.923872
1.014471
0.911951
0.956655
1.015663
1.083612
1.068711
1.001954
1.269579
1.215935
1.133680
1.211762
1.249909
1.198649
1.371503
1.130700
1.340508
1.580715
1.590848
1.764894
2.130866
2.022982
2.256632
2.696514
3.179908
3.887415
6.120801
34.098625
101.054907
294.542909
535.348654
986.787677
1016.001701
1016.001701
1016.001701
1016.001701
1016.001701
1016.001701
1016.001701
867.697597
514.716506
212.759972
91.220737
21.500587
9.443760
8.343458
8.689761
9.519458
10.084510
10.622740
11.110902
11.479855
12.168884
12.475848
13.548732
15.521646
18.081665
22.885799
28.381944
36.334991
41.992664
48.569441
52.537918
53.173900
50.497651
47.440529
41.372776
35.482645
27.996898
23.543835
18.226504
##ZVALUE=385
0.403523
0.392795
0.304580
0.445843
0.471473
0.473857
0.451803
0.444651
0.318885
0.428557
0.480413
0.320673
0.399947
0.513792
0.456572
0.515580
0.658631
0.630617
0.545979
0.509620
0.467896
0.573993
0.518560
0.582933
0.679493
0.561476
0.521541
0.741482
0.738502
0.778437
0.797510
0.768900
0.734925
0.957847
0.960827
0.925660
0.795722
0.992417
1.065731
0.936985
0.930429
0.829697
0.852942
0.849962
1.006722
1.024604
0.929832
0.829697
0.862479
1.080632
0.924468
1.012683
0.935793
1.114607
1.009703
1.121759
1.074672
1.211762
1.132488
1.091957
1.212955
1.174808
1.259446
1.220703
1.469851
1.535416
1.749992
1.884699
2.158880
2.474785
2.739429
2.900958
3.296733
3.702641
14.878511
56.380630
201.017857
411.808491
847.007036
1016.001701
1016.001701
1016.001701
1016.001701
1016.001701
1016.001701
1016.001701
993.015766
664.182901
304.695964
148.421526
45.800805
15.214682
8.562803
8.306503
8.431673
8.908510
8.614659
8.871555
8.856654
8.832812
8.860826
8.814931
9.391904
10.928512
13.522506
16.685724
22.492409
28.996468
33.923984
39.997697
43.456554
46.040416
45.443773
42.029619
37.664771
30.945539
##ZVALUE=390
0.420809
0.417829
0.326633
0.331998
0.250936
0.422597
0.433922
0.532866
0.508428
0.520945
0.515580
0.388622
0.492930
0.356436
0.364780
0.450611
0.357628
0.405908
0.395775
0.514984
0.417829
0.449419
0.553727
0.463724
0.638962
0.665784
0.719428
0.626445
0.714660
0.804663
0.981688
0.683665
0.926852
0.989437
0.759959
1.029968
0.985861
0.854731
0.886917
1.077652
1.007915
1.061559
0.986457
1.090765
0.990629
0.989437
0.903606
0.991821
0.952482
1.003742
0.987649
1.051426
1.131892
1.030564
1.068711
1.004934
1.037717
1.115799
1.001954
1.164675
1.113415
1.230836
1.420975
1.161695
1.303554
1.546741
1.732707
1.684427
2.051592
2.220869
2.352595
2.512932
2.465844
2.799630
3.057718
3.166795
6.538630
31.647682
153.926015
344.961882
756.179690
1016.001701
1016.001701
1016.001701
1016.001701
1016.001701
1016.001701
1016.001701
1016.001701
832.953453
422.588587
216.197968
70.747733
24.105906
8.312464
7.138848
7.226467
7.189512
7.176995
7.106662
7.130504
6.962419
6.736517
6.864667
6.892681
7.229447
8.287430
10.733604
13.224483
17.629862
22.108555
28.005838
32.783747
38.148761
40.831566
41.048527
##ZVALUE=395
0.429749
0.425577
0.422597
0.475645
0.377893
0.403523
0.512600
0.357628
0.355840
0.493526
0.592470
0.388622
0.460744
0.508428
0.318885
0.416636
0.483990
0.481606
0.586510
0.579953
0.454783
0.501871
0.614524
0.547767
0.572801
0.631809
0.727773
0.705719
0.748634
0.764728
0.903606
0.860691
0.991821
0.900626
0.899434
0.899434
0.984669
1.055598
0.991821
0.801682
1.076460
1.085997
1.004934
0.957847
1.027584
1.108646
1.104474
1.098514
1.051426
1.077652
1.071692
0.876784
0.979900
0.959635
0.974536
1.089573
1.044869
1.113415
1.217723
1.040697
1.150966
1.127720
1.066923
1.133680
1.186728
1.299977
1.403689
1.596808
1.616478
1.783967
2.010465
2.259612
2.265573
2.268553
2.347827
2.290606
2.453923
2.864599
4.097819
14.692545
84.827542
219.268799
529.907942
859.845877
1016.001701
1016.001701
1016.001701
1016.001701
1016.001701
1016.001701
1016.001701
934.084654
489.815474
267.973542
104.761720
42.690635
11.351705
6.950498
5.967617
6.074905
5.907416
6.094575
5.767941
6.027818
5.693436
5.759597
5.617738
5.775690
6.037951
6.661415
7.891655
10.497570
13.644695
18.888712
23.520589
29.795766
##ZVALUE=400
0.640750
0.512600
0.568628
0.441670
0.396967
0.341535
0.467896
0.492930
0.382662
0.403523
0.415444
0.483990
0.601411
0.455976
0.484586
0.412464
0.574589
0.499487
0.425577
0.530481
0.597835
0.279546
0.582933
0.528693
0.511408
0.462532
0.675917
0.509620
0.715852
0.808835
0.863671
0.802875
0.784993
0.915527
0.819564
1.003742
0.837445
0.754595
1.022816
1.012683
1.011491
0.868440
1.165867
1.018643
1.245737
1.125932
1.240969
0.907779
0.870824
0.908971
1.022816
0.984669
0.921488
0.895858
0.994802
1.074672
0.996590
1.055598
1.079440
1.102686
1.182556
1.155734
1.034737
1.164675
1.176000
1.132488
1.368523
1.586676
1.518726
1.806617
1.924634
1.991987
2.075434
2.123713
1.884699
2.116561
2.142787
2.155900
2.335906
2.711415
3.247857
6.473660
40.104985
117.710829
340.968966
623.878837
1016.001701
1016.001701
1016.001701
1016.001701
1016.001701
1016.001701
1016.001701
1016.001701
657.317638
391.263962
164.202452
71.720481
18.676519
7.909536
5.962849
5.647540
5.621910
5.546808
5.798936
5.913973
5.799532
5.606413
5.617738
5.448461
5.441904
5.389452
5.634427
6.885529
8.589625
12.063980
##END
