##TITLE=14-2
##FORMAT=SPECTACLE-ASCII V-1.2
##DATA TYPE=ULTRAVIOLET SPECTRUM
##SECOND TYPE=ULTRAVIOLET SPECTRUM
##DATE=04/04/18
##TIME=11:12:05
##SPECTROMETER/DATA SYSTEM=SPECTACLE
##XUNITS=NM EM
##YUNITS=ENERGY
##YFACTOR=1
##FIRSTX=220
##LASTX=450
##NPOINTS=116
##3DDATA=Equidistant
##ZUNITS=NM EX
##FIRSTZ=210
##LASTZ=400
##ZPOINTS=39
##XYDATA=(Y..Y)
##ZVALUE=210
22.493601
21.360517
16.497970
13.712645
10.906458
10.697842
10.665655
8.342862
7.687807
5.995631
4.133582
3.774762
3.535748
3.791451
3.472567
3.998876
4.197955
4.165769
4.437566
4.663467
5.699992
5.228519
6.089807
6.263852
7.920861
8.126497
8.699894
9.224415
10.732412
10.163784
11.321902
11.818409
12.444854
12.390614
12.603998
12.376904
11.725426
12.339950
14.075637
13.122559
12.822747
13.733506
12.789965
12.981892
11.833906
13.200641
11.253953
10.954738
12.489557
12.596846
11.607409
13.436675
12.277961
12.839437
11.970997
12.240410
12.049675
11.164546
11.749864
12.918711
12.453794
12.426972
11.994839
10.329485
12.045503
13.540983
12.603998
14.154911
15.526414
17.500520
21.167994
23.322701
26.114583
31.570792
33.451915
35.055876
35.370588
35.329461
35.731792
33.904910
30.678511
28.317571
23.641586
20.943880
17.148852
15.666485
12.571812
11.216998
11.472702
14.532804
19.141436
23.863912
28.928518
35.929680
44.765472
53.902864
60.228705
69.716573
77.655911
82.471967
87.291598
83.627701
87.353587
82.833767
76.593757
71.346760
65.631866
62.339902
52.540898
44.831634
37.448406
28.225780
24.523735
21.000504
18.347502
17.085671
##ZVALUE=215
67.475438
65.075755
50.390959
38.022995
28.376579
23.125410
17.276406
15.228987
15.768409
13.959408
12.678504
10.601878
7.967949
6.405711
5.158782
4.386902
3.495812
4.847646
4.388690
4.171729
4.689693
4.350543
5.733967
5.799532
6.822944
7.281899
8.226633
7.519722
9.159446
9.559989
10.768771
11.791587
11.381507
10.960698
11.514425
12.605786
12.560487
12.135506
13.029575
12.636781
12.835860
12.969971
12.022853
12.419820
12.360811
12.758970
12.808442
13.277531
12.502670
13.395548
13.294816
13.569593
13.259649
13.179779
12.994409
13.411641
12.409687
13.351440
12.150407
12.032986
11.501908
12.736917
13.971925
12.058616
12.209415
13.344884
12.998581
13.492703
15.546679
16.990900
19.148588
24.511814
25.135875
28.120875
28.063655
32.328963
31.538606
31.161904
31.491518
29.709935
27.827621
24.383664
22.666454
19.361973
18.749833
14.825463
12.651682
12.221932
10.424852
9.667873
9.872913
10.051727
10.182858
12.303591
15.870929
22.164583
26.122928
37.835836
46.787858
58.903694
70.347786
85.967779
100.998878
109.721422
119.247437
124.488473
124.292970
123.851895
118.376613
111.729503
104.523897
97.626448
84.979534
71.054697
62.449574
45.049787
##ZVALUE=220
143.340826
147.284865
137.027502
125.911832
104.652643
75.127482
55.334568
38.721561
30.781627
26.157498
23.139715
24.351478
22.441745
18.535852
15.224814
10.291934
9.361506
6.986856
6.071925
5.642772
5.909801
5.352497
5.665421
5.854964
6.819963
7.614493
8.141994
8.280873
10.629892
9.884834
9.826422
11.483431
10.551810
10.860562
12.428761
12.380481
13.647676
13.429523
13.926625
14.001727
15.557408
14.125705
13.951659
13.791919
13.451576
14.692545
14.773607
16.087890
14.657974
13.271570
15.614629
13.815761
14.257431
14.076829
14.249682
14.184713
14.138818
15.036464
14.900565
15.014410
15.367866
14.620423
14.231801
14.136434
13.424754
14.338493
14.086962
13.564825
16.591549
18.327832
19.648671
21.625757
26.652813
27.638674
30.716658
31.348467
31.307936
32.049417
28.645992
29.103756
25.573969
24.687648
20.737648
18.787980
16.509891
13.652444
12.933612
12.178421
10.463595
9.783506
10.588765
9.787679
9.729862
8.999705
9.964705
10.532737
9.619594
11.686683
12.955666
14.404655
22.400618
33.171773
45.716763
61.333776
79.068542
100.402832
119.328499
140.411854
158.515573
166.008472
176.749825
187.519789
183.835626
185.083747
171.349645
159.807801
##ZVALUE=225
187.401772
192.037821
232.163668
250.359774
247.923732
228.995681
191.388726
133.827925
94.592571
64.075589
50.063729
38.905740
39.793849
40.566921
37.232637
32.910705
28.213859
21.783710
16.077757
11.139512
7.660985
6.515980
6.218553
7.199645
6.569624
6.600618
7.979870
7.782578
8.762479
8.313656
10.119677
10.027885
10.532737
10.762811
11.700988
13.161898
12.944937
14.776587
14.408827
13.564825
15.671849
15.884638
16.638637
15.651584
16.029477
15.715957
15.671849
16.874671
17.377734
15.883446
15.595555
17.130971
16.044974
17.015934
17.115474
15.739799
16.919971
15.879869
16.066432
17.413497
15.820861
17.100573
16.527772
15.321970
14.469624
15.339851
16.226768
15.716553
15.717745
18.871427
20.767450
22.552609
22.995472
26.213527
26.713610
28.609633
28.754473
26.744604
26.634932
23.795962
22.669435
19.171834
17.428994
16.186833
14.248490
11.857748
12.639761
11.446476
11.711717
10.548830
11.094809
10.296702
11.660457
11.053681
11.343956
11.016726
10.359883
9.865761
11.193752
10.839701
10.663867
10.575652
11.604428
15.092492
20.385981
31.375885
41.566491
61.783791
83.614588
111.522675
141.036510
176.217556
207.256675
241.658688
266.108513
294.763446
##ZVALUE=230
127.406716
139.303803
202.443004
296.061635
366.138816
414.177775
431.453586
404.302478
351.525545
259.610415
188.830495
119.420886
83.747506
62.284470
57.111979
58.019757
61.838627
59.707761
51.860809
39.773583
29.556751
23.313761
13.048649
10.321736
8.170605
7.546544
8.274913
7.738471
8.997917
8.618832
9.425879
9.395480
9.879470
11.063814
10.809898
13.266802
13.186932
13.453960
14.474988
15.999675
15.932918
18.237829
17.715693
18.030405
18.252730
15.680790
16.706586
17.884970
17.563701
15.874505
16.633868
16.494989
17.846823
16.260743
18.352866
17.832518
17.790794
16.806722
17.751455
17.384887
16.157627
16.967654
16.664863
15.508533
16.412735
15.077591
15.628934
18.700957
19.253492
20.600557
22.872686
24.442673
26.900768
28.637648
30.093789
29.695630
30.133724
29.778481
28.207898
25.041699
24.207830
21.966696
21.046996
18.783808
15.760660
13.986826
14.886856
13.134480
13.107657
13.453960
12.328625
13.396740
12.064576
11.942983
12.727976
10.655522
11.586547
12.377501
12.073517
11.546612
11.484623
13.014674
12.284517
11.174679
12.414455
12.161732
12.315512
13.900995
16.251802
26.681423
39.640665
59.608817
84.386468
126.971602
162.558556
215.822458
##ZVALUE=235
33.448935
40.509701
98.255873
178.051591
279.440880
427.683592
547.150970
679.551959
713.075995
698.274970
616.335869
457.874537
334.745646
205.232501
139.979720
93.847513
83.265901
85.380673
91.185570
89.484453
82.526803
67.766905
55.745840
39.817691
28.691888
20.579696
14.371872
10.057688
10.183454
10.908842
10.333657
9.664893
11.044741
12.603998
11.941791
13.299584
14.021993
14.115572
14.966726
15.945435
16.325712
17.070770
17.380714
17.208457
17.939806
17.772913
17.846823
17.479658
17.911792
17.415881
18.401742
18.862486
16.776919
18.208623
16.748905
18.236637
17.231703
16.637444
17.122626
16.726851
17.443895
18.312931
18.021464
16.723871
16.200542
17.923713
17.742515
18.168688
19.343495
22.022724
23.462772
24.711490
27.719736
27.773976
29.885769
32.595992
28.841496
28.519630
26.692748
26.147962
23.192763
19.391775
20.033717
18.153787
16.043782
15.442967
14.319420
15.339851
13.161898
13.754964
14.118552
13.891459
13.473630
13.806820
13.984442
13.572574
13.257861
13.337731
13.397932
13.508797
12.935996
12.089610
13.234615
12.852550
12.358427
12.895465
13.852715
12.697577
11.909604
13.093948
12.685657
12.298822
14.208555
20.013452
31.040907
49.855709
##ZVALUE=240
3.743768
3.002882
15.376806
38.356781
86.762905
201.759934
337.792635
561.892986
747.016668
964.872837
1016.001701
1016.001701
951.195955
745.407939
565.439463
348.210931
223.788619
141.793489
110.961795
107.989907
116.278529
121.472478
120.720863
111.467838
87.857842
71.378946
50.076842
37.290454
23.949742
18.225908
13.727546
13.353825
12.790561
12.522936
12.853742
13.872981
14.442801
13.784766
15.012622
15.090704
17.345548
17.723441
17.437935
18.290877
17.567873
18.362999
18.743873
17.524958
17.666817
17.286539
17.856956
16.575456
16.037822
17.487407
17.751455
17.246604
16.815662
17.308593
16.889572
16.564727
17.272830
16.028881
15.929937
17.521977
17.169714
17.012954
17.367601
17.547607
19.304752
21.591783
24.780631
25.493503
28.690696
30.662417
30.746460
30.701756
29.459000
27.866960
27.516484
25.010705
23.305416
21.541715
21.250844
18.284917
17.247796
15.335679
14.987588
16.143918
15.048981
14.790893
16.205907
13.711452
15.037656
15.576482
14.356971
15.294552
13.963580
14.196634
13.407469
14.098883
13.777614
13.853908
13.920665
14.233589
12.657642
14.506578
13.663769
13.960600
13.004541
14.206767
13.911724
13.788939
13.724566
13.149977
13.588667
14.389753
##ZVALUE=245
2.616644
2.480745
2.355576
2.627969
5.913973
28.210878
69.513917
187.107921
331.266522
578.172803
803.594589
1016.001701
1016.001701
1016.001701
1016.001701
962.459445
779.608488
502.933860
331.866741
186.251998
129.511952
110.534430
120.776892
126.356483
133.346915
130.037665
117.239952
99.463463
75.281858
57.513714
37.365556
28.526783
18.930435
15.352964
13.461709
13.927817
14.285445
15.167594
14.482737
14.612675
14.202595
14.681816
15.760660
15.964508
14.600754
14.561415
15.800595
14.461875
16.544461
16.111732
14.918447
14.919639
15.677810
15.627742
14.729500
14.385581
14.266968
14.032722
14.003515
15.908480
16.011000
14.242530
14.525652
14.935732
14.081597
13.485551
14.602542
15.410781
18.197894
17.863512
18.679500
20.982623
23.351908
23.270845
25.561452
25.398731
26.097894
23.590922
23.658872
21.713972
19.948483
19.074678
16.900897
15.918612
14.824867
13.590455
13.650656
13.059974
11.832714
12.887716
12.987852
12.280941
13.294816
12.569427
11.747479
11.289716
11.808872
11.992455
11.997819
12.666583
12.296438
12.118816
11.308789
12.559891
12.614727
12.761950
12.558699
13.180971
13.016462
11.582971
12.605786
12.494922
11.960864
12.400746
12.142658
12.049675
##ZVALUE=250
1.599789
2.044439
2.138615
2.148747
2.240539
2.534986
4.739761
14.977455
64.875484
138.658881
329.616666
537.033677
776.977539
1016.001701
1016.001701
1016.001701
1016.001701
1016.001701
1014.611721
716.871619
485.849977
304.992795
162.725449
118.551850
111.127496
125.123858
138.741732
144.205689
136.992931
128.123760
111.738443
83.700418
63.133836
41.206479
28.582811
19.132495
14.998913
14.898777
14.261603
13.587475
13.744831
15.331507
14.295578
15.025735
15.895963
14.935732
14.596581
14.390945
15.822649
14.084578
14.778972
15.591979
13.900995
14.535785
14.018416
13.903975
13.151765
14.157891
14.339685
13.738871
12.832880
11.626482
13.039708
13.319850
13.328791
14.061928
12.609959
13.744831
15.892982
15.996695
18.520951
19.512773
19.873977
23.368597
21.920800
21.672845
21.821856
21.422505
19.549727
17.723441
15.741587
15.788674
14.016628
12.927651
11.991858
12.664795
11.153817
11.011958
11.531711
10.920763
11.532903
11.119843
11.226535
11.854768
10.095835
10.712743
9.353757
11.286736
10.664463
10.792613
10.039806
10.960698
12.126565
11.456609
11.018515
10.656714
11.419654
11.187792
11.413693
11.375546
10.840893
11.166930
10.575652
10.967851
11.122823
10.402799
##ZVALUE=255
1.827478
1.740456
2.134442
2.125502
2.056956
2.111793
2.337694
2.840757
2.975464
9.966493
36.040545
120.543838
242.040753
511.295795
763.323903
1016.001701
1016.001701
1016.001701
1016.001701
1016.001701
1016.001701
992.323756
722.011924
403.385758
248.485804
135.478973
106.259584
114.522576
130.015612
141.771436
153.614879
149.382949
130.811930
115.904808
86.282492
64.865947
42.000413
29.916763
20.393729
18.385649
16.603470
16.060472
14.926791
15.274882
16.066432
15.856624
16.002655
15.013814
15.206933
15.960932
15.451908
15.099645
14.323592
14.388561
14.731884
14.469624
15.078783
14.188886
14.130473
12.926459
12.721419
12.741685
13.073683
12.713671
12.394786
12.987852
12.934804
13.110638
14.177561
14.918447
15.409589
17.701983
18.394589
19.219518
19.923449
20.033717
18.680692
17.216802
17.090440
16.155839
14.146566
14.115572
13.011694
12.126565
10.225773
10.882616
10.602474
10.130405
9.434819
9.595752
8.669496
9.747744
9.865761
10.054708
9.982586
9.658933
9.685755
9.365678
9.439588
9.248853
9.748936
9.587407
9.757876
9.414554
9.988546
9.790659
9.983778
9.580851
8.924603
9.517670
9.440780
9.678602
9.115934
9.290576
9.359717
9.615421
##ZVALUE=260
1.471639
1.717806
1.729727
1.798868
1.779795
1.871586
2.019405
1.880527
2.338886
2.645850
2.635717
5.167723
20.857453
84.370971
179.166794
407.449007
659.653544
1008.451581
1016.001701
1016.001701
1016.001701
1016.001701
1016.001701
1016.001701
895.408988
606.732965
340.867639
198.624730
109.079480
94.109774
114.247799
131.131411
154.352784
164.045691
156.010985
141.694546
118.723512
96.107721
65.321922
49.284697
32.602549
25.799870
20.064712
17.550588
16.265512
16.765594
16.593933
17.619729
16.698837
16.252995
16.229749
16.073585
15.416741
15.154481
15.087724
15.115738
14.197826
14.228821
13.850927
14.551878
12.927651
13.354421
13.644695
13.511777
12.471676
12.492537
13.218522
12.556911
13.082623
14.287829
14.258623
15.607476
16.445518
17.078519
18.322468
17.261505
16.077757
15.754700
15.233755
14.201999
13.318658
12.859702
11.569858
11.327863
10.016561
9.045601
8.944869
9.150505
9.165406
9.187460
8.896589
8.726716
9.050965
8.876920
8.456707
8.934736
8.934736
9.019971
8.678436
9.058714
8.956790
8.442998
8.704662
8.485913
8.905530
8.880496
8.908510
9.373426
8.834600
9.129643
9.840727
8.568764
8.753538
8.541942
8.670688
8.393526
##ZVALUE=265
1.542568
1.523495
1.629591
1.807809
1.511574
1.512766
1.723766
1.535416
2.109408
2.088547
2.416968
2.713799
2.792478
3.560781
10.390878
56.242943
135.244727
345.560908
585.814714
997.560024
1016.001701
1016.001701
1016.001701
1016.001701
1016.001701
1016.001701
1016.001701
900.225639
503.653884
292.209983
139.025450
93.073845
93.913674
115.014911
144.859552
158.417821
164.215565
160.186887
141.693950
121.975541
93.384981
71.248412
50.119758
37.728548
26.566982
22.077560
20.215511
18.913746
18.790960
18.629432
18.136501
18.456578
18.201470
17.591715
17.186999
15.958548
15.893579
15.972853
16.055703
15.677810
14.624596
14.525652
14.227629
14.313459
13.634562
13.368726
13.494492
12.941957
13.085604
14.025569
15.816689
15.004873
16.918778
17.283559
16.704798
15.966892
16.031861
14.827847
13.603568
13.017654
11.668801
12.016892
10.477901
9.842515
9.296536
9.098649
8.287430
8.465648
8.025765
8.551478
8.364916
8.278489
8.212924
7.913709
7.880926
7.741451
7.831454
7.604957
7.772446
7.832646
8.295774
7.936954
7.646680
7.223487
8.732677
8.220673
8.262992
8.374453
8.661747
8.736849
8.800626
7.453561
8.243918
7.711649
8.791685
7.847548
##ZVALUE=270
1.367927
1.303554
1.204610
1.379848
1.382828
1.473427
1.505613
1.606941
1.797676
1.690984
1.729727
2.219677
2.296567
2.609491
2.392530
3.002882
3.974438
24.092793
71.825981
238.384008
459.303856
895.558000
1016.001701
1016.001701
1016.001701
1016.001701
1016.001701
1016.001701
1016.001701
1016.001701
708.385706
431.218743
201.702714
108.694434
78.548789
93.159676
120.935440
144.904852
165.061951
172.234774
167.754889
152.939558
127.394795
104.136467
73.312521
55.126548
37.580729
29.685497
24.065971
22.456646
21.149516
20.580888
21.281838
19.164681
19.158721
19.130707
18.443465
17.784834
17.057657
16.414523
16.351938
15.478730
15.761852
14.921427
14.345646
14.807582
13.753772
14.372468
14.031529
14.493465
15.066862
15.931726
16.013980
16.308427
16.711950
15.822649
15.209913
14.753938
13.278723
13.071895
11.658669
10.891557
10.177493
8.937716
9.168983
8.887649
8.428693
8.502603
8.111596
7.926822
8.201599
8.190870
7.746816
7.939935
7.627606
7.050633
7.023811
7.359982
7.813573
7.586479
8.021593
7.055998
7.789731
7.735491
7.865429
7.451773
7.928610
8.008480
8.161664
8.233786
8.246899
7.478595
7.920861
7.694960
7.609725
7.330775
##ZVALUE=275
1.249909
1.154542
1.249909
1.247525
1.231432
1.279712
1.307726
1.356602
1.489520
1.429915
1.554489
1.846552
1.998544
2.087951
1.983643
2.300739
2.500415
2.828836
3.347993
9.379983
38.805604
150.429010
335.962772
735.879540
1016.001701
1016.001701
1016.001701
1016.001701
1016.001701
1016.001701
1016.001701
1016.001701
957.101583
596.801639
268.849730
138.296485
71.905851
70.532560
97.352862
121.353865
147.650838
162.911415
172.713995
168.560743
149.330497
129.390955
99.524856
77.870488
54.732561
40.507913
28.983951
24.399757
21.593571
21.218657
19.577742
18.701553
18.045902
18.029809
17.138720
16.985536
16.932487
15.912652
15.213490
15.119910
15.173554
14.401674
14.521480
15.028715
14.639497
14.135838
15.111566
15.647411
15.455484
15.789866
16.305447
14.784932
15.011430
13.500452
13.375878
12.217760
11.456609
10.978580
10.318756
9.783506
8.915663
8.969903
8.113980
7.779598
8.584857
7.903576
7.511973
7.465482
7.674694
7.705688
7.359982
7.005930
7.512569
7.223487
7.289648
7.393956
7.218719
7.277727
7.045865
7.665753
6.995797
7.080436
7.348657
7.776618
7.110834
7.280707
7.668734
7.082820
7.359982
7.293820
6.894469
6.704926
##ZVALUE=280
1.173615
1.084805
1.193881
1.080632
1.044869
1.242757
1.118779
1.169443
1.385808
1.227856
1.264811
1.564622
1.605749
1.674891
1.734495
1.851916
1.632571
2.415776
2.420545
2.679825
3.381968
5.028844
20.535588
103.592873
239.566565
568.287969
900.964737
1016.001701
1016.001701
1016.001701
1016.001701
1016.001701
1016.001701
1016.001701
1016.001701
760.011673
383.336544
200.708508
83.327889
58.720708
71.284771
92.125535
122.311711
142.733455
163.924694
167.627931
162.772536
146.264434
121.327639
96.828938
69.881678
53.184628
35.730600
27.764440
21.917820
19.106865
17.343760
16.999841
15.850663
16.044974
15.288591
15.120506
14.935732
14.987588
14.694929
14.042854
13.938546
13.232827
14.134645
14.217496
14.570951
14.826655
14.329553
14.498830
14.862418
14.188886
13.869405
12.513995
11.957884
11.151433
10.881424
10.305643
9.834766
9.530783
8.723736
8.360744
7.976890
7.702708
7.615685
7.767677
6.991625
7.152557
7.125735
6.990433
7.133484
7.093549
7.108450
6.852746
6.833673
7.081628
7.007718
7.140636
6.875992
6.809831
6.417632
6.971955
7.072687
6.555915
7.431507
6.993413
6.543994
6.892681
6.876588
6.742477
6.790757
6.411672
##ZVALUE=285
1.070499
0.955462
1.075864
1.088977
1.095533
0.998974
1.249909
1.427531
1.171827
1.260638
1.163483
1.423955
1.403689
1.429915
1.559854
1.762509
1.651645
1.855493
1.801848
1.983643
2.264977
2.680421
2.870560
3.596544
9.687543
54.156780
142.694712
409.417748
738.558769
1016.001701
1016.001701
1016.001701
1016.001701
1016.001701
1016.001701
1016.001701
1016.001701
978.277922
537.194610
300.194621
152.207613
60.395598
48.004985
63.798428
84.000826
114.725828
134.103894
151.417851
158.998966
154.942870
140.587687
121.601820
94.285607
72.720647
48.066974
34.979582
23.699999
19.250512
15.361905
13.723969
13.870597
13.601780
13.442636
13.103485
13.244748
12.622476
13.151765
12.957454
12.452602
12.877584
12.900829
13.725758
14.166832
13.849735
13.396740
13.188720
12.405515
11.858940
10.943413
10.728836
10.060668
9.464622
8.771420
9.151697
7.918477
7.964969
7.807612
7.576942
7.525682
7.592440
7.245541
6.953478
6.971955
6.951690
6.786585
6.374717
6.789565
6.638765
6.630421
6.692410
6.664991
6.564856
6.966591
6.853938
6.752610
6.718636
6.673932
6.626844
7.083416
6.763935
6.373525
6.628633
6.373525
6.508827
6.490946
6.619692
##ZVALUE=290
0.960827
0.928640
0.928640
0.951886
0.955462
0.805855
1.013875
1.106858
1.152754
1.071692
1.159906
1.313686
1.553893
1.139641
1.319647
1.500845
1.626611
1.587868
1.436472
1.640916
1.705885
1.959801
2.160668
2.152920
2.704859
3.078580
4.417896
13.686419
71.298480
185.304880
466.658473
794.968009
1016.001701
1016.001701
1016.001701
1016.001701
1016.001701
1016.001701
1016.001701
1016.001701
761.595964
459.070802
194.152594
90.507865
38.537979
38.179755
56.633949
75.280666
104.041696
122.647882
143.210888
150.340796
145.370960
134.885907
113.599896
90.747476
61.784983
45.943856
29.532909
21.461844
14.856458
12.136698
11.342764
11.061430
10.725856
10.443926
10.616779
10.914803
10.724664
11.116862
11.684895
12.206435
12.262464
11.888742
11.553764
10.929704
10.697842
10.515451
10.032654
9.907484
8.631945
8.748770
8.304715
8.137822
7.690787
7.251501
7.691979
7.421970
7.056594
7.155538
6.732941
6.791949
6.845593
6.584525
6.260872
6.746650
6.629825
6.554723
6.921887
6.540418
6.138682
6.352663
6.386638
6.663799
6.869435
6.483793
6.413460
6.792545
6.560683
6.724596
6.534457
6.216764
6.155968
6.354451
6.235838
6.252527
##ZVALUE=295
0.784993
0.865459
0.924468
0.865459
0.712872
1.017451
0.810623
0.983477
1.115799
1.044869
1.069903
1.112819
0.906587
1.065731
1.138449
1.368523
1.547933
1.393557
1.103878
1.584888
1.641512
1.669526
1.920462
1.788735
1.934767
2.483726
2.526641
2.829432
3.215671
6.539822
38.061738
113.834739
335.867405
633.957982
1016.001701
1016.001701
1016.001701
1016.001701
1016.001701
1016.001701
1016.001701
1016.001701
975.923538
633.938909
287.672877
136.214495
44.518709
27.583838
35.778880
47.738552
72.463751
91.843605
117.943883
131.414533
139.958858
138.257742
122.976899
107.644796
82.621574
63.816905
40.984750
28.263927
18.226504
13.568997
10.444522
9.868741
9.153485
9.298921
9.581447
9.380579
10.095835
10.429621
10.796785
10.696650
10.643601
10.103583
9.788871
9.692907
8.827448
8.601546
7.798672
7.809997
7.772446
7.584691
7.547736
7.016659
7.058978
7.061958
6.819963
6.882548
6.696582
6.630421
6.640553
6.265640
6.895661
6.915927
6.468892
6.338954
6.199479
6.458759
6.402731
6.490946
6.601810
6.442666
6.965995
6.737709
6.487966
6.444454
6.389618
6.573796
6.252527
6.359816
6.366968
6.208420
6.190538
6.039739
##ZVALUE=300
0.862479
0.831485
0.724792
0.960827
0.984669
0.856519
0.878572
0.742674
0.826716
0.681877
0.749826
0.840425
1.046658
0.964999
1.104474
1.008511
1.087785
1.001954
1.067519
1.373887
1.401901
1.668930
1.462698
1.638532
1.841784
1.888871
2.282858
2.109408
2.614856
2.847910
3.334880
3.906488
17.668605
64.967871
227.417946
448.755622
898.721814
1016.001701
1016.001701
1016.001701
1016.001701
1016.001701
1016.001701
1016.001701
1016.001701
841.493607
427.316427
221.387744
71.829557
29.697418
22.402406
28.985739
45.398474
61.408877
86.878538
106.294751
125.409961
132.582784
131.143928
122.498870
100.678802
83.528757
59.145689
43.459535
27.031898
19.116998
12.893677
10.079741
8.973479
8.625984
9.366870
8.866787
9.793639
9.548664
9.652972
9.376407
8.969903
8.652806
8.208752
8.323789
7.624626
7.505417
7.257462
6.923676
6.957650
7.110834
6.847978
6.595850
6.859899
6.486773
6.638765
6.689429
6.522536
6.063581
6.638765
6.139874
6.201863
6.687641
6.299615
6.106496
6.389618
6.068945
5.962849
6.267428
6.417632
6.229877
6.433725
6.350875
6.282926
6.128550
6.373525
6.570816
6.031990
6.503463
6.230474
6.284714
##ZVALUE=305
0.878572
0.720620
0.630617
0.809431
0.863671
0.751615
0.771880
0.684857
0.882745
0.797510
0.926852
1.018643
0.929832
0.988841
0.893474
1.207590
1.034737
1.022816
1.141429
1.113415
1.128912
1.159906
1.381636
1.550913
1.580715
1.585484
1.940727
1.991987
2.127886
2.328753
2.213717
2.647638
3.101826
3.400445
9.595752
37.295818
156.738758
346.797705
757.861733
1016.001701
1016.001701
1016.001701
1016.001701
1016.001701
1016.001701
1016.001701
1016.001701
1016.001701
573.048592
313.912630
117.298961
45.397878
18.592477
19.801855
29.014945
40.903687
63.836575
81.132650
102.857947
116.818547
125.316978
125.514865
114.019513
99.898577
77.400804
59.171915
38.621426
27.249455
16.444921
12.292862
9.841919
9.035468
9.353757
9.241700
9.276867
8.854866
8.435845
7.815957
7.774830
7.740855
7.281899
7.286668
7.122755
6.805658
6.702542
6.965995
6.942749
6.420612
6.580949
6.429553
6.123781
6.035566
6.399751
6.049871
6.344914
6.267428
6.219745
6.335974
6.313920
6.470680
6.214976
6.352663
6.556511
6.320477
6.404519
6.346703
6.095767
6.838441
6.617904
6.460547
6.606579
6.317496
6.230474
6.061792
6.181598
5.949736
##ZVALUE=310
0.795722
0.762939
0.617504
0.778437
0.901818
0.733733
0.682473
0.664592
0.693798
0.721812
0.765920
0.893474
0.843406
1.036525
0.937581
1.018643
1.005530
0.954866
1.064539
1.167655
1.049638
1.322627
1.280904
1.326799
1.287460
1.511574
1.494884
1.672506
1.653433
1.783967
1.919866
2.001524
2.331734
2.277493
2.794862
3.014803
4.660487
15.983582
91.308951
217.126012
515.758991
857.892036
1016.001701
1016.001701
1016.001701
1016.001701
1016.001701
1016.001701
1016.001701
1016.001701
820.528865
479.253531
196.393728
84.035993
24.389625
14.829636
18.271804
24.280548
37.884712
51.806569
74.003935
91.410875
110.310912
116.368532
118.032694
111.150742
94.794631
78.201890
55.235624
40.063858
25.534630
18.699765
13.211966
10.690689
9.359717
8.626580
7.708669
7.364750
7.615685
6.950498
6.550550
6.361604
6.598830
6.712675
6.651878
6.708503
6.514788
6.581545
6.371737
6.075501
6.211996
6.487966
6.173849
6.126761
6.400943
6.279945
6.094575
6.127954
6.044507
6.146431
6.050467
6.297827
6.456971
6.277561
6.418824
6.536841
6.498694
6.464720
6.232858
6.386638
6.419420
6.340742
6.342530
6.470680
6.149411
6.262660
##ZVALUE=315
0.621676
0.647902
0.652671
0.779629
0.875592
0.556707
0.811815
0.864863
0.836849
0.783801
0.867844
0.666976
0.845790
0.795722
0.890493
0.709891
0.872612
0.962615
0.962615
0.920892
0.922680
1.047850
1.154542
1.203418
1.297593
1.255870
1.549721
1.407862
1.331568
1.568794
1.604557
1.689792
1.954436
1.998544
2.329946
2.500415
2.730489
3.074408
3.804564
7.872581
51.521659
148.542523
410.633683
719.857812
1016.001701
1016.001701
1016.001701
1016.001701
1016.001701
1016.001701
1016.001701
1016.001701
1006.529927
662.556887
293.262601
129.287839
31.978488
15.032887
13.235807
15.915632
23.116469
33.159852
49.990416
65.932870
87.229609
100.109577
112.171769
112.639666
103.862882
91.180801
69.627762
55.179596
37.680864
26.993752
17.237663
13.167858
9.194613
7.887483
7.184744
6.761551
6.827712
6.613731
6.384850
5.974770
6.249547
6.421804
5.959868
6.049871
6.207824
6.093979
6.264448
6.079674
6.328821
6.424785
6.154776
6.259680
6.121993
6.341934
6.080866
6.153584
6.540418
6.086826
6.047487
6.326437
6.418824
6.649494
6.857514
6.641746
6.472468
6.427765
6.408691
6.505847
6.246567
6.396770
6.254911
6.374717
##ZVALUE=320
0.555515
0.509620
0.677705
0.612736
0.753999
0.768900
0.822544
0.681877
0.922680
0.844598
0.672936
0.731945
0.807643
0.876784
0.787973
0.934601
0.994802
0.848770
0.869632
1.159906
0.952482
1.022816
0.915527
1.164675
1.025796
1.240969
1.257658
1.306534
1.372695
1.230836
1.459718
1.488924
1.609921
1.758933
1.835823
1.837611
2.100468
2.452731
2.753735
2.757907
3.156662
4.142523
22.484660
83.391666
295.247436
565.886497
1001.861691
1016.001701
1016.001701
1016.001701
1016.001701
1016.001701
1016.001701
1016.001701
1016.001701
858.813524
383.350849
191.636682
61.533451
22.588968
11.504889
11.705756
14.636517
19.678473
30.475855
42.787790
61.372519
78.020692
96.367598
103.533864
104.839802
100.044608
85.933805
71.406960
51.249862
37.795901
23.645759
16.386509
10.389686
7.953644
7.125735
6.620884
6.162524
5.942583
6.068945
5.899668
5.924702
5.816817
5.922914
5.980730
6.035566
6.029606
6.021857
5.993843
6.071925
6.083846
6.452799
6.184578
6.166697
5.985498
5.987883
6.306767
6.269813
6.471872
6.331801
6.300807
6.382465
6.609559
6.478429
6.506443
6.226897
6.178617
6.341934
6.413460
6.150603
6.184578
##ZVALUE=325
0.699759
0.584722
0.760555
0.522733
0.597835
0.602603
0.633597
0.659823
0.659823
0.537634
0.756979
0.761747
0.794530
0.795722
0.773668
0.846982
0.808835
0.709891
0.800490
0.807643
1.065731
0.924468
1.038909
1.014471
0.970960
1.064539
0.925660
1.141429
1.297593
0.895858
1.241565
1.325607
1.342893
1.556873
1.485944
1.798868
1.808405
1.844764
1.981854
2.294779
2.267957
2.661943
3.074408
3.584623
7.983446
64.274669
172.778368
427.451730
743.974447
1016.001701
1016.001701
1016.001701
1016.001701
1016.001701
1016.001701
1016.001701
1016.001701
985.154510
513.874888
276.415944
94.235539
34.547448
11.910796
10.141730
10.804534
12.719631
19.344687
27.332902
44.125915
59.063435
76.485872
89.610815
98.974705
99.842548
92.572570
81.449747
63.520670
48.547983
32.135844
21.665692
13.701916
10.103583
7.404685
6.980896
6.042719
5.806684
5.714893
5.721450
5.639791
5.512834
5.726814
5.849600
5.745888
6.033778
5.813837
6.041527
6.227493
6.005764
5.989671
5.965829
6.012917
6.492734
6.318688
6.227493
6.330609
6.416440
6.233454
6.361604
6.475449
6.305575
6.406903
6.424785
6.224513
6.189942
6.551743
6.335974
##ZVALUE=330
0.470877
0.536442
0.593662
0.502467
0.281930
0.648499
0.612736
0.569820
0.613928
0.567436
0.770688
0.626445
0.656843
0.642538
0.723600
0.707507
0.707507
0.573993
0.922680
0.736713
0.908971
0.799894
0.744462
0.770688
0.827909
0.896454
0.958443
0.989437
1.210570
1.239777
1.231432
1.203418
1.227856
1.184940
1.403689
1.456738
1.427531
1.549721
1.563430
1.801848
2.017617
2.203584
2.104640
2.494454
2.771616
3.191829
4.444718
27.902722
93.228817
285.340548
533.282757
986.317992
1016.001701
1016.001701
1016.001701
1016.001701
1016.001701
1016.001701
1016.001701
1016.001701
736.472607
328.548551
158.996582
49.519539
17.726421
9.895563
9.426475
10.566711
12.525916
19.160509
26.888847
41.550994
55.365562
73.133707
83.295703
92.829466
92.103481
85.198879
75.248480
57.709813
44.858456
29.516816
21.369457
13.720989
10.131598
7.461905
6.372929
5.748868
5.675554
5.645752
5.581975
5.675554
5.847812
5.649924
5.713701
5.678535
5.728602
5.851984
5.693436
6.018877
6.068945
6.091595
6.243587
6.458759
6.264448
6.588697
6.523728
6.513596
6.732941
6.389618
6.414652
6.341934
6.499887
6.141663
5.967617
6.203651
##ZVALUE=335
0.589490
0.564456
0.589490
0.601411
0.511408
0.631809
0.540614
0.665784
0.626445
0.696778
0.599623
0.573993
0.781417
0.583529
0.766516
0.663996
0.666976
0.731945
0.599623
0.725985
0.745654
0.791550
0.931621
1.014471
0.872612
0.917912
1.144409
0.828505
0.921488
0.774860
0.939965
0.984669
1.073480
1.249909
1.088977
1.199841
1.146793
1.411438
1.460910
1.471639
1.621842
1.627803
1.938939
2.116561
2.043843
2.324581
2.476573
3.061891
3.797412
8.575916
57.732463
156.942606
414.765477
726.255774
1016.001701
1016.001701
1016.001701
1016.001701
1016.001701
1016.001701
1016.001701
1016.001701
846.077800
504.781604
210.685730
88.467002
22.795796
10.719895
8.789897
8.718967
10.254979
12.095571
18.118620
25.312901
38.093925
49.768686
66.493750
76.870918
84.634423
84.948540
78.688860
70.097446
55.834651
44.594407
30.647516
22.718906
13.978481
10.378957
7.604957
6.364584
5.745888
5.817413
5.780458
5.653501
5.630851
6.039739
5.814433
5.903840
5.486608
5.710721
5.914569
6.044507
6.001592
6.068945
6.201863
6.377697
6.534457
6.551743
6.506443
6.429553
6.292462
6.147623
6.161928
6.073713
6.219745
5.862713
##ZVALUE=340
0.493526
0.473857
0.434518
0.412464
0.544786
0.589490
0.529885
0.632405
0.530481
0.565648
0.592470
0.631809
0.693798
0.682473
0.729561
0.404716
0.666976
0.728965
0.749826
0.732541
0.617504
0.671744
0.745654
0.738502
0.721812
0.677705
0.737906
0.915527
0.741482
0.972748
1.112819
0.893474
0.888705
0.972748
1.001954
1.193881
1.169443
1.258850
1.246929
1.236796
1.480579
1.472831
1.672506
1.738667
1.823902
1.827478
2.090931
2.218485
2.597570
2.824664
3.150702
4.363656
27.039647
91.111660
285.230875
556.670427
1016.001701
1016.001701
1016.001701
1016.001701
1016.001701
1016.001701
1016.001701
1016.001701
1000.778675
650.391579
285.817981
129.568577
31.757951
12.988448
9.244680
9.455681
9.231567
9.752512
12.205839
16.210675
24.976730
34.200549
49.232841
60.666800
73.225498
79.108477
79.817772
76.003671
65.891743
55.505633
40.754676
31.008720
20.674467
14.921427
10.279417
7.798672
6.505847
6.226897
5.853772
5.662441
5.728602
5.704761
5.823970
5.859733
5.712509
6.166697
5.859733
6.163716
6.306767
6.234646
6.199479
6.531477
6.497502
6.561875
6.663799
6.454587
6.547570
6.065965
6.292462
5.848408
##ZVALUE=345
0.524521
0.607967
0.501871
0.585914
0.477433
0.508428
0.489950
0.617504
0.535846
0.440478
0.647902
0.583529
0.639558
0.648499
0.681877
0.735521
0.730753
0.746846
0.645518
0.567436
0.817776
0.598431
0.650883
0.723600
0.748634
0.810623
0.783801
1.029968
0.940561
0.808835
0.844598
1.006722
0.836849
0.972748
0.951886
1.044869
1.010895
0.990629
1.140833
1.037717
1.353621
1.157522
1.526475
1.401901
1.528859
1.570582
1.733899
1.805425
1.919866
2.066493
2.537966
2.670884
2.991557
3.562570
10.503531
46.641827
192.325711
385.684967
799.518824
1016.001701
1016.001701
1016.001701
1016.001701
1016.001701
1016.001701
1016.001701
1016.001701
856.966972
384.802818
176.351666
49.431920
18.871427
10.523796
9.435415
8.663535
7.994771
8.374453
10.196567
15.231967
21.318793
31.710863
42.357445
55.527687
64.081550
71.371794
73.767900
69.837570
63.351989
52.150488
42.064786
29.208660
21.365881
14.347434
10.692477
8.301735
7.091761
6.211996
5.936623
5.965829
5.783439
5.858541
5.891919
6.053448
6.268620
6.071925
6.264448
6.318688
6.476641
6.555915
6.207824
6.453991
6.280541
6.045699
5.945563
5.827546
5.687475
##ZVALUE=350
0.528693
0.625849
0.499487
0.481606
0.529885
0.523925
0.420809
0.554919
0.617504
0.402927
0.606775
0.684857
0.685453
0.489950
0.575781
0.577569
0.494719
0.586510
0.496507
0.717640
0.715852
0.458956
0.554919
0.705719
0.825524
0.726581
0.772476
0.752807
0.851750
0.776649
0.741482
0.818968
0.842810
0.944734
0.918508
1.181960
1.011491
1.216531
1.023412
0.999570
1.268983
1.253486
1.293421
1.168847
1.359582
1.498461
1.501441
1.557469
1.695752
1.739860
1.910925
1.951456
2.305508
2.576709
2.993941
3.183484
4.673600
27.187467
86.692572
264.891982
511.835814
985.872746
1016.001701
1016.001701
1016.001701
1016.001701
1016.001701
1016.001701
1016.001701
936.290026
545.453429
229.248405
97.259879
23.584962
10.797977
8.711815
7.914901
7.020831
7.144809
7.692575
9.065866
13.786554
19.435883
28.941631
37.504435
49.584508
58.090687
65.771937
67.902803
65.578818
59.378743
48.997998
39.939880
29.870868
22.166967
15.450716
11.297464
8.509755
7.170439
6.230474
5.984902
5.857944
5.952716
6.036758
6.308556
6.139874
6.322861
6.296635
6.385446
6.408691
6.107688
6.226897
6.036758
5.828738
5.669594
5.869865
##ZVALUE=355
0.557899
0.633597
0.677705
0.630617
0.632405
0.675917
0.651479
0.557899
0.648499
0.536442
0.613928
0.555515
0.596642
0.544786
0.599623
0.631809
0.638962
0.715852
0.703931
0.620484
0.726581
0.707507
0.744462
0.780821
0.631809
0.744462
0.772476
0.600815
0.924468
0.847578
0.770688
0.771880
0.798702
0.808835
0.870824
0.974536
1.140833
0.963807
1.135468
1.176000
0.972748
1.093745
1.189709
1.182556
1.264811
1.297593
1.349449
1.599789
1.437664
1.613498
1.649857
1.525879
1.881719
2.028942
2.172589
2.442598
2.598763
3.006458
3.733635
8.806586
55.000782
152.069926
402.156711
702.705979
1016.001701
1016.001701
1016.001701
1016.001701
1016.001701
1016.001701
1016.001701
1016.001701
635.311604
336.155891
116.766691
44.431686
12.220740
8.215904
7.230639
6.974936
6.589890
6.364584
7.181764
8.481741
11.551976
15.994906
24.757981
32.451749
43.447614
51.747561
59.797764
61.834455
60.134530
56.427717
47.480464
40.081739
29.411912
22.681952
15.600920
11.729598
8.313656
7.096529
6.380677
6.054640
6.102920
6.222725
6.284714
6.400943
6.229877
6.407499
6.281734
6.258488
6.256700
5.912781
5.641580
5.767941
##ZVALUE=360
0.579953
0.502467
0.530481
0.631809
0.655651
0.627637
0.658631
0.588894
0.640750
0.541806
0.601411
0.442863
0.478625
0.861883
0.601411
0.653863
0.623465
0.794530
0.664592
0.743866
0.753999
0.695586
0.724792
0.857711
0.747442
0.773668
0.819564
0.910759
0.820756
0.898838
0.834465
0.924468
0.887513
0.972748
0.983477
0.896454
0.850558
1.024604
0.967979
1.072884
1.169443
1.200438
1.076460
1.179576
1.186728
1.251698
1.336932
1.275539
1.407862
1.508594
1.564622
1.500845
1.767874
1.873970
2.131462
2.113581
2.270937
2.282858
2.621412
2.977848
3.589988
4.917979
26.982427
85.056424
261.510015
504.764915
976.063609
1016.001701
1016.001701
1016.001701
1016.001701
1016.001701
1016.001701
1016.001701
844.799876
486.475825
179.351568
68.515539
16.891956
8.949637
7.461905
6.977916
6.629825
6.305575
6.023645
6.227493
7.214546
9.178519
14.064908
19.267797
28.220415
36.046505
45.876503
52.556992
56.738853
56.553483
53.226948
47.481656
38.071871
31.312704
22.675991
17.076731
12.117624
9.558797
7.775426
6.847978
6.735921
6.190538
6.413460
5.982518
6.021857
5.768538
5.736947
5.794764
5.342960
5.202889
##ZVALUE=365
0.480413
0.565648
0.630617
0.433922
0.623465
0.532866
0.616908
0.668764
0.581741
0.782609
0.501871
0.614524
0.692606
0.636578
0.648499
0.775456
0.591874
0.654459
0.758767
0.616908
0.583529
0.736713
0.725985
0.692606
0.708699
0.783801
0.756979
0.736713
0.846982
0.834465
0.896454
0.894666
0.868440
0.910759
0.906587
0.927448
0.868440
0.975728
1.048446
1.002550
1.093745
1.022816
1.039505
1.110435
1.270771
1.292825
1.095533
1.254678
1.410842
1.289845
1.664758
1.360774
1.519918
1.780987
1.664758
1.855493
1.853704
2.010465
2.307892
2.350807
2.649426
3.103614
3.328919
3.941655
10.472536
39.358735
152.913332
324.472785
741.336942
1016.001701
1016.001701
1016.001701
1016.001701
1016.001701
1016.001701
1016.001701
982.337594
607.790947
251.414776
111.977458
31.551719
11.858940
7.551908
6.634593
6.213784
5.989671
5.613565
5.432963
5.707741
6.464720
9.059906
12.119412
18.015504
23.979545
32.289624
39.226413
46.707988
51.128864
52.699447
51.381588
45.598745
39.435625
31.169653
24.939775
17.491579
13.507605
10.005832
7.955432
7.088780
6.400943
5.852580
5.844831
5.382895
5.327463
5.216599
4.948974
##ZVALUE=370
0.594854
0.493526
0.663996
0.488758
0.698566
0.626445
0.557899
0.446439
0.766516
0.553727
0.683665
0.631809
0.519753
0.671744
0.541806
0.716448
0.512600
0.550747
0.646710
0.639558
0.619888
0.611544
0.689626
0.769496
0.735521
0.641942
0.649691
0.976920
0.821948
0.836849
0.781417
0.830889
0.815988
0.756979
0.857711
0.858903
0.789762
0.822544
0.857711
0.767708
0.948906
0.918508
1.004934
1.078844
0.952482
0.912547
1.192689
1.089573
1.087785
1.257658
1.148582
1.086593
1.264811
1.399517
1.301765
1.246929
1.522899
1.693964
1.766682
1.765490
2.072453
2.247691
2.450943
2.781749
2.618432
3.290772
5.719662
20.161867
103.802681
248.560905
597.147942
959.255695
1016.001701
1016.001701
1016.001701
1016.001701
1016.001701
1016.001701
1016.001701
740.251541
345.144868
162.940025
49.857497
18.859506
7.486939
6.391406
5.973577
5.841851
5.609989
5.355477
5.179644
5.630851
6.363988
8.009672
10.880828
14.861822
20.996928
27.007461
35.533905
41.502714
47.326684
49.068928
48.191547
44.753551
38.149953
30.747652
24.075508
17.845631
14.048815
10.352731
8.238554
6.789565
5.929470
5.122423
5.097985
4.883409
##ZVALUE=375
0.540614
0.480413
0.425577
0.610948
0.590682
0.353456
0.397563
0.646710
0.614524
0.608563
0.544786
0.519753
0.491738
0.441670
0.555515
0.491738
0.570416
0.550747
0.503659
0.668764
0.556707
0.880957
0.633597
0.619888
0.484586
0.662804
0.549555
0.656843
0.903606
0.593662
0.789762
0.574589
0.674725
0.808835
0.773668
0.852942
0.808835
0.658631
0.686646
0.876784
0.744462
0.861883
0.838637
0.818968
0.962615
0.921488
0.804663
0.959635
0.973940
0.987649
0.996590
1.022816
1.109838
1.174808
1.174808
1.239777
1.141429
1.368523
1.320839
1.544952
1.481771
1.780987
1.794696
1.839995
2.133846
2.275705
2.548695
2.998710
3.915429
10.630488
61.385632
151.672959
397.283435
723.392963
1016.001701
1016.001701
1016.001701
1016.001701
1016.001701
1016.001701
1016.001701
961.138606
514.163971
274.467468
98.719001
37.346482
10.044575
6.548762
6.087422
5.952716
5.438924
5.701780
5.911589
5.863905
5.908608
6.211996
7.253885
8.918643
12.995601
16.950965
24.598837
30.275583
38.496852
42.738914
47.079921
47.182441
44.363737
38.763881
33.779740
25.953650
21.143556
15.256405
11.908412
8.524656
6.969571
5.671978
##ZVALUE=380
0.543594
0.552535
0.548959
0.414848
0.476837
0.422597
0.540614
0.386834
0.530481
0.317693
0.464916
0.474453
0.520945
0.560880
0.551939
0.572801
0.431538
0.531673
0.553727
0.441670
0.485778
0.433922
0.585914
0.726581
0.597835
0.679493
0.627637
0.635982
0.666976
0.889897
0.683665
0.689626
0.757575
0.668764
0.647902
0.645518
0.773668
0.703931
0.845790
0.638962
0.764728
0.809431
0.770688
0.825524
1.032948
0.933409
0.948906
0.897646
1.025796
1.062751
0.946522
0.946522
0.952482
0.940561
0.970960
1.164675
1.205802
1.148582
0.974536
1.213551
1.272559
1.286864
1.355410
1.469851
1.581907
1.646876
1.959801
2.173781
2.560616
3.001690
3.487468
5.412698
32.284856
96.057653
274.689794
518.085957
983.394980
1016.001701
1016.001701
1016.001701
1016.001701
1016.001701
1016.001701
1016.001701
680.266023
385.078788
147.593617
61.379671
14.927983
7.617474
6.286502
6.126761
6.281734
6.236434
6.158948
5.777478
5.754828
5.666614
5.725622
6.303787
8.161664
10.665655
16.355515
21.591783
29.344559
35.087466
41.767955
44.148564
44.956803
43.196678
38.464665
34.011602
26.826859
21.258593
15.021563
10.280609
##ZVALUE=385
0.343919
0.418425
0.406504
0.263453
0.428557
0.408888
0.519753
0.407696
0.529885
0.256896
0.422597
0.346899
0.426769
0.420809
0.499487
0.411868
0.493526
0.530481
0.526905
0.493526
0.550747
0.419617
0.364780
0.507832
0.520945
0.660419
0.709891
0.711679
0.834465
0.767708
0.610948
0.755787
0.709891
0.936985
0.841618
0.918508
0.914931
0.577569
0.881553
0.723600
0.902414
0.939965
0.932813
0.692606
0.799894
0.889897
0.745654
0.876784
0.947714
0.872612
0.905991
0.931621
0.958443
1.021624
0.881553
1.024604
0.881553
0.858903
1.132488
1.120567
1.063943
1.137853
1.248717
1.397729
1.353621
1.493692
1.459718
1.690984
1.991987
2.469420
2.684593
2.850890
3.328919
3.580451
13.091564
48.753619
187.454820
395.773649
844.794512
1016.001701
1016.001701
1016.001701
1016.001701
1016.001701
1016.001701
1016.001701
932.049155
571.770668
244.315863
109.481812
28.146505
10.520816
6.481409
6.240606
6.256700
6.070733
5.770922
5.737543
5.341768
5.043745
4.853606
5.032420
5.771518
6.944537
9.548664
13.344884
18.941760
25.503635
30.343533
35.632849
39.429665
41.616559
40.686727
37.171841
32.758713
26.428699
##ZVALUE=390
0.440478
0.516772
0.279546
0.459552
0.379682
0.333786
0.346899
0.415444
0.389814
0.439882
0.460744
0.440478
0.360608
0.423789
0.602603
0.347495
0.451803
0.569820
0.315905
0.321865
0.496507
0.506639
0.459552
0.529885
0.517964
0.309944
0.668764
0.789762
0.659823
0.603795
0.693798
0.772476
0.725985
0.796914
0.774860
0.820756
0.809431
0.911951
0.846982
0.801682
0.967979
0.794530
0.858903
0.841618
0.974536
0.901818
0.932813
1.109838
0.885725
0.818968
1.048446
0.854731
0.789762
1.011491
0.945926
0.928640
1.046658
0.889897
1.087785
0.989437
0.933409
1.030564
1.105666
1.170635
1.165867
1.430511
1.461506
1.611710
1.861453
2.270937
2.297759
2.470613
2.752542
2.715588
2.682805
3.034472
5.636811
32.620430
97.643733
302.246809
584.744811
1016.001701
1016.001701
1016.001701
1016.001701
1016.001701
1016.001701
1016.001701
1016.001701
727.544427
402.815938
151.330829
64.950585
18.176436
8.129478
6.373525
6.130934
5.744696
5.445480
5.320907
5.098581
5.017519
4.986525
4.987717
5.130768
5.667806
6.500483
8.577704
11.380911
15.946627
20.363927
26.377439
30.894876
36.084652
37.789941
38.595796
##ZVALUE=395
0.478625
0.490546
0.358820
0.518560
0.408888
0.469685
0.447631
0.303984
0.359416
0.420809
0.407696
0.282526
0.424981
0.339746
0.559688
0.489950
0.589490
0.537634
0.329614
0.484586
0.547767
0.315905
0.534654
0.593662
0.659823
0.519753
0.599623
0.688434
0.811815
0.836849
0.760555
0.807643
0.832677
0.908971
0.667572
0.747442
0.896454
0.854731
0.982881
0.963807
0.753999
0.908971
0.966787
0.997782
0.990629
0.898838
0.937581
0.887513
0.879765
1.008511
0.925660
0.983477
0.940561
0.872612
0.856519
0.843406
1.076460
1.098514
1.061559
1.168847
1.110435
1.092553
1.231432
1.283884
1.242757
1.356602
1.468658
1.595616
1.837611
2.064705
2.226830
2.265573
2.138615
2.051592
2.188683
2.395511
2.464652
2.844930
4.014969
13.553500
77.671409
191.275477
455.500484
788.089037
1016.001701
1016.001701
1016.001701
1016.001701
1016.001701
1016.001701
1016.001701
993.980765
524.736643
268.638730
91.649890
35.705566
10.563731
6.829500
5.974770
6.013513
5.800724
5.529523
5.567670
5.499721
5.284548
5.412698
5.197525
5.241632
5.445480
6.138682
7.200837
9.624958
12.822747
17.932653
22.181869
28.513670
##ZVALUE=400
0.551939
0.622869
0.354648
0.320673
0.355840
0.334978
0.372529
0.345707
0.476837
0.325441
0.400543
0.209808
0.477433
0.466704
0.515580
0.370741
0.462532
0.303984
0.314713
0.390410
0.400543
0.392795
0.385642
0.374913
0.467896
0.502467
0.674725
0.714660
0.543594
0.711679
0.893474
0.818968
0.723600
0.911951
0.872612
0.694990
0.689626
0.935793
0.863671
0.887513
0.864863
0.856519
0.889897
0.947714
0.880957
0.809431
0.894666
1.021624
0.900626
0.798702
0.698566
0.717640
0.838637
0.861883
0.971556
0.974536
0.791550
0.826716
0.872612
0.847578
1.024604
1.088977
1.077652
1.289845
1.106858
1.278520
1.298785
1.488924
1.628995
1.776814
2.018809
1.970530
1.997948
2.074838
1.970530
2.148747
1.950860
2.091527
2.444983
2.826452
3.311634
6.390810
36.569834
103.238821
299.434662
562.321544
1013.937593
1016.001701
1016.001701
1016.001701
1016.001701
1016.001701
1016.001701
1016.001701
666.643977
380.058885
151.296854
64.157844
16.962886
7.917881
6.275773
6.034970
5.921721
5.826950
6.043911
6.140471
5.866885
5.727410
5.742908
5.210638
5.087852
5.177855
5.311966
6.325841
8.006692
11.234879
##END
