##TITLE=14-3
##FORMAT=SPECTACLE-ASCII V-1.2
##DATA TYPE=ULTRAVIOLET SPECTRUM
##SECOND TYPE=ULTRAVIOLET SPECTRUM
##DATE=04/04/18
##TIME=11:15:51
##SPECTROMETER/DATA SYSTEM=SPECTACLE
##XUNITS=NM EM
##YUNITS=ENERGY
##YFACTOR=1
##FIRSTX=220
##LASTX=450
##NPOINTS=116
##3DDATA=Equidistant
##ZUNITS=NM EX
##FIRSTZ=210
##LASTZ=400
##ZPOINTS=39
##XYDATA=(Y..Y)
##ZVALUE=210
19.472837
16.797781
14.232993
12.979507
11.280775
9.764433
8.690953
8.538961
7.226467
5.366802
5.443692
3.292561
3.413558
3.428459
3.613830
2.741814
3.229976
3.081560
3.181696
3.618598
4.215837
4.753470
4.859567
5.891919
5.406737
6.981492
6.505847
7.824898
8.543730
8.290410
9.969473
11.043549
9.938478
11.116862
11.135936
10.965466
11.532903
11.932850
10.147691
12.242794
11.863708
11.932850
11.291504
10.997653
9.759665
10.900497
11.205673
11.397600
11.801720
10.575652
10.621548
11.268854
11.076927
10.348558
10.550618
10.447502
9.643435
10.272861
10.822415
11.100769
10.291934
9.626746
11.084676
10.200739
11.288524
10.042787
10.634661
11.890531
12.208819
16.005635
17.739534
18.963814
22.844672
24.073720
25.023818
26.699901
24.388433
25.284886
23.843646
23.083687
20.496845
17.920732
14.808774
13.879538
11.674762
10.636449
10.240674
9.142756
9.751916
11.453629
15.004873
18.373728
23.454428
27.209520
35.057664
40.798783
49.036741
53.341985
63.716769
65.747499
70.674419
72.731972
74.404478
71.298480
67.640543
61.417818
61.230659
55.339932
48.089623
40.599704
32.347441
24.839640
20.582676
17.245412
16.922951
15.013814
##ZVALUE=215
60.881972
57.915449
46.789646
33.954978
26.776791
19.117594
18.009543
16.397834
15.767813
14.296770
12.483597
9.304881
7.433891
5.162954
4.840493
3.724694
3.563762
4.289746
4.528761
4.078746
3.971457
4.417896
5.193949
5.522966
6.146431
6.725788
7.717609
8.715987
8.498430
9.895563
11.233687
10.998845
11.546612
12.240410
13.048649
12.816787
12.266636
13.360977
14.953613
13.964772
13.847947
13.665557
13.944507
13.675690
13.375878
12.206435
13.747811
13.684630
13.682842
13.953447
13.205409
13.832450
12.756586
13.281703
13.568997
13.808608
12.605786
12.812614
13.961792
13.098717
13.433695
13.312697
12.301803
13.126731
12.418628
12.787580
12.784600
13.874769
14.462471
15.559793
20.104647
21.929741
22.490621
26.116967
26.405454
28.562546
27.758479
25.133491
24.851561
23.196936
20.780563
21.218657
17.289519
15.286803
13.768673
12.165904
12.696981
10.306835
9.457469
9.457469
8.721948
9.235740
8.905530
10.828972
11.638999
18.001795
23.960471
30.492544
41.491985
49.793720
61.834455
69.150925
81.917644
91.674924
102.692842
105.284452
111.445785
109.825730
117.106438
111.011863
103.716850
92.020631
81.877708
69.471598
54.767728
41.943789
##ZVALUE=220
133.531690
127.453804
125.393867
113.554001
96.537471
69.065690
54.522753
34.371614
27.988553
23.585558
26.600957
22.480488
22.812486
17.918944
15.537739
10.569692
7.633567
6.553531
4.912615
4.678965
4.091859
5.554557
4.897714
6.297827
5.756617
5.892515
7.126927
8.062720
8.787513
9.135604
9.881854
11.711717
10.842681
11.542439
11.362433
15.141964
15.252829
15.210509
15.222430
16.724467
15.134811
15.291572
16.228557
17.034411
17.175674
15.360713
15.621781
16.837716
15.029907
16.731620
17.087460
17.164946
16.452670
15.086532
17.158985
16.359687
15.518665
17.481446
15.449524
14.963746
15.656948
15.915632
15.109777
14.070868
15.030503
14.829636
14.873743
15.604496
15.330911
17.479658
20.385981
20.737648
21.759868
24.762750
26.609898
26.732683
25.115609
23.723841
23.530722
23.941994
21.044612
19.590855
17.098784
16.138554
14.533997
11.641979
11.377931
10.876656
9.430647
10.106564
8.751750
9.292960
9.629726
8.215904
9.309649
9.476542
9.829998
9.463429
12.005568
14.425516
21.249652
27.989745
39.094687
54.843426
68.911910
86.140633
105.160475
127.745867
140.217543
148.693919
167.280436
169.881582
178.672671
174.797773
170.067549
158.177614
##ZVALUE=225
150.659680
161.684752
201.294422
221.460462
221.826434
208.868980
181.781650
130.541921
97.109675
66.355467
49.417615
38.869977
38.353801
37.537813
38.377643
32.180548
27.332902
20.876527
15.006661
11.389852
8.032918
6.799698
6.573796
6.492734
6.932616
6.491542
6.675720
7.498860
8.217692
8.727908
8.871555
9.003878
10.743737
11.511445
13.505816
14.476776
15.138984
17.125607
17.905831
16.830564
17.118454
19.164681
19.527674
19.808412
18.897653
19.273758
17.636418
18.732548
18.705726
19.254684
18.633604
18.064976
19.373894
18.685460
19.013882
18.199682
18.946528
16.779900
18.829703
17.032623
17.462969
17.134547
16.369820
17.503500
16.022921
16.152859
16.793609
17.450452
17.649531
18.398762
20.738840
21.519661
23.416877
23.698807
24.350882
24.982691
23.946762
22.860765
23.520589
21.372437
19.151568
17.023683
16.275644
15.585423
12.857914
13.975501
10.160804
11.202693
11.891723
11.227727
9.784698
10.960698
10.642409
9.071827
9.726882
9.533763
9.942651
8.979440
9.582639
9.727478
10.047555
10.864735
10.574460
12.066960
18.572807
23.845434
40.368438
58.842897
76.442957
103.923678
121.509433
152.835846
178.689957
209.896564
232.746005
248.764753
##ZVALUE=230
105.300546
112.147927
185.515881
245.965719
302.790999
359.376669
371.913910
351.854563
305.498838
238.233805
177.015662
113.803744
81.464648
61.310530
58.494806
61.250925
62.587857
53.768754
49.776435
39.441586
30.594468
24.198890
13.472438
9.613633
8.155704
6.903410
7.695556
7.238984
7.646680
9.183884
9.942651
10.864735
11.369586
11.043549
12.543797
13.783574
15.552640
18.112659
17.356873
17.139912
17.997622
18.388629
19.863844
18.809438
20.936728
19.439459
19.437671
18.828511
18.133521
19.326806
17.522573
19.511580
17.864704
18.598437
18.158555
17.644763
18.448830
17.702579
17.881989
19.041896
17.198920
17.320514
16.352534
16.892552
15.621781
17.042756
17.173886
16.832948
18.771887
19.442439
20.379424
21.785498
22.851825
22.835732
24.983883
24.374723
23.301840
21.812916
21.556616
20.079613
18.018484
16.641617
15.788674
15.484691
13.384819
12.678504
11.503696
13.246536
11.240840
10.822415
11.112690
10.394454
10.927916
9.762645
10.548830
10.729432
10.675788
10.349751
10.304451
9.890795
10.078549
11.092424
10.162592
10.181665
9.765625
10.685921
10.982752
11.800528
13.521910
21.528602
30.609965
49.007535
64.929724
106.445551
138.002634
181.180835
##ZVALUE=235
26.957989
32.166839
79.860687
139.985681
224.628448
359.788537
464.711785
580.002666
603.159666
579.247475
517.649651
401.759744
304.094553
188.914537
133.635998
94.555616
85.018873
79.977512
91.073513
89.393854
81.460476
67.800879
54.607987
40.493608
25.561452
17.563701
13.336539
10.147691
9.014606
9.558797
8.746982
9.945631
9.607673
11.474490
12.067556
12.621880
13.473630
14.489889
16.421676
16.382933
16.438961
17.838478
18.016696
18.548965
17.394423
17.874837
18.789768
18.490553
17.561913
17.148852
17.491579
18.325448
18.857718
17.427802
17.918944
17.300844
16.559958
17.607808
17.001629
16.787648
15.974641
16.383529
16.799569
16.931891
17.129779
14.658570
16.985536
17.369986
16.232729
19.068718
20.038486
22.299886
23.218989
23.000836
27.039647
23.733974
24.014711
24.570823
23.766756
20.890832
20.496845
17.345548
16.736984
15.716553
14.675856
13.941526
13.877749
12.898445
13.376474
13.862848
12.178421
14.093518
12.392998
12.999773
11.471510
12.023449
12.514591
11.057854
13.504624
11.290908
11.360645
11.138916
12.597442
11.975765
11.704564
10.606647
12.066960
11.807680
11.971593
11.474490
11.767745
11.129975
13.280511
16.548634
22.817850
39.937496
##ZVALUE=240
3.162622
2.837777
11.281967
30.982494
70.282817
166.523457
277.774930
467.121601
606.680512
792.675018
878.425837
867.929459
800.495744
636.332631
507.722497
327.696800
232.212543
148.517489
119.842887
106.430650
113.658905
120.945573
117.397904
106.775761
87.498426
69.291592
50.359964
35.306811
22.539496
16.082525
12.342930
10.987520
10.382533
12.157559
13.487935
12.299418
13.646483
12.651682
14.684796
14.638901
15.461445
16.570687
15.976429
16.306639
16.821623
17.238855
17.388463
17.060637
17.858744
15.980601
16.350746
16.487837
16.082525
16.499758
14.431477
15.402436
15.450716
15.816689
15.808940
16.352534
16.158819
15.006661
16.160607
15.062690
16.865730
15.960932
17.896891
17.499924
16.876459
18.378496
20.875931
19.905567
22.837520
25.004745
25.056601
25.249720
24.685860
23.172498
21.952987
20.470619
19.241571
17.255545
16.207695
15.491843
14.778972
13.836622
13.525486
12.162924
14.645457
15.448928
11.798739
12.654662
12.248755
14.369488
12.476444
12.877584
12.511611
13.015866
12.511611
11.837482
12.613535
11.935830
12.529492
13.081431
13.504624
12.923479
12.492537
13.272762
12.401938
12.657642
14.090538
12.602806
11.678934
10.945797
12.035966
11.999607
##ZVALUE=245
2.064705
2.237558
2.035499
2.671480
4.644990
20.635724
55.121779
145.011544
251.950622
453.602672
632.382035
867.033005
987.602472
1016.001701
983.638763
832.026601
674.008727
454.569459
309.330821
174.599886
127.204657
108.244419
114.845634
128.016472
135.997534
129.893422
116.312504
102.141500
73.109865
58.332682
36.829710
25.575757
17.735958
14.071465
11.762977
12.397766
12.691617
13.049841
13.036728
12.907982
12.641549
15.481710
14.353991
14.496446
14.072657
14.152527
15.599728
13.863444
14.774799
14.235973
14.924407
14.199615
14.795661
14.751554
14.844537
14.743805
14.131665
14.370680
13.142824
13.488531
14.907718
15.015602
13.698936
13.519526
13.375878
12.530684
14.643669
13.473630
15.335679
16.045570
17.367601
19.454956
19.417405
20.786524
20.665526
19.386411
20.661950
19.108653
18.448830
16.790628
16.244650
15.543699
14.936924
13.649464
13.016462
13.064742
12.189746
12.538433
12.233853
10.782480
11.571646
11.271834
11.745691
11.249781
11.332631
11.375546
10.793805
11.482835
11.663437
11.917949
12.077689
11.870861
11.023879
11.755824
12.232661
12.758970
12.160540
11.535883
12.071729
11.826754
11.246800
11.704564
11.702776
11.751652
11.422634
11.003613
##ZVALUE=250
2.014637
1.556873
2.042651
1.360774
1.961589
2.095699
3.280640
14.059544
40.655732
108.839869
212.519765
426.816940
623.520613
884.377956
1016.001701
1016.001701
1016.001701
1008.128524
874.913931
601.429939
407.068729
235.884786
150.771737
105.134845
107.263923
123.295784
137.086511
141.413808
139.254928
129.864812
103.904605
84.799528
59.842467
42.869449
25.607944
19.546747
15.123487
13.521910
12.214780
13.472438
13.300776
14.180541
14.947653
13.516545
14.199615
14.422536
14.638901
14.713407
14.238954
13.272762
13.394952
14.115572
14.494658
13.998747
14.124513
14.526844
12.894869
13.080835
13.199449
12.892485
12.175441
12.515783
13.108850
13.288856
13.133883
12.858510
13.366938
13.045669
14.221668
14.776587
15.500784
16.408563
17.010570
17.462969
19.038916
18.830895
17.649531
16.907454
15.949607
15.400648
12.923479
12.696981
12.536645
11.560917
11.828542
10.664463
9.955764
9.891987
10.199547
9.968877
10.079741
9.616613
9.155869
10.142922
10.320544
8.897781
9.155869
10.665655
9.374619
9.961724
9.808540
9.821653
10.237694
9.832978
9.946823
9.887815
10.674000
10.400414
10.061860
10.210872
10.092854
9.416938
9.851456
10.480881
9.633899
9.234548
##ZVALUE=255
1.341701
1.273751
1.454949
1.607537
1.403689
1.904964
1.904964
2.273917
2.682805
7.253885
24.899840
85.959435
175.870657
371.310711
569.019914
852.555037
1016.001701
1016.001701
1016.001701
1016.001701
1016.001701
778.995752
554.882884
305.599570
191.909671
110.647678
95.888972
104.487538
129.015446
142.617822
151.711702
147.930980
132.962465
115.137696
86.212754
63.849688
40.538907
30.077696
21.349788
17.679930
14.976859
15.727878
15.781522
15.262961
14.959574
15.490651
15.280843
15.506744
15.466809
13.850927
15.561581
14.315844
15.226603
14.584661
14.405847
15.186667
14.836788
15.781522
14.347434
14.557838
14.339685
14.957786
14.321804
13.249516
13.902783
13.550520
13.338923
14.100671
13.540983
15.132427
14.803410
16.030669
16.370416
16.139746
16.182661
16.572475
15.788674
15.635490
13.480783
14.069676
13.196468
11.809468
11.103749
11.233687
9.946823
9.598732
9.929538
9.087920
9.676814
9.444952
8.716583
9.328723
8.509755
8.630753
8.433461
9.493828
8.801818
8.547902
8.534789
8.790493
8.767843
8.895993
9.536743
9.120703
9.318590
8.804798
9.125471
8.860826
8.645654
8.274913
9.131432
9.430647
10.082722
9.416938
9.034872
9.160638
##ZVALUE=260
1.415610
1.357794
1.693964
1.510978
1.511574
1.604557
1.855493
1.800656
1.947880
1.821518
2.551675
4.336834
14.290810
59.468746
127.648711
300.700665
486.715436
795.583725
1007.604003
1016.001701
1016.001701
1016.001701
1016.001701
1016.001701
710.123777
489.397645
277.439952
168.780684
97.469687
90.131760
112.427473
131.911635
151.628852
160.415769
153.188705
143.789649
116.498470
93.882680
66.968799
51.146746
34.491420
26.513934
21.001697
18.908978
18.552542
18.781424
18.334985
18.245578
17.757416
18.102527
18.002987
17.235875
16.821623
17.250776
16.547441
15.581846
16.513467
16.802549
16.486645
15.144944
14.996529
15.568733
14.590621
15.749931
14.612675
14.382601
14.325976
13.996959
14.495850
14.310479
15.049577
15.820861
16.104579
16.196966
16.119480
15.533566
15.511513
14.307499
14.039874
13.100505
12.353659
12.242794
11.592507
11.220574
10.330677
9.813905
9.389520
9.526610
8.975863
8.533597
9.618998
9.172559
8.146763
8.631945
8.725524
7.808805
8.655787
8.121729
7.786751
7.713437
8.805990
8.086562
7.729530
8.695722
8.331537
8.263588
9.067655
8.458495
8.097887
7.777810
8.539557
8.670688
8.772612
8.292794
8.558631
8.389950
##ZVALUE=265
1.406670
1.536608
1.429915
1.287460
1.365542
1.433492
1.661777
1.347661
1.337528
1.357794
1.797676
1.723766
2.223849
2.332926
6.022453
34.709573
86.442828
218.428373
387.185812
718.994737
989.036560
1016.001701
1016.001701
1016.001701
1016.001701
1016.001701
943.973660
667.704940
362.927914
220.376849
114.205480
85.230470
88.211894
120.074749
141.221881
164.139867
166.328549
162.915587
147.428513
122.167468
101.098418
73.328614
55.375695
38.686991
29.385686
23.706555
22.522807
20.776987
19.995570
20.605922
20.689964
20.869970
20.141602
19.404888
18.615723
18.552542
18.606782
18.014908
18.081665
17.373562
17.398000
17.109513
16.391873
16.836524
16.447902
15.706420
16.140938
15.850663
15.836954
16.274452
16.571879
16.694665
16.099811
16.652942
16.097426
15.561581
15.685558
14.360547
13.800859
12.346506
11.951923
11.807680
11.555552
11.181831
9.848475
9.960532
9.568930
9.219646
8.492470
8.653998
9.213686
8.074641
8.127689
7.551908
8.219481
7.937551
7.905960
7.988811
8.185506
7.881522
8.007884
8.120537
7.365942
8.276701
8.369684
7.665753
8.003712
7.922649
8.302927
7.638931
7.526875
7.837415
7.807612
7.796884
7.707477
7.806420
##ZVALUE=270
1.204610
1.151562
1.127720
1.243949
1.265407
1.215935
1.100898
1.315475
1.472831
1.520514
1.403689
1.788735
1.815557
2.009869
1.996756
2.359748
3.233552
16.652942
50.673485
158.591866
312.255621
618.192554
927.460790
1016.001701
1016.001701
1016.001701
1016.001701
1016.001701
1016.001701
919.314027
547.266603
338.358879
163.640976
95.469952
76.116920
91.406703
124.803782
145.612955
166.518688
174.308419
167.035460
154.828429
129.233599
106.142759
78.817606
59.644580
41.745901
33.620596
27.747750
25.702715
24.883747
23.813844
23.033619
22.130609
21.731853
21.066666
20.994544
21.056533
20.983815
20.166636
19.542575
19.165874
18.886924
18.141866
17.652512
17.148852
18.470883
16.935468
17.230511
17.334819
16.900897
17.412901
17.202497
17.270446
16.997457
16.663671
15.158653
14.892817
13.791919
13.261437
12.272000
12.469888
10.674000
10.875463
10.194778
10.039806
9.851456
9.142756
8.959770
8.773804
8.705854
7.803440
8.556843
7.987618
8.023977
7.347465
8.105636
7.828474
7.404685
7.209778
7.725954
7.385612
7.961988
7.898808
7.641912
7.377863
7.929802
7.846951
7.508993
8.177757
7.684827
7.565618
7.235408
7.541776
7.118583
7.372499
##ZVALUE=275
0.931621
1.035929
1.111627
1.186728
1.470447
1.222491
1.158714
1.009703
1.129508
1.257658
1.399517
1.363754
1.522899
1.405478
1.703501
1.897812
2.211928
2.436638
2.689958
6.910563
28.276443
103.785992
229.351521
511.663556
804.047585
1016.001701
1016.001701
1016.001701
1016.001701
1016.001701
1016.001701
1016.001701
758.299828
416.240692
240.848660
110.638738
72.094798
76.313615
94.672441
126.876831
149.507523
169.126987
174.477696
171.699524
154.433846
128.537416
106.716752
77.872872
59.866905
43.831468
34.819841
28.796792
25.885701
24.261475
23.337603
23.112893
22.598505
21.928549
21.970868
21.195412
20.539761
20.261407
19.359589
18.978715
19.280910
18.241405
18.880963
18.004775
18.267632
17.764568
17.383695
17.293692
17.121434
17.123818
17.384887
16.497970
15.934706
15.468597
14.162660
13.779998
12.981892
12.216568
11.459589
11.273623
9.922981
10.102987
9.920597
9.355545
9.182692
8.577704
8.282661
8.254647
8.343458
7.913709
7.780790
7.620454
7.891655
7.418990
7.649660
7.802844
7.303953
7.132888
7.749796
7.182956
7.483959
7.539988
7.612705
7.117987
6.925464
7.512569
7.362962
6.996989
6.896853
7.354617
6.714463
7.167459
##ZVALUE=280
0.998974
0.924468
1.097918
1.094937
1.213551
1.081824
1.025796
0.925660
1.121759
1.168847
1.078844
1.417994
1.529455
1.528859
1.226664
1.720786
1.591444
1.675487
2.239943
2.376437
2.693534
3.986955
16.914606
59.597492
187.973976
351.181030
666.955709
975.981951
1016.001701
1016.001701
1016.001701
1016.001701
1016.001701
1016.001701
905.099511
603.447556
306.789875
162.089467
75.512528
59.387684
72.330832
93.091726
125.584602
146.197677
164.079666
172.127485
164.322853
151.647925
126.212835
101.237893
73.852539
57.357550
40.066838
31.138659
25.848746
22.619963
21.143556
20.347834
20.478964
19.888878
19.212961
18.561482
19.114614
18.497705
18.516779
17.978549
17.577410
17.965436
16.791821
17.693639
17.083883
17.210841
17.227530
17.232895
17.277598
16.186833
15.623569
14.877915
14.156699
13.617873
12.353659
12.371540
11.680722
11.118650
9.888411
10.163784
9.781718
9.003878
9.195805
8.956790
8.586645
7.919669
7.981658
7.911921
7.444620
7.559657
7.588863
7.196665
7.192492
7.538795
7.121563
7.098913
7.117987
7.242560
7.614493
7.757545
7.074475
7.590652
7.413626
6.865859
6.789565
7.176995
7.057786
6.915927
6.550550
6.933808
##ZVALUE=285
0.872612
0.836849
0.912547
0.871420
0.805855
0.925660
0.946522
0.999570
1.073480
1.078844
1.128912
1.224875
1.138449
1.250505
1.337528
1.144409
1.527667
1.617670
1.581907
1.895428
1.827478
2.105832
2.163649
2.883673
6.750822
40.180683
99.713802
211.929679
470.520854
752.316713
1016.001701
1016.001701
1016.001701
1016.001701
1016.001701
1016.001701
1016.001701
804.691911
426.896811
243.733525
103.936791
58.026910
47.951937
60.761571
86.690784
110.650659
136.411786
152.461529
161.248446
157.043934
141.577721
123.967528
94.067454
75.937510
52.149892
38.013458
25.794506
21.508932
17.683506
17.541647
16.998649
16.801953
16.705990
16.408563
15.960932
16.431808
15.865564
15.712976
15.840530
15.922785
15.579462
15.838742
15.959740
15.384555
15.423894
14.943480
14.044642
12.856722
12.486577
12.262464
11.680722
10.812879
10.983944
10.515451
10.303855
9.162426
9.232759
8.957982
8.931756
8.226633
8.621812
7.957816
7.121563
7.914901
8.109808
7.243752
7.559657
7.140636
6.730556
7.194877
7.146597
7.196665
6.824732
7.314682
7.215738
6.758571
7.130504
7.017851
6.950498
7.023811
7.274747
6.560683
7.123947
6.707907
6.643534
6.702542
##ZVALUE=290
0.873804
0.890493
0.945926
0.850558
0.844598
0.965595
0.854731
0.981688
0.944734
0.932813
0.992417
0.971556
0.882745
1.133680
1.125932
1.403689
1.161695
1.104474
1.563430
1.510978
1.520514
1.501441
1.970530
2.085567
2.394915
2.906919
3.510714
16.656518
54.365396
134.455562
340.448618
579.445958
980.029702
1016.001701
1016.001701
1016.001701
1016.001701
1016.001701
1016.001701
976.492763
658.507943
323.251486
167.846680
62.460899
35.904646
39.386749
53.309798
75.652003
97.544789
118.601918
141.927600
152.023435
148.809552
137.988925
112.921596
93.191862
65.181851
48.136711
30.667782
23.454428
16.915798
14.710426
13.635755
13.239980
13.540983
12.842417
12.830496
12.715459
13.600588
13.186932
13.224483
13.466477
13.425946
13.838410
13.256669
12.837648
12.058616
11.553764
11.073947
10.385513
10.032654
10.377765
9.618998
8.907914
8.811951
8.851886
8.097887
8.370876
7.683635
7.565618
7.525682
6.937981
7.302761
7.583499
7.443428
7.118583
7.188916
7.481575
6.677508
7.026792
6.239414
6.942749
6.853938
6.996989
6.844997
6.807446
7.294416
6.656647
6.847978
6.900430
6.796718
6.488562
6.617904
6.753802
6.230474
6.425977
##ZVALUE=295
0.693798
0.766516
0.809431
0.822544
0.735521
0.740886
0.704527
0.773668
0.829697
0.886917
0.921488
0.756979
1.032948
1.117587
0.979900
1.167655
1.031756
1.268983
1.267791
1.269579
1.208782
1.533628
1.562834
1.553893
1.583695
1.874566
2.098680
2.259612
2.906919
5.207658
30.047894
86.397529
252.323747
466.675758
867.159963
1016.001701
1016.001701
1016.001701
1016.001701
1016.001701
1016.001701
1016.001701
756.095648
467.889905
209.172964
98.828673
35.701990
24.916530
34.856796
48.397779
72.058439
91.165900
117.973685
132.550597
141.634941
138.995647
124.587417
108.485818
84.777474
66.076517
42.766929
31.361580
19.835830
15.140772
11.607409
10.292530
10.123849
10.223985
10.016561
10.403991
10.517836
10.486841
11.243820
10.944605
10.720491
10.494590
10.803938
10.142922
9.532571
8.959770
9.074807
8.900762
8.478761
7.950664
8.118749
7.360578
7.541776
7.342696
7.291436
7.348657
7.046461
7.100701
6.640553
6.946921
6.933808
6.637573
6.541610
6.864667
6.344914
6.408691
6.668568
6.849766
6.631613
6.576777
6.779432
6.866455
6.754994
6.378889
6.659627
6.752610
6.993413
6.406903
6.768703
6.603599
6.693602
6.297827
##ZVALUE=300
0.700951
0.715852
0.705719
0.681877
0.794530
0.803471
0.852942
0.925660
0.777841
0.894666
0.870824
0.971556
0.950694
0.963807
0.951886
1.007915
1.125932
1.126528
0.946522
1.153946
1.089573
1.127720
1.287460
1.417994
1.231432
1.503825
1.710653
1.936555
1.836419
2.191663
2.425909
3.326535
10.308623
56.881905
140.953660
359.362960
617.864728
1016.001701
1016.001701
1016.001701
1016.001701
1016.001701
1016.001701
1016.001701
996.711850
578.065515
334.413648
139.365792
62.735677
24.033785
20.382404
29.557943
41.420460
62.381625
83.021522
109.163523
122.095942
131.796598
133.048892
121.298432
105.589628
80.815554
62.287450
41.518807
29.242635
17.959476
12.632608
9.803772
8.906722
9.136796
8.484721
8.987784
8.976460
9.302497
9.027719
8.706450
8.570552
8.639693
8.171797
8.041859
7.794499
7.471442
7.562637
7.132888
7.081628
7.225871
6.942749
6.890893
6.827712
6.739497
6.655455
6.510615
6.675720
6.365776
6.455779
6.324649
6.500483
6.293654
6.338954
6.638765
6.687641
6.699562
6.675720
6.594658
6.524920
6.704926
6.778836
6.837845
6.795526
6.566644
6.855726
6.449819
6.396770
6.550550
6.494522
6.421804
##ZVALUE=305
0.668764
0.686646
0.682473
0.720620
0.597835
0.787973
0.669956
0.584722
0.762939
0.692606
0.631809
0.804663
0.777841
0.752807
0.983477
0.944734
0.864863
0.892878
0.780821
0.913739
0.986457
1.056790
1.078844
0.888705
1.020432
1.362562
1.479983
1.444817
1.812577
1.974702
2.016425
2.130866
2.134442
2.725720
6.417632
25.501847
105.942488
234.024525
531.413555
841.979980
1016.001701
1016.001701
1016.001701
1016.001701
1016.001701
1016.001701
1016.001701
808.778405
505.811572
276.296735
100.470781
39.620996
16.759634
17.843843
28.100610
39.145947
60.142875
78.987479
101.322532
115.684867
125.777721
125.042796
113.795996
99.497437
75.527430
58.474541
39.315820
27.122498
16.713738
12.529492
9.990931
8.885860
8.946657
8.554459
8.513927
8.383989
7.960796
7.565618
7.561445
7.158518
7.128716
7.004738
6.940961
6.969571
6.649494
6.509423
6.711483
6.662607
6.291866
6.380677
6.687641
6.501675
6.402731
6.141663
6.127954
6.600618
6.212592
6.349683
6.157756
5.858541
6.453991
6.758571
6.358624
6.305575
6.703734
6.763935
6.467700
6.874800
6.774664
6.554723
6.936789
6.818771
7.177591
6.825924
6.657839
6.534457
##ZVALUE=310
0.627637
0.599623
0.711679
0.611544
0.694990
0.547767
0.656843
0.655651
0.628829
0.572801
0.635982
0.653863
0.689626
0.952482
0.841618
0.929832
0.680685
0.871420
0.970960
0.768900
0.950694
0.897646
0.814795
1.032948
1.126528
1.093745
1.087785
1.039505
1.416802
1.335740
1.498461
1.713634
1.818538
1.960993
1.993775
2.565980
3.267527
10.900497
58.938861
142.177939
353.790522
608.675480
1009.157896
1016.001701
1016.001701
1016.001701
1016.001701
1016.001701
1016.001701
1012.228727
631.023645
379.048586
161.096454
71.937442
22.550821
13.164878
16.866922
23.004413
37.032962
49.765706
72.564483
90.072751
109.015703
117.085576
118.241906
111.313462
94.357729
78.855753
54.044724
39.409995
25.235415
17.929673
12.425780
9.970665
8.407831
7.480979
7.199645
7.122755
6.926656
6.807446
6.875992
6.533861
6.474853
6.562471
6.456971
6.583929
6.613731
6.349683
6.288886
6.002784
6.358624
6.195903
6.108880
5.903840
6.268620
6.516576
6.549954
6.501675
6.278753
6.552935
6.442666
6.316900
6.462932
6.607771
6.674528
6.870627
6.986856
6.820560
6.750822
6.824732
6.734729
6.685853
6.814599
6.271601
6.378889
6.523728
##ZVALUE=315
0.499487
0.700951
0.588894
0.619888
0.483990
0.427961
0.567436
0.603795
0.557899
0.633597
0.677705
0.685453
0.704527
0.598431
0.750422
0.786781
0.669956
0.741482
0.870824
0.967979
0.916719
0.912547
0.814795
0.951886
0.970960
1.069903
1.063943
1.104474
1.107454
1.097918
1.272559
1.322627
1.399517
1.681447
1.665950
1.981854
2.096891
2.232790
2.874732
4.815459
29.296875
86.116791
250.816941
460.204482
884.901881
1016.001701
1016.001701
1016.001701
1016.001701
1016.001701
1016.001701
1016.001701
766.283870
478.107929
222.605467
103.295445
28.679967
13.137460
12.090802
14.724731
22.440553
31.796694
49.085617
64.186454
86.096525
98.696947
110.361576
110.981464
102.078915
89.694858
69.444776
54.790974
37.070513
26.323795
16.532540
11.998415
8.773804
7.073879
6.786585
6.364584
6.313920
5.986691
6.028414
6.193519
6.085634
5.957484
5.892515
6.135702
6.301999
6.248951
6.209612
6.088614
6.174445
6.201863
6.384850
6.195903
6.221533
6.377697
6.121993
6.499887
6.401539
6.453991
6.572604
7.009506
6.959438
6.982684
6.939769
6.633997
6.409883
6.908774
6.547570
6.979704
6.854534
6.763935
6.801486
6.688833
##ZVALUE=320
0.657439
0.449419
0.629425
0.604987
0.638962
0.588894
0.574589
0.528693
0.709891
0.656843
0.657439
0.746846
0.651479
0.629425
0.660419
0.782609
0.900626
0.568628
0.624657
0.716448
0.565648
0.888705
1.062751
0.857711
0.903606
0.894666
1.067519
0.892878
0.946522
0.938773
1.314878
1.206994
1.161695
1.374483
1.453757
1.379848
1.734495
1.847744
1.816750
2.135634
2.434850
3.419518
9.728670
55.133700
144.358873
381.921530
640.643835
1004.740596
1016.001701
1016.001701
1016.001701
1016.001701
1016.001701
1016.001701
946.822762
621.205568
301.089883
149.007440
47.760606
19.155741
10.770559
10.767579
13.742447
18.417835
30.028820
41.764975
61.346889
76.207519
94.654560
103.562474
104.707479
99.406838
84.526539
70.212483
51.368475
38.818717
23.551583
16.433597
10.102987
7.972717
6.459951
6.381869
5.880594
5.749464
6.002784
5.838871
5.516410
5.788803
5.894899
5.886555
5.995631
5.687475
5.945563
6.090999
6.116629
5.947948
6.114841
6.252527
6.142855
6.256700
6.407499
6.554723
6.514788
6.524920
6.697774
6.926656
7.116795
7.007718
6.985664
6.919503
7.081628
6.856918
6.603599
6.777644
6.714463
6.107688
##ZVALUE=325
0.475645
0.596642
0.630617
0.505447
0.531673
0.670552
0.709891
0.571609
0.591874
0.761747
0.504851
0.672936
0.529885
0.523925
0.641942
0.701547
0.536442
0.664592
0.731945
0.744462
0.520945
0.840425
0.891685
0.986457
0.867844
0.947714
0.862479
0.908971
0.900626
0.919700
0.981688
1.017451
1.194477
1.146793
1.357794
1.448989
1.524687
1.619458
1.706481
1.908541
1.966953
2.128482
2.439618
2.631545
6.780624
26.868582
106.016994
231.861472
526.621938
837.395787
1016.001701
1016.001701
1016.001701
1016.001701
1016.001701
1016.001701
1004.941463
730.566978
387.984514
209.821463
74.947476
28.544664
10.466576
8.949637
9.911656
12.046695
18.293858
26.396513
42.477846
57.676435
77.394843
88.848472
98.219514
99.520683
91.668963
81.120729
60.989857
47.330856
31.141639
21.981001
14.105439
9.820461
7.275939
6.587505
5.875826
5.670786
5.324483
5.549788
5.637407
5.685687
5.911589
5.713701
5.776882
6.093979
6.068945
6.046891
6.255507
6.122589
6.048679
6.161928
6.841421
6.576777
6.924868
6.549954
6.596446
6.949902
7.107854
6.915927
7.195473
7.123947
7.138848
6.959438
7.156730
6.806850
6.818771
6.732941
##ZVALUE=330
0.502467
0.491738
0.542998
0.590682
0.559688
0.457764
0.492930
0.596642
0.703931
0.456572
0.566840
0.701547
0.597835
0.539422
0.489950
0.631809
0.484586
0.741482
0.640750
0.618696
0.708699
0.740886
0.940561
0.740886
0.718832
0.737906
0.945926
0.953674
0.938773
0.859499
0.964999
0.948906
1.071692
1.004934
1.114607
1.138449
1.231432
1.271963
1.352429
1.382828
1.698732
1.768470
1.731515
1.865625
2.380610
2.567768
3.320575
11.920929
61.528683
151.230693
375.358462
634.625554
1016.001701
1016.001701
1016.001701
1016.001701
1016.001701
1016.001701
1016.001701
906.583071
504.415631
280.622840
108.176470
47.137737
13.838410
8.626580
8.121729
8.870959
11.866689
17.288923
27.475953
37.917495
54.381490
68.430901
82.628727
89.502931
90.663433
84.722638
71.027875
58.526993
42.407513
31.638741
20.469427
14.810562
9.993911
7.541776
6.359816
5.647540
5.450845
5.513430
5.480647
5.502701
5.408525
5.891919
5.662441
5.779862
5.952716
5.963445
5.979538
6.169677
6.380677
6.337762
6.475449
6.536841
6.737709
6.660819
6.561875
6.905794
6.888509
7.084608
6.918907
6.906986
6.812811
6.468892
6.802678
6.656647
##ZVALUE=335
0.386834
0.453591
0.334978
0.489950
0.401735
0.452995
0.454783
0.579953
0.526905
0.575781
0.596642
0.639558
0.437498
0.614524
0.601411
0.431538
0.424981
0.618696
0.555515
0.515580
0.555515
0.565648
0.620484
0.622869
0.796914
0.822544
0.621676
0.737906
0.614524
0.868440
0.872612
0.690818
0.922680
0.769496
0.968575
0.977516
0.988841
1.148582
1.074672
1.062751
1.211762
1.200438
1.375675
1.442432
1.688600
1.875758
1.969934
2.350807
2.457500
5.317926
31.124949
87.755919
251.533985
461.678505
860.862732
1016.001701
1016.001701
1016.001701
1016.001701
1016.001701
1016.001701
1007.192731
616.693497
376.376510
163.100958
73.265433
19.738674
9.679794
7.903576
8.069873
9.143949
10.956526
16.833544
23.250580
36.900640
48.566461
65.472722
75.991750
84.412694
84.625483
78.210831
69.859624
55.696964
43.525696
30.716658
22.295713
14.580488
10.366440
7.270575
6.379485
5.682707
5.687475
5.555749
5.546808
5.695820
5.916953
5.952716
5.853772
5.870461
6.070733
5.969405
6.152987
6.258488
6.405711
6.816983
6.892681
7.111430
6.853938
6.901622
6.943941
6.778836
6.871819
6.768703
6.800890
6.583929
6.473660
##ZVALUE=340
0.381470
0.291467
0.399947
0.465512
0.459552
0.441670
0.371933
0.431538
0.542998
0.456572
0.621676
0.485778
0.418425
0.426769
0.412464
0.622869
0.516772
0.500679
0.512600
0.567436
0.618696
0.686646
0.652671
0.697970
0.736713
0.677705
0.663996
0.580549
0.739694
0.815988
0.772476
0.627637
0.831485
0.837445
0.879765
1.060963
0.997782
1.072884
0.896454
0.984669
0.899434
1.264811
1.161695
1.375675
1.360774
1.587868
1.656413
1.668930
1.730919
1.918674
2.461672
3.072619
15.690923
55.429935
189.003348
369.002819
733.236670
1016.001701
1016.001701
1016.001701
1016.001701
1016.001701
1016.001701
1016.001701
745.031834
461.905599
211.481452
98.621845
26.456714
11.160970
8.058548
7.649660
7.602572
8.310676
10.751486
14.796853
23.190975
33.125877
48.420429
59.711933
73.205829
78.880787
79.351664
75.565577
65.332651
54.683685
40.899515
31.388998
20.305514
14.856458
9.932518
7.906556
6.559491
6.084442
5.941987
5.905628
5.752444
5.811453
5.847812
6.129742
5.961657
6.125569
6.367564
6.641746
6.621480
6.972551
6.704926
6.977916
6.960630
6.906986
6.672740
6.894469
6.554723
6.379485
6.442666
6.492734
##ZVALUE=345
0.521541
0.633597
0.542998
0.481606
0.386834
0.535846
0.440478
0.520945
0.291467
0.607967
0.427961
0.579953
0.600815
0.521541
0.555515
0.506639
0.534654
0.632405
0.553727
0.656843
0.466704
0.651479
0.643730
0.589490
0.671744
0.664592
0.664592
0.668764
0.866652
0.815988
0.779629
0.766516
0.672936
0.683665
0.833869
0.999570
0.785589
0.991821
0.899434
0.812411
1.097918
1.029968
1.062751
1.142621
1.263618
1.277924
1.478791
1.484752
1.424551
1.605749
1.649857
1.974702
2.385974
2.423525
6.775856
26.800632
112.126470
242.484808
533.277988
829.715729
1016.001701
1016.001701
1016.001701
1016.001701
1016.001701
1016.001701
944.676399
618.554950
278.906822
135.498643
45.778751
17.615557
8.514524
7.641912
7.172823
7.082820
7.302761
9.089708
14.056563
19.976497
32.067895
42.250752
55.265427
63.695908
71.720481
72.750449
69.712996
63.520670
51.469803
42.251945
30.178428
22.221804
14.293790
10.836720
8.003712
6.946921
5.995631
6.110668
5.801916
5.962849
5.737543
5.999804
5.991459
6.351471
6.463528
6.324649
6.664991
6.643534
6.551743
6.614923
6.595850
6.661415
6.510615
6.396770
6.529689
6.352663
##ZVALUE=350
0.380874
0.523925
0.397563
0.536442
0.414848
0.482798
0.474453
0.387430
0.437498
0.541806
0.599623
0.459552
0.572801
0.515580
0.406504
0.363588
0.471473
0.492930
0.567436
0.416636
0.507832
0.592470
0.539422
0.666976
0.616908
0.668764
0.629425
0.522733
0.805855
0.646710
0.676513
0.626445
0.727773
0.605583
0.780821
0.758767
0.748634
0.823736
0.961423
1.080632
0.927448
0.958443
1.012683
1.010895
1.069903
1.075864
1.245737
1.282692
1.347661
1.419783
1.539588
1.464486
1.726747
1.871586
2.142787
2.302527
3.889799
13.939738
66.337585
157.207847
389.353037
667.683482
1016.001701
1016.001701
1016.001701
1016.001701
1016.001701
1016.001701
1006.990671
709.897876
353.037715
189.595819
69.277883
25.494695
9.151697
7.320642
6.461740
6.217957
6.196499
6.921887
8.724928
12.296438
18.615723
26.143789
37.770867
46.826601
58.170557
64.505935
66.322684
65.424442
58.130622
47.249794
39.516687
29.415488
20.404458
15.615821
10.830760
8.915663
7.054806
6.560683
6.207824
6.212592
6.069541
6.058812
6.241798
6.383657
6.464720
6.600618
6.694794
6.345510
6.706715
6.465912
6.217957
6.148815
6.125569
5.843639
##ZVALUE=355
0.497699
0.341535
0.446439
0.663996
0.435710
0.465512
0.484586
0.467896
0.556707
0.434518
0.460744
0.536442
0.638962
0.545979
0.610948
0.588894
0.426769
0.410676
0.475645
0.413656
0.612736
0.677705
0.543594
0.550747
0.737906
0.798702
0.692606
0.759959
0.618696
0.607967
0.678897
0.774860
0.790954
0.745654
0.702739
0.744462
0.832677
0.852942
0.712872
0.962615
0.857711
0.912547
0.964999
0.883937
0.961423
0.947714
1.040697
1.150966
1.271963
1.286864
1.305938
1.477599
1.481771
1.480579
1.625419
1.763701
2.235770
2.107620
2.885461
6.087422
37.091970
102.419853
280.592442
503.622890
933.234692
1016.001701
1016.001701
1016.001701
1016.001701
1016.001701
1016.001701
855.031610
476.119518
260.578990
95.579624
38.723946
11.138916
7.262826
6.411672
6.115437
5.846620
5.743504
6.323457
7.729530
11.096001
15.613437
24.324656
31.735897
43.136477
50.900578
59.748888
61.289668
60.225725
55.921674
46.431422
39.189458
29.582977
22.716522
15.439987
11.591911
8.479953
7.319450
6.480813
6.567836
6.511807
6.246567
6.144643
6.612539
6.442666
6.479621
6.286502
6.352663
6.250739
6.066561
5.961657
5.733967
##ZVALUE=360
0.468493
0.490546
0.519753
0.604987
0.702739
0.512600
0.596642
0.613928
0.465512
0.560880
0.418425
0.486970
0.549555
0.578761
0.595450
0.640750
0.516772
0.425577
0.579953
0.557899
0.521541
0.514984
0.689626
0.469685
0.595450
0.634789
0.707507
0.537634
0.574589
0.749826
0.640750
0.753999
0.714660
0.594854
0.616908
0.685453
0.749826
0.903606
0.784993
1.038909
0.924468
0.865459
0.926852
0.757575
0.869632
0.851750
0.937581
1.001954
0.997782
1.266599
1.361966
1.312494
1.284480
1.212955
1.321435
1.474619
1.533628
1.639724
2.105832
2.123713
2.725720
3.399849
16.229749
53.501725
178.871751
350.641012
696.657896
992.898941
1016.001701
1016.001701
1016.001701
1016.001701
1016.001701
998.588800
604.299903
361.221433
149.668455
62.556863
16.489625
7.812977
6.466508
5.977750
5.464554
5.535483
5.398989
5.543828
6.762743
8.828640
13.802648
18.991828
28.109550
35.999417
46.218634
52.329898
56.318641
56.101680
53.226948
47.271848
37.876964
30.985475
22.120476
16.957521
12.021661
9.790659
7.518530
6.958842
6.477833
6.456971
6.093979
6.098747
6.084442
5.866885
5.741715
5.491972
5.474687
5.375743
##ZVALUE=365
0.516772
0.453591
0.505447
0.540614
0.451803
0.526905
0.507832
0.437498
0.460744
0.503659
0.394583
0.583529
0.498891
0.491738
0.600815
0.620484
0.672936
0.619888
0.738502
0.600815
0.491738
0.689626
0.671744
0.416636
0.535846
0.651479
0.697970
0.605583
0.585914
0.749826
0.626445
0.706911
0.669956
0.678897
0.656843
0.706911
0.735521
0.728965
0.767708
0.847578
0.876784
0.938773
0.850558
1.076460
0.996590
0.943542
0.897646
1.047850
0.956655
1.087785
1.126528
1.293421
1.153946
1.381636
1.432896
1.388788
1.607537
1.588464
1.597404
1.822710
1.947880
2.299547
2.426505
2.879500
5.896688
33.636689
96.972585
275.928378
503.185987
911.239982
1016.001701
1016.001701
1016.001701
1016.001701
1016.001701
1016.001701
840.621591
474.698544
270.020962
107.200742
44.386983
11.101961
6.561875
6.194711
5.785823
5.493760
5.208850
4.851818
5.111694
6.100535
7.839799
12.166500
16.329885
24.029613
31.352639
39.873719
46.354532
50.752759
52.125454
50.319433
46.377778
38.073659
30.942559
22.864938
17.956495
12.797713
10.285974
7.890463
7.105470
6.440878
5.838871
5.678535
5.383492
5.172491
4.991889
4.903674
##ZVALUE=370
0.611544
0.416636
0.415444
0.332594
0.290871
0.476837
0.473857
0.543594
0.442863
0.369549
0.571609
0.682473
0.632405
0.577569
0.479817
0.518560
0.395775
0.368953
0.330806
0.582933
0.577569
0.515580
0.560880
0.664592
0.488758
0.505447
0.545979
0.539422
0.643730
0.627637
0.625849
0.654459
0.585914
0.529885
0.503659
0.687838
0.632405
0.755787
0.579953
0.719428
0.820756
0.586510
0.730753
0.799894
0.694990
0.724792
0.812411
0.964999
0.953674
0.958443
0.949502
0.976920
0.918508
1.012683
1.082420
1.205802
1.170635
1.360774
1.410842
1.428723
1.502633
1.701713
1.578927
1.896620
2.018809
2.509952
3.854632
14.131665
74.906945
182.767510
434.066653
699.993968
1016.001701
1016.001701
1016.001701
1016.001701
1016.001701
1016.001701
846.672654
550.950766
267.491937
133.711696
44.247508
16.936660
6.702542
5.837679
5.197525
4.890561
4.937649
4.855990
4.871488
5.121827
6.067753
7.629991
10.497570
14.454722
20.999908
26.748776
35.556555
41.350722
47.148466
49.264431
48.253536
44.490695
38.071871
30.004978
24.406910
17.747879
13.909936
10.293722
8.260608
6.655455
5.852580
5.455613
4.957914
4.855990
##ZVALUE=375
0.475645
0.330806
0.481606
0.328422
0.484586
0.487566
0.469685
0.469685
0.463724
0.426769
0.431538
0.451803
0.433922
0.388622
0.356436
0.356436
0.459552
0.360608
0.457764
0.489950
0.459552
0.594854
0.464916
0.522733
0.496507
0.465512
0.613928
0.534654
0.386834
0.565648
0.529885
0.753999
0.745654
0.620484
0.623465
0.759959
0.532866
0.545979
0.691414
0.627637
0.748634
0.630617
0.616908
0.672936
0.850558
0.807643
0.760555
0.705719
0.942945
0.800490
0.730753
0.762939
0.931621
0.876784
0.769496
0.842810
0.931621
1.238585
0.984669
1.059771
1.101494
1.220703
1.387596
1.476407
1.607537
1.630783
1.868606
2.207756
2.851486
7.552505
44.149756
112.953782
295.893550
529.553890
938.501954
1016.001701
1016.001701
1016.001701
1016.001701
1016.001701
1009.553671
737.715960
395.146608
222.219825
83.840489
33.889413
9.159446
5.782843
5.541444
5.124807
5.131960
5.259514
5.158782
5.319715
5.442500
5.711913
7.037520
8.745790
12.719631
16.759634
23.948550
29.914975
37.768483
42.809844
46.403408
46.703815
44.059753
38.323998
33.517480
26.360750
20.994544
15.258789
11.340976
8.477569
6.915927
5.556941
##ZVALUE=380
0.387430
0.288486
0.370741
0.471473
0.300407
0.429749
0.258684
0.360608
0.345707
0.408888
0.491738
0.541806
0.451803
0.323653
0.504851
0.311732
0.356436
0.538826
0.400543
0.573993
0.409484
0.499487
0.409484
0.321865
0.495911
0.554919
0.625849
0.711679
0.696778
0.676513
0.576973
0.620484
0.607967
0.524521
0.605583
0.567436
0.609756
0.689626
0.802875
0.712872
0.649691
0.738502
0.413656
0.725985
0.769496
0.773668
0.702739
0.801682
0.742674
0.688434
0.764728
0.813603
0.802875
0.817776
0.892878
0.841618
0.938773
0.961423
1.032948
0.880957
1.046658
1.040697
1.194477
1.301765
1.224875
1.234412
1.687407
1.693964
1.885891
2.325773
2.776980
4.334450
22.815466
71.270466
224.505663
421.546698
823.118687
1016.001701
1016.001701
1016.001701
1016.001701
1016.001701
1016.001701
936.451554
532.327890
309.863687
125.548840
54.889917
14.323592
6.815791
5.653501
5.354881
5.349517
5.482435
5.444884
5.293489
5.556941
5.103946
5.248785
5.988479
7.853508
10.406971
15.369654
20.407438
28.122663
34.434795
40.429831
44.431686
44.477582
42.560697
38.584471
32.626987
27.285814
19.880533
15.787482
11.188984
##ZVALUE=385
0.392795
0.400543
0.294447
0.423789
0.412464
0.348687
0.270605
0.424981
0.366569
0.219941
0.286698
0.301600
0.448823
0.252724
0.464916
0.319481
0.313520
0.398755
0.429749
0.359416
0.390410
0.268817
0.435710
0.347495
0.443459
0.462532
0.415444
0.649691
0.535846
0.643730
0.746846
0.618696
0.531673
0.706911
0.782609
0.810623
0.867844
0.805855
0.725985
0.848770
0.721812
0.803471
0.582933
0.626445
0.830889
0.777841
0.785589
0.815988
0.816584
0.818968
0.833869
0.705719
0.728965
0.814795
0.812411
0.849962
0.892878
0.729561
0.959635
0.937581
1.151562
0.936985
1.080632
0.982881
1.207590
1.338720
1.211762
1.484752
1.697540
1.824498
2.026558
2.245903
2.466440
2.813935
10.051727
36.104918
137.111545
293.228626
624.810457
942.086577
1016.001701
1016.001701
1016.001701
1016.001701
1016.001701
1016.001701
703.517795
442.595482
199.583769
95.504522
29.811859
10.610819
6.068945
5.633831
5.299449
5.324483
5.148649
4.757643
4.890561
4.722476
4.485846
4.817843
5.366802
6.629825
9.553432
12.747645
18.379688
25.259852
30.308962
35.468936
38.849711
40.815473
39.809942
36.839843
32.770634
26.232600
##ZVALUE=390
0.415444
0.406504
0.211596
0.426769
0.401735
0.472665
0.376701
0.371933
0.434518
0.306964
0.308752
0.444651
0.429749
0.264645
0.279546
0.344515
0.465512
0.332594
0.472665
0.388622
0.554919
0.480413
0.447631
0.368953
0.546575
0.608563
0.501871
0.648499
0.675917
0.667572
0.707507
0.818968
0.717640
0.736713
0.705719
0.631809
0.831485
0.869632
0.799894
0.877976
0.862479
0.890493
0.781417
0.854731
0.840425
0.843406
0.841618
0.920892
0.794530
0.870824
0.819564
0.711679
0.972748
0.807643
0.906587
0.841618
0.903606
0.861883
0.881553
0.756979
1.094937
0.887513
0.901818
1.089573
1.073480
1.240969
1.220703
1.334548
1.455545
1.664758
1.707673
1.811981
1.913905
2.060533
2.353787
2.341866
4.899502
19.845963
94.596744
220.307708
514.462590
804.671645
1016.001701
1016.001701
1016.001701
1016.001701
1016.001701
1016.001701
910.196900
611.089468
305.967927
155.764818
50.986409
18.037558
6.446838
5.728602
5.323887
5.100965
4.895926
5.169511
4.698634
4.399419
4.433990
4.510880
4.538894
5.149841
6.272793
8.637905
10.933876
15.634894
19.633770
25.889874
30.948520
36.282539
38.190484
38.502812
##ZVALUE=395
0.304580
0.383854
0.316501
0.469685
0.484586
0.481606
0.334978
0.278950
0.450611
0.390410
0.266433
0.317693
0.389814
0.383854
0.319481
0.318885
0.364780
0.439882
0.334978
0.299811
0.349879
0.458956
0.279546
0.455976
0.489950
0.563860
0.563860
0.465512
0.692606
0.715852
0.652671
0.684857
0.609756
0.755787
0.822544
0.954866
0.706911
0.775456
1.028776
0.981688
0.793934
0.998974
0.867844
1.037717
1.099706
0.987649
0.825524
0.939965
0.852942
0.875592
0.938773
0.881553
0.821948
1.123548
0.864863
0.990629
0.733733
0.924468
0.918508
0.817776
0.887513
0.892878
1.037717
1.027584
1.117587
1.015663
1.269579
1.347661
1.369715
1.359582
1.613498
1.742840
1.828671
1.851916
1.810789
1.915693
2.124906
2.322793
3.314614
10.751486
58.565736
150.132775
367.736816
613.761544
997.830033
1016.001701
1016.001701
1016.001701
1016.001701
1016.001701
1016.001701
804.507732
425.617695
227.621794
80.279708
32.651424
9.638667
6.149411
5.257726
5.300641
4.954934
5.292892
5.125999
4.831553
5.035996
4.632473
4.822612
4.877448
5.157590
5.839467
6.857514
9.459853
12.268424
17.681718
22.461414
28.350949
##ZVALUE=400
0.610948
0.416636
0.454783
0.244975
0.389814
0.373721
0.388622
0.420809
0.557899
0.310540
0.474453
0.334978
0.348687
0.257492
0.285506
0.413656
0.349879
0.478625
0.282526
0.327826
0.302792
0.435710
0.306964
0.278950
0.502467
0.429749
0.608563
0.511408
0.526905
0.618696
0.776649
0.757575
0.773668
0.618696
0.625849
0.826716
0.923872
0.793934
0.967979
0.925660
0.974536
0.830889
0.871420
0.889897
0.971556
0.829697
0.939965
0.925660
0.937581
0.896454
0.965595
0.820756
0.951886
0.929832
0.892878
0.864863
0.846982
0.868440
0.798702
0.994802
0.882745
0.905991
0.924468
0.846982
0.820756
1.095533
1.199841
1.293421
1.270771
1.487732
1.669526
1.633763
1.602769
1.626611
1.794696
1.692772
1.530647
1.689792
2.081990
2.158880
2.540946
6.568432
26.079416
106.710792
231.227875
514.964461
805.254579
1016.001701
1016.001701
1016.001701
1016.001701
1016.001701
1016.001701
909.003615
604.673624
303.324461
159.811974
53.999424
19.490719
6.603599
5.220771
5.164742
5.166531
5.385876
5.483627
5.389452
5.326867
5.174875
4.993677
4.930496
4.621744
4.574656
5.061626
6.213784
7.714629
11.018515
##END
