##TITLE=6-1
##FORMAT=SPECTACLE-ASCII V-1.2
##DATA TYPE=ULTRAVIOLET SPECTRUM
##SECOND TYPE=ULTRAVIOLET SPECTRUM
##DATE=04/04/18
##TIME=13:44:03
##SPECTROMETER/DATA SYSTEM=SPECTACLE
##XUNITS=NM EM
##YUNITS=ENERGY
##YFACTOR=1
##FIRSTX=220
##LASTX=450
##NPOINTS=116
##3DDATA=Equidistant
##ZUNITS=NM EX
##FIRSTZ=210
##LASTZ=400
##ZPOINTS=39
##XYDATA=(Y..Y)
##ZVALUE=210
24.519563
22.733808
17.055869
14.626980
12.611747
11.000633
11.364818
9.776950
7.935762
6.692410
6.466508
4.262924
4.501939
3.928542
4.491806
3.570914
5.208850
4.940629
5.147457
5.862713
5.246997
6.253719
5.815625
6.572604
8.156896
8.142591
9.596944
11.469722
12.288690
11.727810
11.826754
13.038516
13.918877
13.730526
15.228987
14.846921
14.656782
13.429523
15.211701
14.513731
12.877584
13.255477
15.409589
13.707876
13.451576
14.047623
14.240742
13.620853
13.927817
13.905764
15.743971
13.316870
14.194846
13.316870
14.591813
13.617873
13.759732
14.584661
13.543963
13.152957
14.115572
12.175441
14.564991
13.282895
13.249516
13.332963
14.773607
16.807914
17.736554
19.566417
21.142960
24.507642
28.376579
33.595562
33.981800
36.669970
36.743879
38.015842
36.260486
32.662749
32.385588
27.362704
24.247766
23.050904
18.870831
17.133951
13.758540
13.026595
13.164878
15.030503
18.749833
23.310781
30.853748
39.381981
49.746633
61.901808
71.814656
80.582500
86.779594
92.311502
96.227527
97.926855
94.175935
90.836883
88.005662
82.850456
76.388717
66.640973
57.313442
47.552586
39.443970
30.851960
25.553703
19.990802
17.815828
17.343760
##ZVALUE=215
72.902441
72.423816
55.799484
41.768551
30.838847
22.335649
17.347932
17.912984
16.090870
15.315413
13.295412
9.763837
8.600950
5.628467
5.449653
3.887415
4.731417
4.788637
4.569888
4.970431
4.813671
5.633831
6.038547
6.938577
7.712841
8.783937
8.905530
10.955930
10.733604
11.520982
12.714863
14.232993
13.712645
13.501644
13.362765
14.451742
14.073849
14.295578
13.814569
14.953613
14.269948
14.869571
14.786720
14.203787
14.510751
15.754700
13.886690
13.372898
15.167594
13.866425
13.490915
14.127493
14.332533
14.786720
15.290976
15.532970
13.903975
13.554692
13.149977
15.379786
13.707876
13.860464
12.281537
13.022423
13.016462
13.073683
13.991594
14.087558
15.186667
16.455650
20.158887
21.110773
24.198890
25.990605
29.387474
27.991533
29.858947
29.429793
30.674934
25.549531
25.128722
24.022460
19.718409
19.335747
15.813708
15.412569
13.872981
10.809898
10.265708
9.220839
9.480715
10.482669
11.339784
13.229847
16.485453
21.579862
29.403567
36.783814
49.795508
63.862801
78.053474
96.744895
104.731917
115.854740
128.202438
132.377744
135.463476
127.689838
127.239823
120.254755
117.115974
101.783872
90.617537
73.210001
60.906410
43.477416
##ZVALUE=220
158.684850
156.677961
149.036646
134.706497
103.186965
78.517795
53.826571
36.673546
30.399561
26.941895
25.082827
24.438500
22.208691
18.443465
16.910434
13.082623
9.167790
6.509423
6.308556
5.688667
5.365610
6.211996
6.340742
6.958842
7.358789
7.215738
8.261800
10.345578
9.807944
10.944605
10.901690
12.090802
12.550950
12.753606
13.245940
14.359951
16.830564
13.456941
14.295578
15.423894
14.683604
16.463995
15.873909
14.873743
15.817881
15.847683
15.483499
16.883612
15.691519
15.992522
16.088486
15.431643
16.563535
15.589595
16.882420
16.024709
15.343428
14.536977
15.778542
15.629530
15.702844
15.403628
15.034676
14.009476
14.313459
14.690757
15.794635
14.164448
18.593669
17.265677
19.388795
20.381808
24.695992
24.240613
26.332736
28.733611
29.767752
28.705597
28.081536
27.617812
24.134517
23.503900
20.797849
19.018650
15.146732
13.589859
12.470484
10.650754
9.921789
9.806752
10.738969
10.831952
9.525418
9.366870
11.123419
9.770989
9.382963
10.577440
12.776852
16.696453
24.241805
32.701492
44.551492
62.613487
80.536604
104.188919
124.423504
151.435733
173.242688
185.246468
193.711519
198.927522
200.686455
186.896920
179.850459
160.331726
##ZVALUE=225
218.771696
219.129920
250.638723
280.244946
273.794532
238.431692
203.155875
143.894553
103.522539
64.987540
47.310591
42.957664
42.131543
39.161444
38.630962
32.536983
28.944612
22.811890
18.546581
11.335611
9.336472
7.500648
7.524490
7.401705
7.582903
8.149743
7.555485
8.888841
9.375811
9.405613
10.738969
10.956526
11.988878
12.650490
13.170838
13.884902
15.301704
16.060472
15.870929
17.056465
18.506646
16.392469
16.293526
17.139912
17.192960
17.598867
17.518997
17.695427
17.690659
16.632676
18.154979
19.160509
17.625690
18.898845
18.276572
17.425418
17.315745
16.383529
17.362833
17.954707
16.568899
16.490817
15.724897
15.280843
15.763640
17.562509
15.422702
15.385747
16.540885
18.525720
20.798445
21.849871
23.464561
26.608706
26.832819
27.467608
26.207566
25.135875
22.173524
21.997690
22.083521
19.877553
18.081665
15.916824
13.945699
13.361573
11.528730
11.461973
12.025833
11.921525
10.724664
11.186600
10.823607
9.375811
10.170937
10.417700
10.332465
10.775924
9.377599
10.811687
9.017587
10.139942
11.508465
15.159845
21.455884
28.384924
47.608614
66.282749
90.470910
119.518638
146.261454
185.972452
216.838717
258.638859
279.378891
295.224786
##ZVALUE=230
145.946741
153.930783
242.370963
327.580571
405.616760
466.674566
475.937724
432.933569
362.462997
265.182853
188.337564
118.434429
82.898736
58.586001
58.250427
64.996481
63.627958
59.739947
53.295493
40.975809
30.153990
24.385452
15.596747
11.894703
8.817911
8.588433
8.570552
9.228587
8.976460
9.648800
10.382533
10.885596
11.567473
12.274981
12.318492
11.664629
15.566945
14.999509
15.297532
16.331673
18.622875
17.440915
18.201470
18.735528
18.606782
20.191669
19.777417
19.480586
18.965602
19.273758
19.801855
19.194484
17.450452
18.558502
17.730594
18.661618
18.272996
16.459823
17.508864
16.490817
17.973781
17.299652
15.808940
17.749667
16.233921
16.232729
15.125871
16.760826
18.445849
19.521713
22.763610
22.325516
24.047494
25.787950
25.309920
25.497675
23.769736
23.404956
23.082495
20.054579
20.256639
17.892718
16.545653
15.883446
13.735890
13.397932
12.928843
11.972785
11.324883
11.202693
11.395812
11.279583
10.427833
10.083914
10.782480
10.653734
11.349916
10.514855
10.166764
10.495782
10.935664
10.682940
11.170506
9.643435
9.876490
10.329485
10.906458
12.988448
16.704798
25.166869
35.734773
55.272579
80.106854
120.694637
151.312947
202.070475
##ZVALUE=235
38.333535
40.287971
101.446509
173.295736
282.072425
429.973602
541.843772
652.267933
692.560673
645.611882
561.360717
417.858958
295.091867
181.218982
128.216743
94.251633
83.326697
90.442896
89.254975
86.782575
84.790587
70.364475
55.033565
36.360621
26.502609
18.359423
13.599992
10.420680
9.991527
10.718703
10.386705
11.174679
10.890961
11.793971
12.163520
12.478828
13.854504
14.692545
14.748573
15.106797
18.063784
16.907454
17.462969
18.446445
18.803477
19.639730
18.163919
19.406676
19.580722
20.220876
20.128489
18.140674
17.338991
18.892884
18.767715
16.547441
19.379854
17.594695
17.258525
16.654730
17.251968
17.627478
17.132759
16.681552
15.750527
17.369986
17.651916
16.447902
18.167496
19.109845
21.837950
22.364855
22.714734
23.425817
25.940537
27.218461
23.451447
22.547841
23.402572
22.325516
21.691918
19.371510
18.879771
17.704964
15.066862
14.456511
13.366938
13.053417
12.142658
13.535619
11.929870
11.196733
11.810660
11.095405
12.158751
12.226701
11.838675
11.310577
10.381937
11.096597
12.552738
11.329651
11.437535
11.132956
12.267828
11.933446
12.227893
10.887980
11.558533
11.666417
11.322498
11.760592
12.301803
16.909838
25.296807
45.225620
##ZVALUE=240
4.226565
4.115701
15.425682
41.878819
91.449618
205.094814
336.313844
561.408997
713.500977
890.934467
978.672504
959.788561
862.400532
660.007000
506.954789
322.855711
219.292641
137.636662
111.125708
109.551549
116.088986
124.968886
116.819739
107.188821
90.677738
70.731640
48.635602
36.169887
23.922920
18.336773
12.811422
13.288856
13.525486
13.407469
13.749599
14.433861
14.523864
15.679598
16.087890
15.915632
17.850995
16.434789
18.884540
21.055937
19.552708
17.015934
19.140840
18.431544
20.208955
18.334985
18.573999
19.198656
20.027757
19.912720
18.515587
19.242764
18.888712
16.872883
18.237829
17.011762
18.513799
19.306540
17.083883
16.896725
15.515685
17.442703
16.166568
16.291738
17.968416
20.665526
22.419691
23.489594
26.084781
28.501749
28.105974
26.868582
26.581883
26.473999
24.494529
23.088455
20.778775
20.146966
17.155409
16.889572
17.282963
15.307665
13.909936
14.228821
13.318658
12.423992
12.966990
13.218522
13.324618
13.314486
13.045669
13.034940
12.999773
12.485981
11.500716
12.262464
12.093782
11.424422
12.290478
12.371540
11.863708
11.810660
13.679862
14.681816
12.896657
12.113452
13.803840
10.982752
11.991858
13.523698
12.000799
11.487603
##ZVALUE=245
2.620816
2.775788
2.813935
3.453493
6.406903
28.084517
69.346428
178.125501
313.947797
536.776781
749.151707
983.452797
1016.001701
1016.001701
1016.001701
873.996615
707.741976
448.725820
303.587914
170.072913
122.503638
110.758543
116.980672
135.099888
135.804415
129.985809
115.244985
100.968480
78.495741
59.639812
40.690899
30.173659
18.544793
16.065836
12.880564
14.376640
13.467669
13.972521
14.598966
15.668869
15.957952
15.955567
16.580820
14.926791
16.924739
17.079711
17.494559
16.337633
16.997457
16.709566
17.061830
18.640757
15.325546
16.637444
17.087460
16.554594
17.516613
15.832782
15.635490
16.015768
15.117526
14.941692
14.488697
14.790893
15.417933
15.849471
15.098453
15.907884
16.933680
17.598867
19.221902
19.949675
23.512840
24.420619
25.264621
25.770664
24.889708
24.368763
22.073984
22.104979
20.296574
19.027591
16.645789
14.975667
14.893413
14.111996
11.149645
11.517406
11.849999
12.150407
13.101697
11.683702
11.190772
11.706948
11.534691
11.535883
11.441708
10.864735
11.760592
10.547638
12.722611
11.523962
11.740923
10.431409
12.061596
11.885762
11.571646
11.195540
11.397600
11.043549
10.827780
11.003613
11.143684
10.632873
10.606647
10.391474
##ZVALUE=250
2.157688
2.404451
2.549887
2.243519
2.881885
2.608895
3.758669
17.303824
47.202706
136.640668
270.608664
542.758703
775.292516
1016.001701
1016.001701
1016.001701
1016.001701
1016.001701
968.105793
638.848543
422.315598
231.029987
147.853494
108.606815
111.337900
127.227902
139.563680
144.446492
139.705539
124.194622
108.434558
86.959004
57.942867
43.288469
27.799606
20.784736
16.745925
14.827847
14.575720
15.687943
15.318990
15.492439
16.327500
15.845895
15.501976
16.181469
16.815662
16.568899
17.063618
16.140938
14.702678
16.275644
16.823411
15.863776
15.866756
15.441775
15.530586
14.873743
13.865829
14.145970
13.558865
13.746619
14.758706
14.121532
13.930798
14.079809
14.018416
14.061928
15.095472
16.212463
16.801953
18.815994
19.230843
20.151734
21.626949
21.471977
19.514561
19.338727
18.447638
16.554594
15.563965
14.440417
13.356805
11.699796
11.270642
10.754466
10.974407
10.016561
10.631680
9.504557
9.603500
10.493994
10.166764
8.813739
9.192824
9.233952
9.195805
10.195971
9.182692
9.428859
9.802580
10.191798
10.231733
9.242892
9.897947
10.898709
10.329485
9.655952
9.389520
9.727478
9.410977
10.476708
9.928942
9.401441
10.287762
8.268952
##ZVALUE=255
1.859665
1.928806
2.083778
2.401471
2.423525
2.363920
2.674460
2.557635
2.597570
8.543730
29.268861
104.369521
218.230486
469.805002
711.117983
1016.001701
1016.001701
1016.001701
1016.001701
1016.001701
1016.001701
927.099586
625.488758
333.150625
199.027658
116.353631
101.387501
108.628869
132.983923
146.591663
155.530572
150.508881
135.306716
117.933750
86.502433
66.972971
43.699741
30.930638
22.925735
18.450618
17.678738
17.573833
16.358495
16.410947
17.395616
17.091632
17.740726
16.825795
17.024875
17.409921
17.087460
16.292930
16.670823
15.338659
16.199946
15.058517
15.097857
14.032722
13.239980
13.339520
13.793707
14.032722
12.602806
12.502670
12.677908
13.159513
13.003945
13.521910
13.784766
13.798475
15.530586
15.155673
16.310811
17.192960
17.233491
16.985536
15.531778
14.818907
13.992786
13.074875
12.752414
11.251569
10.543466
10.648966
9.655952
9.358525
9.439588
8.900762
8.685589
9.125471
7.837415
8.124709
7.566810
8.233786
8.259416
8.257627
8.440614
7.804632
8.235574
7.571578
8.494854
7.740855
7.802844
8.684993
8.104444
7.960796
8.631945
8.993745
7.987618
8.877516
8.133650
8.319616
8.212924
7.778406
7.950664
7.880926
##ZVALUE=260
1.696944
1.738667
1.891851
1.869798
2.123713
1.893640
2.225637
2.068877
2.447963
2.672672
2.533793
4.986525
17.275810
70.569515
147.686005
341.250896
558.621883
914.422870
1016.001701
1016.001701
1016.001701
1016.001701
1016.001701
1016.001701
754.981637
505.816936
284.354687
165.403485
99.420547
91.748834
114.317536
132.645965
154.261589
158.162713
156.098604
144.304633
119.802952
95.075965
68.280697
50.279498
33.469796
26.158690
20.942688
18.697977
18.930435
18.418431
17.962456
19.030571
17.927885
19.165874
17.543435
18.324852
17.526746
16.169548
15.682578
15.566945
15.820861
14.427900
14.474988
13.835430
13.582706
13.894439
12.138486
12.328625
11.922717
12.538433
11.789799
11.520982
12.026429
12.454987
12.643933
13.516545
14.244914
14.472604
13.911724
13.028979
12.718439
13.080835
11.840463
11.137724
10.597706
9.784698
9.251833
8.811951
8.300543
8.175969
7.717609
7.257462
7.043481
7.147789
7.216930
7.215738
7.287860
7.115602
7.167459
7.074475
7.269979
7.548928
7.428527
7.288456
7.409453
7.830858
7.250905
7.292628
7.192492
6.985664
7.573962
7.370710
7.924438
6.810427
7.123947
7.438660
6.742477
6.720424
7.093549
7.429719
##ZVALUE=265
1.518726
1.592636
1.547933
1.533628
1.849532
1.781583
1.940727
1.716614
1.985431
1.982450
1.862645
2.306700
2.702475
3.304482
8.392930
41.217804
102.910995
257.000923
453.130603
835.678577
1016.001701
1016.001701
1016.001701
1016.001701
1016.001701
1016.001701
999.997854
645.312667
405.984521
237.823725
116.284490
86.756945
91.668963
114.631653
145.616531
160.260797
167.563558
165.024996
145.328641
124.999881
100.630522
71.861744
54.113865
36.086440
28.911829
23.162961
21.031499
20.570755
20.815730
20.433664
19.830465
19.268990
19.723773
18.386841
18.038750
17.832518
17.143488
15.549660
15.659928
15.303493
15.509725
14.363527
13.458729
13.407469
12.706518
12.720823
12.487769
12.030602
13.232827
12.637973
12.665987
12.283921
12.731552
13.019443
13.274550
13.333559
12.498498
12.107491
10.792613
10.298491
10.099411
8.407831
8.509755
8.388758
7.758737
7.343888
7.905960
7.850528
6.988645
6.889701
7.154942
7.487535
7.013679
6.721616
6.846786
6.576777
6.296635
6.780624
6.500483
6.888509
6.830692
6.892681
6.713867
6.482601
6.713867
7.084608
6.985664
6.769896
6.690621
7.398725
6.952882
6.693602
6.731749
6.328821
6.859899
6.619692
##ZVALUE=270
1.484752
1.302958
1.545548
1.458526
1.557469
1.650453
1.679659
1.651645
1.634955
1.831651
2.127886
2.115965
2.167821
2.383590
2.461672
2.838969
3.814697
19.183755
59.240460
183.301568
352.735519
693.794489
994.320512
1016.001701
1016.001701
1016.001701
1016.001701
1016.001701
1016.001701
937.292576
634.382963
324.480534
179.709792
89.527965
75.037479
95.674992
120.055676
148.756504
164.796710
174.827576
169.973969
152.505636
131.491423
103.332996
79.754591
54.431558
41.687489
30.484796
27.259588
24.152994
22.780895
22.639632
21.697879
20.896792
20.319819
19.228458
19.235611
18.262863
18.036962
16.304851
16.158819
15.363693
15.657544
14.455914
14.338493
13.309717
13.554692
12.827516
12.533665
12.348890
12.628436
13.098717
13.321638
13.259649
13.233423
11.972785
11.855960
11.702776
11.315942
9.300709
9.762645
8.733869
8.688569
8.222461
7.730722
6.899834
7.072687
7.030964
7.271767
6.553531
6.454587
5.880594
6.582737
6.145835
6.350875
6.290674
6.332994
6.221533
6.413460
6.631613
6.417632
6.513000
6.542802
6.776452
6.376505
6.971955
6.232858
6.402731
6.448627
6.588697
6.456971
6.581545
6.799698
6.625652
6.182790
6.226897
##ZVALUE=275
1.414418
1.497865
1.386404
1.561642
1.476407
1.371503
1.633763
1.527667
1.321435
1.989603
1.519918
1.875758
1.751781
1.855493
1.982450
2.309680
2.536774
2.722740
3.010631
10.655522
38.335919
131.636858
278.039575
597.747564
913.419724
1016.001701
1016.001701
1016.001701
1016.001701
1016.001701
1016.001701
1016.001701
842.911005
526.690483
245.178938
134.765506
72.223544
73.061585
100.159645
121.798515
153.013468
166.421533
175.506473
173.338652
153.138638
132.198930
103.052855
82.053542
56.182742
44.828653
32.163858
26.837587
22.934675
22.486448
20.712614
20.281672
19.725561
18.699765
19.057989
17.560720
16.599894
16.851425
14.962554
15.034676
14.329553
14.004707
13.144612
13.069510
12.773871
12.484789
13.393760
13.219714
13.717413
13.474822
12.771487
12.786984
12.325644
11.358857
10.655522
9.712577
9.470582
8.880496
8.316636
7.996559
7.746816
6.946921
7.266998
6.874800
7.247925
6.828904
6.710887
6.476641
6.505847
6.094575
6.228685
6.016493
6.010532
6.527901
6.148815
5.848408
6.092787
6.198883
5.802512
6.327629
6.066561
6.427765
5.847812
6.362796
6.129742
6.113648
5.725622
6.234646
5.974770
6.308556
6.002784
6.140471
##ZVALUE=280
1.253486
1.205802
1.073480
1.280904
1.288652
1.310706
1.416802
1.234412
1.374483
1.295805
1.401901
1.247525
1.507998
1.920462
1.939535
1.975894
2.007484
2.018809
2.505779
2.590418
2.942681
5.198717
21.772981
106.998682
233.007669
507.950783
786.542892
1016.001701
1016.001701
1016.001701
1016.001701
1016.001701
1016.001701
1016.001701
948.264003
631.182790
316.213965
164.890885
73.388815
59.223771
68.353415
94.554424
118.362904
148.600936
163.794756
172.417760
168.039799
148.292780
127.464533
105.727911
75.445771
56.855679
38.449764
29.847622
22.477508
19.511580
19.074678
17.465949
16.870499
16.643405
15.855432
16.153455
15.152693
14.745593
13.807416
14.005899
13.580918
12.942553
12.781620
12.881756
12.629628
12.861490
12.879968
12.331605
12.129545
12.193918
11.862516
10.975599
10.505915
9.436607
9.261966
9.004474
8.268952
8.031726
7.381439
7.470846
7.165670
6.876588
6.556511
6.412864
6.475449
6.407499
6.173849
5.667806
6.238818
6.054640
6.224513
5.603433
6.013513
6.418824
5.881786
5.973577
5.946755
5.732775
6.151795
5.914569
6.158948
5.843639
5.813837
6.214976
5.482435
5.842447
5.498528
5.629659
5.942583
5.358458
##ZVALUE=285
1.085997
1.064539
1.229644
1.341701
1.243949
1.282692
1.199841
1.479983
1.308918
1.348853
1.504421
1.297593
1.448989
1.550913
1.454949
1.598597
1.661777
1.737475
1.838803
1.813769
2.054572
2.316833
2.443790
3.179908
8.412600
52.778721
131.616592
268.677473
575.555563
897.454619
1016.001701
1016.001701
1016.001701
1016.001701
1016.001701
1016.001701
1016.001701
841.019750
440.316796
244.489908
99.257827
54.201484
47.919750
61.448812
87.683797
109.726787
137.988925
152.786970
160.908699
156.737566
142.894983
124.321580
95.032454
73.727965
49.383640
35.792589
24.304986
18.785000
15.374422
14.595985
13.650656
13.100505
12.819767
12.267828
11.701584
12.597442
12.043715
11.522770
12.275577
12.090802
11.954904
11.906624
11.682510
12.168884
11.872649
11.489987
11.046529
10.027885
9.993911
9.094477
9.216666
8.450747
8.416772
7.974505
7.354617
7.294416
6.636977
7.191896
6.593466
6.804466
6.404519
6.056428
6.473660
6.092787
6.539822
5.789995
5.983710
5.953908
6.046891
6.099939
5.718470
5.786419
5.661845
5.942583
5.872846
6.144643
5.725622
5.943775
6.095767
5.718470
5.982518
5.576611
5.442500
5.671978
5.447865
5.534887
##ZVALUE=290
1.117587
1.080632
1.140833
1.059771
1.059771
1.077652
1.063943
1.416802
1.224875
1.371503
1.318455
1.324415
1.446605
1.273751
1.260638
1.549721
1.462698
1.735687
1.686811
1.524687
1.872778
1.931787
2.157688
2.286434
2.696514
3.143549
4.579425
15.897751
82.332492
191.093683
435.052514
723.603964
1016.001701
1016.001701
1016.001701
1016.001701
1016.001701
1016.001701
1016.001701
1016.001701
638.885498
370.920897
147.546530
68.857670
33.905506
38.346648
55.693984
75.008869
105.378628
125.101805
143.253803
152.988434
148.158669
137.947798
113.765001
91.255903
62.347651
46.244860
29.709935
21.289587
14.633536
12.628436
11.232495
10.885000
10.639429
9.799600
10.256767
10.047555
10.352731
10.178685
10.557771
10.647774
10.932684
10.401607
10.549426
10.081530
9.484887
9.439588
8.924603
8.260608
8.297563
8.204579
7.536411
7.359982
7.192492
6.896853
7.228851
6.626844
6.293654
6.161928
6.432533
6.212592
5.879998
6.042719
5.939603
5.959868
5.993843
5.646944
5.502701
5.566478
5.823970
5.931854
5.840659
5.547404
5.640984
5.468726
5.475879
5.795956
5.789995
5.601645
5.540848
5.546808
5.964637
5.384684
5.396605
5.428791
##ZVALUE=295
1.051426
1.029968
0.791550
1.130700
1.079440
1.036525
1.094937
1.090765
1.094937
1.074672
0.979900
1.129508
1.220703
1.127720
1.352429
1.220703
1.307726
1.333952
1.425743
1.745820
1.557469
1.761913
1.799464
1.898408
1.960993
2.126694
2.439618
2.767444
2.866983
5.825758
36.435723
108.571649
305.733681
559.831858
983.231664
1016.001701
1016.001701
1016.001701
1016.001701
1016.001701
1016.001701
1016.001701
920.470953
481.635928
255.899429
86.127520
39.500594
25.764704
32.732487
46.112537
70.568919
90.183616
117.422938
133.868456
143.054724
141.257644
126.731992
109.339952
82.667470
64.730644
42.568445
30.238628
18.723607
13.560653
10.413527
9.013414
8.554459
8.576512
8.945465
9.016991
9.193420
9.859800
9.538531
9.982586
9.722710
9.297729
8.405447
8.681417
8.402467
8.065701
7.754564
7.794499
7.639527
7.032752
6.818771
6.920695
6.364584
6.589890
6.368756
6.138682
6.210804
5.832911
6.088614
5.886555
5.643964
5.410910
5.632639
6.049871
5.673766
5.809665
5.646944
6.038547
5.753636
5.538464
5.904436
5.937815
5.807877
5.809665
5.715489
5.617738
5.990863
5.345941
5.687475
5.695820
5.341768
5.466938
##ZVALUE=300
0.882745
0.782609
0.788569
0.953674
0.804663
0.984669
1.025796
0.910759
0.890493
1.105666
0.971556
0.961423
1.032948
1.188517
1.054406
1.170635
1.226664
1.399517
1.534820
1.322627
1.474619
1.466870
1.504421
1.848936
1.726747
2.029538
2.201796
2.120733
2.381802
2.719760
2.825856
3.628731
16.085505
60.120821
206.276774
393.386483
772.611499
1016.001701
1016.001701
1016.001701
1016.001701
1016.001701
1016.001701
1016.001701
1005.052924
700.590611
350.736976
185.105801
64.530969
26.667714
21.242499
28.543472
45.037866
61.442852
86.963773
106.380582
127.215981
135.113597
133.122802
124.376416
102.264881
85.133910
60.692430
43.795705
27.355552
18.344522
12.765527
10.005832
8.679628
8.124709
8.812547
8.731484
8.942485
8.831620
8.846521
8.640885
8.377433
8.261800
7.965565
7.444620
7.401705
7.102489
6.702542
7.129908
6.609559
6.634593
6.509423
6.562471
6.361604
6.318688
5.833507
5.962849
6.003976
6.106496
6.092787
5.886555
5.833507
5.780458
5.739927
5.686879
5.761981
5.740523
5.604625
5.724430
5.601645
6.011724
5.419850
5.664825
5.983710
5.897880
5.688667
5.606413
5.605817
5.713701
5.530715
5.359650
##ZVALUE=305
0.873804
0.996590
0.838637
0.824928
0.513792
0.991821
0.785589
0.816584
0.934601
0.899434
1.011491
0.898838
0.985861
1.074672
1.085997
1.121759
1.126528
1.342893
1.248717
1.363754
1.213551
1.226664
1.391768
1.428723
1.651645
1.673698
1.728535
1.749992
1.872778
2.104640
1.942515
2.592802
2.692938
3.484488
6.053448
37.773848
109.136701
314.841866
552.246571
967.654586
1016.001701
1016.001701
1016.001701
1016.001701
1016.001701
1016.001701
1016.001701
898.983479
578.944683
268.688798
124.477744
36.596656
17.777681
20.011663
27.307868
42.861700
59.409738
84.351897
100.251436
118.884444
126.038790
124.986768
116.487741
97.212791
81.407428
57.646632
40.686727
25.204420
17.502904
11.697412
9.981990
9.154677
8.383989
8.433461
8.416772
8.140802
8.001924
7.597804
7.544756
7.429719
7.046461
7.015467
6.747842
6.870627
6.763935
6.519556
6.625652
6.366968
6.416440
5.959868
6.123781
6.077886
6.092787
6.078482
5.821586
5.714893
5.939603
5.522966
5.661845
5.852580
5.587935
6.146431
5.715489
5.899668
5.813837
6.031990
6.019473
5.743504
6.011724
5.896688
5.686879
5.749464
5.778670
5.653501
5.871654
5.337000
##ZVALUE=310
0.840425
1.042485
0.851750
0.824928
0.698566
0.836849
0.971556
0.978708
0.978708
0.850558
0.914931
1.005530
0.992417
0.872612
0.975728
0.818968
0.991821
1.045465
1.166463
0.815988
1.085997
1.134872
1.154542
1.260638
1.461506
1.434684
1.340508
1.496673
1.672506
1.645684
1.666546
1.928806
2.095699
2.262592
2.665520
2.766848
3.912449
12.361407
67.612529
160.641670
394.643545
678.295493
1016.001701
1016.001701
1016.001701
1016.001701
1016.001701
1016.001701
1016.001701
1015.961766
629.197955
381.474495
163.782835
73.961616
23.471713
13.766885
17.195940
23.627877
36.949515
51.028728
73.804855
90.735555
110.566616
116.997957
118.491650
112.058520
94.989538
78.960657
54.729581
40.625930
25.632977
17.953515
12.746453
10.455847
8.513927
8.015633
7.254481
7.566810
6.773472
6.648898
6.468892
6.385446
6.490946
6.569624
6.444454
6.337762
6.129742
6.214976
6.245971
6.230474
5.919933
6.141663
5.862713
5.915761
5.940795
5.818605
6.153584
6.026626
5.697608
5.483627
5.724430
5.827546
5.982518
5.734563
5.683899
5.909801
6.392598
5.892515
6.138682
5.989671
6.001592
5.670786
5.685687
5.745888
5.843639
5.697608
##ZVALUE=315
0.732541
0.780821
0.767708
0.978708
0.880957
0.830889
0.799894
0.874996
0.797510
0.872612
0.845790
0.815988
0.814795
0.895858
0.964999
0.950694
0.803471
0.933409
1.049638
1.110435
0.840425
1.208782
1.161695
1.156926
1.292825
1.311898
1.266599
1.229644
1.413822
1.676679
1.496673
1.869798
1.650453
1.885891
2.026558
2.050996
2.374649
2.580881
3.043413
5.770922
35.530925
98.528862
277.634859
504.221916
954.473019
1016.001701
1016.001701
1016.001701
1016.001701
1016.001701
1016.001701
1016.001701
722.729564
442.418456
203.707814
92.865825
26.963949
13.421774
12.055635
14.718771
22.106767
31.647682
49.698949
65.354705
86.419582
99.969506
111.717582
113.021731
104.028583
91.815591
71.312785
54.589510
37.952662
26.749969
16.573668
12.301803
8.469820
6.970763
6.372929
6.353855
5.869865
6.019473
5.715489
5.895495
5.681515
5.563498
5.524755
5.578995
5.848408
5.573630
5.582571
5.363822
5.397797
5.354881
5.557537
5.436540
5.204678
5.551577
5.346537
5.223751
5.539656
5.466938
5.301833
5.292892
5.498528
5.600452
5.537868
5.454421
5.245805
5.536675
5.595684
5.334616
5.199909
5.257726
5.595684
5.327463
##ZVALUE=320
0.748634
0.553727
0.906587
0.840425
0.858903
0.711679
0.691414
0.802875
0.744462
0.786781
0.940561
0.699759
0.717640
0.868440
0.861883
0.755787
0.930429
0.869632
0.877976
0.802875
0.833869
0.995994
0.961423
1.012683
1.150966
1.114607
1.008511
1.054406
1.236796
1.358986
1.488924
1.348853
1.374483
1.532435
1.706481
1.689792
1.846552
1.805425
2.270937
2.377629
2.707839
3.535748
11.828542
67.506433
170.033574
434.364676
704.887509
1016.001701
1016.001701
1016.001701
1016.001701
1016.001701
1016.001701
1016.001701
933.141708
609.222651
295.692682
147.013664
46.410561
19.041896
10.291934
10.452867
13.759732
18.837452
30.863881
42.929649
61.969757
77.847838
96.500516
103.995800
106.217861
99.538565
84.448457
69.909692
51.122904
38.222671
23.159981
15.683770
10.002851
7.661581
6.193519
5.976558
5.722642
5.139709
5.320907
5.146861
5.152822
4.939437
4.996657
5.113482
5.300641
5.126595
4.889965
5.165935
4.989505
5.125999
5.377531
5.120635
5.108714
5.124807
5.153418
5.334616
5.313754
5.219579
5.601645
5.308986
5.668998
5.615950
5.331635
5.466938
5.845428
5.379915
5.429983
5.374551
5.071759
5.189776
##ZVALUE=325
0.764728
0.673532
0.692606
0.741482
0.683665
0.582933
0.615716
0.596642
0.752807
0.763535
0.865459
0.790954
0.810623
0.763535
0.772476
0.949502
0.969768
0.899434
0.972748
1.048446
1.038909
0.954866
0.909567
0.964999
1.064539
0.991821
1.121759
0.994802
1.054406
1.094937
1.107454
1.446605
1.305938
1.389980
1.354814
1.447797
1.603961
1.712441
1.879930
2.043843
2.066493
2.339482
2.537966
3.211498
6.330609
42.426586
118.371844
318.839550
558.089614
966.636539
1016.001701
1016.001701
1016.001701
1016.001701
1016.001701
1016.001701
1016.001701
673.469901
410.140753
181.103945
81.615448
22.527575
11.221766
9.084940
9.565949
12.894869
18.102527
29.562712
41.311979
59.436560
74.939728
90.557933
98.229647
99.296570
92.427731
78.234673
64.242482
46.031475
34.043789
21.245480
13.943911
9.058714
6.969571
5.805492
5.267859
5.130768
5.096793
4.858971
4.672408
4.792809
4.949570
4.745722
4.939437
4.922748
4.789829
5.153418
4.954934
5.084872
5.348921
5.040765
5.337596
5.190969
5.095601
5.151629
5.274415
5.428791
5.508661
5.565882
5.463958
5.458593
5.697608
5.424619
5.193949
5.044937
5.316734
5.117655
##ZVALUE=330
0.759959
0.761747
0.639558
0.756979
0.790954
0.716448
0.567436
0.638962
0.631809
0.723600
0.722408
0.725985
0.733733
0.653863
0.784993
0.689626
0.695586
0.698566
0.834465
0.838637
0.881553
0.860691
0.869632
0.919700
0.972748
0.958443
1.213551
1.069903
0.890493
0.968575
1.073480
1.080632
1.121759
1.219511
1.268983
1.293421
1.443624
1.401901
1.477599
1.725554
1.712441
1.878738
1.864433
2.348423
2.279878
2.710819
3.652573
18.638968
63.865781
165.731907
416.315794
702.540874
1016.001701
1016.001701
1016.001701
1016.001701
1016.001701
1016.001701
1016.001701
905.389786
501.377583
286.490917
115.587711
47.989488
13.589859
8.812547
8.197427
9.187460
12.512803
16.916990
27.498603
38.545728
55.119991
69.530606
84.463954
90.802908
92.828870
87.117553
73.358417
59.877634
42.488575
31.206608
20.587444
14.546514
8.838773
6.866455
5.339980
4.925728
4.979968
4.839897
4.787445
4.775524
4.707575
4.484653
4.829764
4.906654
4.923940
4.777908
4.766583
4.704595
4.962683
4.919767
5.117655
5.188584
5.235672
5.500913
5.144477
5.765557
5.606413
5.277991
5.257726
5.276799
5.227923
4.971623
5.223751
4.894733
##ZVALUE=335
0.571609
0.686646
0.584722
0.672936
0.513792
0.686646
0.611544
0.501871
0.695586
0.761747
0.712872
0.611544
0.667572
0.558496
0.717640
0.813603
0.800490
0.823736
0.758767
0.718832
0.663996
0.830889
0.794530
0.791550
0.904799
0.852942
0.855923
0.846982
0.867844
0.966787
1.070499
0.988841
1.077652
1.105666
1.279712
1.209974
1.372695
1.307726
1.343489
1.325607
1.524687
1.394749
1.743436
1.885891
1.958609
1.951456
2.374649
2.453923
3.078580
7.206798
48.433542
129.316449
342.974663
591.630936
998.981595
1016.001701
1016.001701
1016.001701
1016.001701
1016.001701
1016.001701
1009.050012
620.287657
375.895500
162.785649
72.902441
20.972490
9.863973
7.729530
7.904768
9.222627
11.549592
17.256737
23.889542
37.515759
50.128698
66.099763
77.123642
85.348487
85.952878
79.907775
70.671439
55.869818
43.869615
30.127764
21.935701
13.775826
9.853840
6.637573
5.869865
4.881620
4.751682
4.681945
5.072951
4.785657
4.825592
4.674792
4.670620
4.594922
4.747510
4.851818
4.753470
4.979968
5.089641
5.022883
5.500913
5.319715
5.387664
5.334616
5.180836
5.338788
5.267859
4.956722
5.327463
5.084872
5.242825
##ZVALUE=340
0.553727
0.635982
0.662804
0.562668
0.673532
0.501871
0.660419
0.599623
0.838637
0.561476
0.766516
0.710487
0.613928
0.728965
0.738502
0.729561
0.807643
0.771880
0.664592
0.713468
0.736713
0.740886
0.826716
0.763535
0.801682
0.750422
0.863671
0.792742
0.844598
0.922680
0.924468
0.880957
1.075864
0.845790
0.977516
1.096725
1.098514
1.158714
1.246929
1.280904
1.406670
1.413822
1.412630
1.558661
1.587868
1.864433
1.924634
2.106428
2.073646
2.600551
2.923608
3.430843
19.721985
70.165992
234.821439
463.401675
923.062563
1016.001701
1016.001701
1016.001701
1016.001701
1016.001701
1016.001701
1016.001701
763.427019
471.318960
213.842988
98.856688
25.890470
11.291504
8.037686
7.896423
7.920861
8.583665
11.022687
14.698505
23.358464
32.856464
48.231483
60.388446
72.916746
78.795552
78.918934
76.437593
65.404773
55.191517
40.222406
31.024814
19.837618
14.096498
9.407997
6.821752
5.644560
5.179644
4.712939
4.753470
4.719496
4.945993
4.938841
4.436970
4.815459
4.963875
4.843473
5.075932
5.294681
5.026460
5.257726
5.394816
5.054474
5.330443
5.476475
5.144477
5.364418
5.020499
5.106926
5.193949
##ZVALUE=345
0.528693
0.728965
0.606775
0.531673
0.711679
0.616908
0.637770
0.549555
0.744462
0.644922
0.642538
0.665784
0.606775
0.641942
0.624657
0.820756
0.579953
0.791550
0.563860
0.761747
0.650883
0.770688
0.742674
0.813603
0.811815
0.874996
0.832677
0.877976
0.800490
0.742674
0.650883
0.866652
0.902414
0.989437
0.979900
1.004934
0.998974
1.200438
1.194477
1.076460
1.205802
1.266599
1.431704
1.308918
1.418591
1.513958
1.445413
1.386404
1.654625
1.859665
2.122521
2.209544
2.484918
2.978444
8.636713
36.210418
154.110789
325.837731
695.821643
1011.464000
1016.001701
1016.001701
1016.001701
1016.001701
1016.001701
1016.001701
970.046520
634.490848
281.996727
131.681561
40.971637
16.270876
9.300709
8.280873
7.505417
7.300973
7.827878
9.299517
14.484525
20.668507
32.010674
42.223930
55.106878
64.371824
71.859956
74.376464
70.126653
63.464642
51.349998
41.019917
28.842688
20.867586
13.691783
10.080934
7.357597
6.196499
5.215406
5.137920
4.971623
4.837513
4.806519
4.894733
4.916787
5.015731
5.042553
5.390644
5.291700
5.429983
5.489588
5.209446
5.127788
5.225539
4.972816
5.009770
4.930496
4.828572
##ZVALUE=350
0.541806
0.508428
0.599623
0.736713
0.701547
0.625849
0.820756
0.707507
0.742674
0.788569
0.564456
0.578761
0.621676
0.580549
0.586510
0.694990
0.664592
0.624657
0.852942
0.775456
0.621676
0.712872
0.681877
0.939965
0.824928
0.863671
0.832677
0.937581
0.881553
0.978708
0.883937
0.919700
0.782609
1.083612
1.014471
1.069903
0.969768
1.159906
1.072884
1.198649
1.181960
1.200438
1.139641
1.208782
1.301765
1.311898
1.491904
1.476407
1.577735
1.703501
1.939535
1.921654
1.992583
2.433658
2.711415
2.966523
4.436970
25.583506
84.638000
265.093446
504.084826
967.100859
1016.001701
1016.001701
1016.001701
1016.001701
1016.001701
1016.001701
1016.001701
741.860867
437.282920
186.052918
82.191825
21.033883
9.772778
7.686615
6.978512
6.402731
6.278753
6.908774
8.654594
13.333559
18.679500
28.014779
36.430955
49.032569
57.868958
64.729452
68.046451
65.650940
59.373975
48.550963
40.244460
28.503537
21.284819
14.751554
10.493994
7.751584
6.359816
5.344748
5.272627
4.944801
5.066991
5.235672
5.173683
5.447865
5.140901
5.530715
5.397797
5.193949
5.385876
5.399585
5.115867
4.905462
4.965663
4.936457
##ZVALUE=355
0.750422
0.781417
0.703931
0.727773
0.652671
0.840425
0.813603
0.769496
0.750422
0.767708
0.900626
0.829697
0.683665
0.618696
0.608563
0.810623
0.796914
0.706911
0.789762
0.752807
0.714660
0.705719
0.853539
0.875592
0.829697
0.983477
0.886917
0.944734
0.969768
1.178980
0.949502
0.948906
1.046658
0.951886
1.121759
1.176000
1.074672
1.072884
1.227856
1.171827
1.071692
1.182556
1.230836
1.375675
1.374483
1.351833
1.396537
1.487732
1.653433
1.646876
1.541972
1.962781
1.815557
2.101660
2.273917
2.492666
2.688766
3.033876
3.563762
8.492470
52.976012
150.135756
405.457020
719.164610
1016.001701
1016.001701
1016.001701
1016.001701
1016.001701
1016.001701
1016.001701
986.676812
528.456569
282.520652
108.856559
42.184591
11.929870
8.074641
6.989837
6.670952
6.192923
5.941987
6.585717
7.834435
11.531711
15.564561
24.436712
32.399893
44.081807
52.258968
59.685707
61.954856
60.289502
55.294633
47.084689
39.098859
29.038787
22.392869
15.248656
11.682510
7.910728
6.622672
5.815625
5.284548
5.407929
5.636811
5.708933
5.682707
5.585551
5.424619
5.360842
5.354881
5.044937
4.956722
4.928708
4.998446
##ZVALUE=360
0.615716
0.792742
0.770688
0.753999
0.737906
0.618696
0.829697
0.654459
0.781417
0.661612
0.890493
0.673532
0.644922
0.625849
0.574589
0.772476
0.791550
0.905991
0.928640
0.799894
0.825524
0.993609
0.925660
0.871420
0.866652
1.004934
0.841618
0.930429
0.922680
1.058578
1.037717
1.035929
1.025796
1.110435
1.002550
1.105666
1.196861
1.164675
1.177788
1.212955
1.238585
1.235604
1.126528
1.379848
1.281500
1.438856
1.603961
1.471639
1.512766
1.778603
1.631975
1.864433
1.853704
2.053976
2.093911
2.160668
2.439618
2.437830
2.930760
3.222823
3.549457
4.926920
23.132563
76.171756
257.902741
507.823825
982.861519
1016.001701
1016.001701
1016.001701
1016.001701
1016.001701
1016.001701
1016.001701
778.431892
455.631614
184.695721
73.509812
18.197894
9.239912
7.399917
6.717443
6.189942
6.074905
5.716681
5.884767
7.445812
8.960962
13.691783
19.526482
28.646588
36.619902
46.472549
52.563548
57.162642
56.913495
53.095818
47.524571
37.959814
31.308532
22.114515
16.923547
11.931658
9.189844
7.177591
6.406903
6.224513
5.979538
5.774498
5.630851
5.417466
5.370975
5.005598
5.048513
4.502535
4.618764
##ZVALUE=365
0.628829
0.628829
0.901818
0.679493
0.827909
0.841618
0.595450
0.868440
0.602603
0.714660
0.659823
0.757575
0.785589
0.726581
0.654459
0.811815
0.757575
0.757575
0.802875
1.026988
0.913739
0.797510
0.817776
0.880957
0.800490
0.832677
0.919700
0.988841
0.963807
0.976920
1.091957
0.992417
1.009703
1.059771
1.086593
0.929832
1.052618
1.104474
1.161695
1.333952
1.032948
1.281500
1.148582
1.253486
0.977516
1.210570
1.270771
1.352429
1.449585
1.283884
1.502633
1.699924
1.649857
1.566410
1.676679
2.047420
1.919866
2.042651
2.209544
2.283454
2.669692
2.896786
3.294945
3.878474
9.162426
32.297969
137.329698
318.474770
763.621926
1016.001701
1016.001701
1016.001701
1016.001701
1016.001701
1016.001701
1016.001701
1002.768874
655.431747
282.452703
125.189424
30.723810
11.539459
7.358789
6.597638
6.305575
5.833507
5.482435
5.427599
5.382895
6.424785
8.407831
11.615753
17.990470
23.753643
32.737851
39.964914
47.656894
51.149726
52.024722
50.837994
45.481920
39.028525
30.089617
23.851991
16.747713
12.609959
9.098649
7.361770
6.544590
5.643964
5.482435
4.887581
4.950762
4.703999
4.422665
4.320741
##ZVALUE=370
0.554919
0.558496
0.762939
0.679493
0.786781
0.746846
0.605583
0.600815
0.451803
0.683665
0.731945
0.769496
0.646710
0.754595
0.545979
0.566840
0.760555
0.715852
0.760555
0.753999
0.801682
0.703931
0.616908
0.810623
0.715852
0.793934
0.809431
0.860691
0.885725
0.872612
1.096725
1.009703
1.011491
1.018643
0.883937
0.843406
1.001954
0.937581
0.996590
0.873804
1.038909
1.087785
1.141429
1.049638
1.125932
0.998974
1.172423
1.218915
1.227856
1.177788
1.251698
1.202822
1.334548
1.440644
1.252890
1.556873
1.711845
1.691580
1.766682
1.828671
2.017617
2.162457
2.182722
2.496839
2.687573
3.212690
4.888773
15.653968
83.611012
209.004879
522.589684
864.123702
1016.001701
1016.001701
1016.001701
1016.001701
1016.001701
1016.001701
1016.001701
795.048475
399.227738
201.267004
63.884854
21.649599
7.416606
6.520748
5.819798
5.296469
5.125999
5.049706
5.338788
5.423427
6.429553
7.843971
10.841489
14.126897
20.942688
27.129650
35.887957
41.414499
47.385693
49.183965
47.950745
45.172572
37.685633
31.573772
24.295449
17.266870
13.559461
9.722710
7.941723
6.231666
5.307794
4.821420
4.595518
4.427433
##ZVALUE=375
0.635982
0.493526
0.680685
0.595450
0.455976
0.615716
0.648499
0.690818
0.718832
0.722408
0.628829
0.635982
0.615716
0.529885
0.579953
0.656843
0.658631
0.726581
0.739694
0.687838
0.697970
0.581741
0.691414
0.652671
0.751615
0.702739
0.651479
0.743866
0.803471
0.804663
0.803471
0.801682
0.886917
0.835657
0.911951
1.000762
0.907779
0.911951
0.857711
0.881553
0.952482
0.890493
1.055598
0.938773
0.890493
0.999570
1.127720
0.965595
0.908971
1.201630
1.025796
1.080632
1.108646
1.106858
1.200438
1.112819
1.263618
1.399517
1.346469
1.665950
1.569986
1.528859
1.636744
1.853704
1.774430
2.143979
2.393723
2.821684
3.425479
8.316636
42.894483
115.865469
332.271457
610.011816
1016.001701
1016.001701
1016.001701
1016.001701
1016.001701
1016.001701
1016.001701
990.886688
593.601465
344.148874
136.544704
53.615570
11.086464
6.389618
5.620718
5.663633
5.614758
5.542636
5.464554
5.607605
5.897880
5.800724
7.249713
8.726716
12.441874
16.490817
23.241639
30.188560
38.667917
43.670535
47.274828
47.211647
43.868423
38.172603
32.567978
27.197599
19.880533
15.482903
10.723472
8.350611
5.989671
4.981756
##ZVALUE=380
0.635982
0.465512
0.559688
0.482798
0.549555
0.571609
0.473857
0.669956
0.441670
0.771880
0.645518
0.708699
0.673532
0.616908
0.574589
0.726581
0.718832
0.648499
0.726581
0.679493
0.602603
0.629425
0.664592
0.758767
0.727773
0.762939
0.744462
0.783801
0.890493
0.727773
0.827909
0.723600
0.830889
0.838637
0.902414
0.823736
0.699759
0.885725
0.933409
0.896454
0.916719
0.769496
0.890493
0.915527
1.061559
0.770688
0.899434
0.914931
0.901818
0.973940
0.975728
1.065731
1.056790
0.976920
0.995994
1.160502
1.164675
1.239777
1.214743
1.234412
1.317859
1.305938
1.364946
1.341701
1.685619
1.627803
1.786947
1.986623
2.280474
2.501607
3.303885
4.639626
23.342967
72.353482
223.522782
429.807901
894.194841
1016.001701
1016.001701
1016.001701
1016.001701
1016.001701
1016.001701
1016.001701
649.352670
375.792980
146.840811
63.216686
16.512871
7.333755
6.042719
5.794764
5.924702
5.640984
5.713701
5.609989
5.237460
5.338788
5.332828
5.861521
7.755756
10.384917
15.530586
20.509958
28.814673
36.084652
41.096807
44.476986
44.785738
42.898655
39.373636
32.785535
26.665926
19.736886
15.246868
10.381937
##ZVALUE=385
0.548959
0.520945
0.412464
0.600815
0.417829
0.513792
0.466704
0.375509
0.603795
0.571609
0.429749
0.673532
0.587702
0.560880
0.580549
0.393987
0.534654
0.577569
0.457764
0.406504
0.651479
0.653863
0.634789
0.742674
0.593662
0.666976
0.773668
0.717640
0.830889
0.791550
0.820756
1.054406
1.076460
0.919700
1.013875
0.913739
0.922680
0.965595
0.826716
1.008511
0.854731
0.956655
0.943542
0.928640
1.074672
0.823736
1.002550
0.981688
0.927448
1.028776
0.787973
0.930429
0.835657
0.811815
1.096725
1.187921
1.119971
1.019835
1.082420
1.193881
1.250505
1.294613
1.198649
1.151562
1.204610
1.224875
1.450777
1.472831
1.807809
1.854897
2.362728
2.377629
2.647638
3.080964
9.825826
36.864877
142.412782
302.973390
640.235543
963.143706
1016.001701
1016.001701
1016.001701
1016.001701
1016.001701
1016.001701
804.085732
508.060455
228.892565
104.870796
26.727915
9.468794
5.822778
5.366802
5.323887
5.155802
4.909635
4.730821
4.468560
4.365444
4.279613
4.459620
5.132556
6.160736
9.029508
12.165904
17.851591
24.493933
29.361844
34.968853
38.669705
40.443540
39.990544
36.449432
32.580495
25.720000
##ZVALUE=390
0.402927
0.532866
0.440478
0.495911
0.552535
0.503659
0.491738
0.394583
0.391603
0.543594
0.545979
0.645518
0.585914
0.553727
0.510812
0.460744
0.516772
0.440478
0.424981
0.548959
0.645518
0.490546
0.645518
0.589490
0.729561
0.675917
0.700951
1.020432
0.921488
0.895858
0.871420
0.885725
0.893474
0.932813
0.870824
0.952482
0.979900
0.936985
0.878572
1.130700
0.953674
0.966787
0.996590
0.788569
0.994802
0.940561
0.931621
0.982881
1.072884
0.941753
0.973940
1.047850
1.035929
1.078844
0.920892
0.957847
0.995994
0.934601
0.971556
1.130700
1.138449
0.990629
1.100898
1.214743
1.123548
1.238585
1.379848
1.533628
1.710653
1.593828
1.925826
2.082586
2.089739
2.307892
2.275705
2.489686
5.062819
21.807551
98.410845
215.006471
474.068522
749.955773
1016.001701
1016.001701
1016.001701
1016.001701
1016.001701
1016.001701
914.896727
603.692532
285.778642
143.025517
45.569539
16.581416
6.520748
5.492568
5.011559
4.879832
4.673600
4.477501
4.450679
4.063845
3.869534
4.097819
4.157424
4.372597
5.485415
7.607937
10.279417
14.592409
19.017458
25.066733
29.827952
35.298467
37.103891
38.005710
##ZVALUE=395
0.601411
0.476837
0.564456
0.510812
0.454783
0.515580
0.465512
0.532866
0.515580
0.470877
0.457764
0.618696
0.520945
0.394583
0.592470
0.560880
0.569820
0.401735
0.369549
0.578761
0.608563
0.496507
0.590682
0.569820
0.758767
0.692606
0.681877
0.692606
0.742674
0.834465
0.826716
0.956655
0.967979
0.942945
1.059771
1.005530
1.202822
0.971556
0.961423
1.008511
0.991821
0.871420
1.009703
1.029968
1.062751
1.129508
0.930429
1.198649
1.048446
0.997782
1.134872
0.943542
0.823736
0.938773
0.977516
1.066923
0.951886
0.912547
1.029968
1.022816
1.030564
1.040697
1.006722
1.085997
1.223683
1.118779
1.165867
1.401901
1.659989
1.740456
1.754761
1.808405
1.818538
1.758933
1.828671
1.842976
2.053976
2.126694
3.248453
10.798573
58.007836
143.499970
346.134901
576.362014
963.442922
1016.001701
1016.001701
1016.001701
1016.001701
1016.001701
981.400013
696.399808
361.425877
192.759633
73.761940
30.009747
8.526444
5.564690
5.200505
4.927516
4.489422
4.499555
4.507899
4.336834
4.111528
4.057884
4.129410
4.056692
4.090667
4.963875
5.901456
8.671880
11.641979
16.932487
21.774769
27.946830
##ZVALUE=400
0.629425
0.722408
0.506639
0.602603
0.651479
0.449419
0.439882
0.540614
0.455976
0.551939
0.432730
0.419617
0.536442
0.532866
0.415444
0.478625
0.370741
0.493526
0.583529
0.543594
0.420809
0.278950
0.685453
0.539422
0.592470
0.637770
0.657439
0.681877
0.832677
0.754595
0.828505
0.947714
0.819564
1.011491
0.914931
0.961423
0.890493
1.026988
0.986457
1.089573
1.098514
1.012683
0.884533
1.139641
1.152754
1.099706
0.948906
0.962615
0.924468
0.964999
0.934601
1.023412
1.013875
1.015663
0.988841
0.986457
0.862479
0.924468
1.104474
0.870824
0.910759
1.122952
1.060963
1.159906
1.107454
1.062751
1.294613
1.267791
1.441836
1.563430
1.587868
1.593828
1.737475
1.719594
1.596808
1.621842
1.662970
1.839995
1.941919
2.144575
2.723932
5.282760
29.024482
82.649589
235.000849
426.909924
791.539550
1016.001701
1016.001701
1016.001701
1016.001701
1016.001701
1016.001701
836.112499
478.652716
282.343626
118.677616
51.688552
13.866425
6.268620
4.973412
4.965663
4.743934
4.838705
5.005598
4.860759
4.541874
4.480481
4.297495
3.981590
3.838539
3.786683
4.028678
5.278587
6.950498
10.163784
##END
