##TITLE=6-2
##FORMAT=SPECTACLE-ASCII V-1.2
##DATA TYPE=ULTRAVIOLET SPECTRUM
##SECOND TYPE=ULTRAVIOLET SPECTRUM
##DATE=04/04/18
##TIME=13:47:32
##SPECTROMETER/DATA SYSTEM=SPECTACLE
##XUNITS=NM EM
##YUNITS=ENERGY
##YFACTOR=1
##FIRSTX=220
##LASTX=450
##NPOINTS=116
##3DDATA=Equidistant
##ZUNITS=NM EX
##FIRSTZ=210
##LASTZ=400
##ZPOINTS=39
##XYDATA=(Y..Y)
##ZVALUE=210
27.546883
26.956797
18.176436
15.335679
13.224483
10.878444
11.007786
9.736419
8.873940
6.939769
5.989671
5.349517
4.514456
4.399419
5.364418
4.936457
4.687905
5.362630
5.770922
5.280972
6.955862
7.566810
7.088780
7.710457
9.217858
10.544658
11.379719
12.204647
13.356805
13.361573
13.992786
15.486479
13.386607
15.961528
15.980601
15.603900
14.855862
15.311837
15.783906
15.646815
15.753508
14.619827
14.260411
14.192462
17.035604
17.453432
18.187761
15.088916
17.742515
18.050671
16.060472
16.415715
16.214848
15.302896
16.871691
15.791655
17.791986
17.238855
16.706586
17.342567
15.814900
17.352700
15.889406
16.167760
17.530918
17.208457
17.868876
19.820929
22.401810
25.116801
29.691458
36.939979
43.091774
47.517419
53.856969
57.513714
56.880713
58.427453
56.767464
54.175854
49.253702
45.974851
41.728616
34.159422
27.832985
26.310682
20.248890
18.728971
18.254519
20.697713
24.633408
29.962659
39.239526
48.171878
58.781505
71.489811
83.930492
93.824863
101.365447
110.077858
116.211772
112.765431
109.496713
107.548833
103.921890
96.114874
85.760951
76.517463
69.030523
59.123635
47.622919
38.205981
28.606653
26.452541
22.061467
20.704865
##ZVALUE=215
88.820457
85.991621
67.689419
50.389767
38.487911
25.898814
21.622777
17.236471
17.047524
14.140606
13.544559
11.184812
10.099411
8.211732
6.299615
6.111860
5.489588
6.372929
6.191730
5.826950
7.131696
6.650686
7.404685
8.325577
9.850860
10.847449
10.625720
12.245774
13.469458
13.102889
15.341640
15.289783
15.673637
16.025901
16.258955
16.285777
17.411709
15.945435
16.484857
17.826557
17.792583
17.491579
18.506646
17.476678
18.113852
18.955469
16.833544
16.787648
17.217994
18.518567
18.157959
17.823577
20.040870
17.769933
16.744733
16.965866
18.879771
17.879605
18.708706
17.955899
17.193556
17.609596
17.110705
17.356873
18.164515
18.536448
17.367601
19.619465
20.893812
25.105476
29.197931
32.139421
36.392808
39.644837
45.051575
45.711994
47.406554
45.561790
46.129823
44.522882
41.887760
39.456487
35.089850
31.697750
24.370551
22.489429
19.085407
17.036796
15.756488
15.371442
13.864636
14.400482
14.599562
15.865564
18.738508
28.036833
36.377907
44.452548
62.017441
70.606470
94.378591
107.078552
125.958920
132.933855
152.412653
159.331560
159.168839
154.296756
151.946545
148.072839
135.161877
124.683976
108.657479
95.016956
80.008507
60.875416
##ZVALUE=220
180.736780
179.429650
174.319744
156.207681
134.115815
95.536709
71.727633
44.763684
34.635663
27.253628
27.644634
27.151704
24.176836
20.750761
16.283989
12.276769
9.819865
7.487535
6.221533
5.778670
7.124543
6.329417
7.156730
7.936954
8.880496
9.384751
10.580420
10.414720
12.061000
12.128949
12.495518
15.215874
14.107823
14.437437
15.089512
16.283989
17.101765
15.968680
17.528534
17.641783
18.767715
17.186999
17.353892
17.815828
18.842816
18.194914
17.685890
17.911792
19.678473
18.810630
18.479824
18.228889
17.694831
19.035935
19.371510
17.475486
19.330978
19.000769
19.196868
17.583966
18.365979
17.490983
18.101931
17.004609
16.475916
16.802549
17.777681
19.105673
21.876693
22.517443
24.776459
26.918650
30.874610
37.943721
40.292740
39.389729
40.429831
42.550564
40.502548
36.140680
34.918785
31.889677
30.304790
28.011799
24.251938
18.797517
17.636418
14.149547
13.372898
13.317466
12.315512
11.992455
11.708736
11.340976
12.026429
11.764765
11.227727
13.639927
15.697479
19.807816
25.752783
37.503839
53.547621
73.213577
93.715787
119.403601
137.539506
172.348619
188.166499
208.342671
221.209526
231.146812
231.076479
223.933458
212.884545
197.900534
##ZVALUE=225
204.493999
216.132998
266.124606
295.383930
300.625563
272.095799
233.519673
169.214606
128.371716
79.938769
58.950782
42.608976
40.744543
39.893985
39.952993
33.562779
28.926730
23.917556
17.105937
14.407635
9.264946
8.613467
7.216930
7.886887
8.170605
9.060502
9.787679
10.317564
11.965632
11.243820
11.358857
12.582541
13.151765
13.873577
15.477538
14.704466
16.788840
16.247630
17.993450
18.636584
18.304586
17.978549
18.686652
19.445419
19.716620
20.089746
21.180511
18.443465
19.339919
21.521449
20.194650
20.003915
21.183491
20.969510
19.850731
20.259619
20.845532
19.421577
18.941760
19.822717
18.545985
19.556880
19.384623
18.918514
18.628836
18.123984
19.985437
17.750859
20.975471
23.543835
25.730729
27.358532
30.087829
31.940937
34.715533
36.388636
36.124587
34.865737
32.184720
32.631755
29.798746
27.133822
22.158623
20.551682
19.155741
17.719865
15.745759
14.356971
13.931990
13.197660
12.464523
12.881756
12.685657
12.017488
12.129545
12.469888
12.497902
12.872815
13.051629
12.179613
13.425946
13.338923
13.353825
14.842749
21.464825
30.129552
47.342777
72.876811
97.844005
131.259561
161.283612
206.563473
237.001777
285.311937
307.582617
340.203643
##ZVALUE=230
137.303472
142.114758
234.653950
323.814750
408.158898
476.542711
498.395562
468.169451
405.064821
307.140946
220.096707
133.015513
94.515681
68.823695
62.917471
61.374903
61.783791
57.601929
52.982569
40.809512
33.929944
22.207499
15.438795
12.061000
10.259748
9.866953
8.654594
10.177493
11.147857
11.788607
12.773871
12.341738
13.755560
13.967752
14.232993
15.271902
16.126633
16.547441
17.893910
17.814636
20.027757
19.059777
20.089746
20.963550
19.981861
22.438765
20.814538
20.976663
21.362901
20.955801
20.205975
22.058487
21.029711
20.261407
20.790696
21.781921
20.410419
20.597577
20.327568
19.451976
19.945502
19.824505
19.997954
18.327832
20.682812
19.665956
19.972920
20.447969
22.624731
25.562644
25.925636
26.355982
32.588840
32.854676
35.995841
32.692552
33.767819
32.927990
31.863451
32.324791
28.056502
25.896430
21.895766
20.194650
18.263459
17.641783
15.031695
16.022921
15.586615
14.495850
13.189912
13.581514
13.078451
13.481975
14.402866
13.328791
12.548566
14.309883
13.520718
14.221668
12.703538
11.771917
12.627840
13.662577
12.393594
12.474656
12.733936
15.128851
17.870665
27.193427
39.831400
65.211654
94.322562
140.784979
177.095532
240.695477
##ZVALUE=235
37.963986
42.672753
104.433894
191.591978
308.170915
489.645600
627.003908
790.097713
842.067003
785.040855
696.513653
530.101657
375.843644
223.776698
157.887936
102.683902
88.473558
89.116693
92.278719
91.640949
86.600780
72.239637
57.880878
42.708516
28.000474
21.164417
14.771819
12.890697
11.530519
12.157559
11.817813
11.585951
13.831854
14.303923
15.267730
14.811754
15.239716
18.163919
17.312765
18.954873
19.831657
21.106601
20.295978
21.126866
21.728873
22.218823
20.802617
21.874905
21.637678
22.801757
20.543933
22.201538
21.834970
22.126436
20.880699
20.186901
20.589828
20.466447
19.958615
21.367669
20.363927
19.700527
21.044612
19.229650
20.654798
19.883513
20.249486
21.387935
22.690892
22.672415
26.808977
28.316975
32.344460
35.785437
36.029816
36.047697
34.027696
31.863451
31.344891
29.855967
28.523803
25.073886
23.552775
20.205975
19.613504
17.571449
17.503500
15.957952
16.235709
14.888644
15.434623
14.588833
14.849901
13.501644
13.160706
14.547706
13.988614
13.583899
15.362501
15.176535
14.102459
14.715791
13.834834
14.508963
14.323592
13.048649
13.667941
13.753772
14.339685
14.086962
14.519691
13.085604
15.584826
19.977689
31.712651
54.261684
##ZVALUE=240
3.866553
4.029870
14.934540
40.296912
92.427731
222.034454
376.371741
640.143752
853.223801
1016.001701
1016.001701
1016.001701
1016.001701
818.009973
627.645850
384.010673
256.973505
161.979795
118.765831
113.893747
119.056702
124.158859
119.183660
107.672811
91.806650
67.832470
55.702925
40.081739
26.200414
19.690990
14.677644
15.570521
14.998913
14.141798
15.783906
16.103983
18.149614
16.500950
19.033551
20.330548
18.020868
19.770861
20.835996
20.248890
20.464659
19.940734
20.597577
20.868778
20.964742
21.291971
19.943714
22.194982
20.090938
20.583868
20.191669
20.282865
20.264983
19.724965
20.635724
21.072626
20.488501
19.641519
18.477440
19.373894
19.357800
19.451976
20.961761
21.144748
22.707582
26.459694
27.495623
28.518438
31.268001
31.962991
36.601424
36.456585
34.898520
34.572482
30.049682
28.350949
26.733875
24.192929
21.902919
21.667480
21.371841
18.667579
17.172694
16.370416
17.030835
16.420484
16.117692
15.629530
15.429854
15.403628
15.553832
15.103817
15.109777
14.679432
14.938712
15.079975
15.380979
15.497804
14.888644
14.966726
15.207529
15.275478
14.724731
14.183521
14.210939
14.953613
15.339851
13.977885
13.710856
14.456511
15.629530
12.905002
##ZVALUE=245
3.373623
2.828836
2.986789
3.466606
6.716847
27.575493
71.175694
198.880434
358.532667
637.247562
877.899528
1016.001701
1016.001701
1016.001701
1016.001701
1016.001701
869.882703
566.068888
384.657979
209.602714
144.217610
113.907456
119.262934
133.014917
132.754445
128.269792
122.262836
96.420646
81.221461
62.038898
42.008758
29.118657
20.807981
16.746521
15.970469
15.019774
15.391707
15.823841
16.123652
16.941428
16.239882
17.840862
17.681718
18.559694
18.675923
18.782616
17.355680
19.593835
18.362999
19.150972
18.190742
18.890500
18.307567
18.371940
17.992854
18.292665
18.303990
18.414855
18.530488
18.660426
16.587973
16.175508
17.475486
16.187429
17.743707
17.863512
17.641783
18.751621
19.459724
20.470619
23.275614
25.348663
27.688742
29.779673
29.797554
29.151440
29.084682
28.066635
26.028752
24.362803
22.852421
20.321608
19.246936
17.188787
17.651916
15.970469
16.124845
15.850663
14.284849
12.807846
13.446808
13.748407
13.331771
12.963414
12.384653
12.936592
13.150573
13.320446
14.314651
12.711883
13.558865
13.643503
12.178421
13.297796
13.698936
12.554526
12.408495
12.932420
12.949705
13.348460
12.428761
13.045669
12.666583
12.889504
12.455583
12.762547
##ZVALUE=250
2.765656
3.287792
2.703667
2.641678
3.248453
3.137589
4.342794
18.460751
55.071712
154.726505
305.548906
618.764758
891.672969
1016.001701
1016.001701
1016.001701
1016.001701
1016.001701
1016.001701
818.892717
556.885600
300.694704
182.690620
115.896463
110.460520
129.312873
143.049955
149.218440
143.225789
131.079555
110.723972
89.578629
65.088868
45.990944
29.341578
23.509860
18.371940
16.466975
16.427636
15.616417
18.074512
17.156601
16.836524
16.348958
18.648505
17.833710
18.483996
17.664433
18.024445
17.954707
18.668771
18.468499
18.319488
16.267896
17.697811
17.921925
15.832782
16.495585
16.691685
17.972589
16.245842
14.900565
15.215874
15.577674
16.969442
14.809966
15.186667
16.546845
17.329454
18.367767
21.775961
21.129847
24.759769
26.128888
27.163625
26.374459
26.572943
24.958849
23.698807
21.641850
20.185709
19.784570
16.876459
16.224980
14.554858
13.530850
12.336969
12.687445
12.088418
11.407733
11.060834
11.829734
12.055635
11.863708
11.428595
12.306571
11.554956
10.443926
11.401772
11.115670
11.452436
12.026429
11.612773
11.457801
11.930466
12.325644
12.326837
11.155605
10.593534
11.574626
11.391640
11.273623
11.716485
11.034608
11.083484
11.127591
##ZVALUE=255
2.429485
2.317429
2.102852
2.345443
2.747774
2.718568
2.662539
3.314614
3.373623
9.791851
31.079650
122.095942
253.056884
538.057685
836.035609
1016.001701
1016.001701
1016.001701
1016.001701
1016.001701
1016.001701
1016.001701
830.681920
436.831713
252.633691
133.257508
105.443597
109.654665
127.887726
148.222446
151.087642
151.340961
137.465000
120.210648
89.385509
71.419477
48.380494
33.959746
22.378564
20.212531
17.930865
18.443465
17.885566
17.689466
18.310547
17.542839
18.520951
18.592477
19.618869
19.182563
18.706918
18.215775
17.411709
18.463731
16.955733
16.455650
16.499758
16.268492
16.484857
15.754700
15.587807
15.058517
15.600920
15.359521
15.002489
15.677810
15.178919
15.247464
15.898943
17.443895
18.366575
20.119548
23.522973
22.418499
24.181604
21.789670
21.485686
21.297932
19.460917
17.317533
16.467571
16.181469
13.817549
14.434457
12.163520
11.655688
12.143850
11.177659
11.008978
10.103583
10.752678
10.156631
10.253787
10.545850
10.501742
10.341406
9.786487
9.974837
10.761619
10.194778
9.625554
9.839535
9.944439
9.830594
10.083914
10.006428
10.000467
9.795427
9.873509
9.806752
9.274483
9.704828
10.210872
9.855628
9.720922
9.612441
##ZVALUE=260
2.209544
1.704693
1.978874
1.957417
2.221465
2.438426
2.420545
2.709627
3.017783
3.146529
3.337860
5.587935
17.581582
75.075626
165.859461
407.917500
682.726502
1016.001701
1016.001701
1016.001701
1016.001701
1016.001701
1016.001701
1016.001701
1014.242768
729.519725
395.967960
217.946768
111.589432
97.514987
113.336444
136.308670
154.827833
162.699819
160.871744
144.360662
121.186972
100.146532
71.641803
52.925944
36.538839
28.490424
23.710728
20.943880
20.597577
19.875765
19.877553
20.071864
19.820929
19.867420
18.293858
19.028783
18.716455
17.929673
18.231869
17.307997
16.565919
16.466975
16.817451
15.665889
15.016794
15.408993
15.874505
15.085936
14.890432
13.723969
14.452934
14.428496
14.798641
14.651418
16.306639
17.084479
19.012690
18.980503
19.870996
18.983483
17.103553
18.907785
15.671849
14.915466
14.116764
13.917685
12.255907
11.392832
10.579824
10.316968
10.144711
10.094643
9.755492
9.599924
8.994937
8.991957
9.075999
8.384585
8.557439
9.248853
8.891821
8.474588
8.909702
8.696914
9.080768
8.756518
9.159446
8.904934
9.287596
8.039474
9.000897
9.280443
9.063482
9.065866
9.131432
9.104609
8.988976
8.970499
8.105636
9.181499
##ZVALUE=265
1.934767
1.794696
1.920462
1.800656
1.909733
2.137423
2.058744
2.301931
2.444983
2.489686
2.864599
2.893806
2.922416
3.495812
8.848906
45.458674
120.614767
318.339467
558.532476
999.189615
1016.001701
1016.001701
1016.001701
1016.001701
1016.001701
1016.001701
1016.001701
967.342854
527.372956
305.630565
146.524906
99.939704
94.128847
116.241574
144.439936
158.798695
172.208548
162.572861
146.366954
126.452446
95.312595
78.317523
53.891540
40.199757
29.399991
24.617910
23.814440
22.518635
22.973418
22.133589
21.707416
20.703673
20.999908
20.168424
19.830465
18.310547
18.883944
17.060637
17.867684
16.934872
16.397834
16.348958
15.689731
15.547872
14.361739
13.668537
13.826489
13.894439
15.371442
15.727878
16.130805
16.320944
17.281771
17.456412
17.724633
17.556548
16.740561
15.745759
14.461875
13.759732
12.511611
11.358857
11.026859
10.352731
9.953976
9.020567
8.651614
9.000897
8.751750
8.670688
8.405447
8.270741
8.085966
7.754564
8.356571
8.045435
7.803440
8.219481
8.111000
8.294582
8.021593
8.126497
7.319450
7.827878
8.156896
8.192658
7.872581
8.290410
8.383989
8.027554
8.246899
8.090734
7.730722
8.341670
7.902980
8.302927
##ZVALUE=270
1.669526
1.797676
1.959801
1.623631
1.937747
2.025962
2.089739
1.871586
1.928806
1.942515
2.449751
2.417564
2.600551
2.595782
2.768636
3.114939
4.363656
20.141602
65.188408
222.785473
436.129570
882.717967
1016.001701
1016.001701
1016.001701
1016.001701
1016.001701
1016.001701
1016.001701
1016.001701
812.257528
490.348935
225.368738
119.721889
79.818964
93.866587
124.653578
146.252513
166.863799
171.768665
169.078708
156.799555
129.003525
107.870698
76.800585
60.380697
43.258667
35.238862
27.531981
25.954843
24.688840
23.470521
23.731589
21.601915
22.365451
20.572543
19.429922
19.350648
18.498898
18.692613
18.062592
16.851425
15.875697
15.856624
15.071630
15.032887
14.231801
14.182925
15.002489
14.745593
15.505552
15.494823
16.872883
16.679764
16.498566
15.905499
15.185475
14.973879
13.074875
12.839437
11.349916
11.666417
9.979606
9.584427
8.970499
8.895993
8.889437
8.360744
8.081794
8.059740
8.038878
7.838607
7.695556
7.326603
7.377863
7.484555
7.525682
7.597804
7.074475
7.271767
7.605553
7.145405
7.497668
7.395744
7.301569
7.172823
7.615685
7.655621
8.034706
7.651448
7.635951
6.998777
7.470846
7.172823
7.360578
7.350445
##ZVALUE=275
1.472831
1.666546
1.544952
1.632571
1.641512
1.623631
1.692772
1.779795
1.795888
1.838803
2.075434
1.916885
1.860857
2.297759
2.371669
2.694726
2.758503
3.495812
3.374815
9.706616
35.554767
149.492621
333.730578
755.859613
1016.001701
1016.001701
1016.001701
1016.001701
1016.001701
1016.001701
1016.001701
1016.001701
1016.001701
689.907670
313.789845
164.885521
80.827475
72.601438
98.171830
121.275783
149.414539
165.416598
175.723433
171.055794
155.490637
136.567950
106.557608
84.202886
60.214996
45.157671
33.525825
28.554797
25.094748
24.633408
22.608638
22.184849
21.238923
19.852519
19.721985
18.711686
17.972589
17.130971
16.533732
16.258955
15.193820
15.132427
14.494658
14.736652
15.278459
14.641881
15.605688
15.797615
15.911460
16.685724
16.486645
15.954971
15.297532
14.867783
13.024807
12.799501
11.391640
10.892749
10.759830
9.652972
8.980632
8.372664
8.234978
7.878542
7.986426
7.716417
7.235408
7.469654
7.259846
7.066727
7.412434
6.865859
7.091761
7.080436
7.169843
7.138848
6.840825
7.198453
7.119775
6.904602
6.994605
7.350445
6.817579
6.988645
7.209778
7.473826
7.232428
7.065535
6.868839
6.801486
6.804466
6.682873
##ZVALUE=280
1.612902
1.555681
1.141429
1.429915
1.450777
1.505613
1.576543
1.520514
1.572967
1.728535
1.567602
1.676679
2.010465
1.847744
2.366900
2.224445
2.297759
2.480745
2.646446
2.663732
3.341436
5.467534
20.352602
106.989741
253.087878
603.034496
961.620808
1016.001701
1016.001701
1016.001701
1016.001701
1016.001701
1016.001701
1016.001701
1016.001701
816.859603
419.193506
225.261450
96.522570
64.343810
72.475672
92.110634
123.027563
145.118833
165.630579
171.673894
167.023540
153.411627
125.739574
104.741454
74.526668
57.162642
40.027499
30.621886
23.450851
20.998716
18.860698
18.344522
17.597675
17.311573
17.076731
15.900731
15.927553
15.993714
15.644431
14.636517
14.586449
14.626980
14.401674
14.638901
15.436411
14.511943
14.976859
14.927983
14.575720
14.251471
13.710856
13.741851
12.113452
11.356473
11.018515
10.533929
9.875894
9.040833
8.743405
8.636713
8.240938
7.952452
7.490516
7.259846
7.372499
8.007884
7.180572
7.288456
6.711483
6.753802
7.129908
6.906986
6.796718
6.684661
6.511807
6.577969
6.687641
7.027984
6.463528
6.840825
6.773472
7.202625
6.831884
7.022619
6.664991
6.323457
6.783605
6.529689
6.679893
6.163716
##ZVALUE=285
1.357794
1.229644
1.378655
1.242757
1.376867
1.362562
1.337528
1.387596
1.397729
1.603961
1.744628
1.370907
1.685619
1.856685
1.870990
2.068877
1.874566
2.222657
2.121925
2.378821
2.529621
3.118515
3.319979
3.977418
9.269714
53.209662
144.204497
314.601064
724.991560
1016.001701
1016.001701
1016.001701
1016.001701
1016.001701
1016.001701
1016.001701
1016.001701
1016.001701
602.388978
347.731709
147.208571
72.279572
49.912930
61.121583
87.369680
111.004710
136.078000
152.258873
162.145495
159.961581
143.908858
124.442577
95.737576
74.587464
52.697659
37.947893
25.217533
20.280480
17.076731
15.091896
14.802814
14.001727
13.936758
14.333725
13.424754
13.505816
13.055801
13.021827
13.220906
12.912750
13.686419
14.175773
13.956428
14.258623
13.728738
13.876557
13.487935
12.809634
11.398792
11.286736
10.601878
9.776950
8.686781
9.242892
8.688569
8.152723
7.992983
8.082986
7.617474
7.774830
7.441640
7.143617
7.474422
7.324815
6.992817
7.079840
7.068515
7.037520
6.633997
6.692410
6.745458
6.905794
6.853938
6.730556
6.983876
6.942749
6.984472
6.304979
6.965995
6.830692
6.465912
6.175637
6.502867
6.381869
6.298423
6.289482
##ZVALUE=290
1.182556
1.055598
1.255870
1.246929
1.295805
1.207590
1.246929
1.355410
1.577735
1.208782
1.314878
1.565814
1.372695
1.416802
1.480579
1.893640
1.807809
1.754761
1.964569
2.055764
2.151728
2.555847
2.692938
2.962947
2.991557
3.839731
4.902482
13.656616
73.155761
191.633701
502.565503
880.013704
1016.001701
1016.001701
1016.001701
1016.001701
1016.001701
1016.001701
1016.001701
1016.001701
828.744769
492.920876
209.661722
98.177791
40.221810
39.077997
56.172609
75.288415
104.703903
124.380589
145.212412
152.166486
149.622560
137.683749
117.787719
93.468428
66.602826
49.552917
31.736493
23.231506
16.480684
13.723969
12.221932
11.880994
11.704564
11.028647
11.678934
11.231899
11.678934
11.860728
12.763739
12.535453
13.301969
12.900829
12.858510
12.720823
11.576414
11.007786
10.772943
9.849668
9.388924
8.943677
8.649826
8.561611
8.252859
8.009672
8.120537
7.499456
7.557869
7.236600
7.258654
6.962419
6.959438
6.730556
7.103682
7.238984
6.936789
6.801486
7.134676
6.704926
6.780624
6.681681
6.565452
6.804466
7.369518
6.464720
6.752610
6.681681
6.673932
6.706715
6.334782
6.662607
6.661415
6.394982
6.191730
6.171465
##ZVALUE=295
1.331568
1.313686
1.089573
1.240969
1.220703
1.182556
1.171827
1.173615
1.045465
1.275539
1.137853
1.270771
1.200438
1.340508
1.482964
1.471639
1.634955
1.487732
1.591444
1.675487
1.842976
2.039671
2.216697
2.459884
2.687573
2.908707
2.960563
3.532767
3.818870
6.494522
37.179589
113.501549
344.262719
672.148466
1016.001701
1016.001701
1016.001701
1016.001701
1016.001701
1016.001701
1016.001701
1016.001701
967.220664
609.148741
272.507668
129.183531
46.294928
29.158592
35.747886
49.187541
72.398782
91.687441
118.259788
132.592916
143.967867
142.733455
129.744411
112.240911
86.294413
66.543818
44.004917
30.221939
19.628406
14.745593
11.492968
10.478497
10.090470
10.268688
10.293722
10.227561
11.290908
11.448860
12.067556
11.409521
11.597872
11.384487
11.033416
9.966493
9.947419
9.292960
8.457899
9.054542
8.458495
7.818937
7.708669
7.747412
7.446408
7.307529
7.473826
7.296801
7.073879
7.006526
7.404685
6.626844
6.822944
6.647706
7.003546
6.903410
6.773472
6.435513
6.529689
6.565452
6.563663
6.717443
6.841421
7.010698
6.461740
6.871819
6.307960
6.867647
7.135868
6.359816
6.643534
6.149411
6.057620
6.228685
##ZVALUE=300
1.011491
1.214743
1.066923
0.972748
0.929832
1.121759
1.004934
1.179576
0.936985
1.018643
1.035929
1.238585
1.230836
1.230836
1.395941
1.407862
1.455545
1.416802
1.396537
1.615882
1.481771
1.720786
1.926422
2.132654
2.029538
2.081990
2.576709
2.654791
2.730489
3.005862
3.433824
4.323721
16.848445
63.315630
230.771303
465.818644
956.773758
1016.001701
1016.001701
1016.001701
1016.001701
1016.001701
1016.001701
1016.001701
1016.001701
802.308917
393.212438
206.963420
74.358582
31.395555
21.838546
28.933883
45.206547
61.297417
86.568594
106.761456
127.133727
134.492517
133.658648
125.392675
106.596947
87.822676
62.076449
46.056509
29.077530
20.309687
13.384819
11.270642
9.895563
10.188818
10.185838
10.258555
10.356903
10.645986
10.407567
10.119677
9.858608
9.291768
8.575916
8.386970
7.788539
8.112788
7.854700
7.919669
7.230639
7.522702
7.392764
7.088780
6.922483
7.004738
6.792545
6.834865
6.782413
6.679893
6.740689
6.965995
6.649494
6.615520
6.591678
6.184578
6.910563
6.590486
6.428957
6.308556
6.334782
6.593466
7.004738
6.607771
6.882548
6.765723
6.826520
6.408691
6.309748
6.196499
6.387830
6.444454
##ZVALUE=305
1.034737
0.947714
1.037717
1.017451
1.087785
1.026988
0.965595
0.872612
1.025796
0.975728
1.173615
1.205802
1.152754
1.299977
1.188517
1.373887
1.300573
1.344681
1.371503
1.457930
1.397729
1.529455
1.594424
1.727939
1.693964
2.093911
1.963973
2.142787
2.289414
2.463460
3.013611
2.933741
3.228784
3.658533
8.517504
32.299757
142.982602
326.406956
750.792027
1016.001701
1016.001701
1016.001701
1016.001701
1016.001701
1016.001701
1016.001701
1016.001701
994.470716
535.882711
294.813514
112.141967
46.783686
19.111633
19.207597
28.505921
40.013790
61.714649
79.813004
102.548003
115.439892
126.107931
126.059651
116.673708
102.058649
79.630613
62.758923
40.917993
28.619766
18.013716
13.650656
10.893941
10.095835
9.822845
9.996891
9.496808
9.369850
8.532405
8.591413
8.432865
7.629991
7.492900
7.413626
7.646680
7.122755
7.382631
7.201433
7.163882
7.059574
7.060766
6.639957
6.798506
6.520748
6.831884
7.070899
6.639957
6.570816
6.425977
6.317496
6.337762
6.364584
6.141663
6.244779
6.457567
6.447434
6.761551
6.842613
6.856918
6.693602
6.467700
6.771684
6.670952
6.543994
6.575584
6.391406
6.374717
6.183982
##ZVALUE=310
0.879765
0.738502
0.904799
1.004934
0.986457
0.926852
1.100898
1.333952
0.928640
1.032948
1.008511
0.984669
1.087785
1.212955
0.952482
1.106858
1.249909
1.154542
1.300573
1.326799
1.352429
1.340508
1.448989
1.498461
1.398921
1.631975
1.571774
1.896620
1.975894
2.212524
2.067685
2.355576
2.439618
2.884865
3.136992
3.425479
4.220605
17.138720
60.287714
214.300752
437.057018
926.008821
1016.001701
1016.001701
1016.001701
1016.001701
1016.001701
1016.001701
1016.001701
1016.001701
878.855586
426.789522
220.001936
75.795650
29.318929
15.236735
17.453432
25.908947
35.366416
52.999854
70.544481
93.423724
107.933879
118.590593
120.267868
111.873746
99.340677
76.631904
60.760975
40.975809
29.216409
19.353628
14.634728
10.556579
10.092854
9.069443
8.300543
8.255839
7.581711
7.138848
7.340908
7.021427
6.867647
7.197857
6.945729
6.681681
6.477833
6.731749
6.860495
6.826520
6.653666
6.726980
6.525517
6.506443
6.299615
6.150603
6.202459
6.229877
6.307960
6.320477
6.313920
6.526709
6.159544
6.387830
6.551743
6.506443
6.437898
6.533861
6.688833
6.530881
6.299615
6.689429
6.362796
6.421804
6.314516
6.252527
##ZVALUE=315
0.809431
0.936985
0.811815
0.881553
0.943542
0.934601
1.057982
0.952482
1.025796
1.056790
1.153946
0.840425
0.952482
0.898838
0.870824
0.911951
0.972748
0.976920
1.153946
1.275539
1.345873
1.353621
1.154542
1.239777
1.444817
1.481771
1.514554
1.630783
1.707673
1.868606
1.924634
1.875758
2.194643
1.976490
2.602935
2.567768
2.878904
3.279448
4.076958
6.250739
36.767721
110.821724
333.233476
625.200868
1016.001701
1016.001701
1016.001701
1016.001701
1016.001701
1016.001701
1016.001701
1016.001701
1006.152630
661.270618
290.755630
128.563643
35.124421
16.014576
13.551712
15.754700
23.402572
32.217503
50.196648
65.775514
86.887479
100.354552
111.039877
114.415884
105.766654
91.849566
72.588921
58.017969
39.991736
28.615594
18.540621
13.604760
9.448528
8.161664
6.910563
6.930828
6.417632
6.388426
6.380677
6.569624
6.200671
6.356835
6.239414
6.474853
6.233454
6.141663
5.963445
6.259680
6.417632
6.409883
6.212592
6.065965
6.072521
6.085634
5.906820
6.097555
5.942583
6.321669
6.471872
6.144643
6.259680
6.553531
6.500483
6.860495
6.654859
6.492734
6.321669
6.533861
6.766915
6.442666
6.086826
6.332994
##ZVALUE=320
0.980496
0.860691
0.871420
0.880957
0.956655
0.870824
0.803471
0.886917
0.782609
0.892878
0.995994
0.768900
0.870824
1.025796
0.991821
1.170635
1.045465
1.093745
0.949502
1.164675
1.082420
1.232624
1.228452
1.243949
1.272559
1.229644
1.316667
1.500845
1.474619
1.624823
1.629591
1.729727
1.687407
2.102852
1.838803
1.845956
2.257824
2.538562
2.839565
3.117919
3.352761
4.576445
11.814833
69.018602
184.076428
512.732863
884.769559
1016.001701
1016.001701
1016.001701
1016.001701
1016.001701
1016.001701
1016.001701
1016.001701
920.394659
445.683002
221.489668
70.029497
26.331544
12.410879
11.918545
14.716983
19.831657
30.449629
42.335987
61.667562
77.520609
96.027851
104.317665
107.158422
102.966428
86.971521
72.575808
54.229498
39.737821
25.568604
16.981959
11.313558
8.605719
6.874800
6.325841
6.193519
5.863905
5.877614
6.021857
5.917549
5.941987
5.906820
5.895495
5.606413
5.856752
5.751848
6.087422
6.195903
6.018877
6.004572
6.227493
5.926490
6.103516
5.947948
6.070733
6.236434
6.135702
6.314516
6.497502
6.590486
6.664991
6.292462
6.675720
6.222725
6.454587
6.446838
6.550550
6.051660
6.290674
##ZVALUE=325
0.917912
0.931621
0.851750
0.876784
0.791550
0.732541
0.713468
0.713468
0.857711
0.901818
0.776649
0.936985
0.740886
0.918508
0.864863
1.046658
0.946522
0.966787
1.111627
1.072884
1.141429
0.973940
1.073480
1.093745
1.217723
1.238585
1.396537
1.260638
1.314878
1.449585
1.487732
1.599789
1.553893
1.756549
1.765490
1.810789
2.035499
2.172589
2.134442
2.259612
2.788901
2.910495
3.466606
3.634691
8.541942
33.391714
135.386586
300.635695
710.090995
1016.001701
1016.001701
1016.001701
1016.001701
1016.001701
1016.001701
1016.001701
1016.001701
1016.001701
612.639785
327.744484
112.612844
40.550828
12.669563
10.904670
11.206865
13.304949
19.417405
27.700663
43.357611
58.926940
77.966452
89.395642
100.042820
100.376606
93.780756
83.595514
65.609813
50.211549
33.655763
23.551583
14.099479
10.256767
7.641912
6.612539
5.829930
5.700588
5.505681
5.832911
5.612969
5.432963
5.757809
5.699992
6.017685
5.683899
5.860925
5.947948
5.972981
5.862713
5.773902
5.988479
6.007552
6.145835
6.027818
6.372929
6.399751
6.342530
6.539822
6.511807
6.382465
6.437898
6.340742
6.528497
6.362796
6.095767
6.415844
6.245971
##ZVALUE=330
0.741482
0.855923
0.702739
0.793934
0.654459
0.871420
0.893474
0.857711
0.822544
0.814795
0.845790
0.787973
0.770688
0.871420
0.869632
0.929832
1.019835
1.002550
0.944734
1.022816
1.074672
1.083612
1.105666
0.977516
1.151562
1.107454
1.156926
1.139641
1.183748
1.339912
1.353621
1.458526
1.487732
1.366735
1.632571
1.652837
1.845956
2.037883
1.963973
2.132654
2.180934
2.215505
2.332926
2.678633
2.943873
3.445745
4.434586
18.853545
65.388680
171.328783
457.131863
819.805861
1016.001701
1016.001701
1016.001701
1016.001701
1016.001701
1016.001701
1016.001701
1016.001701
842.687488
473.909974
187.052488
76.486468
18.888712
10.624528
9.981990
10.176897
12.970567
17.817616
27.989745
38.383603
56.141615
70.406795
84.054470
91.980696
93.745589
88.006854
74.853897
61.676502
43.390989
32.274723
21.572709
15.403628
9.900928
7.480979
6.249547
5.751848
5.572438
5.506873
5.350709
5.439520
5.380511
5.332828
5.455613
5.556941
5.366802
5.706549
5.630851
5.846620
5.839467
5.747676
5.951524
6.244779
6.188750
5.988479
6.196499
6.489754
6.380677
6.584525
6.454587
6.391406
6.238818
6.178617
6.058812
6.145835
##ZVALUE=335
0.644922
0.563860
0.782609
0.778437
0.785589
0.893474
0.804663
0.767708
0.749826
0.852942
0.774860
0.718832
0.694990
0.824928
0.884533
0.744462
0.885725
0.816584
0.944734
0.996590
0.981688
0.921488
0.811815
1.101494
1.102686
1.183748
1.111627
1.049638
1.140833
1.077652
1.168847
1.398921
1.272559
1.362562
1.162887
1.161695
1.444817
1.563430
1.727939
1.841784
1.977682
1.957417
1.808405
2.118945
2.486706
2.406836
2.782941
3.155470
3.702641
6.847978
42.222738
118.515491
341.056585
626.201630
1016.001701
1016.001701
1016.001701
1016.001701
1016.001701
1016.001701
1016.001701
1016.001701
953.212976
574.781895
243.971944
107.705593
28.033853
12.228489
9.449720
9.000897
10.591745
12.338758
17.320514
24.257898
36.803484
48.920512
66.166520
77.421665
86.034536
86.724758
81.043839
72.488785
57.017803
45.973659
31.634569
22.785664
14.276505
10.491610
6.949902
6.405711
5.639791
5.212426
5.470514
5.404949
5.635619
5.583763
5.337596
5.503893
5.274415
5.553961
5.459785
5.918741
5.576611
6.002784
6.249547
5.984902
6.366968
5.997419
6.367564
6.651878
6.114841
6.327629
6.140471
6.142855
6.176829
5.985498
##ZVALUE=340
0.698566
0.820756
0.834465
0.857711
0.789762
0.692606
0.605583
0.638962
0.784993
0.702739
0.711679
0.907779
0.875592
0.620484
0.686646
0.773668
0.885725
0.816584
0.882745
0.809431
0.749826
0.826716
0.867844
0.995994
0.901818
0.980496
0.896454
0.977516
1.094937
1.002550
1.121759
1.141429
1.166463
1.154542
1.190901
1.331568
1.285672
1.376867
1.366735
1.637936
1.482964
1.647472
1.557469
1.841784
1.989603
2.012849
2.102852
2.296567
2.682805
2.845526
3.182888
4.014969
18.507838
66.402555
231.822729
464.653969
959.817767
1016.001701
1016.001701
1016.001701
1016.001701
1016.001701
1016.001701
1016.001701
1016.001701
715.884566
318.743587
144.522786
36.664605
13.778806
9.340644
9.088516
8.830428
9.574890
11.702776
14.993548
23.781657
33.150911
48.081875
60.478449
73.409677
78.841448
80.468655
76.711774
65.747499
55.950880
41.532516
32.385588
21.247864
15.019774
10.133982
7.799864
6.196499
5.649924
5.434752
5.559921
5.429983
5.350709
5.416870
5.404949
5.464554
5.535483
5.566478
5.562901
5.920529
5.867481
6.010532
6.337762
6.100535
6.323457
6.324649
5.919933
6.150603
5.752444
6.010532
5.627871
##ZVALUE=345
0.619888
0.787973
0.816584
0.751615
0.445843
0.652671
0.618696
0.791550
0.679493
0.755787
0.743866
0.629425
0.685453
0.764728
0.730753
0.762939
0.678897
0.841618
0.771880
0.781417
0.827909
0.784993
0.758767
0.815988
0.777841
1.006722
0.889897
1.084805
0.895858
0.920892
0.961423
0.974536
0.996590
1.174808
0.898838
1.118779
1.200438
0.997782
1.245737
1.292825
1.295805
1.521707
1.396537
1.463890
1.619458
1.723766
1.923442
1.693964
2.108812
2.124906
2.302527
2.544522
3.000498
3.198981
7.822514
31.057596
133.438706
295.578837
663.576722
996.742845
1016.001701
1016.001701
1016.001701
1016.001701
1016.001701
1016.001701
1016.001701
899.192095
408.811569
199.053884
65.816641
23.395419
10.109544
8.941889
8.268952
8.006692
8.285642
9.703636
14.253855
20.082593
31.893849
42.204857
55.352449
63.328743
71.558952
72.947741
70.871711
64.109564
53.033829
42.752624
30.565858
22.300482
14.662743
11.011958
7.745624
6.698966
5.889535
5.523562
5.535483
5.290508
5.300641
5.628467
5.442500
5.791783
5.637407
5.837679
5.988479
6.289482
6.288886
6.200671
5.986691
5.900860
5.792975
5.697608
5.845428
5.637407
##ZVALUE=350
0.738502
0.587702
0.655651
0.562668
0.788569
0.714660
0.693798
0.722408
0.812411
0.811815
0.711679
0.834465
0.752807
0.670552
0.730753
0.704527
0.703931
0.789762
0.939965
0.740886
0.651479
0.684857
0.682473
0.907779
0.882745
0.894666
0.806451
0.908971
0.991821
0.887513
1.011491
0.999570
0.975728
1.020432
1.046658
1.079440
1.035929
1.065731
1.277924
1.236796
1.226664
1.183748
1.424551
1.501441
1.344681
1.448989
1.445413
1.634955
1.800656
1.770854
1.904964
1.945496
2.179742
2.336502
2.705455
2.985001
4.655719
15.511513
77.559948
183.433890
462.588668
802.410841
1016.001701
1016.001701
1016.001701
1016.001701
1016.001701
1016.001701
1016.001701
972.757936
507.104993
274.337530
100.819468
35.370588
10.939837
8.706450
7.486939
7.114410
6.635785
6.799698
8.838773
12.259483
18.893480
25.669932
37.387609
47.006607
58.269501
64.541698
67.466497
65.892935
59.094429
49.892664
39.291978
30.198693
21.360517
16.132593
10.964870
8.267760
6.579757
5.651712
5.370975
5.495548
5.563498
5.950928
5.674958
5.770922
6.049871
6.086826
5.892515
6.061792
6.020665
6.028414
5.508661
5.632639
5.511642
5.536675
##ZVALUE=355
0.586510
0.689626
0.631809
0.654459
0.589490
0.676513
0.745654
0.760555
0.540614
0.759959
0.766516
0.894666
0.878572
0.897646
0.786781
0.796914
0.806451
0.694990
0.901818
0.794530
0.812411
0.657439
0.917912
0.955462
0.887513
0.950694
0.901818
1.095533
0.900626
0.932813
0.791550
0.885725
1.054406
0.963807
0.981688
1.099706
1.031756
1.030564
0.986457
1.224875
1.117587
1.205802
1.235604
1.331568
1.359582
1.509786
1.425743
1.434684
1.527667
1.650453
1.710653
2.071857
1.884699
1.877546
1.987815
2.370477
2.653599
2.817512
3.486872
7.216930
44.271946
121.466517
329.949856
592.488647
1016.001701
1016.001701
1016.001701
1016.001701
1016.001701
1016.001701
1016.001701
1016.001701
700.994730
392.403603
148.775578
59.208870
14.266968
8.395910
6.873608
6.637573
6.222725
6.073713
6.709695
7.705688
10.828972
15.494823
23.873448
31.301975
42.842627
51.598549
59.033632
63.105822
60.877800
56.492686
47.431588
39.836764
29.787421
23.010969
15.093684
11.603832
8.196831
6.974936
5.952716
5.951524
5.622506
6.047487
5.923510
6.020665
6.052852
5.868673
6.190538
5.640984
5.497932
5.784631
5.230904
5.097985
##ZVALUE=360
0.717640
0.851750
0.689626
0.656843
0.777841
0.778437
0.669956
0.676513
0.825524
0.815988
0.722408
0.746846
0.768900
0.670552
0.760555
0.729561
0.812411
0.737906
0.725985
0.816584
0.713468
0.914931
0.863671
0.782609
0.757575
0.890493
0.904799
0.945926
0.908971
0.960827
1.050830
0.988841
1.064539
0.938773
1.266599
1.119971
1.020432
1.125932
1.143813
1.226664
1.031756
1.018643
1.351833
1.132488
1.352429
1.391768
1.276731
1.482964
1.584888
1.466870
1.763701
1.592636
1.739860
1.824498
2.017617
2.105832
2.298951
2.315640
2.688766
2.779961
3.368855
4.333854
21.541715
69.900751
224.379897
434.934497
867.259502
1016.001701
1016.001701
1016.001701
1016.001701
1016.001701
1016.001701
1016.001701
873.553753
523.330569
209.929943
87.416768
20.588636
9.058714
7.285476
6.735921
6.166697
5.681515
5.733967
5.679727
7.092953
8.633733
13.402700
18.624663
27.612448
35.949945
46.012998
52.172542
56.884885
56.918859
54.151416
48.390627
39.042830
31.504631
22.746921
16.964674
12.500882
9.611845
7.500648
6.613731
5.960464
6.188750
5.971789
5.776882
5.584955
5.440712
5.215406
5.175471
5.028844
5.055666
##ZVALUE=365
0.694990
0.701547
0.729561
0.689626
0.846982
0.663996
0.566840
0.779629
0.867844
0.743866
0.727773
0.580549
0.745654
0.638962
0.663996
0.737906
0.606775
0.704527
0.670552
0.742674
0.889897
0.888705
1.033545
0.981688
0.926852
0.871420
0.862479
0.820756
0.882745
0.817776
0.883937
0.828505
0.982881
1.000762
1.037717
1.062751
1.149774
1.097918
1.166463
1.018643
1.072884
1.262426
1.053810
1.153946
1.065731
1.269579
1.298785
1.323819
1.218915
1.239777
1.468658
1.448989
1.471639
1.687407
1.643896
1.780987
1.775622
1.948476
2.158880
2.241731
2.613664
2.631545
3.328919
3.618002
9.132624
35.919547
142.822862
308.227539
702.664852
1016.001701
1016.001701
1016.001701
1016.001701
1016.001701
1016.001701
1016.001701
1014.769673
682.585835
308.861732
144.303441
39.360523
13.456941
7.143617
6.650686
5.967617
5.503893
5.480647
5.442500
5.640984
6.212592
8.348823
11.263490
17.253757
23.191571
32.402873
38.836598
47.099590
51.116943
53.257942
50.717592
46.370625
39.995909
30.643940
24.709702
17.375946
13.072491
9.729862
7.513762
6.569624
6.062984
5.784631
5.313754
4.898906
4.701614
4.826784
4.452467
##ZVALUE=370
0.712872
0.663996
0.689626
0.561476
0.573993
0.633597
0.741482
0.641942
0.557899
0.772476
0.532866
0.904799
0.574589
0.687838
0.760555
0.788569
0.715852
0.687838
0.633597
0.761747
0.832677
0.870824
0.775456
0.828505
0.731945
0.784993
0.715852
0.982881
0.962615
0.889897
0.859499
0.820756
0.918508
0.892878
0.797510
0.959635
0.875592
0.921488
1.014471
1.108646
1.058578
0.902414
1.012683
0.994802
1.069903
1.037717
1.114607
1.142621
1.220703
1.321435
1.316667
1.343489
1.302958
1.349449
1.252890
1.483560
1.543760
1.591444
1.553893
1.820922
1.944900
2.278686
2.371669
2.358556
2.711415
3.059506
4.727840
17.612576
99.259615
242.415071
561.529994
891.434550
1016.001701
1016.001701
1016.001701
1016.001701
1016.001701
1016.001701
1016.001701
750.233531
372.772813
187.395811
62.685609
23.302436
7.692575
6.369948
5.595684
5.449653
5.214810
5.187988
5.380511
5.634427
6.714463
7.866621
10.935664
14.411807
21.309853
26.825666
35.448670
41.555762
47.432780
49.718618
48.349500
44.778585
38.285851
30.588508
24.282932
17.706752
13.971925
10.384917
8.196831
6.430745
5.420446
5.146861
4.563928
4.308820
##ZVALUE=375
0.653863
0.691414
0.701547
0.561476
0.570416
0.670552
0.631809
0.673532
0.612736
0.754595
0.585914
0.727773
0.571609
0.634789
0.706911
0.623465
0.632405
0.599623
0.592470
0.553727
0.437498
0.736713
0.679493
0.764728
0.862479
0.800490
0.775456
0.933409
0.865459
0.861883
0.935793
0.801682
0.834465
0.776649
0.977516
0.873804
1.041889
0.885725
0.842810
0.854731
0.847578
0.883937
1.034737
0.874996
0.956655
0.930429
0.984669
0.919700
1.023412
1.053810
1.095533
1.095533
1.187921
1.108646
1.240969
1.362562
1.118779
1.565814
1.091957
1.385808
1.497865
1.558661
1.781583
1.830459
2.066493
2.137423
2.764463
2.932549
3.564954
9.367466
56.309700
147.041678
381.051898
676.060915
1016.001701
1016.001701
1016.001701
1016.001701
1016.001701
1016.001701
1016.001701
945.670605
541.799664
305.468440
117.007494
46.992898
11.384487
6.707907
5.789995
5.670786
5.753636
5.699992
5.596876
5.642772
5.839467
6.361604
7.262826
8.794665
12.427568
16.729832
24.181604
30.244589
38.165450
43.082833
46.861768
47.059655
44.611692
38.696527
33.609867
26.196837
21.132827
14.886856
11.735559
8.058548
6.578565
4.820824
##ZVALUE=380
0.572801
0.714660
0.526905
0.574589
0.692606
0.493526
0.586510
0.534654
0.496507
0.674725
0.656843
0.609756
0.516772
0.587702
0.718832
0.622869
0.647902
0.491738
0.694990
0.720620
0.601411
0.627637
0.625849
0.725985
0.714660
0.746846
0.785589
0.698566
0.794530
0.754595
0.703931
0.864863
0.774860
0.846982
0.943542
0.958443
0.926852
0.925660
0.965595
0.972748
0.998974
0.836849
1.006722
0.898838
0.949502
0.992417
0.993609
0.805855
1.000762
1.064539
0.811815
1.079440
1.117587
1.031756
1.129508
1.145601
1.142621
1.142621
1.244545
1.382828
1.336932
1.338720
1.421571
1.549721
1.613498
1.649857
1.831651
2.217889
2.604723
2.908707
3.434420
5.361438
28.517842
93.298554
285.543799
535.303950
991.216898
1016.001701
1016.001701
1016.001701
1016.001701
1016.001701
1016.001701
1016.001701
700.722933
421.358943
177.962780
79.681873
19.776821
8.160472
6.300807
6.088614
6.095767
6.463528
6.061792
5.909801
5.348921
5.317926
5.472898
5.979538
7.769465
10.285974
15.551448
20.531416
28.379560
34.430623
40.780902
44.780970
44.618845
42.952895
39.590001
32.884479
27.899742
20.211935
15.436411
10.582805
##ZVALUE=385
0.556707
0.565648
0.623465
0.495911
0.486970
0.349879
0.522733
0.537634
0.496507
0.575781
0.571609
0.589490
0.579953
0.754595
0.535846
0.472665
0.630617
0.705719
0.464916
0.614524
0.593662
0.545979
0.607967
0.731945
0.690818
0.471473
0.752807
0.793934
0.711679
0.821948
0.754595
0.854731
0.930429
0.991821
0.979900
0.924468
0.968575
0.934601
0.964999
1.015663
0.880957
1.081824
0.936985
0.930429
0.909567
0.893474
1.061559
0.906587
0.948906
0.845790
1.053810
0.982881
1.078844
1.061559
1.032948
0.935793
1.004934
1.194477
1.085997
1.218915
1.127720
1.270771
1.090765
1.416802
1.534820
1.486540
1.791716
1.834631
2.075434
2.165437
2.586842
2.973676
3.137589
3.490448
11.507869
43.404698
175.432563
378.005505
807.814598
1016.001701
1016.001701
1016.001701
1016.001701
1016.001701
1016.001701
1016.001701
916.634798
594.959855
276.836753
136.476755
42.702556
14.153719
6.617904
6.527901
6.170869
6.178617
5.800724
5.486608
5.117655
4.880428
4.687905
4.887581
5.498528
6.638765
9.316802
12.645721
18.093586
24.836659
29.868484
34.967661
39.633512
40.697455
40.070415
37.563443
32.275915
25.785565
##ZVALUE=390
0.564456
0.605583
0.386834
0.625849
0.509620
0.504851
0.449419
0.549555
0.567436
0.560880
0.583529
0.558496
0.563860
0.405908
0.579953
0.611544
0.557899
0.664592
0.557899
0.710487
0.623465
0.536442
0.632405
0.411868
0.572801
0.608563
0.783801
0.876784
0.777841
0.740886
0.864863
0.888705
1.102686
1.046658
1.009703
1.049638
0.932813
1.094937
1.033545
1.008511
1.068711
1.133680
0.925660
1.087785
0.923872
1.141429
1.108646
1.058578
1.039505
1.111627
1.211762
1.108646
1.089573
1.196861
1.144409
1.012683
1.250505
0.970960
1.213551
1.074672
1.179576
1.208782
1.138449
1.322627
1.503825
1.390576
1.599789
1.629591
1.929998
2.164841
2.260804
2.253652
2.532601
2.789497
2.775788
3.170967
5.038977
31.815767
101.724863
313.499570
588.011742
1016.001701
1016.001701
1016.001701
1016.001701
1016.001701
1016.001701
1016.001701
1016.001701
742.783546
434.634686
179.684758
81.466436
23.444891
9.088516
6.287694
6.164908
5.687475
5.499721
5.012751
5.158782
4.803538
4.771948
4.640818
4.742742
5.309582
6.312728
8.198619
10.570884
14.812946
19.430518
25.737882
30.562878
35.163760
37.955642
37.997961
##ZVALUE=395
0.608563
0.481606
0.592470
0.480413
0.530481
0.623465
0.476837
0.594854
0.645518
0.652671
0.495911
0.496507
0.541806
0.592470
0.598431
0.680685
0.456572
0.606775
0.608563
0.470877
0.598431
0.713468
0.544786
0.687838
0.644922
0.663996
0.715852
0.729561
0.766516
0.764728
1.010895
0.867844
1.086593
0.944734
1.038909
0.984669
1.000762
1.094937
1.094937
1.117587
1.255870
1.221895
1.228452
1.038909
1.242757
1.099706
1.054406
1.075864
1.045465
1.244545
1.151562
1.037717
1.040697
1.129508
1.080632
1.132488
0.856519
1.171827
0.978708
1.146793
1.264811
1.233816
1.188517
1.183748
1.208782
1.381636
1.443624
1.633763
1.665950
2.029538
2.084970
2.148747
2.130866
2.220869
2.369881
2.312660
2.408624
2.812743
3.985763
14.505982
78.404546
197.522640
481.106043
804.095864
1016.001701
1016.001701
1016.001701
1016.001701
1016.001701
1016.001701
1016.001701
931.065679
500.819683
280.305743
112.019777
47.032833
12.741685
6.999969
5.850792
5.577803
5.427599
5.337000
5.456805
5.414486
5.319715
5.274415
4.949570
5.081892
5.274415
5.893707
6.694794
9.138584
12.016892
17.005801
21.772981
27.691722
##ZVALUE=400
0.700951
0.764728
0.548959
0.449419
0.462532
0.407696
0.652671
0.488758
0.547767
0.494719
0.588894
0.544786
0.442863
0.652671
0.495911
0.514984
0.602603
0.431538
0.629425
0.508428
0.771880
0.556707
0.532866
0.554919
0.681877
0.806451
0.464916
0.805855
0.755787
1.057982
1.091957
0.956655
1.001954
0.954866
0.952482
1.036525
1.041889
1.076460
1.045465
1.122952
1.223683
1.156926
1.066923
1.146793
1.146793
1.130700
1.095533
1.103878
1.197457
1.186728
1.155734
1.116991
1.254678
1.167655
1.060963
1.111627
1.151562
0.936985
0.909567
1.065731
1.178980
1.123548
1.210570
1.227856
1.336932
1.361966
1.438856
1.609921
1.708865
2.001524
1.972914
1.961589
2.041459
2.121925
2.120733
2.033710
2.221465
2.264977
2.316833
2.653599
3.089905
6.230474
40.398836
115.721822
326.524973
595.685840
1016.001701
1016.001701
1016.001701
1016.001701
1016.001701
1016.001701
1016.001701
1016.001701
661.100745
395.058990
167.124867
74.075460
19.857883
8.250475
5.800724
5.950928
5.557537
5.713701
5.910993
6.123781
5.803704
5.542636
5.348921
4.835725
4.895926
4.596710
4.813671
5.990863
7.270575
10.511875
##END
