##TITLE=7-3
##FORMAT=SPECTACLE-ASCII V-1.2
##DATA TYPE=ULTRAVIOLET SPECTRUM
##SECOND TYPE=ULTRAVIOLET SPECTRUM
##DATE=04/04/18
##TIME=13:39:54
##SPECTROMETER/DATA SYSTEM=SPECTACLE
##XUNITS=NM EM
##YUNITS=ENERGY
##YFACTOR=1
##FIRSTX=220
##LASTX=450
##NPOINTS=116
##3DDATA=Equidistant
##ZUNITS=NM EX
##FIRSTZ=210
##LASTZ=400
##ZPOINTS=39
##XYDATA=(Y..Y)
##ZVALUE=210
24.054646
22.802949
17.544627
12.997985
11.316538
12.445450
9.407997
9.527802
7.908940
7.042885
5.458593
5.049706
4.233718
3.605485
4.617572
4.474521
4.581809
5.042553
5.491972
5.013943
6.489754
6.209612
6.200671
7.449985
7.612705
8.848906
9.259582
9.433627
13.041496
12.589693
13.738871
13.867617
14.727712
15.951991
14.589429
16.554594
15.349984
16.274452
15.696883
16.384721
14.761686
15.188456
15.097857
15.635490
13.995767
15.860796
15.495420
16.057491
15.808940
15.837550
14.062524
14.656782
14.407635
15.165806
15.407801
15.061498
14.761686
14.111996
16.279817
13.676882
13.198853
14.750957
13.118982
14.193654
13.625622
14.206767
14.685988
16.283989
19.370914
19.501448
23.633838
26.901960
29.749870
34.622550
35.872459
39.746761
39.824843
37.600994
35.585761
36.859512
32.520890
30.590892
25.250912
23.751855
19.934773
15.928745
14.249682
14.132857
14.244914
14.674664
19.831657
22.206903
29.222965
39.672852
47.707558
57.201982
65.955520
73.960423
84.227920
88.741779
93.790889
98.547935
95.267892
96.022487
86.250901
89.412928
76.611638
70.050955
58.255792
51.172972
38.870573
31.743646
23.857951
20.025969
18.645525
20.600557
##ZVALUE=215
77.122450
74.742436
59.120655
43.834448
33.116937
22.957921
20.145774
15.748739
15.637875
14.490485
12.380481
11.791587
8.611679
6.398559
5.675554
5.062819
4.665852
4.963875
5.869865
5.345941
5.144477
7.218719
6.960630
6.846786
8.545518
10.702610
10.942817
11.401772
11.624694
13.025999
14.492869
13.896823
14.835000
15.253425
15.608668
15.075803
16.757846
15.314817
17.039776
17.062426
16.242862
18.412471
16.065836
16.852617
17.271638
17.388463
16.379952
16.809702
16.089678
16.069412
17.675757
16.664863
17.057657
18.124580
16.568899
16.776919
15.529990
15.217662
15.760660
15.224814
17.306805
15.658736
17.191768
15.852451
14.340878
15.537739
16.799569
15.781522
18.930435
18.870831
23.819804
26.441813
30.051470
32.372475
34.701824
36.609769
37.058592
37.707686
34.330487
31.092763
31.009912
28.890967
23.491979
20.582676
16.072989
15.264750
13.935566
13.712645
11.899471
12.604594
10.914803
12.068748
13.481975
13.664961
15.993714
21.711588
29.531717
39.863586
51.777959
62.144995
81.352592
88.291764
111.205578
120.194554
129.330754
141.102672
144.189000
147.757530
144.643784
135.911703
127.722621
117.439628
108.157992
89.303851
73.169470
53.581595
##ZVALUE=220
180.640817
170.845985
168.519616
153.182745
128.763914
92.792511
68.699718
43.452978
34.187436
26.873946
27.180910
24.692416
24.771690
18.190742
14.948845
11.317730
9.429455
8.120537
6.457567
6.929636
6.309748
6.561875
7.161498
8.098483
8.820891
9.761453
11.995435
12.203455
12.527704
13.481975
13.795495
15.201569
15.336871
17.975569
18.146634
16.227961
17.723441
18.621683
19.127727
19.214749
19.230843
20.346642
19.317865
19.033551
20.255446
18.589497
20.682812
20.262599
20.995736
19.947886
21.565557
20.011663
20.891428
20.979643
20.802617
19.880533
20.828843
20.160675
19.217730
19.403696
19.701719
18.701553
19.178987
21.053553
18.014908
19.724965
18.808842
20.522475
19.945502
25.804639
26.606917
29.582977
30.819774
33.139586
38.447976
39.151907
37.574768
41.860938
36.671758
36.620498
33.162832
32.006502
24.738908
24.411678
20.287633
19.821525
16.288757
15.539527
13.842583
13.835430
13.432503
12.479424
12.446642
11.704564
13.053417
14.661551
11.641979
13.548732
16.203523
17.584562
29.008985
38.228631
55.581927
71.603656
95.202923
113.595724
146.911740
172.472596
187.725425
203.753710
217.496753
230.522752
232.013464
224.203467
225.184560
209.109783
##ZVALUE=225
214.266777
217.225552
269.525647
297.267437
303.727984
284.680724
240.585804
173.127651
126.180649
83.011985
55.841804
43.542981
42.734742
42.182803
40.218830
32.980442
28.888583
23.653507
17.582774
13.548732
9.866953
9.372830
8.194447
9.220839
9.233952
9.329915
10.085702
10.289550
11.414886
12.148619
13.746619
14.597774
15.745759
16.485453
17.065406
18.716455
19.208789
19.293427
19.888878
20.346642
19.251704
22.514462
21.849871
24.744868
24.024844
23.291707
24.418831
24.762750
23.816824
24.354458
23.177862
25.186539
24.243593
24.069548
22.378564
25.401711
23.400784
22.795796
23.825765
21.616817
22.044778
20.745993
22.412539
21.962523
21.282434
22.084713
21.716952
22.878647
24.301410
25.446415
30.687451
29.727817
34.019947
35.374761
37.677884
37.486553
37.057996
34.449697
33.238530
31.606555
27.661920
25.137663
24.307966
21.567941
20.362735
19.340515
15.947819
16.133785
15.386939
14.917850
15.577674
15.058517
13.549924
13.287663
14.905930
15.110970
13.727546
13.836622
14.518499
13.918877
12.851954
14.366508
14.992952
17.880797
27.168989
37.202835
55.973530
82.256794
104.594827
140.798688
168.072581
205.529928
239.317417
293.805599
308.748484
339.978933
##ZVALUE=230
144.739747
160.265565
255.097747
346.020460
413.447618
498.930812
529.838800
487.433672
434.468985
335.462689
241.490602
146.712661
100.805759
68.505406
61.667562
64.096451
62.549710
60.079694
49.760938
41.342974
34.481883
26.267767
18.435717
14.939904
11.018515
11.946559
11.619925
11.426806
12.564659
11.775494
13.796687
14.103651
15.011430
16.419888
17.382503
17.794967
19.918680
20.677447
20.945668
23.980737
23.373961
22.298694
26.909709
26.175976
26.358962
27.817488
26.901960
27.461648
28.044581
26.837587
25.617480
27.200580
26.136637
27.228594
26.266575
26.158690
26.892424
26.636720
27.098656
23.824573
25.718808
26.335716
25.724769
27.415752
24.396777
25.998950
24.751425
27.582645
27.179718
30.330420
33.133626
37.950873
41.916966
44.436455
45.581460
45.869946
41.809678
42.689443
40.738583
37.256479
35.801530
29.075742
29.647946
25.850534
24.071932
21.157861
19.887686
19.439459
18.213987
19.025803
19.204617
18.598437
17.084479
18.261671
17.400980
19.619465
16.816854
17.007589
16.744733
17.555952
18.398762
17.398596
16.912818
16.000867
16.960502
17.365813
17.656684
18.191934
21.893978
30.426979
44.471622
73.950887
100.248456
153.423548
197.088718
255.561471
##ZVALUE=235
37.430525
42.616725
101.377964
181.730986
301.829576
474.562645
625.059605
788.869858
851.984620
829.625726
757.590532
586.077571
446.987748
265.629888
177.598000
107.230544
90.079904
86.115003
95.547438
90.500712
85.848570
71.444511
57.752728
41.250587
29.256940
20.547509
15.369654
13.506413
13.510585
13.566613
14.032722
13.284683
15.251637
16.765594
15.909672
17.927885
18.518567
21.134615
20.603538
23.203492
24.467707
25.442839
24.034977
26.051998
25.198460
27.904510
26.497841
28.163791
29.029846
28.072596
29.059649
28.659701
26.392937
24.973750
25.005937
26.049614
28.293729
26.855469
26.235580
27.558804
27.378798
25.164485
23.908615
24.470687
25.229454
24.605989
26.074648
26.645660
28.610826
30.041933
33.902526
37.103891
40.513873
40.381551
44.130683
43.309927
41.391850
43.677688
38.852692
33.814907
32.939911
28.865933
26.681423
24.437904
23.233891
24.147630
20.920634
21.261573
20.964742
18.145442
20.078421
18.616915
19.886494
18.067956
20.028949
17.860532
16.888976
17.998815
18.425584
18.794537
18.812418
19.271970
18.481612
20.209551
16.999841
19.542575
18.245578
18.460751
18.106699
18.781424
19.360781
17.916560
18.990636
26.025772
35.723448
60.807467
##ZVALUE=240
4.343987
3.864765
15.066862
39.527416
94.785690
218.824744
367.283821
627.647638
848.413706
1016.001701
1016.001701
1016.001701
1016.001701
942.761898
746.190548
480.069518
310.376883
170.593858
124.961734
111.813545
112.199783
120.685697
117.979646
111.327767
92.647672
72.593689
53.894520
40.328503
26.822686
20.667911
16.154647
15.964508
15.904903
16.460419
17.158985
18.614531
18.736720
17.389655
21.469593
23.026466
23.165941
23.452640
25.366545
26.464462
26.362538
25.337934
26.461482
25.565624
26.130676
26.108623
27.148724
26.020408
28.000474
27.098656
26.337504
25.266409
28.561950
25.792718
26.275516
26.042461
26.954412
26.967525
26.989579
27.221441
26.228428
25.448799
27.088523
27.249455
30.572414
31.827688
34.301877
37.446618
39.792657
41.560531
40.054917
42.327642
42.918921
38.449764
36.539435
35.470724
31.864643
32.131672
29.137731
27.637482
25.702715
25.608540
24.030805
23.781657
22.305846
21.090508
22.337437
23.202896
21.843910
22.075772
21.350980
22.694468
22.438765
21.096468
22.341609
21.336675
23.332834
22.739768
22.380948
23.266673
20.125508
22.092462
20.971894
23.206472
21.925569
21.823645
20.314455
21.668673
20.257831
21.240711
20.201802
19.416809
##ZVALUE=245
3.385544
2.462864
3.146529
3.009439
7.215738
29.896498
73.538423
198.735595
348.821878
613.079667
856.523514
1016.001701
1016.001701
1016.001701
1016.001701
1016.001701
858.926773
556.309819
373.098850
198.009610
133.338571
110.858679
116.407871
129.539967
138.462782
131.106973
120.247602
100.429654
75.411797
60.907602
42.845607
29.662848
20.503998
16.940832
15.582442
15.698671
15.888810
16.705990
16.111732
18.030405
18.823743
17.554760
18.728971
20.711422
20.013452
20.018816
19.988418
20.187497
20.750761
21.557808
19.664764
19.303560
19.994974
19.854903
20.832419
19.873977
19.399524
17.811656
20.039678
19.263625
18.588901
18.301606
18.666983
18.275976
18.059611
18.900633
18.559694
18.766522
20.497441
22.138953
23.459792
25.689602
26.972890
27.364492
29.117465
27.846694
25.966763
25.475621
24.647713
23.370981
20.657778
20.389557
18.986464
18.930435
16.936660
17.054677
16.772747
15.855432
15.576482
14.967918
15.462637
16.373992
15.973449
15.549660
13.693571
13.741851
14.829636
14.555454
14.862418
16.309619
15.089512
14.195442
15.955567
14.823675
13.153553
15.755892
14.641881
14.887452
15.791655
15.421510
14.166832
14.436841
14.624000
15.304685
14.460683
13.965964
##ZVALUE=250
2.181530
2.181530
2.706647
2.491474
2.501607
3.275871
4.603863
17.065406
53.930879
149.514675
294.746757
581.678748
841.938853
1016.001701
1016.001701
1016.001701
1016.001701
1016.001701
1016.001701
749.313831
504.674911
275.059938
168.926716
111.523867
109.795928
129.279494
138.513446
145.640969
140.476823
131.006837
109.436512
89.792609
64.832568
47.496557
30.353665
22.830963
18.154979
16.608834
16.742945
16.998649
18.663406
17.495751
18.369555
19.615889
19.013882
19.681454
19.347668
18.349886
20.170808
18.137693
19.206405
20.086765
20.144582
19.296408
19.716620
18.629432
17.414689
18.489957
17.389655
17.698407
17.077923
17.713904
17.204881
16.343594
16.675591
16.363859
15.874505
17.919540
18.454790
19.006729
20.053983
21.166801
21.861792
23.796558
23.667812
23.682714
23.131967
20.590425
21.301508
20.419955
19.483566
17.726421
16.718507
15.266538
15.386939
14.537573
14.432669
13.996959
12.551546
13.164878
12.537837
13.541579
12.334585
12.671947
13.156533
12.916923
13.126731
12.798905
13.509989
13.006926
13.991594
13.432503
13.077855
13.514757
13.100505
14.038682
14.710426
14.276505
12.839437
13.968945
13.230443
13.959408
13.909936
13.692975
13.932586
14.616847
##ZVALUE=255
2.233982
2.338886
2.286434
1.795888
2.572536
2.429485
2.798438
2.709627
3.229976
9.781718
31.721592
113.610625
233.260989
491.720438
745.678544
1016.001701
1016.001701
1016.001701
1016.001701
1016.001701
1016.001701
1009.315848
741.748810
405.008793
243.917704
132.037997
104.975700
112.702847
133.347511
146.174431
151.823759
150.984526
138.096809
116.715431
88.087916
70.479512
46.636462
35.062432
25.307536
21.580458
19.015670
18.621683
19.781590
18.651485
20.221472
21.149516
20.572543
20.511746
19.952655
20.777583
20.135641
19.445419
19.988418
19.471645
18.771887
18.379688
19.363761
17.913580
17.635822
17.513633
17.908812
17.482638
16.059875
17.675757
15.640855
16.812682
15.775561
15.955567
16.070604
16.971827
18.519759
19.460917
19.979477
21.370649
20.977855
20.303726
20.002723
18.552542
16.832948
17.040968
16.215444
14.289618
13.433695
13.494492
13.028979
12.619495
12.960434
12.205839
12.281537
12.385845
11.470914
11.340976
12.457967
11.148453
12.309551
11.981726
11.446476
12.171865
12.126565
12.231469
11.704564
12.582541
12.388825
11.700988
12.004972
12.927651
12.272000
12.556911
12.767911
13.332963
12.577772
11.751652
10.809898
12.145638
12.111664
12.290478
##ZVALUE=260
1.736879
1.900792
2.007484
2.184510
2.125502
2.333522
2.066493
2.368689
2.761483
3.077984
2.949834
5.524755
17.874837
72.801709
160.832405
380.197763
639.096498
1006.722450
1016.001701
1016.001701
1016.001701
1016.001701
1016.001701
1016.001701
970.634818
571.224689
360.253453
211.395621
114.477873
96.862912
113.149881
132.846832
153.580904
163.564682
160.018802
146.847963
122.602582
101.089478
71.526766
53.766966
36.953688
30.320883
23.762584
22.765994
23.105741
22.698641
22.672415
22.106767
22.686720
21.731853
21.744967
21.344423
21.124482
20.569563
20.483732
19.200444
19.351840
18.771887
17.582774
19.636750
17.049909
18.041730
17.252564
16.433001
16.424656
15.899539
16.493797
16.074777
16.141534
16.380548
17.925501
18.320680
18.938780
18.816590
19.237995
19.503832
17.247796
17.946959
16.532540
16.112924
14.182925
13.967752
12.633801
12.236834
11.449456
11.457801
11.374950
10.832548
11.196733
10.996461
11.029840
10.439754
10.962486
10.562539
10.091662
10.862947
10.431409
10.564923
11.736751
10.954738
11.555552
11.558533
11.056662
11.246800
11.389852
11.551976
11.615753
11.705756
11.721849
12.086630
11.550784
11.138916
11.833906
11.475682
11.503696
11.280775
##ZVALUE=265
1.693964
1.776814
1.849532
2.307892
1.665950
1.671910
1.920462
2.172589
2.321601
2.359748
2.689958
2.434850
3.193617
3.843904
9.197593
46.680570
116.989017
299.919844
535.583496
973.954797
1016.001701
1016.001701
1016.001701
1016.001701
1016.001701
1016.001701
1016.001701
872.988701
469.373465
278.657675
136.484504
93.540549
96.782446
118.412971
147.705674
162.802935
171.841979
167.065859
146.393776
129.200816
102.084875
80.588460
56.659579
44.078827
33.732653
29.135942
26.367903
26.603937
26.162863
24.189949
25.447607
24.426579
23.190975
22.927523
23.733974
22.623539
22.427440
21.885633
20.562410
20.650625
19.833446
19.482970
18.707514
18.808842
17.560720
17.327666
17.227530
17.265677
16.972423
17.418861
17.896891
17.958879
17.948747
18.514991
18.001795
18.094778
16.513467
16.028881
14.910698
14.701486
13.634562
12.986660
12.168884
11.919737
11.152625
11.632442
11.366606
10.294914
10.688901
10.356903
10.356903
10.549426
9.901524
11.001825
10.497570
10.241866
10.941625
10.678768
10.494590
10.933876
10.243654
10.809898
11.363626
10.623932
11.226535
10.863543
10.695457
11.679530
10.841489
11.927485
11.200905
11.161566
10.915995
11.461973
11.223555
11.099577
##ZVALUE=270
1.770854
1.628995
1.934767
1.707673
1.827478
1.697540
1.624823
1.730919
1.814961
2.070665
1.943707
2.309680
2.377629
2.374649
2.843738
3.054738
4.375577
21.963716
67.371726
220.375657
431.233644
867.968798
1016.001701
1016.001701
1016.001701
1016.001701
1016.001701
1016.001701
1016.001701
1016.001701
762.292743
452.111959
205.008984
111.495852
81.704855
96.106529
125.294924
149.136782
173.295736
177.333951
176.230669
158.803463
138.091445
107.360482
83.833933
58.792830
47.987700
37.923455
33.176541
30.782819
28.271675
27.917624
27.177930
26.970506
25.416613
25.323629
24.287701
22.877455
22.763610
22.550821
21.377802
21.064878
20.367503
19.557476
18.965602
18.805861
17.915964
17.717481
18.135905
18.357635
18.168688
18.686652
19.355416
19.213557
18.841624
17.570853
17.318726
17.336607
15.600920
14.792681
13.768673
12.810826
12.556911
11.543632
12.035966
11.380911
11.156797
10.632873
10.801554
10.025501
10.021925
9.928942
10.084510
10.086894
10.144711
10.418892
10.017753
10.148883
10.156631
10.460615
9.880662
10.239482
10.121465
10.951757
10.938644
10.729432
10.628700
10.936856
10.993481
10.302663
10.486841
11.140704
10.606647
10.634661
10.347962
10.760427
##ZVALUE=275
1.450777
1.475811
1.500845
1.538992
1.697540
1.817942
1.465678
1.761913
1.518726
2.161860
2.087951
2.014637
2.276897
2.173781
2.184510
2.622604
2.942681
3.511906
3.450513
10.449886
40.359497
152.625442
331.699848
743.808746
1016.001701
1016.001701
1016.001701
1016.001701
1016.001701
1016.001701
1016.001701
1016.001701
995.776057
636.350513
283.776522
148.383975
79.934597
76.020956
101.777911
127.049685
152.602792
171.769857
182.790756
178.479552
158.866644
138.589740
110.125542
87.828636
62.763691
48.772693
37.838817
33.652782
29.109716
27.704835
26.904941
25.573969
24.411678
24.346709
23.577809
23.108721
22.444725
21.820664
20.117760
20.938516
19.375682
18.429756
18.608570
17.770529
18.313527
18.452406
18.969774
18.951893
19.192696
19.546747
18.659830
18.043518
16.972423
16.455650
15.852451
14.673471
13.689995
12.775660
12.797713
11.944771
11.139512
11.299849
10.491610
10.632873
10.539889
10.154843
10.176897
10.084510
9.790659
9.993911
9.357929
10.463595
9.358525
9.386539
9.617805
9.284616
9.292960
9.577870
10.092854
10.235906
10.690689
10.626912
10.578632
10.664463
10.603666
11.034608
10.349751
10.353923
9.944439
9.912848
10.285974
10.235906
##ZVALUE=280
1.143813
1.356602
1.326799
1.282692
1.505613
1.646876
1.536608
1.583695
1.771450
1.790524
1.624823
1.804829
1.678467
1.894832
2.052784
2.094507
2.297759
2.570748
2.699494
3.040433
3.542900
6.091595
25.772452
89.306831
287.248492
539.608598
984.390974
1016.001701
1016.001701
1016.001701
1016.001701
1016.001701
1016.001701
1016.001701
1016.001701
787.699819
388.282537
204.931498
88.361502
65.294504
76.006651
96.900463
129.184723
148.632526
170.692801
176.296830
169.367790
156.047940
128.600001
107.860565
79.132915
61.056614
42.850971
34.792423
27.456880
25.522709
24.090409
22.940636
21.814704
21.645427
20.336509
19.544959
20.269752
20.038486
18.801689
18.015504
17.594695
17.719865
17.935634
17.220974
17.733574
17.967820
17.791986
17.672777
18.198490
17.063618
16.184449
16.049743
15.497804
14.256835
13.006926
12.787580
11.978745
11.452436
11.528730
11.168718
10.860562
10.182858
10.096431
10.053515
10.157824
10.123849
9.628534
9.608865
9.754896
9.606481
9.678602
9.592772
9.040833
9.710789
9.459853
9.407997
9.712577
9.615421
9.551644
9.800792
9.781718
9.962916
9.434819
9.909868
10.177493
9.939671
9.766817
9.456873
9.940863
9.382963
##ZVALUE=285
1.056790
1.128912
1.231432
1.088977
1.341701
1.388788
1.259446
1.540780
1.509786
1.578927
1.520514
1.662970
1.909733
1.529455
1.766682
2.093911
1.990795
1.983643
2.404451
2.285838
2.619624
2.958775
3.448725
3.928542
12.979507
48.014522
165.433884
350.152850
775.259733
1016.001701
1016.001701
1016.001701
1016.001701
1016.001701
1016.001701
1016.001701
1016.001701
1011.701822
569.895506
327.839851
136.795640
69.161654
52.152872
64.798594
92.036724
114.913583
139.454007
156.906843
165.143609
161.404610
146.369934
128.050447
100.096464
77.877641
53.784847
38.927794
28.267503
22.699833
20.105839
18.481612
17.726421
17.493963
17.001629
16.951561
16.469955
16.302466
15.619993
16.195774
16.223788
16.237497
17.214417
16.722679
16.533732
16.216636
16.419888
16.223788
15.343428
14.782548
13.859868
13.534427
12.513995
12.243986
11.965632
11.533499
10.985732
10.683537
10.373592
10.480881
9.566545
9.711981
9.734631
9.663701
9.358525
9.589791
9.502769
9.441972
8.830428
9.405613
9.897947
9.568930
9.178519
9.413958
9.149909
9.123683
8.914471
9.780526
9.485483
9.354949
9.129643
9.897947
9.678602
9.562969
9.576678
9.163618
9.441972
9.144545
##ZVALUE=290
1.193881
1.139641
1.182556
1.304746
1.330972
1.369715
1.132488
1.270771
1.403689
1.293421
1.449585
1.282692
1.218915
1.628995
1.607537
1.585484
1.736879
1.774430
1.886487
1.980662
2.059937
2.454519
2.688766
2.943873
3.374815
3.815889
4.916787
16.227961
82.886815
207.402706
518.934727
887.857676
1016.001701
1016.001701
1016.001701
1016.001701
1016.001701
1016.001701
1016.001701
1016.001701
813.880563
480.774045
199.934840
91.085434
40.060878
40.412545
57.923794
76.503754
105.608702
125.689507
146.106482
155.260563
152.534842
139.701962
117.045641
94.397664
66.590905
50.255656
32.733679
24.881959
18.243790
16.314983
14.504790
14.233589
13.726950
13.831854
13.237596
13.544559
13.779998
14.457703
14.679432
14.941692
15.186667
15.230775
15.099645
13.773441
13.724566
13.408661
12.339950
11.921525
11.355877
11.530519
10.541677
10.716915
10.410547
10.700822
10.073781
10.248423
9.824634
10.086894
9.635687
9.303689
9.553432
9.622574
8.993745
9.165406
9.411573
9.028912
9.150505
9.476542
9.429455
9.016991
9.369850
9.431839
8.978844
9.648800
9.245872
9.064674
9.357929
9.264946
9.466410
8.994937
9.361506
9.260774
9.264946
8.576512
##ZVALUE=295
0.987649
1.153946
1.065731
1.230836
0.939965
1.270771
1.237988
1.195669
1.300573
1.318455
1.344681
1.349449
1.268983
1.347661
1.267791
1.495481
1.519918
1.635551
1.674891
1.806617
1.790524
1.906753
2.198815
2.298951
2.431870
2.869964
3.395677
3.715754
4.310608
7.338524
42.755604
124.716759
366.111994
698.220730
1016.001701
1016.001701
1016.001701
1016.001701
1016.001701
1016.001701
1016.001701
1016.001701
999.898911
648.411512
281.517506
130.213499
44.964552
29.075742
36.259890
51.011443
72.973967
93.367696
120.147467
134.847760
143.288970
142.998695
128.726959
113.297701
86.715817
67.446828
45.274496
32.891631
20.948648
16.718507
13.187528
12.424588
11.789799
12.252927
12.329817
12.602806
12.799501
13.356805
13.661981
13.998747
13.214946
13.660789
12.707710
12.411475
12.228489
11.933446
11.354685
10.898709
10.849833
10.714531
10.079741
9.919405
9.586811
9.778738
9.668469
9.532571
9.886622
9.353757
9.149909
9.399652
9.101629
9.290576
8.853674
9.390712
9.344816
8.995533
8.854866
8.792877
8.491874
9.575486
9.225607
9.227991
8.883476
9.374619
9.161830
8.724928
9.450912
9.036660
9.176731
8.856654
8.971691
8.688569
##ZVALUE=300
1.088977
1.210570
1.132488
1.042485
1.014471
1.239777
1.209974
1.210570
1.222491
1.134872
1.274943
1.208782
1.182556
1.282692
1.345873
1.291633
1.461506
1.394749
1.489520
1.464486
1.567602
1.903772
1.817942
1.819730
2.056956
2.370477
2.379417
2.843738
2.816916
3.489852
3.560781
5.128980
15.593767
86.625814
212.935805
544.748902
944.227576
1016.001701
1016.001701
1016.001701
1016.001701
1016.001701
1016.001701
1016.001701
1016.001701
805.589557
457.328558
188.892484
84.206462
30.328631
23.436546
31.563640
44.079423
65.292716
85.171461
111.702681
125.359893
136.737823
134.840608
124.494433
108.658671
84.303617
65.636635
43.851733
31.755567
20.658970
15.663505
12.341738
11.651516
11.313558
11.816621
11.884570
12.558699
12.619495
12.486577
12.416840
12.169480
11.614561
10.976791
10.943413
10.457635
9.893775
10.067821
9.993911
9.416938
9.487867
9.667873
9.526610
9.754896
9.079576
9.114742
9.209514
9.408593
9.233952
8.576512
9.556413
9.095669
8.320808
8.712411
8.959770
8.534789
8.844733
8.945465
9.082556
8.817911
8.767843
8.826852
9.136796
9.019971
8.740425
9.591579
8.955598
8.431673
8.401871
8.718967
8.780956
##ZVALUE=305
0.951886
1.068711
0.995994
1.081824
1.019835
1.015663
1.091957
1.147985
1.132488
1.236796
1.223683
1.209974
1.106858
1.238585
1.094937
1.432896
1.332760
1.288652
1.224875
1.440644
1.286864
1.621842
1.570582
2.028942
1.946688
2.033710
2.132654
2.298951
2.396703
2.751946
2.819896
3.089905
3.606677
4.142523
9.658933
38.146973
163.191557
361.998677
822.252035
1016.001701
1016.001701
1016.001701
1016.001701
1016.001701
1016.001701
1016.001701
1016.001701
1016.001701
587.476492
321.219563
120.108724
47.845840
19.571781
20.903945
29.267669
41.896701
64.816475
81.172585
103.595853
117.748976
129.195452
128.132701
116.673708
102.858543
79.541802
63.936710
41.536689
29.869676
19.003749
14.563799
11.982918
11.564493
12.103915
11.639595
11.561513
10.817647
11.240840
10.256767
10.149479
9.848475
9.934902
9.948611
9.704828
9.484887
9.751916
9.580851
9.408593
9.804964
9.080768
8.866787
9.138584
8.925796
8.682609
8.423924
8.624792
8.754730
8.583665
8.673668
8.623600
8.981824
8.762479
9.022951
8.654594
8.857846
8.770823
9.190440
8.490682
8.997917
8.994937
8.857846
8.469820
8.750558
8.715987
8.806586
8.493662
8.563995
##ZVALUE=310
0.899434
0.843406
0.808835
1.004934
0.914931
0.942945
1.011491
1.045465
1.068711
1.151562
1.073480
1.089573
1.139641
1.041889
1.081824
1.132488
1.068711
1.147985
1.189709
1.457930
1.326799
1.345873
1.488924
1.758933
1.679659
1.730919
1.708865
1.842976
2.077818
2.127886
2.316833
2.399683
2.614856
3.101826
3.369451
3.755689
4.984736
15.642643
89.511871
225.442648
469.918847
965.888500
1016.001701
1016.001701
1016.001701
1016.001701
1016.001701
1016.001701
1016.001701
1016.001701
913.477540
533.273816
218.776464
92.944503
25.109649
15.720725
18.653870
25.414824
38.759708
51.992536
74.561834
91.472864
110.703707
120.076537
121.732950
115.198493
97.525716
80.739856
57.632923
42.874813
29.610991
21.510720
15.392900
13.019443
11.475682
10.417700
10.078549
9.539723
9.534955
9.273887
9.294748
8.822680
8.956790
9.100437
8.747578
8.832812
8.939505
9.046793
8.995533
8.943677
8.571744
9.050965
8.613467
8.907914
8.659959
8.391738
8.728504
8.650422
8.799434
8.605719
8.453727
8.645654
9.312630
8.995533
9.488463
8.714795
9.086728
8.544922
9.138584
8.687973
8.870959
8.940697
8.792877
8.508563
8.625984
8.508563
##ZVALUE=315
0.824928
0.738502
0.701547
1.001954
0.922680
0.747442
0.936985
1.018643
0.984669
1.047850
1.090765
1.130700
1.154542
1.015663
0.885725
1.050830
1.044869
1.156926
1.100898
1.108646
1.220703
1.106858
1.319647
1.274943
1.401901
1.418591
1.488924
1.975894
1.658797
1.889467
2.011657
2.229810
2.109408
2.302527
2.407432
2.699494
3.110766
3.509521
4.342794
7.300973
45.484900
131.441355
387.125015
710.696578
1016.001701
1016.001701
1016.001701
1016.001701
1016.001701
1016.001701
1016.001701
1016.001701
1016.001701
688.290000
313.450694
143.681765
37.108660
16.461611
13.653636
16.661882
23.732781
33.457875
51.582456
66.613555
89.100003
101.398826
114.852786
114.121437
106.920600
93.987584
73.204637
57.778955
40.703416
29.757619
19.414425
15.221834
11.391640
9.563565
9.044409
8.945465
8.928776
8.690953
8.534789
8.608699
8.865595
8.280873
8.416772
8.535981
8.352995
8.674860
8.511543
8.600950
8.424520
9.045601
8.438826
8.409619
8.160472
8.569956
8.381605
8.599758
8.773804
8.733869
8.785725
8.967519
9.351969
9.047985
9.144545
9.350777
9.073615
8.971691
8.942485
9.059906
9.189844
9.066463
9.248853
8.806586
##ZVALUE=320
0.798702
0.723600
0.669956
0.798702
1.018643
0.942945
0.927448
0.795722
0.903606
1.023412
1.049638
0.952482
0.960827
1.012683
0.826716
1.176596
1.059771
1.118779
1.011491
1.176596
1.010895
1.190901
1.323819
1.257658
1.344681
1.446605
1.170635
1.438856
1.590848
1.560450
1.677871
1.705885
1.713634
1.924634
2.105832
2.215505
2.557635
2.862811
2.864599
3.144741
3.849864
4.419684
19.989610
71.069002
254.492760
512.532592
980.407000
1016.001701
1016.001701
1016.001701
1016.001701
1016.001701
1016.001701
1016.001701
1016.001701
888.779759
406.589508
207.789540
67.460537
25.669932
12.262464
12.176633
15.583634
20.377636
31.257868
43.928623
63.071847
78.191757
97.279549
105.292797
107.830763
102.982521
87.313652
74.555874
54.235458
40.790439
26.977658
18.280745
12.609959
10.159612
8.782744
8.321404
7.947683
8.156896
8.092523
7.853508
8.147955
7.959604
8.365512
8.107424
8.397698
8.408427
8.294582
8.047819
8.395910
8.782744
8.699894
8.407831
8.383989
8.612871
8.682609
8.857846
8.954406
8.706450
9.000897
9.039640
9.234548
9.071827
8.866787
9.228587
9.398460
8.952618
9.073615
8.929968
8.732677
8.982420
##ZVALUE=325
0.771880
0.753999
0.610948
0.734925
0.777841
0.891685
1.002550
0.748634
0.708699
0.839829
0.832677
0.956655
0.902414
0.875592
0.808835
0.986457
0.935793
0.783801
1.137853
0.965595
1.018643
0.982881
1.230836
1.109838
1.063943
1.321435
1.208782
1.302958
1.366735
1.397729
1.520514
1.592636
1.552701
1.563430
2.018809
1.916885
1.996756
1.960993
2.275705
2.541542
2.816916
3.001690
3.542900
3.732443
7.561445
56.631565
151.284933
393.107533
717.732906
1016.001701
1016.001701
1016.001701
1016.001701
1016.001701
1016.001701
1016.001701
1016.001701
997.456908
532.346964
288.918018
100.640655
37.235618
13.015866
11.138916
11.286736
13.726950
20.006895
27.982593
44.989586
59.510469
78.678727
89.858770
101.509690
101.537704
94.251633
84.269643
66.356659
51.748753
34.152865
24.849772
15.904903
12.190938
9.560585
8.440614
8.229613
8.221865
7.734895
7.631779
7.646680
7.949471
7.642508
7.750988
7.798672
7.860661
8.335710
8.184910
8.040667
8.086562
8.217692
8.280873
8.896589
8.565784
8.826852
8.957982
8.999705
8.909702
8.986592
9.391904
9.353757
8.977652
9.020567
9.301901
9.316802
9.446740
8.979440
8.904934
##ZVALUE=330
0.696778
0.736713
0.849962
0.762939
0.738502
0.728965
0.869632
0.945926
1.038909
0.699759
0.834465
0.740886
1.001954
0.787973
0.776649
0.971556
0.837445
0.791550
1.046658
0.866652
0.974536
1.100898
0.970960
0.922680
0.955462
0.997782
1.162887
1.142621
1.015663
1.028776
1.405478
1.501441
1.624823
1.527667
1.690984
1.650453
1.849532
1.764894
2.168417
2.282858
2.078414
2.584457
2.549887
2.653599
3.261566
3.635883
5.080700
18.042922
99.138618
238.660574
573.996902
953.424573
1016.001701
1016.001701
1016.001701
1016.001701
1016.001701
1016.001701
1016.001701
1016.001701
699.355602
386.706591
145.161748
61.390996
17.277598
10.623932
10.019541
10.537505
13.784766
18.857718
29.721856
40.453672
56.650639
69.736838
85.984468
91.967583
93.696713
88.672638
75.463653
61.348677
45.897961
34.776926
22.979975
17.138720
11.619925
9.295940
8.275509
7.943511
7.631779
7.633567
7.486939
7.545948
7.443428
7.697940
7.872581
7.596612
7.978678
8.188486
8.343458
8.301735
8.346438
8.332729
8.716583
8.841753
9.341836
9.119511
9.247661
9.409785
9.324551
9.315610
9.359717
9.375811
9.346604
9.338856
8.806586
9.346604
##ZVALUE=335
0.613928
0.715852
0.627637
0.525713
0.791550
0.787973
0.748634
0.714660
0.738502
0.745654
0.696778
0.747442
0.758767
0.783801
0.706911
0.793934
0.770688
0.844598
0.952482
0.934601
1.127720
0.833869
0.731945
0.951886
1.037717
1.074672
1.073480
1.041889
1.341701
1.186728
1.279712
1.307726
1.290441
1.426935
1.255870
1.326799
1.561642
1.510978
1.642704
1.800656
1.770854
2.136827
2.056956
2.228618
2.332926
2.600551
2.913475
3.210902
3.761649
8.191466
52.439570
146.108866
411.252975
733.281970
1016.001701
1016.001701
1016.001701
1016.001701
1016.001701
1016.001701
1016.001701
1016.001701
865.957737
510.015488
208.430886
91.452003
25.919676
12.257695
9.947419
9.792447
10.778904
12.945533
18.491745
25.684834
38.496852
49.718618
67.369938
77.548623
86.509585
87.656975
80.969930
71.734786
58.698654
46.575665
32.647848
24.631619
16.262531
12.373924
9.377599
8.186698
7.736683
7.455945
7.523894
7.607937
7.647872
7.616878
7.729530
7.741451
8.262992
8.138418
8.201599
8.465648
8.744597
8.715987
9.061694
9.202957
9.722710
9.253621
9.136796
9.508729
9.598732
9.554625
9.346604
9.154677
9.209514
9.451509
##ZVALUE=340
0.661612
0.717640
0.689626
0.739694
0.581741
0.755787
0.627637
0.721812
0.759959
0.593662
0.662804
0.513792
0.728965
0.646710
0.635982
0.870824
0.730753
0.751615
0.927448
0.731945
0.945926
0.867844
0.949502
0.902414
1.027584
0.862479
0.688434
0.957847
1.056790
1.052618
1.097918
0.940561
1.129508
0.940561
1.201630
1.208782
1.333952
1.389980
1.595616
1.458526
1.635551
1.687407
1.885891
1.980662
1.985431
2.175570
2.216697
2.677441
2.623796
3.203750
3.446937
4.511476
23.845434
86.590648
294.791460
568.862557
1016.001701
1016.001701
1016.001701
1016.001701
1016.001701
1016.001701
1016.001701
1016.001701
966.053009
610.687733
274.425745
125.999451
33.158660
13.871789
10.144711
9.568930
9.392500
9.939671
12.657642
16.006827
24.869442
34.085512
49.710870
61.928630
74.784756
80.132484
81.269741
78.061819
67.592859
57.625771
43.528676
33.787489
22.282600
16.579628
11.690855
9.527802
8.151531
7.482767
7.321835
7.645488
7.582903
7.934570
7.970929
8.146763
8.122921
8.161664
8.612871
8.731484
8.923411
8.786917
9.261966
9.162426
9.310842
9.403825
9.267926
9.310842
9.360909
9.438992
9.282827
8.986592
##ZVALUE=345
0.635982
0.583529
0.576973
0.605583
0.587702
0.617504
0.726581
0.751615
0.760555
0.642538
0.696778
0.805855
0.740886
0.725985
0.659823
0.611544
0.720620
0.817776
0.796914
0.849962
0.879765
1.041889
0.797510
0.984669
0.774860
0.750422
0.757575
1.218915
1.077652
1.028776
0.894666
1.010895
1.054406
1.038909
1.282692
1.159906
1.260638
1.167655
1.390576
1.463890
1.457930
1.436472
1.666546
1.764894
1.681447
1.948476
1.876950
2.025962
2.182722
2.235770
2.479553
2.845526
3.116727
3.710985
10.249615
46.116710
200.235844
410.229564
863.282681
1016.001701
1016.001701
1016.001701
1016.001701
1016.001701
1016.001701
1016.001701
1016.001701
804.002881
363.563895
171.761513
52.103996
20.609498
10.657907
9.600520
9.045601
8.530617
8.661747
10.679960
15.763640
21.793842
33.045411
43.240786
56.831837
66.459775
73.661804
75.968504
71.843863
66.261888
54.195523
44.200420
31.344891
23.161769
15.923977
12.328625
9.635687
8.560419
7.771850
7.858872
7.458925
7.796884
7.706881
8.057952
8.032918
8.282661
8.394718
8.417964
8.612871
9.106994
9.131432
9.132624
9.495616
9.392500
8.965731
8.949637
9.221435
9.464622
##ZVALUE=350
0.772476
0.544786
0.718832
0.645518
0.600815
0.768900
0.695586
0.703931
0.707507
0.794530
0.863671
0.728965
0.742674
0.832677
0.866652
0.640750
0.865459
0.699759
0.803471
0.872612
0.872612
0.955462
0.954866
0.984669
0.869632
0.909567
0.909567
0.872612
0.972748
0.736713
0.886917
1.096725
1.017451
0.924468
1.163483
1.039505
1.133680
1.154542
1.067519
1.213551
1.413822
1.302958
1.422763
1.604557
1.533628
1.626611
1.561642
1.658797
2.036691
1.990795
2.166629
2.268553
2.463460
2.675653
2.894998
3.370643
5.686879
22.568703
117.493868
275.027752
658.663511
1016.001701
1016.001701
1016.001701
1016.001701
1016.001701
1016.001701
1016.001701
1016.001701
932.564735
461.528897
248.136520
91.740489
33.522844
11.287928
8.985996
8.162856
7.588863
7.546544
7.902980
10.045767
13.556480
20.254850
27.274489
39.418936
48.787594
59.971809
66.632628
69.927573
68.250895
61.510801
52.439570
40.958524
32.062531
22.428632
17.818809
12.528896
10.188818
8.626580
8.362532
7.802844
8.009672
8.161664
8.237958
8.499622
8.284450
8.749962
8.904934
8.593798
8.759499
8.891821
8.929968
8.810759
8.882880
8.973479
8.920431
##ZVALUE=355
0.758767
0.721812
0.591874
0.692606
0.722408
0.710487
0.673532
0.776649
0.627637
0.713468
0.851750
0.641942
0.736713
0.812411
0.804663
0.747442
0.719428
0.806451
0.883937
0.919700
0.877976
0.880957
0.963807
0.960827
0.907779
0.776649
0.805855
0.871420
0.898838
1.065731
0.958443
0.899434
0.956655
1.034737
0.968575
1.003742
1.237988
0.999570
1.204610
1.231432
1.295805
1.343489
1.468658
1.448989
1.574755
1.562834
1.796484
1.687407
1.708865
1.621842
1.736879
1.906753
2.343655
2.250671
2.503991
2.754927
3.020763
3.216863
3.947616
9.026527
62.562823
184.224844
496.141911
848.886967
1016.001701
1016.001701
1016.001701
1016.001701
1016.001701
1016.001701
1016.001701
1016.001701
633.744597
346.052647
128.107667
50.485730
13.192892
8.837581
8.068681
7.431507
7.084608
7.016659
7.747412
8.746982
12.066960
17.080903
25.576949
33.171773
44.455528
52.198768
60.071945
63.219666
62.029958
57.395697
48.368573
40.685534
30.817986
24.193525
17.071962
13.542771
10.572672
9.031892
8.520484
8.123517
8.037686
8.201599
8.254647
8.185506
8.122921
8.482933
8.580685
8.445978
8.660555
8.316636
8.391738
8.480549
##ZVALUE=360
0.706911
0.830889
0.862479
0.739694
0.795722
0.886917
0.691414
0.616908
0.613928
0.633597
0.738502
0.760555
0.844598
0.733733
0.751615
0.668764
0.780821
0.816584
0.759959
0.939965
0.833869
0.911951
0.921488
1.028776
0.983477
0.988841
0.881553
1.238585
1.003742
0.994802
0.884533
1.003742
1.147985
0.991821
1.100898
1.103878
1.091957
1.186728
1.325607
1.244545
1.404881
1.451969
1.367927
1.353621
1.451969
1.395941
1.406670
1.499653
1.656413
1.717806
1.697540
1.797676
2.094507
2.028942
2.139807
2.305508
2.408624
2.694726
2.955794
3.472567
3.686547
6.927848
27.096868
89.031458
304.471850
593.048930
1016.001701
1016.001701
1016.001701
1016.001701
1016.001701
1016.001701
1016.001701
1016.001701
854.845643
405.630469
204.962492
68.458915
24.364591
9.272695
7.951856
7.513762
7.003546
6.821752
6.489754
7.314682
7.906556
10.262728
13.705492
20.816922
28.509498
39.006472
46.419501
53.784847
58.037639
57.731867
54.337978
48.300624
41.499734
32.057762
25.480986
17.912984
14.091730
10.851622
9.514689
8.451939
8.069873
7.859468
8.160472
7.887483
7.787943
7.946491
7.742643
7.703900
7.847548
7.774830
##ZVALUE=365
0.784993
0.618696
0.885725
0.717640
0.751615
0.713468
0.835657
0.689626
0.796914
0.663996
0.796914
0.828505
0.866652
0.743866
0.827909
0.829697
0.804663
0.771880
0.744462
0.686646
0.944734
0.949502
0.951886
0.927448
0.929832
0.916719
0.938773
0.869632
0.900626
1.165867
1.132488
1.021624
1.019835
1.171827
1.076460
1.140833
1.198649
0.986457
1.128912
1.221895
1.234412
1.180768
1.257658
1.364946
1.292825
1.434684
1.488924
1.500845
1.579523
1.526475
1.588464
1.741648
1.717806
1.765490
1.835823
1.855493
2.060533
2.086759
2.461672
2.624989
2.895594
3.212690
3.703833
4.257560
10.563731
42.902827
187.442899
416.465402
941.805840
1016.001701
1016.001701
1016.001701
1016.001701
1016.001701
1016.001701
1016.001701
975.646973
611.987710
261.471868
117.131472
30.830503
12.663603
7.902980
7.226467
6.753802
6.641746
6.137490
5.974770
6.344914
7.144809
9.144545
12.062788
18.037558
24.243593
33.630729
40.019751
48.257709
51.626563
53.847432
51.969886
46.948791
40.963888
31.884909
25.887489
19.100904
14.725924
11.113882
9.231567
8.361936
7.857680
7.492900
7.456541
7.191896
7.101893
7.211566
6.916523
##ZVALUE=370
0.627637
0.752807
0.711679
0.702739
0.707507
0.680685
0.606775
0.496507
0.647902
0.614524
0.728965
0.741482
0.742674
0.721812
0.645518
0.903606
0.874996
0.851750
0.753999
0.736713
0.738502
1.012683
0.989437
0.757575
0.899434
0.740886
0.807643
0.904799
0.909567
0.937581
1.092553
0.918508
0.902414
0.973940
1.105666
0.989437
1.029968
1.118779
1.172423
1.004934
1.057982
1.139641
1.109838
1.274943
1.202822
1.094937
1.126528
1.313686
1.292825
1.382828
1.247525
1.349449
1.263618
1.468658
1.523495
1.590848
1.764894
1.828671
1.853704
1.880527
2.215505
2.449751
2.635717
2.720952
3.231764
3.604889
5.550981
20.834804
125.132799
306.484699
707.342029
1016.001701
1016.001701
1016.001701
1016.001701
1016.001701
1016.001701
1016.001701
1016.001701
729.680657
334.594846
166.319609
56.564808
20.597577
7.896423
7.015467
6.403923
6.258488
5.910993
5.923510
5.834699
5.915761
7.173419
8.055568
11.708736
15.348792
21.903515
27.495623
35.915971
41.997433
48.241615
50.715804
49.341917
45.973659
39.229989
33.121705
25.561452
20.206571
15.166998
12.170672
9.516478
8.281469
7.477999
6.855726
6.806850
6.903410
##ZVALUE=375
0.589490
0.690818
0.713468
0.617504
0.529885
0.621676
0.738502
0.615716
0.652671
0.653863
0.596642
0.516772
0.724792
0.640750
0.675917
0.756979
0.727773
0.774860
0.922680
0.701547
0.730753
0.795722
0.699759
0.704527
0.822544
0.786781
0.831485
0.823736
0.931621
0.955462
0.871420
0.880957
0.973940
0.982881
0.860691
0.907779
1.027584
1.003742
0.809431
1.073480
1.064539
1.154542
1.005530
0.954866
1.101494
1.055598
1.095533
1.068711
1.351833
1.151562
1.209974
1.191497
1.348853
1.279712
1.452565
1.187921
1.434684
1.551509
1.611710
1.758933
1.668930
1.815557
2.052784
2.129674
2.428889
2.380610
2.824664
3.144741
4.152656
9.916425
55.144429
162.748098
485.075712
874.141455
1016.001701
1016.001701
1016.001701
1016.001701
1016.001701
1016.001701
1016.001701
959.759951
524.689555
290.192962
108.686686
42.216778
11.032820
6.966591
6.363988
6.076694
5.937815
5.794764
5.520582
5.612969
5.640984
6.097555
7.397532
9.092689
12.763739
17.124414
24.280548
31.024814
39.399862
44.181943
47.622919
47.522783
44.453740
38.977861
33.902526
27.929544
20.935535
16.854405
12.319684
10.075569
7.834435
6.796718
##ZVALUE=380
0.505447
0.676513
0.592470
0.560880
0.518560
0.662804
0.576973
0.815988
0.744462
0.668764
0.606775
0.586510
0.569820
0.614524
0.569820
0.598431
0.758767
0.758767
0.653863
0.540614
0.613928
0.628829
0.734925
0.682473
0.844598
0.800490
0.713468
1.000762
0.757575
0.911951
0.987649
0.848770
0.847578
1.087785
1.000762
0.972748
1.081824
0.937581
0.966787
0.978708
1.055598
0.974536
1.140833
1.030564
1.176000
1.113415
1.086593
1.096725
1.066923
0.950694
1.015663
1.056790
1.270771
1.103878
1.257658
1.328588
1.412630
1.445413
1.432896
1.426935
1.616478
1.727939
1.682639
1.648664
1.823902
1.874566
2.278686
2.443790
2.947450
3.228784
3.864765
6.081462
30.652881
98.295808
317.555666
610.353947
1016.001701
1016.001701
1016.001701
1016.001701
1016.001701
1016.001701
1016.001701
1016.001701
700.025558
405.234694
162.151456
70.200562
17.694831
7.976890
6.674528
6.055832
5.661845
5.614758
5.292892
5.322695
5.429983
5.433559
5.543828
6.474853
8.379817
11.091828
16.072989
21.405816
29.392838
35.294890
41.204691
44.836998
45.320988
43.470860
40.251613
33.478737
28.456450
20.853877
16.493797
12.156963
##ZVALUE=385
0.484586
0.684857
0.560880
0.703931
0.524521
0.607967
0.594854
0.609756
0.500679
0.631809
0.567436
0.742674
0.621676
0.497699
0.609756
0.567436
0.527501
0.514984
0.698566
0.657439
0.728965
0.646710
0.704527
0.760555
0.750422
0.762939
0.729561
0.784993
0.901818
0.902414
0.783801
1.072884
1.083612
0.956655
0.895858
1.051426
0.979900
0.931621
0.974536
1.066923
1.214743
1.207590
1.064539
1.075864
1.115799
1.011491
1.058578
1.098514
1.088977
0.852942
1.156926
1.071692
1.128912
1.216531
1.306534
1.360774
1.194477
1.226664
1.185536
1.370907
1.384616
1.387596
1.610518
1.553893
1.611710
1.773834
1.891851
2.100468
2.207756
2.589822
2.873540
3.163815
3.459454
4.045963
13.694763
50.030947
199.331641
434.151888
937.888622
1016.001701
1016.001701
1016.001701
1016.001701
1016.001701
1016.001701
1016.001701
948.671699
601.611733
271.626711
126.191974
33.529997
11.785626
6.435513
6.215572
5.713701
5.594492
5.604625
5.186796
5.276799
5.091429
5.043745
5.022883
5.670786
6.792545
9.545684
13.947487
18.756986
25.158525
29.493570
36.068559
39.393902
41.526556
41.544437
37.773848
33.871531
27.711987
##ZVALUE=390
0.447631
0.491738
0.599623
0.476837
0.608563
0.531673
0.722408
0.579953
0.568628
0.562668
0.559688
0.525713
0.566840
0.596642
0.528693
0.644922
0.602603
0.491738
0.572801
0.523925
0.484586
0.623465
0.543594
0.673532
0.845790
0.920892
0.878572
0.865459
0.944734
0.913739
1.063943
1.094937
1.123548
0.988841
1.050830
1.098514
1.033545
1.202822
1.139641
1.092553
1.300573
1.160502
1.220703
1.251698
1.202822
1.107454
1.064539
1.206994
1.151562
1.403689
1.193881
1.197457
1.151562
1.186728
1.289845
1.042485
1.039505
1.232624
1.293421
1.399517
1.533628
1.314878
1.422763
1.411438
1.543760
1.452565
1.769662
1.953840
2.206564
2.396703
2.466440
2.593994
3.005862
3.048778
3.076792
3.287792
6.870627
28.429627
131.234527
303.847790
717.089772
1016.001701
1016.001701
1016.001701
1016.001701
1016.001701
1016.001701
1016.001701
1016.001701
835.247636
420.113802
211.673975
67.809820
22.979975
7.096529
6.271601
5.795956
5.377531
5.466938
5.432963
5.053878
5.203485
4.986525
5.086660
5.038977
5.556941
6.410480
8.992553
11.756420
15.407801
20.869970
26.058555
32.508969
36.385655
39.077997
38.683414
##ZVALUE=395
0.561476
0.623465
0.538826
0.519753
0.633597
0.507832
0.720620
0.516772
0.615716
0.464916
0.607967
0.485778
0.606775
0.608563
0.588894
0.708699
0.585914
0.538826
0.599623
0.556707
0.615716
0.584722
0.691414
0.668764
0.599623
0.775456
0.774860
0.887513
0.953674
0.994802
0.927448
1.200438
1.130700
1.003742
1.105666
1.187921
1.306534
1.133680
1.259446
1.071692
1.213551
1.229644
1.271963
1.182556
1.312494
1.288652
1.255870
1.158714
1.290441
1.292825
1.223683
1.256466
1.362562
1.267791
1.261830
1.318455
1.192689
1.339912
1.563430
1.338720
1.356602
1.409650
1.487732
1.395941
1.474619
1.684427
1.658797
1.850724
2.046824
2.282858
2.512932
2.600551
2.682805
2.675653
2.479553
2.639890
2.771616
3.030896
4.723668
15.167594
81.172585
206.323862
510.127544
873.900652
1016.001701
1016.001701
1016.001701
1016.001701
1016.001701
1016.001701
1016.001701
1007.917523
554.282665
300.162435
116.556883
47.261715
11.859536
6.504655
6.006956
5.751848
5.572438
5.650520
5.417466
5.375743
5.334616
5.196929
5.034804
5.010962
5.009770
5.819798
7.181764
9.691715
12.475848
18.241405
22.671819
28.929710
##ZVALUE=400
0.739694
0.665784
0.617504
0.563860
0.598431
0.512600
0.492930
0.487566
0.484586
0.491738
0.447631
0.510812
0.532866
0.475645
0.622869
0.483990
0.536442
0.617504
0.548959
0.607967
0.704527
0.673532
0.508428
0.663996
0.758767
0.784993
0.891685
0.885725
1.002550
0.962615
0.841618
1.034737
1.019835
1.316667
1.143813
1.078844
1.153946
1.111627
1.296997
1.163483
1.248717
1.297593
1.289845
1.415610
1.305938
1.294613
1.276731
1.276731
1.332760
1.219511
1.252890
1.124740
1.317859
1.163483
1.174808
1.044869
1.125932
1.213551
1.139641
1.231432
1.292825
1.244545
1.395941
1.340508
1.283884
1.476407
1.539588
1.560450
1.922846
2.124906
2.271533
2.428889
2.218485
2.311468
2.395511
2.302527
2.419949
2.494454
2.955794
2.991557
3.631711
7.270575
41.944981
122.475624
351.357460
653.392673
1016.001701
1016.001701
1016.001701
1016.001701
1016.001701
1016.001701
1016.001701
1016.001701
751.992464
442.950726
185.399652
82.116723
21.174550
8.240938
6.028414
5.893707
5.638599
5.611777
5.711913
5.691648
5.376935
5.172491
5.234480
4.846454
5.060434
4.808903
5.319715
6.581545
8.154511
11.611581
##END
