##TITLE=8-3
##FORMAT=SPECTACLE-ASCII V-1.2
##DATA TYPE=ULTRAVIOLET SPECTRUM
##SECOND TYPE=ULTRAVIOLET SPECTRUM
##DATE=04/04/18
##TIME=13:29:04
##SPECTROMETER/DATA SYSTEM=SPECTACLE
##XUNITS=NM EM
##YUNITS=ENERGY
##YFACTOR=1
##FIRSTX=220
##LASTX=450
##NPOINTS=116
##3DDATA=Equidistant
##ZUNITS=NM EX
##FIRSTZ=210
##LASTZ=400
##ZPOINTS=39
##XYDATA=(Y..Y)
##ZVALUE=210
25.693774
27.086735
19.438863
16.572475
12.965798
11.171699
9.880662
10.172725
7.670522
6.922483
5.079508
4.411936
4.447699
4.309416
4.303455
4.475713
4.737973
4.931688
5.783439
5.936623
6.055832
7.332563
6.593466
7.644892
8.623600
10.375977
10.451674
10.539889
12.831688
14.795661
13.070703
14.793873
15.600920
16.797781
16.040802
17.515421
16.457438
16.405582
17.912984
16.998649
17.561913
16.229749
18.009543
18.126965
17.161965
16.972423
16.365647
17.218590
17.243624
16.683936
17.652512
18.225908
17.621517
19.299984
16.114712
16.672611
17.338991
17.583966
16.363859
17.451644
17.949939
16.437769
16.890764
17.167926
16.516447
17.613769
17.221570
20.801425
21.556616
26.286840
29.667616
36.172867
40.819645
47.100782
49.111843
54.162741
51.775575
52.766800
53.372979
48.090816
45.960546
39.137602
37.632585
31.479001
26.960969
21.952987
19.648671
16.507506
16.624928
19.553900
23.895502
30.660629
36.919713
44.527650
54.807663
64.882636
74.633956
89.283586
96.956491
98.729730
108.409524
111.299753
112.408996
106.272697
103.182793
99.269748
88.700652
81.819892
72.676539
55.104494
48.806667
36.868453
32.193661
24.201870
21.112561
21.552444
##ZVALUE=215
84.059834
86.940527
64.787865
49.123764
37.663579
25.934577
18.553734
17.441511
15.765429
15.938878
12.201667
11.115670
8.798838
6.999969
6.445646
5.591512
4.942417
5.266666
6.111860
6.559491
6.210804
6.175637
7.519722
7.867813
9.631515
10.280609
11.220574
12.768507
13.739467
15.611649
14.952421
15.870929
15.859604
17.190576
17.257929
19.298792
18.088818
19.810796
18.098950
18.333793
18.953681
18.911958
19.782782
19.369721
20.400882
18.841624
18.484592
19.287467
18.191934
20.121932
20.097494
17.758608
18.771887
20.268559
20.656586
20.134449
19.571781
19.294620
21.311641
19.509792
18.918514
19.546747
17.780662
19.713640
20.163655
18.904805
20.481944
20.582676
24.147630
27.118921
31.469464
39.060712
39.394498
47.520995
48.083663
49.543977
49.153566
47.258735
47.691464
42.083859
40.033460
36.653876
29.861927
28.024912
24.557710
19.785762
18.931627
17.122626
15.565753
15.289783
13.570786
13.792515
15.203953
17.034411
21.117926
27.281642
35.340786
47.527552
60.527921
75.633526
89.115500
111.918449
123.893619
147.559643
152.024627
166.191459
166.413784
167.496800
159.268975
158.193707
152.988434
138.246417
120.795965
104.240775
88.734627
67.389607
##ZVALUE=220
198.794007
190.287828
190.660954
177.495480
149.870515
104.275942
77.294707
47.653913
33.870935
26.722550
27.157664
27.473569
26.151538
19.176602
15.430450
12.050867
9.506941
8.332729
6.290674
7.712841
7.169843
8.595586
8.022785
9.547472
9.583831
10.784864
10.548830
11.583567
14.201999
14.302731
15.041828
17.434955
16.154647
17.612576
18.843412
19.404888
21.917820
21.875501
22.490621
23.045540
22.275448
22.251606
23.055673
22.391677
21.365881
23.112893
23.300648
21.000504
24.055839
24.180412
24.112463
24.247766
23.512840
24.338961
23.424625
24.541616
24.219751
23.753643
23.280978
22.116899
22.630692
23.110509
22.809505
22.830963
22.266507
22.833943
24.506450
23.000836
25.218725
30.556917
32.626987
36.683679
41.910410
41.534901
47.878623
49.803853
49.900413
46.767592
48.983693
44.408441
39.754510
38.747787
33.791661
30.291677
25.600791
22.354722
19.899607
20.327568
18.105507
18.003583
16.393661
15.743971
15.033484
16.486645
15.756488
16.247630
15.030503
15.517473
19.337535
24.359822
34.251809
45.386553
64.060688
83.325505
105.604529
130.887628
163.629651
189.683437
214.262009
240.968466
254.870653
264.557004
266.611576
268.501639
262.888670
253.902674
##ZVALUE=225
252.345800
262.617469
326.545835
358.981490
369.780660
328.457952
286.561847
208.304524
146.483779
88.983774
66.192746
44.768453
38.421750
42.219758
37.978888
35.234690
30.662417
22.030473
18.292665
13.533831
10.830760
9.491444
9.973645
9.853840
10.875463
11.109710
12.774467
13.171434
13.813972
13.816953
16.142726
16.550422
17.158985
18.707514
19.158721
20.324588
20.883679
20.921826
22.796988
24.765730
25.958419
27.143955
26.129484
26.839972
26.774406
28.983951
26.279688
28.113723
26.451945
27.092695
28.617978
28.064847
25.642514
26.062727
27.831793
28.053522
27.063489
27.018785
25.076866
27.080774
25.931597
26.092529
25.059581
25.443435
25.093555
26.050806
26.273727
26.782751
28.458834
30.878782
32.898784
36.914945
41.543841
45.093894
46.148896
48.164725
48.246980
48.112869
44.152737
41.773915
38.946867
35.914779
32.505989
29.265881
26.581883
23.688674
21.318793
20.647645
19.357800
19.401908
17.226934
17.485619
16.672611
17.720461
17.527938
16.874671
16.234517
16.484857
18.604994
15.612841
15.880466
17.253757
18.083453
20.394921
29.829741
39.921999
66.735744
94.123483
123.610497
158.626437
197.863579
253.304839
289.610624
342.008471
376.605988
404.780507
##ZVALUE=230
169.687867
178.634524
294.670463
394.547582
501.132011
600.983500
628.400445
589.904785
516.167879
379.806757
282.017589
165.198445
110.800862
73.395967
63.625574
65.247416
62.744617
60.057640
54.260492
43.249726
34.811497
26.204586
17.814636
15.163422
12.076497
12.002587
12.049675
13.802648
12.921691
15.219450
15.338659
16.161799
16.525984
18.001795
20.606518
19.101501
20.631552
23.517609
23.373961
26.130676
25.989413
26.826859
27.416945
27.966499
27.236938
29.053688
27.648807
28.723478
28.445721
26.579499
29.027462
30.805469
30.170679
30.472875
29.157996
28.708577
26.944876
27.952790
27.214885
27.452707
27.201772
26.210546
26.165843
27.815700
26.929975
28.217435
28.321743
29.203892
30.353665
35.924911
36.105514
41.567683
43.832660
45.934916
46.383739
47.916770
48.646927
45.550466
42.824745
39.811730
39.092898
35.253763
32.068491
28.622746
27.286410
22.866726
21.722913
20.717978
21.053553
19.607544
19.874573
19.031763
18.414855
19.562840
19.092560
18.460751
17.019510
19.558668
17.756820
16.896725
17.402768
20.231605
19.589663
18.750429
18.105507
18.312931
19.068718
20.477772
23.693442
35.520792
50.245523
84.617734
114.831924
171.365738
225.108862
311.278701
##ZVALUE=235
48.949718
52.947998
128.266811
239.282846
379.586816
605.719686
800.634623
990.667939
1016.001701
1002.314687
889.220834
669.893026
493.456721
292.784572
192.041993
114.807487
91.605783
87.428689
96.948743
94.534755
85.983872
76.756477
58.382750
44.358969
29.762983
22.981763
17.919540
15.370846
14.660954
14.654994
16.927719
18.285513
17.055869
19.135475
20.019412
22.311807
22.186637
22.406578
24.472475
25.164485
27.920604
25.948882
27.565956
27.364492
28.776526
28.199553
30.434728
29.919744
31.995773
29.210448
29.864907
30.149817
29.804707
28.425455
29.349923
29.025674
29.290915
29.316545
27.244687
27.769804
30.121803
27.816892
26.665926
26.452541
27.711987
28.108954
28.761625
30.573606
32.771826
34.208894
37.661791
39.652586
42.992830
46.508908
48.204660
50.936937
51.042438
48.314929
43.176413
41.701794
39.205551
35.855770
33.082962
28.883815
27.112961
24.652481
25.683641
22.676587
23.349524
21.684766
21.708608
22.448897
20.887852
20.830631
21.522641
20.947456
19.441843
19.345880
21.141768
20.408630
20.385981
21.339655
19.374490
19.509792
18.527508
21.212697
20.438433
20.324588
19.535422
19.654632
20.388961
21.583438
19.216537
29.067993
39.916635
71.785450
##ZVALUE=240
4.372597
4.589558
17.520785
50.406456
120.345950
274.026990
461.424589
812.651515
1016.001701
1016.001701
1016.001701
1016.001701
1016.001701
1012.849808
804.851651
488.168597
317.130685
183.977485
129.075646
113.476515
120.659471
125.610828
124.055743
109.923482
91.744661
73.235631
54.355860
39.797425
28.055906
24.900436
18.167496
17.954707
18.283725
20.613670
19.578934
20.774603
21.294951
23.208857
25.419593
25.060773
24.534464
25.486946
26.682615
28.235912
28.471947
28.863549
28.534532
27.744770
30.007958
28.624535
27.928948
27.903914
29.670596
29.232502
29.023886
26.892424
29.866695
29.025674
26.557446
29.285550
28.676987
27.437806
29.516816
29.104948
28.299689
29.448867
29.480457
30.349493
30.504465
34.004450
38.853884
40.529966
45.840740
47.608614
46.848655
47.247410
48.218966
47.708750
44.019818
42.032599
39.684772
35.237670
31.889677
29.343963
27.284622
25.653839
24.998784
24.881959
21.016598
22.597909
24.503469
21.804571
23.756623
22.320747
21.776557
22.808909
23.098588
23.168921
21.848679
21.685958
20.524859
22.027493
21.923780
20.339489
20.805597
22.121668
22.728443
21.163821
21.194816
20.082593
20.709634
21.993518
21.816492
21.195412
21.280646
22.573471
##ZVALUE=245
3.586411
3.010631
2.839565
3.772974
7.916689
34.857988
92.857480
256.234407
448.047519
801.813602
1016.001701
1016.001701
1016.001701
1016.001701
1016.001701
1016.001701
1016.001701
736.977458
493.036509
253.266692
165.309906
125.480890
123.041868
128.924847
137.683749
132.904649
119.326711
100.976825
78.580976
62.585473
44.491887
31.190515
24.103522
19.207597
18.839836
19.848943
19.879937
19.897819
21.134615
22.767782
22.741556
21.990538
23.524761
23.088455
24.163723
25.311708
25.040507
24.061799
25.221705
26.549697
25.999546
24.529696
27.322769
24.962425
26.272535
26.007891
25.503635
24.610758
24.502873
24.925470
23.620725
26.218891
22.684932
24.435520
24.045706
23.458600
24.493933
26.042461
27.687550
28.333664
33.742785
33.217669
37.181973
40.733814
38.940907
40.118694
37.728548
39.149523
37.073493
32.728910
31.673908
29.284954
26.097894
23.831725
23.769736
20.530820
20.975471
21.749735
20.594597
19.259453
20.919442
20.846725
19.095540
20.006895
19.538999
20.172596
20.020604
18.737912
19.003749
19.900799
20.043850
18.731952
18.961430
21.103621
18.970966
21.794438
20.135641
19.171834
18.805861
20.630956
19.826889
18.331409
18.342733
18.845797
19.176602
19.481778
##ZVALUE=250
2.638698
2.597570
3.379583
3.039837
3.124475
3.544688
4.737973
22.717714
70.865750
201.286674
388.127565
762.508512
1016.001701
1016.001701
1016.001701
1016.001701
1016.001701
1016.001701
1016.001701
977.956653
688.036680
436.918736
217.778683
143.753886
115.718842
126.437545
145.375729
150.249600
142.649412
129.917860
109.960437
87.334514
63.037872
46.736002
31.952858
26.645660
21.038651
18.999577
20.625591
19.836426
21.187663
21.219850
22.526979
23.007989
21.815896
23.424625
24.645925
23.020506
23.219585
23.357868
24.165511
24.612546
24.219751
23.933649
23.989677
22.786856
23.664832
24.503469
23.797750
22.046566
21.618605
23.932457
22.639632
22.438765
23.212433
22.340417
22.684932
22.958517
24.459958
27.139783
28.306842
30.256510
34.811497
34.981966
34.681559
35.315752
34.350753
32.991767
31.518936
28.034449
26.294589
24.807453
22.307634
21.690726
19.550920
18.464923
17.349720
17.189980
17.378926
16.682744
17.037988
16.794801
16.007423
15.984774
17.691851
17.234683
16.732812
16.881824
16.676784
17.086864
16.550422
17.618537
17.753839
18.428564
17.817616
17.641783
17.711520
18.308759
17.960668
17.495751
17.352700
17.820597
17.619729
17.638803
18.270612
17.279983
##ZVALUE=255
2.348423
1.998544
2.768636
2.710819
2.371669
3.088713
3.519654
3.277659
3.794432
12.286901
42.484999
152.098536
311.324000
676.996708
994.025469
1016.001701
1016.001701
1016.001701
1016.001701
1016.001701
1016.001701
1016.001701
978.150964
565.212965
340.973735
174.813867
119.047761
117.353797
135.819912
151.184797
156.129599
155.818462
139.280558
122.583508
92.618465
70.346594
49.412847
37.755966
26.991963
24.673939
22.209883
23.284554
21.803975
22.800565
23.176670
23.564696
23.030639
23.824573
24.688840
23.895502
23.776889
24.000406
23.776889
23.422837
24.237633
23.254752
23.384690
24.424791
22.856593
23.113489
22.588968
22.850633
22.441745
23.540854
22.164583
22.054911
21.692514
23.586750
23.456812
23.465753
25.389791
28.095841
28.494596
30.524731
30.934811
30.387640
31.038523
29.967427
26.888847
25.344491
23.061633
21.729469
20.454526
18.660426
18.079877
16.622543
16.281605
14.508963
15.990734
15.660524
15.347600
15.451908
15.060902
14.534593
15.432835
15.165806
15.853643
15.505552
16.715527
15.011430
15.428662
15.633702
15.027523
14.526844
15.026927
15.486479
16.445518
16.615987
16.917586
16.503930
16.136765
16.124845
16.491413
15.225410
15.948415
16.046762
##ZVALUE=260
2.001524
1.881719
2.189875
2.376437
2.574921
2.237558
2.494454
3.150702
3.346801
2.998710
3.562570
6.722808
24.600625
103.411674
226.880908
549.375415
899.276733
1016.001701
1016.001701
1016.001701
1016.001701
1016.001701
1016.001701
1016.001701
1016.001701
917.482972
524.191856
304.385424
141.955614
106.064677
117.551684
138.436556
159.963965
171.431899
162.354708
153.145790
123.099685
103.599429
74.732900
56.895614
41.779876
33.210516
28.529763
25.669932
25.791526
26.292801
27.489662
25.947690
26.858449
26.913881
28.378963
26.782751
26.327968
26.033521
25.551915
25.556684
24.785995
25.255680
24.201870
24.570823
24.350882
23.509860
22.540689
23.750663
22.144914
21.693707
21.384954
22.352934
22.892952
23.243427
25.481582
25.193691
27.696490
27.716756
27.787685
27.178526
26.422739
24.935603
23.108721
22.530556
20.936728
19.743443
18.040538
17.831922
16.237497
15.857816
14.762878
14.511943
14.801621
14.324784
14.959574
13.910532
14.763474
13.787746
13.668537
14.232993
13.380647
14.603734
14.058948
13.884902
14.582872
14.646649
13.748407
14.190674
14.606714
14.550686
14.793873
14.628768
14.856458
14.445782
15.438795
14.047623
15.240908
14.053583
13.967752
15.028715
##ZVALUE=265
2.196431
1.804829
2.177954
2.085567
1.967549
2.341866
2.337694
2.651811
2.826452
2.836585
3.234744
3.351569
3.671646
4.847646
12.404919
63.581467
158.900619
409.808755
736.636519
1016.001701
1016.001701
1016.001701
1016.001701
1016.001701
1016.001701
1016.001701
1016.001701
1016.001701
735.091567
437.960625
194.725990
115.145445
100.522637
118.310452
152.447820
167.841911
174.055696
170.176625
151.710510
129.860640
110.723972
79.271793
62.609911
45.330524
37.310719
32.003522
30.477643
29.340982
30.237436
30.358434
29.897690
30.181408
29.721856
28.522611
28.608441
28.390884
27.431846
27.402639
26.286840
26.570559
25.520921
24.646521
23.495555
23.500919
23.519993
22.499561
22.621751
22.366643
23.266673
23.489594
25.302768
25.557876
25.824904
25.840998
26.742816
25.913715
24.171472
23.374557
21.434426
19.311905
18.495917
18.066764
16.610622
15.974641
14.933944
13.828874
14.800429
13.892651
12.840629
13.378859
13.655424
12.959838
12.317896
13.577938
13.212562
12.800694
12.792945
12.801886
12.287498
12.556911
12.891889
13.227463
12.829900
13.044477
13.038516
13.454556
13.686419
13.959408
14.361739
14.082789
13.568997
13.199449
13.520718
13.404489
13.135672
13.062954
##ZVALUE=270
1.875758
2.016425
1.840591
1.685619
1.923442
1.986623
2.153516
2.106428
2.098680
2.302527
2.616644
2.594590
3.123879
3.320575
3.831983
4.049540
5.603433
29.172897
90.557933
286.750793
562.294722
1016.001701
1016.001701
1016.001701
1016.001701
1016.001701
1016.001701
1016.001701
1016.001701
1016.001701
976.356864
630.208850
299.184918
146.943927
87.107420
100.230575
129.506588
153.930783
176.630616
182.150006
175.845623
163.399577
137.145519
114.314556
83.703995
67.506433
49.131513
41.587949
36.156774
33.886433
33.036470
32.259822
31.077862
30.581951
31.064749
29.273629
28.878450
28.525591
28.003454
27.076602
25.931001
25.130510
25.433898
24.871826
24.418831
22.901893
23.166537
23.175478
23.082495
23.521781
24.182796
24.869442
25.351644
25.908947
25.166869
25.244951
24.359822
22.447705
19.939542
19.436479
17.978549
16.274452
15.960932
14.658570
14.843941
14.026761
13.610721
13.889670
13.443828
13.086796
12.298822
13.307929
12.643933
12.014508
12.403727
12.265444
12.159944
12.219548
12.138486
12.494922
12.223721
12.719631
12.494922
12.640953
12.516975
12.414455
12.131929
12.631416
12.779832
12.102723
12.227893
12.599826
13.087988
12.357831
12.617707
12.827516
##ZVALUE=275
1.549721
1.607537
1.719594
1.951456
1.410842
1.693964
1.755953
1.832843
1.857877
2.139807
2.353787
2.416968
2.431870
2.490878
2.888441
2.867579
3.378987
3.459454
4.261732
14.310479
53.882599
194.154382
420.478582
936.864018
1016.001701
1016.001701
1016.001701
1016.001701
1016.001701
1016.001701
1016.001701
1016.001701
1016.001701
862.003565
405.635834
210.164785
92.982650
80.227852
107.446909
130.289793
160.647631
174.594522
183.974504
181.833506
162.242651
141.021609
111.083984
91.367960
64.398646
52.792430
42.847991
36.454797
34.422874
33.306479
31.935573
31.405687
30.245781
29.979944
28.468966
28.190613
27.553439
26.580691
26.004910
25.984645
25.113821
23.826957
23.624897
23.490787
24.433732
24.178624
24.236441
24.957657
24.810433
25.337934
24.479628
24.205446
23.345947
22.647977
20.051599
19.507408
17.998815
17.350912
15.850663
14.932752
15.187860
14.186502
13.830662
13.279915
12.636781
12.984872
12.617707
12.464523
12.062788
11.865497
11.659861
11.977553
11.642575
11.699796
11.780858
12.411475
12.331605
11.659861
11.795759
12.351871
12.113452
12.273788
12.200475
11.838675
11.446476
11.700988
12.251735
12.583733
12.191534
11.958480
11.896491
10.866523
##ZVALUE=280
1.414418
1.441836
1.580715
1.538992
1.746416
1.709461
1.757741
1.682639
1.884699
1.999736
1.784563
1.985431
2.190471
2.230406
2.081990
2.646446
2.852678
3.180504
3.198981
3.445745
4.079938
7.593632
32.365918
150.094032
329.762697
759.527683
1016.001701
1016.001701
1016.001701
1016.001701
1016.001701
1016.001701
1016.001701
1016.001701
1016.001701
1014.249921
557.072759
292.281508
111.494660
72.187781
77.478886
103.910565
129.252672
155.998468
171.358585
178.906918
174.385905
156.796575
136.235952
114.613771
85.703731
66.600442
47.800541
39.065480
33.143759
30.601621
29.579997
28.352737
26.500821
26.000738
26.231408
26.002526
24.315715
24.266839
24.473667
23.580790
23.085475
23.109913
23.299456
22.967458
23.966432
24.012923
24.207830
23.548603
23.788810
24.029613
21.787882
21.538734
20.604730
18.926859
18.000603
16.883612
15.553832
15.016794
14.355779
14.158487
13.988614
13.282895
13.465881
12.460947
12.141466
12.488961
12.064576
11.715889
11.816621
11.553764
11.632442
11.396408
11.750460
11.280775
11.568666
11.540651
11.302829
11.246800
11.383891
11.479855
11.759996
11.907816
12.107491
11.409521
11.380911
11.253953
11.203885
11.405945
11.053681
11.303425
##ZVALUE=285
1.462698
1.376867
1.478791
1.697540
1.416802
1.469851
1.572967
1.383424
1.704693
1.672506
1.669526
1.873970
1.975894
2.034903
1.863837
2.112985
2.326965
2.705455
2.536774
2.696514
2.764463
3.501773
3.933907
4.613996
16.205907
61.631799
216.347575
446.457863
951.823592
1016.001701
1016.001701
1016.001701
1016.001701
1016.001701
1016.001701
1016.001701
1016.001701
1016.001701
828.226805
385.716558
192.245841
73.123574
56.372881
73.374510
93.612671
121.846795
143.247843
162.163973
168.506503
165.713429
152.451992
127.547979
106.864572
78.590512
61.073899
42.661428
33.656955
26.919842
25.246739
23.771524
22.698641
22.907853
22.183657
21.898746
21.841526
21.886826
21.415949
21.471977
20.878911
21.515489
21.605492
21.650791
22.452474
22.224784
22.197962
21.101832
19.442439
19.033551
18.919706
17.706752
16.890764
15.879869
15.519857
14.835596
13.908744
13.506413
13.417602
13.117790
12.962818
12.820959
12.425780
11.847615
11.890531
11.502504
11.534691
11.651516
11.247993
11.046529
10.957718
11.094809
11.699796
11.400580
11.545420
11.658669
10.876656
11.007786
11.749864
11.012554
11.378527
11.319518
11.436939
10.626912
11.002421
10.771751
10.594726
10.445714
##ZVALUE=290
1.254678
1.078844
1.225471
1.314878
1.586676
1.446605
1.396537
1.586676
1.258850
1.494884
1.490712
1.686811
1.655817
1.511574
1.851916
2.008677
2.095699
2.051592
2.245903
2.531409
2.586842
2.912879
3.025532
3.269911
3.861785
4.460812
5.839467
21.078587
109.573603
263.973475
636.850595
1010.290980
1016.001701
1016.001701
1016.001701
1016.001701
1016.001701
1016.001701
1016.001701
1016.001701
942.176580
551.571846
227.380991
104.652643
43.271780
43.684840
63.497424
80.507994
109.097958
128.940940
150.111914
156.826973
152.698755
143.187642
121.544600
98.665953
69.731474
54.629445
37.578940
29.200912
22.744536
20.053983
18.626451
18.787980
18.359423
18.137693
17.895699
17.808676
18.049479
18.735528
18.831491
19.576550
19.610524
19.860864
19.400716
18.906593
17.983913
17.226934
16.856790
16.058683
15.209913
14.903545
13.635755
13.616681
13.432503
13.160706
12.735724
12.611747
11.786819
12.058616
11.753440
11.776686
11.763573
11.315942
11.221766
11.093616
10.952950
11.134744
10.819435
11.388659
11.246800
10.880828
11.256933
10.684729
11.094809
10.754466
11.102557
11.036992
10.537505
11.051893
11.233687
10.965466
10.204911
10.689497
10.687709
10.653734
##ZVALUE=295
1.274943
1.128912
1.422763
1.155734
1.162887
1.249909
1.225471
1.328588
1.397729
1.263618
1.482964
1.628995
1.601577
1.535416
1.762509
1.816750
1.588464
1.750588
1.850724
2.286434
2.073646
2.296567
2.770424
2.834797
3.017783
3.194809
3.587604
3.989935
4.615784
8.843541
58.671832
164.419413
452.114940
850.518942
1016.001701
1016.001701
1016.001701
1016.001701
1016.001701
1016.001701
1016.001701
1016.001701
1016.001701
751.529932
322.824717
150.994658
51.209927
31.314492
39.851665
52.709579
76.929927
96.370578
122.167468
136.371851
146.799684
146.162510
131.390691
115.587711
89.618564
70.134997
48.202872
36.168694
24.675727
20.394921
16.733408
15.999675
15.571713
15.606880
15.944839
15.851855
16.525984
16.956925
17.541647
17.553568
16.978979
17.187595
16.455650
15.882850
15.064478
14.909506
13.837814
13.627410
13.002753
13.054609
13.216734
12.374520
12.425780
12.004972
12.089610
11.816621
11.679530
11.334419
11.022687
11.206865
11.054873
10.996461
10.870695
10.648966
10.850430
10.294914
10.677576
10.924935
10.601878
10.978580
10.783672
10.815859
10.982752
11.086464
10.979772
10.700822
10.662675
10.694861
11.141896
10.716915
10.476708
10.414720
##ZVALUE=300
1.096725
1.185536
1.261830
1.190901
1.291633
1.301765
1.213551
1.311898
1.087785
1.330972
1.365542
1.425743
1.410842
1.427531
1.534820
1.622438
1.422763
1.586676
1.795888
1.768470
1.984835
1.921654
2.255440
2.211928
2.515912
2.751946
2.806783
2.962947
3.334880
3.965497
4.494786
5.672574
26.575923
96.933842
323.638916
624.187589
1016.001701
1016.001701
1016.001701
1016.001701
1016.001701
1016.001701
1016.001701
1016.001701
1016.001701
986.996889
500.552654
257.232785
86.970925
35.556555
26.434660
32.979846
49.070716
66.242814
90.219975
110.229850
130.058527
138.697624
137.260556
129.331946
109.288692
89.666843
64.469576
48.994422
31.942725
23.611784
17.576814
15.545487
14.168620
14.777780
15.067458
15.413761
15.495420
15.486479
15.046597
15.174747
14.865994
14.391541
14.074445
13.420582
13.380647
12.945533
12.825727
12.371540
11.780858
11.525750
11.884570
11.765957
11.289716
11.254549
11.112690
11.417866
11.277795
10.790825
10.527968
11.138916
10.953546
10.729432
10.760427
10.745525
10.627508
10.470748
11.067986
10.870695
11.070967
11.020899
11.382699
11.193752
11.154413
10.807514
11.187792
11.414886
10.876656
10.375977
10.713935
10.664463
##ZVALUE=305
1.187921
0.968575
1.062751
1.187921
1.094937
1.060963
1.114607
1.283884
1.282692
1.135468
1.108646
1.234412
1.126528
1.355410
1.495481
1.318455
1.403689
1.484752
1.462698
1.700521
1.867414
2.091527
1.607537
1.989603
2.202988
2.379417
2.344847
2.355576
2.748966
3.102422
3.332496
3.478527
4.110932
4.336834
12.020469
48.468709
203.834772
444.556475
960.038900
1016.001701
1016.001701
1016.001701
1016.001701
1016.001701
1016.001701
1016.001701
1016.001701
1016.001701
677.707791
353.823900
127.247572
50.899982
21.679997
22.860765
31.561852
44.255853
66.404939
83.445907
105.758905
121.306777
131.477714
131.124854
118.550658
105.065703
82.466602
64.768791
43.938756
31.912923
21.366477
17.125607
15.148520
14.933944
14.968514
14.314651
13.984442
14.151931
14.022589
13.597608
12.618899
12.278557
12.200475
12.045503
11.679530
11.554956
11.758804
11.427999
11.488795
11.235476
11.116862
10.944605
11.546612
10.946989
10.795593
11.007786
10.366440
10.993481
10.626912
10.670424
10.739565
10.481477
11.151433
10.818839
10.824800
11.342764
11.131763
11.006594
11.531711
11.031628
11.144876
11.714697
10.911822
10.983944
11.254549
10.843873
10.815859
11.108518
##ZVALUE=310
1.054406
1.166463
1.059771
0.933409
1.115799
1.081824
0.997782
0.976920
1.217723
1.155734
1.127720
1.206994
1.261830
1.131892
1.324415
1.198649
1.361966
1.386404
1.419783
1.489520
1.443624
1.647472
1.822710
1.636744
1.839995
2.093911
1.950860
2.181530
2.223849
2.269745
2.690554
2.959967
3.049970
3.507733
3.936887
4.269481
5.898476
20.033717
116.119385
279.895663
677.962899
1016.001701
1016.001701
1016.001701
1016.001701
1016.001701
1016.001701
1016.001701
1016.001701
1016.001701
968.791842
562.798977
215.435624
90.810657
28.705597
18.481612
21.039844
26.903749
40.717721
54.799914
75.426698
93.505979
112.847686
119.722486
122.578740
116.366744
99.114776
83.416700
59.335828
44.385791
30.417442
22.873878
18.299818
15.418530
13.704896
13.206601
12.758970
12.288690
11.914968
11.492968
11.620522
11.282563
11.001825
11.387467
11.233687
11.023879
10.853410
11.279583
11.185408
10.721684
11.001825
10.406971
10.496974
10.705590
10.736585
10.511875
10.809898
10.490417
10.669827
10.783672
10.273457
10.564923
10.674000
10.970831
10.946989
11.024475
11.090636
11.556745
11.182427
11.036992
11.466742
11.151433
11.340976
11.094809
11.284947
10.622740
##ZVALUE=315
0.954866
0.937581
1.035929
1.007915
1.009703
0.879765
1.013875
1.071692
1.036525
1.028776
0.924468
1.119971
1.235604
1.370907
1.162887
1.294613
1.222491
1.349449
1.265407
1.483560
1.505613
1.451969
1.397729
1.584888
1.718998
1.623631
1.686811
1.924634
1.886487
2.067685
2.283454
2.534986
2.854466
2.804995
2.981424
3.254414
3.517866
3.978610
4.897714
8.565784
51.986575
156.227946
457.744598
839.316845
1016.001701
1016.001701
1016.001701
1016.001701
1016.001701
1016.001701
1016.001701
1016.001701
1016.001701
805.518031
341.019630
144.624710
38.487911
17.993450
15.379786
18.045902
25.785565
35.387874
52.879453
69.107413
90.521574
104.031563
114.966631
116.183758
106.609464
95.636845
75.240731
60.335994
42.250752
31.370521
22.050738
16.600490
13.433695
12.206435
11.329651
10.682940
10.604858
10.561943
10.431409
10.705590
10.417700
10.258555
10.466576
10.696650
10.188818
10.079741
10.544658
10.580420
10.121465
10.328889
10.711551
10.272861
10.683537
10.727644
10.609627
10.497570
10.831952
10.729432
11.001825
11.195540
11.275411
11.099577
11.266470
11.059642
11.492968
11.404753
11.339784
11.287928
10.955930
11.388659
10.793805
11.128783
##ZVALUE=320
0.912547
0.987649
1.020432
1.046658
1.039505
0.890493
0.858903
0.863671
0.934601
0.889897
1.015663
0.976920
1.048446
1.184940
1.117587
1.182556
1.148582
1.169443
1.323819
1.325607
1.323819
1.349449
1.289845
1.444817
1.510978
1.616478
1.543760
1.691580
1.991987
1.868606
1.927614
1.957417
1.981854
2.299547
2.541542
2.798438
2.935529
3.176928
3.460646
3.763437
4.367828
5.096793
25.086999
87.188482
309.558511
614.392757
1016.001701
1016.001701
1016.001701
1016.001701
1016.001701
1016.001701
1016.001701
1016.001701
1016.001701
1002.987623
465.209484
219.482780
68.605542
26.885867
14.294982
14.308691
17.019510
21.964908
32.738447
44.358969
64.791441
80.579519
98.614693
107.114911
109.031796
102.816820
88.678598
75.317621
55.760741
42.914748
27.691722
20.064712
14.355779
12.216568
10.222793
9.538531
9.849668
9.807944
9.797812
9.260774
9.860992
9.588599
9.728670
9.824634
9.706616
9.777546
9.601712
10.172725
10.264516
10.298491
10.087490
10.514855
10.097623
10.190606
10.802746
10.863543
10.914803
11.105537
11.169910
11.069775
11.511445
11.100769
11.591911
11.330843
11.444688
11.383891
11.556745
11.626482
11.163950
11.463761
##ZVALUE=325
0.871420
0.809431
0.967979
0.995994
0.829697
0.902414
1.056790
0.881553
1.112819
0.813603
0.987649
1.165867
0.955462
1.074672
1.121759
0.970960
1.077652
1.082420
1.098514
0.989437
1.325607
1.293421
1.237988
1.226664
1.451969
1.496673
1.464486
1.570582
1.523495
1.817942
1.845956
1.876950
1.939535
1.899600
2.013445
2.309680
2.322793
2.585649
2.846718
2.916455
3.353953
3.410578
3.997684
4.425645
11.902452
50.465465
201.439857
434.332490
948.033929
1016.001701
1016.001701
1016.001701
1016.001701
1016.001701
1016.001701
1016.001701
1016.001701
1016.001701
676.704645
344.527960
108.652711
38.505793
13.998747
12.447834
13.048649
15.090704
21.142960
29.673576
45.962930
61.530471
81.561804
92.476606
101.490617
103.004575
96.188784
84.498525
66.467524
51.596761
35.288930
25.953650
17.466545
13.309717
11.076927
9.934902
9.527802
9.403825
9.513497
9.138584
8.955598
9.475946
9.514689
9.335876
9.500980
9.752512
9.700656
10.070801
10.128617
9.986758
10.013580
10.356903
10.679960
10.437965
10.843873
10.876656
11.130571
11.405945
11.350513
11.355877
11.598468
11.469722
11.646748
11.426806
11.821985
11.774898
11.481643
11.418462
##ZVALUE=330
1.018643
0.647902
0.826716
0.806451
0.805855
0.849962
0.795722
0.968575
0.896454
0.984669
0.930429
0.895858
0.885725
1.046658
1.166463
0.995994
0.971556
1.127720
0.999570
1.062751
0.975728
1.010895
1.176596
1.132488
1.346469
1.390576
1.301765
1.446605
1.681447
1.474619
1.631975
1.561642
1.639724
1.784563
1.876950
1.772642
1.915693
2.167821
2.224445
2.430677
2.807975
2.841949
3.111959
3.411770
3.734827
4.187822
6.060004
22.300482
117.839575
285.929441
696.405768
1016.001701
1016.001701
1016.001701
1016.001701
1016.001701
1016.001701
1016.001701
1016.001701
1016.001701
938.291550
503.336787
171.085000
67.980886
19.225478
12.318492
11.311769
12.104511
15.666485
20.631552
31.690001
41.725636
58.940649
72.458982
87.575912
94.005466
94.710588
89.372993
75.670481
62.474608
46.850443
35.607815
24.348497
17.754436
12.963414
10.862947
9.648800
9.375811
9.065866
8.832812
9.241700
9.234548
9.027719
8.811951
9.203553
9.523630
9.334683
9.542704
9.841919
9.835958
10.644794
10.237694
10.777712
10.631680
11.058450
11.158586
11.172891
11.715889
11.425614
11.525750
11.391640
11.626482
11.441708
11.559725
11.589527
11.301637
##ZVALUE=335
0.811815
0.751615
0.803471
0.865459
0.832677
0.880957
0.849962
0.911951
0.803471
1.008511
0.816584
0.747442
0.874996
0.936985
0.742674
0.961423
0.841618
1.032948
0.989437
0.980496
1.129508
0.974536
1.034737
1.112819
1.153946
1.025796
1.312494
1.339912
1.310706
1.329780
1.363754
1.413822
1.353621
1.584888
1.503825
1.851916
1.905560
1.796484
1.860857
1.866817
2.243519
2.333522
2.464652
2.514720
2.791882
3.074408
3.231764
4.042983
4.632473
12.351871
46.859980
192.488432
415.429473
932.005644
1016.001701
1016.001701
1016.001701
1016.001701
1016.001701
1016.001701
1016.001701
1016.001701
1016.001701
652.892590
321.262479
97.886920
32.812953
12.293458
11.295676
11.121631
11.699796
14.673471
19.246936
29.184818
39.548874
56.018829
67.570806
81.196427
86.931586
88.031888
84.447861
70.767999
59.451461
44.477582
33.841729
23.694634
17.851591
13.460517
10.941625
9.672642
8.841753
8.631945
8.703470
8.840561
9.077787
9.029508
9.293556
9.659529
9.283423
9.571910
9.964705
10.251999
10.304451
10.345578
10.797977
11.110902
11.154413
11.249781
11.227727
11.357665
11.251569
11.476874
11.284947
11.423826
11.481643
11.175871
##ZVALUE=340
0.747442
0.777841
0.848770
0.789762
0.700951
0.672936
0.741482
0.845790
0.697970
0.649691
0.690818
0.909567
0.930429
0.938773
0.995994
0.960827
1.025796
0.935793
0.886917
0.909567
1.072884
1.155734
1.067519
1.245737
1.121759
1.097918
1.251698
1.061559
1.300573
1.346469
1.361966
1.310706
1.296997
1.294613
1.340508
1.327991
1.514554
1.607537
1.758933
1.746416
1.820922
1.948476
1.883507
2.113581
2.176762
2.501607
2.712607
2.803802
3.369451
3.691912
4.225969
5.780458
30.517578
100.932121
334.212780
665.434003
1016.001701
1016.001701
1016.001701
1016.001701
1016.001701
1016.001701
1016.001701
1016.001701
1016.001701
902.272463
390.500426
170.275569
40.469766
15.628934
11.072755
10.947585
10.976791
11.425614
13.875961
17.373562
26.012659
36.247969
50.793886
63.143969
76.120496
82.002878
82.827806
77.918768
68.702698
58.294535
43.531656
34.286976
23.448467
17.823577
13.196468
10.616779
9.252429
9.165406
9.049773
9.387732
9.059906
9.007454
9.192824
9.251833
9.521842
9.636879
9.874701
10.148883
10.495782
11.007786
10.914803
11.399984
11.081696
11.215806
11.446476
11.308789
11.116862
11.072755
10.776520
11.187792
##ZVALUE=345
0.809431
0.681877
0.768900
0.843406
0.647902
0.878572
0.708699
0.855923
0.767708
0.732541
0.778437
0.740886
0.878572
0.963807
0.736713
0.802875
0.847578
0.839829
0.882745
0.910759
0.969768
0.980496
0.918508
0.866652
1.102686
1.188517
1.005530
1.176596
1.112819
1.068711
1.075864
1.184940
1.303554
1.323819
1.321435
1.152754
1.483560
1.345873
1.491904
1.492500
1.576543
1.756549
1.759529
1.952648
2.049804
2.039671
2.307892
2.285838
2.704859
2.634525
2.999902
3.250837
3.613830
4.348755
13.142824
51.319003
207.347870
443.264842
951.626897
1016.001701
1016.001701
1016.001701
1016.001701
1016.001701
1016.001701
1016.001701
1016.001701
1016.001701
509.930849
240.745544
74.767470
26.110411
11.622906
11.011958
10.307431
10.051727
10.095835
11.782646
16.345978
22.667646
34.801960
45.123696
58.206916
66.783428
75.137615
76.674819
73.345900
66.731572
54.868460
44.807792
24.668574
23.514628
17.019510
13.523698
10.701418
9.687543
9.183884
9.404421
8.876920
8.753538
9.641647
9.239912
9.681582
10.249615
10.009408
10.367632
10.384917
10.997653
10.697842
10.680556
10.708570
10.903478
10.878444
11.061430
10.796785
10.894537
##ZVALUE=350
0.704527
0.817776
0.810623
0.657439
0.817776
0.875592
0.907779
0.622869
0.857711
0.808835
0.790954
0.826716
0.803471
0.732541
0.837445
0.862479
0.897646
0.888705
0.682473
0.912547
0.983477
0.833869
0.916719
0.888705
1.095533
1.127720
1.089573
1.119971
1.222491
1.054406
1.135468
1.136661
1.166463
1.114607
1.315475
1.259446
1.382828
1.424551
1.408458
1.478791
1.421571
1.364946
1.686811
1.662970
1.883507
1.738667
1.853704
2.094507
2.084970
2.261996
2.500415
2.667904
2.874732
3.032684
3.648996
4.043579
6.989837
27.545691
125.183463
289.213657
691.318512
1016.001701
1016.001701
1016.001701
1016.001701
1016.001701
1016.001701
1016.001701
1016.001701
1016.001701
644.060969
336.341858
114.990473
39.491653
12.975931
10.277629
9.113550
8.601546
8.315444
8.883476
11.236668
14.493465
21.589994
28.800964
40.943623
50.272942
61.698556
67.214966
70.909858
68.966746
60.693622
52.198768
40.696859
32.562613
23.518801
18.587708
13.563633
11.342764
9.885430
9.320974
9.139776
9.195805
9.302497
9.421706
9.821653
9.901524
10.110736
10.107756
10.208488
10.498762
10.770559
10.633469
10.417700
10.316968
10.417700
10.206699
##ZVALUE=355
0.654459
0.714660
0.869632
0.878572
0.846982
0.736713
0.870824
0.734925
0.960827
0.709891
0.735521
0.878572
0.915527
0.935793
0.853539
0.962615
1.007915
0.939965
0.929832
0.931621
0.977516
0.959635
1.070499
1.076460
1.056790
0.943542
1.126528
1.126528
1.041889
1.083612
1.145601
1.088977
1.018643
1.208782
1.195669
1.217723
1.359582
1.365542
1.263618
1.390576
1.536608
1.472831
1.666546
1.422763
1.722574
1.800656
1.776814
1.945496
1.951456
1.893640
2.154708
2.190471
2.416968
2.614856
2.759695
2.926588
3.492832
3.737807
4.692674
12.370944
75.828433
197.427869
513.467789
896.621943
1016.001701
1016.001701
1016.001701
1016.001701
1016.001701
1016.001701
1016.001701
1016.001701
852.167010
459.234715
172.254443
63.575506
16.219616
10.375977
8.624792
8.608699
7.442832
7.803440
8.200407
9.769797
13.504624
18.031597
26.540756
34.406781
46.424866
54.099560
61.750412
64.669847
63.330531
58.498979
49.047470
41.885972
31.508803
25.222898
18.606782
14.939904
11.760592
10.495782
9.819865
9.243488
9.476542
9.847879
9.623766
9.699464
9.901524
9.834766
9.795427
10.047555
9.597540
9.794831
9.741783
9.550452
##ZVALUE=360
0.851750
0.712872
0.844598
0.907779
0.654459
0.783801
0.756979
0.883937
0.903606
0.749826
0.883937
0.896454
0.857711
0.897646
0.972748
0.829697
0.926852
0.830889
1.040697
0.998974
0.869632
0.913739
0.859499
0.960827
1.015663
1.007915
1.226664
1.089573
1.134872
1.230836
1.339912
1.270771
1.114607
1.119971
1.345873
1.432896
1.208782
1.370907
1.283884
1.259446
1.440644
1.270771
1.709461
1.617670
1.560450
1.697540
1.669526
1.841784
1.741648
1.970530
2.085567
1.921654
2.239943
2.386570
2.528429
2.577901
3.020763
3.026724
3.554821
3.642440
4.359484
6.221533
34.680963
108.023882
335.202813
639.289618
1016.001701
1016.001701
1016.001701
1016.001701
1016.001701
1016.001701
1016.001701
1016.001701
1016.001701
677.956939
257.091522
99.924803
22.649765
10.965466
8.800626
8.435845
7.668734
7.530451
7.297993
7.402897
9.068847
10.741949
15.678406
21.262765
31.067729
38.702488
49.432516
54.328442
59.079528
60.198903
55.386424
49.820542
41.102767
33.611655
25.503635
19.415617
14.702678
12.355447
10.184646
9.476542
9.425879
8.998513
9.095669
8.942485
9.303689
8.893609
9.065866
8.744597
9.056926
8.540750
##ZVALUE=365
0.771880
0.843406
0.816584
0.727773
0.706911
0.807643
0.764728
0.850558
0.647902
0.971556
0.867844
1.049638
0.833869
0.935793
0.814795
0.770688
0.792742
0.932813
0.825524
0.911951
0.958443
0.899434
1.056790
0.831485
1.014471
1.007915
1.189709
1.011491
1.143813
1.074672
1.010895
1.107454
1.159906
1.095533
1.259446
1.206994
1.358986
1.338720
1.215935
1.210570
1.506805
1.470447
1.405478
1.349449
1.586676
1.644492
1.547933
1.488924
1.542568
1.840591
1.749992
1.802444
1.995564
2.131462
2.276897
2.244711
2.383590
2.582669
2.863407
3.127456
3.416538
3.871918
4.272461
4.778504
14.391541
55.121779
211.639404
447.939634
963.248610
1016.001701
1016.001701
1016.001701
1016.001701
1016.001701
1016.001701
1016.001701
1016.001701
838.542581
356.530547
160.748959
43.492913
14.819503
8.941889
8.166432
7.558465
6.940961
6.980896
6.701946
6.902814
7.947683
9.759665
12.924671
19.020438
25.114417
34.058690
40.705800
49.351454
53.112507
55.103898
53.271651
47.465563
41.219592
33.098459
26.752949
20.031929
15.859604
12.206435
10.139942
9.512901
8.797646
8.541942
8.419752
8.146763
8.117557
8.207560
7.776618
##ZVALUE=370
0.873804
0.861883
0.812411
0.666976
0.986457
0.866652
0.821948
0.760555
0.742674
0.764728
0.798702
0.943542
0.837445
0.815988
0.767708
0.862479
0.835657
0.925660
0.942945
0.846982
1.031756
0.988841
0.927448
0.979900
1.047850
1.036525
1.005530
1.108646
1.032948
0.986457
1.025796
0.970960
1.059771
0.971556
1.190901
1.245737
1.276731
1.178980
1.300573
1.232624
1.377463
1.279712
1.283884
1.295805
1.368523
1.428723
1.457930
1.437664
1.380444
1.499653
1.574755
1.576543
1.658797
1.899600
1.849532
1.922846
1.984835
2.146959
2.038479
2.287626
2.477765
2.604723
3.085732
3.281832
3.728867
4.003644
7.479787
30.670762
153.768659
348.566771
764.829516
1016.001701
1016.001701
1016.001701
1016.001701
1016.001701
1016.001701
1016.001701
1016.001701
990.746021
494.874716
245.764852
78.934431
26.308894
8.995533
7.617474
7.249713
6.649494
6.418824
6.313920
6.378889
6.806850
7.475615
8.852482
12.677908
16.176701
23.099780
28.930902
37.033558
43.026805
49.314499
51.332712
50.112605
46.249628
39.826632
33.812523
26.000738
19.904971
16.089678
12.821555
10.390878
9.209514
8.184910
8.059740
7.390976
7.381439
##ZVALUE=375
0.707507
0.587702
0.782609
0.649691
0.672936
0.810623
0.749826
0.775456
0.661612
0.719428
0.813603
0.693798
0.741482
0.681877
0.797510
0.844598
0.837445
0.831485
0.841618
0.710487
0.845790
0.801682
0.920892
0.904799
1.053810
1.004934
0.914931
0.987649
0.934601
0.857711
1.111627
1.067519
1.043677
1.158714
0.956655
1.020432
1.000762
1.045465
1.100898
1.007915
1.210570
1.174808
1.210570
1.210570
1.203418
1.253486
1.354814
1.276731
1.451969
1.323819
1.296997
1.422763
1.452565
1.392961
1.610518
1.491904
1.624823
1.798868
1.606941
1.819730
2.011657
2.053976
2.349615
2.291799
2.568960
2.926588
3.456473
3.804564
4.985929
15.750527
91.570616
224.209428
553.343892
952.336788
1016.001701
1016.001701
1016.001701
1016.001701
1016.001701
1016.001701
1016.001701
1016.001701
758.481622
425.562859
155.850649
56.550503
12.930632
7.994771
6.963611
6.848574
6.648898
6.594658
6.544590
6.592870
6.643534
7.016659
8.235574
9.982586
14.285445
18.632412
25.910735
32.525659
40.099621
45.203567
48.625469
48.730969
46.252608
40.282607
35.174489
27.761459
22.963881
16.991496
13.635755
10.179877
8.844733
7.672906
##ZVALUE=380
0.537634
0.708699
0.598431
0.719428
0.635982
0.519753
0.716448
0.628829
0.658631
0.610948
0.630617
0.722408
0.595450
0.710487
0.840425
0.732541
0.605583
0.673532
0.676513
0.616908
0.793934
0.717640
0.601411
0.875592
0.736713
0.944734
0.727773
0.995994
0.975728
0.719428
1.064539
0.983477
1.068711
1.001954
0.998974
0.911951
1.076460
1.119971
1.130700
0.994802
1.089573
1.179576
1.022816
1.136661
1.115799
1.294613
1.121759
1.112819
1.183748
1.266599
1.343489
1.226664
1.188517
1.283884
1.506805
1.478791
1.418591
1.473427
1.582503
1.529455
1.873970
1.767874
1.764894
1.990795
2.153516
2.318621
2.564788
2.808571
3.292561
3.673434
4.546642
7.946491
49.310923
149.709582
425.251722
766.974688
1016.001701
1016.001701
1016.001701
1016.001701
1016.001701
1016.001701
1016.001701
1016.001701
963.354707
590.497851
240.124464
102.202892
22.443533
9.292960
7.321835
6.780624
6.819963
6.598830
6.626844
6.537437
6.425977
6.418824
6.437898
7.286668
9.144545
11.792779
16.933680
22.464991
29.732585
36.097765
42.367578
45.726895
46.420693
44.431686
40.690899
34.681559
29.221773
21.912456
17.308593
12.881756
##ZVALUE=385
0.597835
0.546575
0.531673
0.633597
0.623465
0.643730
0.556707
0.616908
0.704527
0.636578
0.543594
0.623465
0.554919
0.633597
0.616908
0.670552
0.562668
0.706911
0.574589
0.670552
0.848770
0.782609
0.725985
0.755787
0.766516
0.910759
0.888705
1.083612
0.927448
1.038909
1.108646
1.073480
1.099706
1.104474
1.176596
1.089573
1.265407
1.032948
1.140833
1.130700
1.188517
1.010895
1.196861
1.234412
1.152754
1.339912
1.101494
1.155734
1.294613
1.226664
1.299977
1.183748
1.272559
1.210570
1.319647
1.335740
1.415610
1.325607
1.638532
1.409650
1.476407
1.701713
1.550913
1.853704
1.905560
1.844764
2.072453
2.381802
2.742410
3.021955
3.451705
3.729463
4.092455
4.879832
21.680593
80.523491
286.321640
581.648946
1016.001701
1016.001701
1016.001701
1016.001701
1016.001701
1016.001701
1016.001701
1016.001701
1016.001701
840.866566
390.119553
187.617540
54.115653
16.081929
7.691979
7.071495
6.992817
6.606579
6.264448
6.306767
6.296635
5.614758
5.741715
5.842447
6.719828
7.825494
10.701418
13.687611
19.692779
26.524663
31.563640
36.270618
41.006804
42.251945
42.032599
39.388537
34.350753
27.633905
##ZVALUE=390
0.726581
0.577569
0.607967
0.549555
0.589490
0.564456
0.540614
0.644922
0.693798
0.475645
0.655651
0.632405
0.652671
0.665784
0.627637
0.681877
0.391603
0.758767
0.510812
0.667572
0.563860
0.725985
0.863671
0.918508
0.848770
0.680685
0.901818
0.872612
0.997782
0.974536
1.022816
0.964999
0.998974
1.205802
1.290441
1.136661
1.243949
1.148582
1.243949
1.134872
1.318455
1.323819
1.300573
1.334548
1.242757
1.416802
1.311898
1.488924
1.394749
1.271963
1.168847
1.389980
1.278520
1.316667
1.112819
1.227856
1.312494
1.417994
1.584888
1.405478
1.562834
1.535416
1.663566
1.586676
1.838803
1.921654
2.029538
2.282858
2.505779
2.701879
2.940893
3.003478
3.551841
3.450513
3.746748
4.078746
11.373758
53.858757
228.449702
468.489528
950.942636
1016.001701
1016.001701
1016.001701
1016.001701
1016.001701
1016.001701
1016.001701
1016.001701
1016.001701
549.670458
284.986496
91.124773
29.842854
9.293556
7.380843
6.925464
6.422997
6.340742
6.211996
5.990863
5.806684
5.703568
5.701780
6.092787
6.523728
7.406473
10.059476
12.372732
16.616583
20.866990
27.483702
32.367706
37.328601
39.299726
39.702654
##ZVALUE=395
0.616908
0.663996
0.659823
0.725985
0.678897
0.540614
0.576973
0.644922
0.528693
0.625849
0.548959
0.582933
0.624657
0.629425
0.708699
0.644922
0.616908
0.753999
0.701547
0.762939
0.575781
0.606775
0.646710
0.797510
0.896454
0.792742
0.867844
0.818968
1.065731
0.860691
1.051426
1.112819
1.181960
1.111627
1.326799
1.232624
1.268983
1.324415
1.310706
1.303554
1.348853
1.342893
1.301765
1.310706
1.471639
1.329780
1.360774
1.453757
1.530647
1.451969
1.407862
1.537800
1.329780
1.344681
1.469851
1.435876
1.383424
1.438856
1.416802
1.497865
1.510978
1.636744
1.370907
1.531839
1.636744
1.709461
2.169609
2.007484
2.542734
2.626777
2.749562
2.779961
2.790689
2.942681
2.970695
3.192425
3.361702
3.783703
5.584955
26.563406
152.958035
351.949930
763.992667
1016.001701
1016.001701
1016.001701
1016.001701
1016.001701
1016.001701
1016.001701
1016.001701
1016.001701
757.196546
413.361788
149.731636
59.183836
13.985634
7.689595
6.640553
6.653666
6.376505
6.361604
6.370544
6.298423
6.123781
5.953908
5.896688
5.950928
6.213784
7.017851
8.074641
10.618567
13.764501
19.228458
23.539662
30.243993
##ZVALUE=400
0.732541
0.725985
0.529885
0.627637
0.605583
0.569820
0.630617
0.570416
0.486970
0.575781
0.532866
0.729561
0.666976
0.664592
0.597835
0.662804
0.547767
0.590682
0.592470
0.608563
0.636578
0.726581
0.705719
0.643730
0.862479
0.831485
0.902414
0.857711
0.902414
1.021624
1.031756
0.952482
1.081824
1.129508
1.188517
1.212955
1.293421
1.320839
1.322627
1.268983
1.246929
1.305938
1.365542
1.294613
1.331568
1.397729
1.350641
1.398921
1.362562
1.332760
1.298785
1.341701
1.337528
1.379848
1.402497
1.415610
1.331568
1.376867
1.540780
1.445413
1.461506
1.489520
1.676679
1.406670
1.433492
1.626611
1.951456
2.073646
2.362728
2.469420
2.696514
2.599955
2.463460
2.589822
2.664924
2.592802
2.817512
2.879500
3.516674
3.572702
4.367828
11.232495
79.207420
217.890739
566.736460
954.121947
1016.001701
1016.001701
1016.001701
1016.001701
1016.001701
1016.001701
1016.001701
1016.001701
938.149691
575.778484
250.364542
111.242533
27.046800
9.911656
6.717443
6.567836
6.540418
6.613731
6.566644
6.582737
6.525517
6.243587
5.923510
5.752444
5.884767
5.816817
5.970597
7.386804
8.724928
12.364984
##END
