##TITLE=9-2
##FORMAT=SPECTACLE-ASCII V-1.2
##DATA TYPE=ULTRAVIOLET SPECTRUM
##SECOND TYPE=ULTRAVIOLET SPECTRUM
##DATE=04/04/18
##TIME=13:15:06
##SPECTROMETER/DATA SYSTEM=SPECTACLE
##XUNITS=NM EM
##YUNITS=ENERGY
##YFACTOR=1
##FIRSTX=220
##LASTX=450
##NPOINTS=116
##3DDATA=Equidistant
##ZUNITS=NM EX
##FIRSTZ=210
##LASTZ=400
##ZPOINTS=39
##XYDATA=(Y..Y)
##ZVALUE=210
43.869615
40.616989
28.759837
20.117760
13.311505
12.823939
11.817813
10.780692
9.541512
8.804798
6.810427
6.917715
6.279945
6.326437
7.037520
6.399751
7.778406
8.234978
9.368658
10.512471
11.323690
12.337565
12.577772
13.636947
14.529824
16.031861
16.817451
18.716455
18.030405
19.344687
21.061897
22.148490
22.491813
23.194551
24.549961
23.399591
24.057627
23.718476
24.473667
25.178790
26.120543
26.784539
26.172996
27.715564
25.599599
26.816726
25.314689
29.058456
25.925636
27.718544
28.530955
27.219653
26.118755
26.563406
27.559996
27.859807
26.578903
27.929544
26.298761
27.623773
28.512478
28.908849
29.110909
28.253794
30.293465
29.161572
31.282902
36.159754
41.787624
48.392415
56.317449
65.567493
74.499846
91.741681
98.604560
108.793974
114.182830
113.876462
113.379955
106.045604
99.252462
88.813901
73.623657
62.936544
51.684976
42.298436
34.580827
32.574534
31.411648
39.312840
46.240687
59.714913
73.561668
97.207427
113.593936
135.932565
156.932473
178.455710
194.040537
206.933618
211.034417
208.525658
205.993652
188.083649
183.700919
166.703463
150.342584
126.850605
114.165545
88.741779
74.225664
55.706501
44.828653
36.907792
33.056736
31.242967
##ZVALUE=215
168.890953
159.401894
122.181773
84.319711
59.150457
35.347939
25.449991
20.016432
18.387437
17.789602
15.417933
13.075471
11.292696
9.867549
9.366870
8.389950
9.303689
9.105802
9.754896
9.959936
9.797812
12.101531
11.989474
14.589429
16.060472
16.303658
18.844604
18.722415
19.904971
21.517873
22.350550
21.989942
23.126602
21.667480
25.305748
27.831793
24.006963
24.010539
26.331544
25.231838
28.754473
25.482774
25.563836
28.311610
25.922656
25.631785
27.816892
26.848912
26.679635
28.453469
27.201772
26.849508
28.938651
26.915669
26.355982
27.958751
27.531981
28.095841
28.592944
28.061867
27.188659
27.993917
27.433634
26.826859
30.188560
29.442906
29.875636
32.425523
35.183430
41.281581
50.202608
57.288408
64.579844
72.470903
85.236430
86.739659
89.388490
90.822577
88.901520
86.945891
81.786513
71.304440
65.869689
53.698421
43.364763
37.962794
30.871630
26.490688
24.474859
23.690462
25.021434
22.508502
23.947954
29.936433
38.879514
48.392415
67.521930
94.638467
125.459433
149.595737
187.593699
211.180449
247.333646
277.163982
300.421715
304.433703
299.660563
285.943747
268.456936
246.852636
228.115916
202.149749
181.708932
145.629644
116.006732
84.979534
##ZVALUE=220
378.698707
384.292006
353.918672
308.033824
254.399776
167.771578
108.671784
62.470436
42.170882
30.058622
26.279688
28.345585
25.787950
20.725727
19.321442
12.876987
12.834668
10.367632
9.963512
10.701418
11.467934
12.258887
11.905432
12.077689
15.250444
13.718605
14.363527
16.734600
17.581582
18.544793
19.529462
21.806955
21.231771
22.558570
23.672581
23.556948
23.699999
25.670528
26.081800
24.870634
25.645494
24.177432
25.731921
25.777817
25.708675
26.142001
26.405454
25.791526
27.612448
28.010607
27.956963
28.423667
27.103424
30.047894
27.276874
28.665662
27.274489
27.538538
27.840734
27.460456
26.729703
26.781559
27.067661
26.394725
28.707981
27.251840
27.960539
31.269789
35.991669
39.768815
44.158697
50.406456
59.305429
64.147711
70.076585
73.889494
73.985457
77.991486
75.466633
69.263577
66.569448
61.909556
55.087805
47.734976
40.050745
33.082962
29.363632
25.388598
22.549629
21.868944
22.035837
22.815466
20.632744
20.733476
20.284653
21.821856
23.105741
25.207996
28.390884
38.774610
58.077574
80.102682
113.875866
151.757002
198.490620
240.323544
291.741490
344.728827
381.352901
407.331586
423.668623
425.527692
420.698524
398.408771
364.884734
331.804752
##ZVALUE=225
456.108451
475.173593
576.326847
607.685447
589.948893
529.855490
436.884761
285.823941
193.708539
117.711425
79.425573
49.349666
44.034719
43.528676
41.876435
38.936734
31.297803
25.243759
20.981431
16.906857
13.698936
12.233853
13.540983
13.478994
14.080405
14.090538
14.561415
16.843677
17.305613
18.094778
19.120574
19.287467
21.635890
21.021962
23.233891
22.796988
22.061467
26.017427
27.656555
25.847554
27.067661
27.795434
28.698444
29.119849
30.620694
27.639866
29.286742
32.758713
31.750798
31.031966
31.832457
30.413866
30.250549
31.288862
29.597878
33.108592
28.525591
30.119419
28.860569
29.052496
30.093789
29.421449
28.667450
29.244423
30.389428
27.740598
30.373931
30.851960
36.912560
39.242506
47.121644
49.114823
54.133534
57.575703
66.595674
65.592527
67.534447
63.055754
65.993667
60.248971
54.050684
51.023960
45.297742
38.426518
37.212968
33.926964
29.617548
27.242899
25.112629
25.158525
24.240613
23.899674
21.789670
22.406578
22.094846
24.032593
22.820830
23.814440
22.013783
23.355484
23.127794
22.333860
24.576783
31.610727
48.788786
71.283579
109.947920
158.821940
202.747583
277.065635
329.428911
415.534973
477.342010
540.311933
589.228868
621.810555
##ZVALUE=230
301.048756
321.851969
537.715554
714.086890
868.850946
1008.550525
1016.001701
964.812636
830.755830
618.067980
432.486534
241.016746
145.731568
88.470578
69.374442
66.667795
69.622993
61.840415
56.133866
45.376420
36.351681
29.335618
22.241473
17.637610
17.255545
15.417933
18.396974
18.172860
20.030737
18.092990
19.107461
20.052791
21.189451
22.657514
22.754669
24.910569
24.429560
28.378963
28.270483
28.576851
28.076768
29.857755
31.509995
31.872988
32.049417
32.516718
33.793449
34.604669
34.776926
33.740997
34.344792
35.572648
34.055710
34.545660
34.234524
32.577515
35.140514
33.475757
34.884810
33.903718
33.890605
33.490658
33.423901
32.086968
35.404563
34.679770
33.027530
36.699772
37.505627
45.211911
48.502684
55.822730
60.645938
71.351528
70.672631
74.386597
73.860884
69.119930
66.828728
65.306425
59.692860
53.217411
48.860908
42.387843
40.406585
35.298467
31.865835
27.973652
27.850866
26.484728
26.234984
26.708841
24.546981
25.399923
24.777651
26.985407
23.732781
25.669932
24.865866
25.307536
26.436448
23.204684
24.344921
23.298860
23.265481
25.290847
25.198460
27.276874
35.955906
62.330961
92.030764
154.891610
216.051936
315.773487
410.184860
536.986589
##ZVALUE=235
92.340708
104.604959
251.186490
448.384881
785.259604
1016.001701
1016.001701
1016.001701
1016.001701
1016.001701
1016.001701
1016.001701
793.874860
458.463430
287.570953
155.667663
110.580921
97.945929
98.733902
98.197460
90.039968
78.683496
61.919689
49.543977
33.032894
29.484630
22.674799
21.157861
20.799637
21.433830
22.670627
22.598505
23.670793
23.469925
25.169849
28.552413
27.435422
28.363466
28.324723
31.006932
31.019449
29.730797
31.137466
32.075644
35.598874
32.800436
35.433769
33.383965
36.466718
35.799742
36.261678
35.920739
33.974648
34.222603
34.973621
35.465956
34.726858
33.500791
35.478473
35.612583
34.445524
34.787655
35.908818
34.398437
34.009814
35.669804
38.453937
39.490461
41.299462
46.066642
51.543713
57.616830
66.666603
70.316792
70.853829
76.167583
74.774623
73.210001
74.626803
63.128471
62.694550
52.008629
47.141910
42.634606
40.451884
35.091639
32.584667
30.623674
30.506849
28.196573
28.420687
27.087927
28.273463
28.031468
26.597977
26.332736
26.380420
25.443435
26.732683
28.016567
25.492907
26.352406
25.871992
26.501417
27.172565
27.084947
26.485920
25.677681
25.559664
25.619864
25.793910
26.162863
31.092763
45.091510
67.785978
123.259425
##ZVALUE=240
5.896688
7.134676
31.570792
94.301701
219.621658
537.110567
893.801451
1016.001701
1016.001701
1016.001701
1016.001701
1016.001701
1016.001701
1016.001701
1016.001701
762.251616
484.431982
247.419477
160.177946
124.769807
126.647949
133.632421
133.685470
123.964548
97.539425
85.013509
61.771870
48.377514
34.300685
30.611753
25.824904
25.597811
24.074912
25.405884
26.492476
28.080940
27.162433
29.515624
30.223727
29.917955
31.730533
33.285618
33.737421
35.494566
35.877824
34.450889
35.158992
34.275651
35.771728
33.859611
35.639405
35.641789
32.921433
34.708977
36.081672
35.784841
34.178495
35.433769
34.199953
34.458637
32.303929
34.492612
35.519600
34.060478
34.180880
35.698414
33.996701
39.406419
42.314529
46.297908
54.132938
58.879852
64.062476
67.125559
76.297522
76.076984
75.142980
72.879791
68.337917
63.775778
57.245493
52.696466
45.188665
42.478442
38.938522
35.736561
34.163594
29.999614
31.462908
31.212568
29.193759
28.635859
29.737949
28.710961
27.673841
27.333498
29.233694
27.903914
27.859807
26.864409
26.661754
26.641488
27.792454
27.555823
27.662516
28.217435
28.288960
27.908683
25.180578
25.896430
27.404428
26.440620
28.689504
27.850866
26.462674
26.571751
##ZVALUE=245
4.116893
4.000664
3.950596
5.707741
13.613701
65.745711
173.558593
486.118793
879.818797
1016.001701
1016.001701
1016.001701
1016.001701
1016.001701
1016.001701
1016.001701
1016.001701
1016.001701
703.849792
346.128941
201.155543
132.014751
131.965876
142.520666
143.539906
142.797828
128.277540
112.989545
84.438920
69.935918
51.594973
39.107800
27.987957
28.555989
25.462508
25.699735
24.170876
25.607944
27.861595
25.931597
27.150512
28.420687
28.959513
29.441714
30.980706
28.652549
29.333830
30.658841
30.295849
30.038953
29.979944
29.962659
30.386448
28.354526
28.281808
29.556751
29.869676
27.466416
27.478933
30.001998
27.527809
28.682947
28.017759
28.794408
27.950406
28.938651
29.610991
31.276941
33.246875
38.650632
42.847991
46.419501
55.449605
54.997802
58.157444
59.438944
59.479475
55.207610
52.947998
50.596595
45.120716
40.461421
35.962462
34.366846
28.089881
29.071569
26.829839
26.563406
24.306774
24.745464
23.755431
24.315715
23.233891
23.065805
23.925900
22.890568
23.440719
22.626519
22.345781
23.826957
23.982525
23.295879
23.124814
23.823977
22.770762
24.150610
23.784637
23.435950
23.670793
23.346543
22.600889
21.285415
22.715926
22.060871
24.318695
22.012591
##ZVALUE=250
3.409982
3.330708
3.483891
3.986955
4.058480
5.686879
7.611513
41.768551
127.728581
372.255445
738.032460
1016.001701
1016.001701
1016.001701
1016.001701
1016.001701
1016.001701
1016.001701
1016.001701
1016.001701
958.632827
498.607755
279.359818
144.220591
125.761628
136.481524
151.016712
154.294968
151.831508
140.393972
114.976764
98.431706
72.335601
53.495765
35.999417
30.483603
26.144981
25.164485
25.482774
24.998784
26.104450
25.931597
26.559830
26.433468
27.523637
26.672482
26.468635
25.276542
26.196837
27.746558
26.539564
27.024746
27.517676
26.460886
26.300550
25.938749
25.643706
25.242567
26.235580
24.903417
24.750829
23.854971
24.957657
23.951530
25.067925
23.179650
25.517941
26.585460
28.159618
29.864907
35.392642
38.788915
42.836666
45.517683
49.313903
47.183633
49.501657
46.197772
42.768717
40.358901
36.128759
34.217834
30.718446
28.261542
24.353862
24.419427
21.984577
21.926761
22.389889
20.737648
21.465421
21.652579
20.653605
20.176768
19.056797
18.960834
20.662546
19.840598
19.368529
19.591451
19.558668
18.909574
19.898415
19.143820
20.490885
19.012690
19.400716
20.029545
20.455718
19.007921
19.994974
18.725991
21.836758
18.876791
20.805597
19.099712
##ZVALUE=255
2.916455
3.198981
3.485680
3.297925
3.267527
3.688931
4.480481
4.973412
5.776882
20.795465
77.899694
279.381871
572.965741
1016.001701
1016.001701
1016.001701
1016.001701
1016.001701
1016.001701
1016.001701
1016.001701
1016.001701
1016.001701
718.977451
405.611992
190.707445
130.610466
121.443868
143.131614
156.035423
165.853500
160.622597
145.548582
125.113726
96.893907
76.373816
51.278472
40.911436
30.417442
26.825666
25.348663
25.079846
25.857687
24.824739
26.654601
26.206970
27.396679
24.702549
26.083589
25.329590
25.447607
24.765730
24.436712
25.821924
24.682879
23.975968
24.086833
23.440719
24.732947
23.231506
23.175478
22.581816
22.372603
22.021532
21.847486
21.669865
23.133755
24.052858
26.286840
28.307438
31.472445
33.550858
36.214590
37.061572
38.772821
40.823817
37.607551
37.382841
34.651756
33.040643
29.817820
27.973652
25.342703
22.581816
21.395683
20.325780
17.851591
18.847585
17.093420
18.293858
17.982721
17.257929
16.921759
16.641617
16.459823
17.068982
16.263723
16.695857
17.292500
16.251802
16.576648
16.820431
17.048717
16.547441
17.717481
16.062856
18.980503
17.533898
17.194748
17.123818
19.058585
16.649961
16.138554
16.638637
16.685724
16.647577
##ZVALUE=260
2.715588
2.486706
2.556443
2.799630
3.191829
3.131628
3.849864
3.655553
4.553795
4.424453
5.299449
10.859966
39.771795
180.755854
396.282673
931.203961
1016.001701
1016.001701
1016.001701
1016.001701
1016.001701
1016.001701
1016.001701
1016.001701
1016.001701
1012.911797
671.339035
389.714837
176.364779
119.861960
124.628544
145.047903
166.146755
170.257688
164.338946
153.944492
128.422976
106.146932
75.699687
59.178472
43.418407
33.196807
29.765964
28.315783
27.845502
28.904676
27.565956
27.713776
27.035475
27.337670
26.000738
27.368665
25.891662
26.592612
25.834441
24.605989
23.122430
24.166703
22.824407
22.937655
22.391677
22.193789
22.249818
21.523833
21.553636
21.784902
21.481514
22.601485
24.045706
26.395917
27.895570
30.182600
32.226443
33.295751
35.218596
35.390854
31.621456
31.528473
29.213428
26.969910
26.171803
22.780895
22.131801
19.657612
18.662810
18.078685
17.377734
16.848445
16.709566
15.771985
15.606880
15.124679
15.695691
15.569925
14.474988
15.175939
15.058517
15.222430
15.708804
15.461445
15.792847
15.222430
15.293956
15.226603
15.426874
15.063882
14.667511
15.211701
14.901757
14.808774
15.958548
15.521646
14.940500
16.152859
15.362501
14.938712
##ZVALUE=265
2.576709
2.568960
2.632737
2.855659
3.060699
3.441572
2.889633
3.461838
3.547668
3.788471
4.356503
4.264712
5.384684
7.303953
21.207929
124.066472
304.751992
782.014728
1016.001701
1016.001701
1016.001701
1016.001701
1016.001701
1016.001701
1016.001701
1016.001701
1016.001701
1016.001701
970.606804
572.443604
244.143009
133.351684
107.678771
128.665566
155.933499
173.527002
181.196928
173.410773
154.305696
135.978460
105.841756
85.563660
58.847666
48.032999
37.481785
32.201409
30.412674
29.852986
29.733777
28.837919
29.415488
29.213428
28.023720
26.804805
26.876926
26.636720
26.114583
23.137927
24.448633
23.479462
22.136569
22.444725
21.959543
21.264553
21.495819
22.121668
20.564795
21.218657
22.878647
24.753809
25.601983
28.176904
30.520558
31.737685
31.484962
30.189753
29.579997
28.428435
25.865436
24.558902
22.274852
20.168424
19.217730
18.196702
16.794801
15.850663
14.769435
15.178919
14.385581
14.078617
14.589429
14.036894
13.955832
14.188886
14.410615
13.298988
13.739467
14.120936
13.125539
13.865829
13.727546
14.824867
13.521910
13.788939
13.965964
13.620853
13.657808
13.631582
13.595819
13.644695
13.241768
13.288856
13.881922
13.570786
14.118552
13.825893
##ZVALUE=270
2.541542
2.431870
2.478957
2.400875
2.630949
2.867579
3.183484
3.217459
3.155470
3.144741
3.760457
4.351735
4.180670
4.987717
5.050898
6.085634
9.297729
56.229830
175.744295
580.028892
1016.001701
1016.001701
1016.001701
1016.001701
1016.001701
1016.001701
1016.001701
1016.001701
1016.001701
1016.001701
1016.001701
912.699699
409.420729
190.677643
99.705458
106.779933
136.925578
157.052875
176.430941
184.453726
178.021789
167.401433
136.517882
116.978884
85.869431
67.265630
50.785542
41.602850
35.562515
32.959580
30.606985
31.109452
31.334758
29.914975
28.802752
28.224587
26.504993
25.792718
26.367903
25.272965
24.347901
23.226738
22.135973
22.583604
22.466779
21.481514
20.427704
21.662712
21.574497
23.320913
25.249720
26.538968
28.684735
29.044747
28.924942
29.494762
28.652549
27.185678
24.411678
22.346973
20.213723
18.461943
17.965436
16.388893
15.245676
15.049577
14.490485
14.132857
13.633966
13.834834
13.181567
13.549924
13.056993
13.148785
12.600422
12.990832
12.306571
12.617707
12.226701
12.243986
12.302995
12.304783
13.145804
12.689829
12.672544
13.900995
13.434887
13.032556
12.736917
12.915730
13.102889
14.014840
12.436509
13.163686
12.961626
12.667775
##ZVALUE=275
2.203584
2.391934
2.392530
2.242923
2.587438
2.915859
2.446771
2.734661
3.060699
3.102422
3.410578
3.328919
3.642440
4.126430
4.006624
5.006790
5.246997
5.863905
7.008910
23.831725
94.992518
375.754833
839.569569
1016.001701
1016.001701
1016.001701
1016.001701
1016.001701
1016.001701
1016.001701
1016.001701
1016.001701
1016.001701
1016.001701
581.625700
285.282731
113.304853
88.962913
110.256672
133.132935
160.294771
178.095698
186.687708
183.520913
163.717866
142.127872
109.594464
90.095997
64.810514
52.038431
39.866567
35.496950
31.685829
30.436516
29.809475
29.135942
26.885867
26.837587
25.955439
25.459528
24.396777
23.782849
22.648573
23.200512
21.735430
21.016598
21.409988
21.626949
22.142529
22.745728
24.667978
26.202798
27.872920
28.462410
27.580857
28.517842
27.664900
26.234984
24.647713
22.480488
21.207929
19.332767
17.095804
16.450882
14.696717
13.576746
14.298558
13.958812
12.544990
13.002753
13.023615
13.148785
12.502670
12.599826
11.826754
13.009906
12.369752
12.101531
12.655854
12.408495
12.316704
13.009906
12.137890
11.851788
12.110472
12.556911
12.310743
11.857748
12.483597
12.006760
12.101531
12.125969
12.364984
12.039542
12.056828
11.569858
##ZVALUE=280
2.173781
2.178550
2.136827
2.257824
2.255440
2.594590
1.981854
2.503991
2.416968
2.649426
2.749562
3.095865
3.301501
3.281832
3.593564
4.077554
4.059672
4.769564
5.502701
5.621910
6.782413
12.712479
55.556893
198.923945
669.100881
1016.001701
1016.001701
1016.001701
1016.001701
1016.001701
1016.001701
1016.001701
1016.001701
1016.001701
1016.001701
1016.001701
807.126760
390.017033
138.863921
80.347657
83.697438
103.393793
134.088993
156.004429
175.280571
179.591775
172.969699
161.325932
130.995512
109.883547
81.268549
63.767433
47.500730
38.084984
30.905604
27.368665
25.685430
25.079846
24.138689
23.532510
22.899508
22.083521
21.559000
20.111799
20.910501
20.415783
20.239949
20.118952
20.716786
21.694899
23.283958
24.204850
25.850534
25.592446
26.833415
25.713444
25.525689
24.090409
22.370815
21.419525
18.426776
18.495917
16.237497
15.480518
14.040470
13.738871
12.994409
13.682842
12.934804
12.424588
12.331605
11.953712
11.983514
11.769533
11.816621
11.822581
11.745691
12.055635
11.606812
11.352897
11.751652
11.871457
11.742711
11.677742
11.513829
11.449456
11.838675
11.727810
11.939406
11.541843
11.422634
11.195540
11.446476
11.471510
10.969639
11.241436
##ZVALUE=285
2.161860
2.106428
2.257824
1.940727
2.056956
2.358556
2.368689
2.497435
2.500415
2.631545
2.699494
2.724528
2.676845
3.043413
3.204942
3.477931
3.660917
3.969669
4.193783
4.988909
5.079508
5.365610
6.115437
8.774996
22.424459
133.007765
340.929031
740.479827
1016.001701
1016.001701
1016.001701
1016.001701
1016.001701
1016.001701
1016.001701
1016.001701
1016.001701
1016.001701
1016.001701
628.826022
238.204002
105.418563
63.410997
73.592663
99.204779
121.492743
147.548914
162.569880
169.109702
168.367624
151.344538
130.815506
102.004409
82.184672
57.026744
42.652488
29.769540
25.879741
22.893548
20.594597
20.346642
19.729733
19.434690
18.986464
18.038750
18.664598
18.828511
18.485785
18.870831
20.355582
21.435618
22.157431
23.636818
23.943782
23.762584
23.844838
22.959709
21.215677
20.051599
18.943548
18.127561
16.324520
15.338659
14.359951
13.451576
13.604760
12.556911
12.915730
12.409687
12.281537
12.468696
11.796951
11.795759
11.628866
11.108518
11.651516
11.700988
11.450648
11.521578
10.969639
10.809898
11.597872
11.102557
12.006760
11.039972
11.111498
11.231899
11.234879
11.136532
10.622740
11.054873
10.684729
10.560751
10.444522
10.747910
10.657907
##ZVALUE=290
1.885891
2.068877
1.852512
2.043843
1.988411
2.100468
2.294779
2.402663
2.112985
2.391934
2.328753
2.617836
2.427697
2.788901
2.672672
2.967715
3.197789
3.391504
3.604889
3.894567
4.107952
4.497766
5.215406
5.910993
6.916523
7.656813
10.315776
33.463836
189.104676
479.975939
1016.001701
1016.001701
1016.001701
1016.001701
1016.001701
1016.001701
1016.001701
1016.001701
1016.001701
1016.001701
1016.001701
959.990621
404.147506
171.195865
57.138801
50.250888
67.203641
86.406469
113.199949
134.050846
151.611567
159.480572
156.746507
143.668652
120.247602
98.521709
69.213510
53.931475
36.402941
28.752685
21.538734
18.971562
17.429590
16.757846
16.246438
15.977621
16.469955
16.915798
17.290711
18.355846
19.520521
20.276904
20.889640
21.114945
21.228790
21.433830
20.078421
18.597841
17.566681
16.329885
15.420914
14.885664
13.667941
13.206601
12.910962
12.362599
12.215972
12.492537
11.926889
12.028813
11.552572
11.582971
11.504889
11.624694
11.578798
11.264682
10.928512
11.268854
11.279583
11.335611
11.110902
10.549426
11.179447
11.301637
10.920763
11.049509
10.811687
10.767579
10.925531
10.960698
10.519624
10.586977
10.016561
10.502934
10.290742
10.377765
##ZVALUE=295
1.819730
1.776814
1.669526
1.740456
1.785755
2.033710
1.818538
2.139807
1.984835
2.059937
2.001524
2.273917
2.346635
2.450943
2.575517
2.672672
2.969503
2.708435
3.304482
3.298521
3.490448
3.817677
4.161596
4.616976
5.310774
5.397797
5.921721
7.297993
8.155704
14.811754
93.532801
278.982520
848.403573
1016.001701
1016.001701
1016.001701
1016.001701
1016.001701
1016.001701
1016.001701
1016.001701
1016.001701
1016.001701
1016.001701
581.534505
268.357396
82.855821
41.655898
45.297742
57.672858
82.850456
101.189613
125.779510
139.537454
149.787664
147.986412
132.220984
116.047859
90.956688
70.311427
49.193501
35.964847
23.663640
18.844604
16.363859
15.355945
15.011430
15.409589
15.120506
16.202927
17.837882
18.569827
19.603968
20.157695
19.371510
18.639565
17.386675
17.540455
16.129613
15.209913
14.339685
14.027953
13.081431
13.056993
12.433529
12.035966
12.772679
12.112856
11.861920
11.810660
11.477470
11.092424
10.810494
11.245608
11.046529
11.098981
10.956526
10.916591
10.872483
10.554790
11.085868
11.295676
11.302829
10.416508
10.685921
10.356903
10.794997
10.676980
11.054873
10.633469
10.235906
10.163784
10.379553
10.141730
10.418892
9.711981
##ZVALUE=300
1.774430
1.588464
1.523495
1.894832
1.766682
1.765490
1.783967
1.743436
2.091527
1.961589
1.900792
2.173781
2.044439
2.239943
2.411604
2.342463
2.481937
2.654791
2.406836
2.644658
2.817512
3.159642
3.206730
3.551841
4.232526
4.359484
4.649758
5.352497
6.046891
6.673932
7.199645
10.522604
34.117103
198.382735
499.415994
1016.001701
1016.001701
1016.001701
1016.001701
1016.001701
1016.001701
1016.001701
1016.001701
1016.001701
1016.001701
1016.001701
908.198953
368.943810
162.050724
49.852729
32.297969
39.599538
51.782727
72.920918
91.565847
116.485953
131.262541
138.753653
140.296817
126.653910
111.873746
85.181594
67.285895
47.358871
34.976602
23.394823
19.047856
16.036630
14.881492
16.096830
16.757846
17.326474
18.165708
18.386841
17.804503
17.886758
17.109513
16.106963
15.172958
14.563799
14.111996
12.789965
12.332797
12.695789
12.841821
11.687875
11.789799
11.742711
11.936426
11.230707
10.893941
11.174679
11.119843
10.652542
10.833740
10.672808
10.590553
10.616779
10.793805
10.667443
10.760427
10.378957
10.682940
10.349751
10.338426
10.453463
10.686517
10.409951
10.359883
10.718703
10.543466
10.112524
9.753704
9.809732
9.626746
9.661913
##ZVALUE=305
1.603961
1.591444
1.577735
1.572967
1.891851
1.656413
1.639724
1.788735
1.785755
1.748800
1.927614
1.854897
1.956820
1.871586
2.087951
2.113581
2.221465
1.947880
2.210736
2.429485
2.661943
2.991557
3.024936
3.270507
3.383756
3.782511
3.840923
4.171729
4.469752
4.638433
5.669594
6.014705
7.166862
8.218884
20.413399
84.292889
365.268588
833.861828
1016.001701
1016.001701
1016.001701
1016.001701
1016.001701
1016.001701
1016.001701
1016.001701
1016.001701
1016.001701
1016.001701
665.477514
229.834914
88.340640
28.953552
28.262734
37.690997
48.672557
67.692995
87.153912
111.904740
124.439597
131.581426
132.232904
120.864511
105.222464
83.538890
65.689683
45.290589
33.859611
22.900701
18.639565
17.805696
17.213821
17.216802
17.129779
16.877651
16.916990
16.070604
14.757514
13.726950
13.479590
12.052655
11.943579
11.952519
11.676550
11.971593
11.844635
11.274815
11.473894
11.256933
11.272430
11.291504
10.902882
10.594726
10.222793
10.923743
10.770559
10.610819
10.495782
10.319948
10.722876
10.151863
10.527968
9.998679
10.294914
10.492802
10.433793
10.415912
10.191798
10.124445
10.139942
10.362864
10.362864
9.688735
10.107756
9.623766
9.631515
##ZVALUE=310
1.461506
1.565814
1.416802
1.566410
1.565814
1.495481
1.538992
1.666546
1.645684
1.502633
1.865625
1.727939
1.841784
1.856685
1.871586
1.918674
2.052784
2.145767
2.299547
2.289414
2.431870
2.366900
2.597570
2.872944
2.935529
3.205538
3.254414
3.411770
3.585815
4.027486
4.483461
4.927516
5.420446
5.844831
6.880760
7.653832
10.766983
33.255816
194.134712
484.972000
1016.001701
1016.001701
1016.001701
1016.001701
1016.001701
1016.001701
1016.001701
1016.001701
1016.001701
1016.001701
1016.001701
955.364704
384.977460
160.355568
42.690635
23.638606
26.407838
31.727552
44.833422
58.735609
80.536604
98.086596
116.750598
124.198794
125.414729
118.573904
100.230575
84.534883
61.514974
45.950413
32.046437
25.431514
20.793676
18.396974
16.757846
16.041994
14.627576
13.909936
12.692809
12.104511
12.282729
11.690855
11.846423
11.347532
11.540651
10.978580
11.125803
10.860562
11.028647
11.042953
10.402799
10.588765
10.655522
10.195971
10.478497
10.064840
10.275841
10.340810
10.392666
10.588765
10.110736
10.067821
9.643435
10.004640
10.286570
10.452867
9.908676
10.123849
10.116696
10.060668
9.720922
9.654760
9.576678
9.353757
9.643435
9.560585
##ZVALUE=315
1.262426
1.474619
1.437664
1.388788
1.577735
1.349449
1.504421
1.430511
1.640916
1.608729
1.661777
1.748800
1.805425
1.686811
1.747608
1.682639
1.890659
2.045631
2.143979
2.242923
2.168417
2.311468
2.368689
2.538562
2.461672
2.647638
2.648830
3.108978
3.059506
3.107786
3.723502
4.119873
4.075766
4.516840
4.805923
5.598664
6.255507
6.965995
8.381605
15.365481
93.887448
280.903578
851.790905
1016.001701
1016.001701
1016.001701
1016.001701
1016.001701
1016.001701
1016.001701
1016.001701
1016.001701
1016.001701
1016.001701
600.903630
263.484716
64.467788
26.504993
20.718575
22.608638
29.128790
38.836598
55.917501
71.260929
93.504786
106.650591
117.860436
118.856430
110.231638
98.006725
77.847838
63.241720
45.594573
34.298897
24.428964
20.160675
15.583634
14.027953
12.758970
12.107491
11.539459
11.236668
10.960698
10.645986
10.955930
10.688901
10.739565
10.674596
10.419488
10.254979
10.899901
10.216832
10.479689
9.784698
10.388494
9.978414
10.049939
9.933710
10.055900
9.892583
10.197759
10.148883
9.991527
9.558797
9.924769
10.060668
10.240674
10.014772
10.183454
10.072589
9.985566
9.691715
9.464622
9.798408
9.750724
9.490848
##ZVALUE=320
1.275539
1.288652
1.168847
1.377463
1.346469
1.380444
1.471639
1.452565
1.330972
1.496673
1.497865
1.597404
1.607537
1.642704
1.636744
1.658797
1.760721
1.966953
1.942515
2.012849
2.064705
2.098680
1.980662
2.027750
2.185702
2.708435
2.458692
2.576709
2.741814
2.905726
3.300905
3.301501
3.685951
3.797412
4.128814
4.307628
4.667640
5.095601
5.989671
6.253719
7.007718
9.486675
29.743910
174.769759
461.536050
1016.001701
1016.001701
1016.001701
1016.001701
1016.001701
1016.001701
1016.001701
1016.001701
1016.001701
1016.001701
1016.001701
872.690082
410.351753
119.415522
43.878555
20.131469
18.773675
21.997690
25.893450
36.238432
48.307776
68.528652
82.766414
103.589892
111.508965
113.266706
107.379556
92.719793
79.104900
59.654713
45.773983
30.715466
22.447705
16.137958
13.666749
11.853576
11.292696
10.590553
10.769963
10.416508
10.575652
10.447502
9.918809
9.906888
10.235906
9.829998
10.099411
10.049939
10.206699
10.052919
9.838939
10.074973
10.333657
10.018945
9.926558
10.004640
9.839535
9.604692
9.637475
9.900928
10.044575
9.836555
10.227561
9.883642
9.851456
9.766817
9.520650
9.551644
9.559989
9.187460
9.221435
##ZVALUE=325
1.187921
1.076460
1.404881
1.310706
1.252890
1.422763
1.314878
1.351833
1.369715
1.274943
1.461506
1.510978
1.543760
1.383424
1.491904
1.529455
1.666546
1.621842
1.485944
1.764894
1.678467
1.863837
1.874566
1.964569
2.346635
2.210736
2.350807
2.395511
2.481937
2.828836
2.727509
3.121495
3.081560
3.129840
3.398657
3.544688
3.571510
3.994703
4.357696
4.851818
5.334616
6.047487
6.853938
8.278489
19.900799
80.930591
330.762863
726.071000
1016.001701
1016.001701
1016.001701
1016.001701
1016.001701
1016.001701
1016.001701
1016.001701
1016.001701
1016.001701
1016.001701
592.214465
189.896822
66.704750
20.786524
17.148852
17.233491
19.204617
24.547577
33.631921
49.640536
65.589547
86.011887
97.482800
106.114745
107.885003
99.698901
88.386536
69.993734
55.342913
37.071705
26.975870
18.338561
14.472604
11.800528
11.233687
10.293722
10.121465
9.941459
9.867549
9.736419
9.917617
9.626746
9.411573
9.820461
9.805560
9.570718
9.588599
9.559989
9.561777
9.779930
9.520650
9.829998
9.645820
9.888411
9.357929
9.625554
9.661913
9.927750
9.952784
9.977818
9.502769
9.849668
9.872913
9.505749
9.705424
9.193420
9.052753
##ZVALUE=330
1.240969
1.080632
1.263618
1.228452
1.223683
1.370907
1.243949
1.295805
1.264811
1.328588
1.338720
1.176596
1.347661
1.409650
1.307726
1.483560
1.389980
1.443624
1.490712
1.848936
1.700521
1.674891
1.798868
1.874566
1.821518
1.954436
1.995564
2.117753
2.164841
2.276897
2.386570
2.365708
2.460480
2.637506
2.920628
2.960563
3.260970
3.359914
3.524423
3.917813
4.443526
4.299879
5.145669
5.664825
6.153584
7.193685
9.607673
49.323440
167.305470
548.128486
997.208953
1016.001701
1016.001701
1016.001701
1016.001701
1016.001701
1016.001701
1016.001701
1016.001701
1016.001701
1016.001701
730.844736
341.096520
100.908875
33.749938
16.775727
15.578866
16.176701
18.668771
25.211573
33.180714
48.602819
61.861873
79.954863
91.129541
99.036694
98.899603
90.092421
80.084801
63.291788
49.446821
34.047961
26.132464
17.401576
13.918877
11.772513
10.479689
9.744763
9.579659
9.432435
9.477735
9.086728
9.560585
9.378791
9.253621
9.193420
9.283423
9.295940
9.297729
9.375811
9.707808
9.162426
9.467602
9.649992
9.994507
9.805560
9.725690
9.645820
10.144711
9.841919
9.470582
9.538531
9.477735
9.042621
9.107590
9.371638
##ZVALUE=335
0.999570
1.068711
1.016855
1.031756
1.206994
1.076460
1.174808
1.163483
1.264811
1.216531
1.220703
1.211762
1.350641
1.308918
1.309514
1.245737
1.240969
1.490712
1.348853
1.576543
1.358986
1.593828
1.721978
1.675487
1.806617
1.691580
1.768470
1.673698
1.929998
1.896620
2.079606
2.007484
2.141595
2.294779
2.551675
2.676845
2.795458
2.858639
2.963543
2.994537
3.326535
3.607869
3.849864
4.253983
4.611611
5.034804
5.620718
6.420612
7.662773
15.840530
95.821619
272.426605
801.831484
1016.001701
1016.001701
1016.001701
1016.001701
1016.001701
1016.001701
1016.001701
1016.001701
1016.001701
1016.001701
1016.001701
473.545790
196.322799
46.795607
19.629598
15.626550
15.525818
16.399622
18.649697
24.132729
31.310916
44.641495
56.744814
72.324872
82.645416
89.716911
90.366602
83.639622
73.582530
60.077906
48.758984
35.009980
26.378632
18.073916
14.299750
11.626482
9.970665
9.619594
9.348989
8.846521
9.221435
9.316802
9.299517
9.124875
8.897781
8.925796
9.182692
9.148717
9.554625
9.249449
9.485483
9.770989
9.686947
9.563565
9.893775
9.744763
9.681582
9.536743
9.580851
9.401441
9.551644
9.166598
9.018779
##ZVALUE=340
1.013875
0.981688
1.028776
1.153946
1.016855
1.002550
0.980496
0.941753
1.257658
1.166463
1.098514
1.020432
1.135468
1.207590
1.326799
1.113415
1.328588
1.243949
1.294613
1.398921
1.430511
1.487732
1.540780
1.297593
1.637936
1.681447
1.527667
1.650453
1.676679
1.885891
1.870990
2.009869
1.947880
2.087951
2.029538
2.277493
2.535582
2.338886
2.567768
2.771616
2.885461
3.040433
3.438592
3.423691
3.704429
4.187822
4.358888
4.816651
5.250573
5.884767
7.124543
8.901954
44.543743
157.497525
547.092557
999.726653
1016.001701
1016.001701
1016.001701
1016.001701
1016.001701
1016.001701
1016.001701
1016.001701
1016.001701
1016.001701
652.099848
295.646787
68.032742
23.767948
16.451478
15.879869
15.725493
16.180873
17.468929
21.324754
29.835701
38.836598
54.178834
65.422654
77.555776
83.698630
85.017681
80.274940
69.758892
58.690906
44.220686
35.183430
24.590492
18.592477
13.475418
11.082888
10.232925
9.592772
9.205937
9.264946
9.284616
8.891821
9.164810
9.282827
9.191632
9.579659
9.708405
9.561777
10.045767
9.727478
9.838939
9.839535
9.746552
9.627938
9.838939
9.819865
9.573698
9.659529
9.541512
9.270906
##ZVALUE=345
1.176596
1.137853
1.090765
1.155734
1.053810
1.180768
1.058578
1.051426
1.012683
1.206994
1.094937
1.326799
1.109838
1.116991
1.299977
1.180768
1.383424
1.228452
1.338720
1.326799
1.341701
1.364946
1.315475
1.337528
1.448989
1.548529
1.644492
1.760721
1.616478
1.608729
1.830459
1.944900
1.954436
2.038479
2.070665
2.086759
2.106428
2.139807
2.222657
2.392530
2.566576
2.610683
2.810955
2.794862
3.174543
3.413558
3.638864
3.950596
4.320741
4.570484
5.341768
5.480647
6.552935
7.449985
20.955801
85.871816
362.553596
767.692924
1016.001701
1016.001701
1016.001701
1016.001701
1016.001701
1016.001701
1016.001701
1016.001701
1016.001701
1016.001701
909.903646
436.685681
126.690865
42.534471
18.829703
16.931891
15.270710
14.184713
13.883710
15.209913
19.985437
25.450587
36.303997
46.168566
60.600638
69.524646
77.504516
78.699589
74.371696
68.890452
56.552887
45.649409
34.005642
26.360750
19.492507
16.762614
15.162826
14.828444
14.634728
15.098453
15.766621
15.812516
16.217828
16.227961
16.536713
16.624928
16.661882
16.983747
17.244816
17.837882
17.582774
17.929673
18.384457
18.313527
18.014908
17.710924
17.177463
17.050505
##ZVALUE=350
1.070499
1.299977
1.351833
1.108646
1.250505
1.151562
0.986457
1.237988
1.059771
1.190901
1.132488
1.215935
1.248717
1.176596
1.129508
1.265407
1.405478
1.242757
1.326799
1.501441
1.383424
1.358986
1.461506
1.445413
1.546741
1.394749
1.609921
1.472831
1.653433
1.605749
1.860857
1.826882
1.930594
1.893640
1.723766
1.911521
2.167821
2.193451
2.242923
2.287626
2.523661
2.591610
2.482533
2.865791
2.929568
2.988577
3.292561
3.284812
3.699660
3.885627
3.981590
4.377961
4.755855
5.490780
5.946755
6.801486
11.589527
41.693449
200.902820
476.859808
1016.001701
1016.001701
1016.001701
1016.001701
1016.001701
1016.001701
1016.001701
1016.001701
1016.001701
1016.001701
1016.001701
703.110099
263.202786
86.638927
21.091700
16.037822
14.080405
12.789965
11.648536
11.897683
14.045835
17.451644
24.306774
31.445622
43.988824
52.922964
63.349605
70.247650
72.889924
71.230531
64.909458
57.553649
48.005581
41.338801
34.199953
31.152964
28.212667
28.193593
27.660728
28.397441
27.666688
27.311444
27.695894
27.644634
27.318001
28.033853
28.180480
28.705597
29.382706
29.776692
30.667782
30.519962
29.973984
29.492974
29.134750
27.816892
##ZVALUE=355
1.122952
1.126528
1.233816
1.218915
1.273751
1.339912
1.201630
1.209974
1.164675
1.267791
1.402497
1.403689
1.249909
1.340508
1.367927
1.484752
1.324415
1.273751
1.579523
1.341701
1.413822
1.536608
1.582503
1.589656
1.614690
1.437664
1.532435
1.751781
1.786947
1.708865
1.845956
1.856685
2.024770
2.040863
1.907945
1.943707
2.110600
2.177954
2.058744
2.420545
2.432466
2.433658
2.643466
2.752542
2.627969
2.921820
2.997518
3.101826
3.007650
3.533959
3.973842
3.825426
4.286766
4.593730
4.861951
5.378723
6.026626
6.728768
8.250475
18.829703
116.790533
314.991474
867.215991
1016.001701
1016.001701
1016.001701
1016.001701
1016.001701
1016.001701
1016.001701
1016.001701
1016.001701
1016.001701
931.477547
387.060642
151.017904
31.694770
15.989542
13.433695
12.483597
11.178851
11.208653
11.599660
12.903810
16.361475
20.694733
29.867887
37.123561
49.305558
58.310628
66.466928
69.455504
70.464611
67.522526
60.692430
54.662824
47.088861
42.263865
36.388636
33.658743
30.541420
29.144883
28.083920
27.606487
27.836561
27.828813
28.252602
28.732419
29.595494
29.837489
30.114651
30.476451
29.935837
29.751658
28.306842
27.596951
##ZVALUE=360
0.964999
1.080632
1.224875
1.313686
1.315475
0.991821
1.314878
1.154542
1.200438
1.308918
1.332760
1.255870
1.392961
1.245737
1.295805
1.266599
1.413822
1.442432
1.395941
1.413822
1.448989
1.499653
1.512766
1.583695
1.683831
1.736879
1.672506
1.642704
1.823902
1.701713
1.716614
2.007484
2.070665
2.055764
2.048612
2.131462
2.111793
1.939535
2.344847
2.266765
2.340674
2.551675
2.449751
2.313852
2.502799
2.704859
2.720952
3.011823
3.173947
3.200769
3.440976
3.294945
3.729463
3.900528
4.395843
4.609823
4.857779
5.354881
5.996823
6.624460
7.835627
10.267496
53.029060
172.075629
556.418896
996.948481
1016.001701
1016.001701
1016.001701
1016.001701
1016.001701
1016.001701
1016.001701
1016.001701
1016.001701
1016.001701
526.454449
222.742558
48.696995
17.432570
13.033748
12.128949
11.325479
10.823607
10.551810
10.339618
11.510849
13.673902
18.771887
24.132729
33.748746
42.636991
53.978562
61.137676
66.262484
67.240596
64.504743
60.683489
52.588582
45.737624
37.157536
31.391978
25.784969
23.055673
21.278858
20.167828
20.627975
20.690560
20.379424
20.340681
20.850897
20.766854
20.387769
20.109415
19.401908
18.706918
##ZVALUE=365
1.087785
1.097918
1.021624
0.993609
1.192689
1.024604
1.151562
1.158714
1.227856
1.347661
1.222491
1.212955
1.219511
1.283884
1.291633
1.335740
1.205802
1.429915
1.397729
1.615882
1.464486
1.358986
1.628995
1.480579
1.667738
1.487732
1.491904
1.639724
1.530647
1.715422
1.680851
1.659989
1.757741
1.980662
1.845956
1.870990
1.846552
2.180934
1.936555
2.200603
2.225637
2.084970
2.390742
2.436638
2.444983
2.601743
2.371669
2.642870
2.605915
2.862811
3.051758
3.110766
3.310442
3.443956
3.467798
3.830791
3.981590
4.352927
4.768968
4.908442
5.799532
6.352663
7.229447
8.247495
23.169518
91.525912
349.384546
742.639899
1016.001701
1016.001701
1016.001701
1016.001701
1016.001701
1016.001701
1016.001701
1016.001701
1016.001701
1016.001701
677.088499
301.565528
71.916580
22.792816
12.777448
11.391640
10.602474
9.951591
9.374619
9.022951
8.866787
10.214448
12.569427
15.398860
21.890998
28.208494
38.492680
45.436621
53.790808
57.231784
59.027672
57.558417
51.919818
45.775771
36.863685
30.740499
23.179650
19.248724
15.766621
13.993979
13.111830
12.177825
11.901855
11.653900
11.739731
11.525750
11.110902
10.627508
##ZVALUE=370
1.118779
1.075864
0.951886
1.088977
1.029968
1.224875
1.215935
1.245737
1.050830
1.081824
1.176000
1.287460
1.058578
1.203418
1.093745
1.185536
1.279712
1.465678
1.273751
1.388788
1.494884
1.533628
1.315475
1.375675
1.569986
1.465678
1.541972
1.578927
1.457930
1.537800
1.458526
1.545548
1.730919
1.675487
1.618862
1.712441
1.858473
1.759529
1.795888
1.822710
1.768470
1.794696
1.975894
2.093911
2.389550
2.302527
2.118945
2.270937
2.286434
2.358556
2.155900
2.499819
2.697706
2.868772
2.957582
3.070831
3.146529
3.531575
3.572702
3.923774
4.184842
4.619956
5.116463
5.624890
6.392002
7.092953
12.146831
48.317909
261.938572
601.837635
1016.001701
1016.001701
1016.001701
1016.001701
1016.001701
1016.001701
1016.001701
1016.001701
1016.001701
1016.001701
902.999043
450.338721
144.865513
45.504570
13.249516
11.227727
10.007620
9.556413
8.928776
8.612871
8.296967
8.626580
9.263754
10.776520
13.993979
17.595887
24.462938
30.280948
38.184524
44.142604
50.081611
51.951408
50.782561
46.636462
40.091872
34.248829
26.161671
21.440983
16.187429
13.274550
10.599494
9.212494
8.327961
7.830858
7.325411
7.264614
##ZVALUE=375
1.093745
1.013875
0.913739
1.144409
0.888705
1.027584
0.994802
1.041889
0.942945
1.050830
1.165867
1.078844
0.965595
1.172423
1.159906
1.166463
1.166463
1.114607
1.106858
1.155734
1.215935
1.105666
1.209974
1.128912
1.213551
1.248717
1.078844
1.466870
1.551509
1.294613
1.410842
1.498461
1.606941
1.546741
1.649857
1.502633
1.575947
1.499653
1.682639
1.651645
1.570582
1.692772
1.543760
1.871586
1.843572
1.710653
1.942515
2.048612
1.960993
2.005696
1.934767
2.243519
2.377629
2.239943
2.258420
2.498627
2.578497
2.800822
2.926588
2.935529
3.370643
3.597736
3.760457
4.066825
4.522800
4.866719
5.274415
6.359816
8.409619
24.107695
140.447021
362.975597
927.364826
1016.001701
1016.001701
1016.001701
1016.001701
1016.001701
1016.001701
1016.001701
1016.001701
1016.001701
1016.001701
730.504990
272.498727
103.358626
20.886660
11.491776
9.732842
9.453893
8.830428
8.431673
8.138418
7.922649
7.771850
8.307695
9.391904
10.840893
15.250444
19.218922
26.735663
32.990575
40.128827
44.680834
48.961639
49.259663
46.400428
40.216446
35.303831
28.288960
22.619963
16.535521
13.443828
10.183454
8.734465
7.541776
##ZVALUE=380
0.887513
0.875592
0.840425
1.054406
0.750422
0.862479
0.920892
0.926852
1.082420
0.920892
0.867844
1.053810
1.004934
0.909567
0.899434
0.982881
0.854731
0.995994
0.973940
0.979900
1.098514
0.907779
1.004934
1.071692
1.041889
1.264811
1.225471
1.230836
1.306534
1.385808
1.408458
1.444817
1.373887
1.405478
1.427531
1.406670
1.435876
1.522899
1.553893
1.591444
1.629591
1.575947
1.462698
1.782775
1.701713
1.846552
1.694560
1.859665
1.779795
1.963973
1.908541
1.925826
2.193451
1.968741
2.006888
2.089739
2.395511
2.289414
2.683997
2.729893
2.781749
2.680421
2.988577
3.297925
3.514886
3.774762
4.303455
5.002618
5.937815
6.772876
8.077621
13.655424
73.517561
226.306915
697.698593
1016.001701
1016.001701
1016.001701
1016.001701
1016.001701
1016.001701
1016.001701
1016.001701
1016.001701
1016.001701
951.488614
383.667946
160.361528
35.139918
13.157725
10.287762
9.280443
8.860826
8.714795
8.062720
8.237958
7.470846
7.478595
7.554889
7.946491
10.041595
12.625456
17.907619
23.104548
30.849576
36.956668
43.262839
47.012568
46.711564
44.753551
40.723681
34.318566
29.223561
21.850467
16.969442
12.831688
##ZVALUE=385
0.930429
0.786781
0.776649
0.725985
0.923872
0.782609
0.813603
0.795722
0.716448
0.878572
0.685453
0.788569
0.867844
0.768900
0.924468
0.882745
0.904799
0.940561
0.931621
0.970960
1.037717
0.972748
1.058578
1.010895
1.000762
1.052618
1.011491
1.107454
1.334548
1.412630
1.363754
1.351833
1.478791
1.419783
1.616478
1.449585
1.485944
1.750588
1.526475
1.612902
1.609921
1.596808
1.552701
1.499653
1.512766
1.649857
1.603961
1.742840
1.717806
1.734495
1.863837
1.754761
1.991987
1.885891
1.914501
2.005696
2.106428
2.169609
2.408624
2.290606
2.414584
2.633929
2.568960
2.791882
2.971888
3.259778
3.658533
4.094839
4.619956
5.275607
6.188750
6.378889
7.325411
8.590817
38.178563
133.602619
463.566780
945.834517
1016.001701
1016.001701
1016.001701
1016.001701
1016.001701
1016.001701
1016.001701
1016.001701
1016.001701
1016.001701
645.240545
292.859674
80.567598
23.586750
10.394454
9.561777
9.034872
8.390546
7.944703
7.712841
7.277727
6.877780
6.864667
6.518960
7.378459
8.459687
11.313558
14.184713
20.064712
26.991963
31.462908
37.111640
40.466785
42.811632
42.309761
39.081573
34.981966
28.283000
##ZVALUE=390
0.962615
0.766516
0.918508
0.970960
0.814795
0.819564
0.756979
0.805855
0.679493
0.757575
0.869632
0.818968
0.915527
0.818968
0.782609
0.848770
0.983477
0.834465
0.931621
0.892878
0.868440
1.049638
1.041889
1.153946
1.007915
0.917912
1.166463
1.269579
1.149774
1.361966
1.259446
1.408458
1.467466
1.606941
1.557469
1.640916
1.306534
1.691580
1.560450
1.643896
1.614690
1.693964
1.819730
1.704693
1.593828
1.666546
1.786947
1.638532
1.864433
1.750588
1.917481
1.874566
1.991987
1.909733
1.842976
2.017617
1.935959
2.178550
2.194643
2.332926
2.415776
2.390742
2.522469
2.632737
2.708435
2.970695
3.296733
3.667474
4.239678
4.681945
5.127788
5.546808
5.804896
6.119609
6.657839
7.312894
20.874739
102.098584
409.030914
827.720761
1016.001701
1016.001701
1016.001701
1016.001701
1016.001701
1016.001701
1016.001701
1016.001701
1016.001701
1016.001701
969.181657
499.453545
146.922469
44.552684
11.927485
9.677410
8.995533
8.504987
7.925630
7.767677
7.420778
6.948709
6.904602
6.678700
6.597638
6.998777
8.258820
10.201931
12.786984
17.450452
21.384954
27.788877
32.050610
37.730932
40.628910
40.173531
##ZVALUE=395
0.795722
0.765920
0.763535
0.772476
0.889897
0.916719
0.908971
0.672936
0.903606
0.667572
0.835657
0.849962
0.856519
0.927448
0.896454
0.876784
0.867844
0.822544
0.898838
0.766516
0.933409
0.919700
0.935793
1.029968
0.976920
1.088977
1.227856
1.274943
1.192689
1.385808
1.327991
1.432896
1.513958
1.487732
1.627803
1.487732
1.678467
1.669526
1.791716
1.799464
1.695752
1.970530
1.897812
1.744628
1.737475
1.755953
1.697540
1.860857
1.760721
1.891851
1.750588
1.929998
1.896620
2.006888
2.023578
1.974702
2.036691
1.992583
2.037883
2.110600
2.240539
2.430677
2.371669
2.540946
2.633929
2.857447
2.949834
3.526807
3.862977
4.425645
4.892945
4.895926
5.121827
5.352497
5.133748
5.465746
6.041527
6.687641
10.575652
48.069358
285.033584
646.486878
1016.001701
1016.001701
1016.001701
1016.001701
1016.001701
1016.001701
1016.001701
1016.001701
1016.001701
1016.001701
1016.001701
734.112859
248.746872
92.527866
19.981861
10.630488
9.149909
8.696914
8.157492
8.236766
7.690787
7.613897
7.228851
6.975532
6.965995
6.675720
6.920695
7.466674
8.880496
10.945797
14.736652
18.733740
25.170445
30.924678
##ZVALUE=400
0.939965
0.872612
0.858903
0.803471
0.737906
0.849962
0.860691
0.777841
0.763535
0.764728
0.764728
0.698566
0.824928
0.878572
0.731945
0.874996
0.851750
0.862479
0.961423
0.945926
0.819564
0.958443
0.947714
0.832677
0.946522
1.050830
1.273751
1.194477
1.360774
1.356602
1.271963
1.379848
1.461506
1.511574
1.488924
1.579523
1.852512
1.489520
1.526475
1.528859
1.699924
1.758933
1.715422
1.815557
1.539588
1.813769
1.679659
1.928806
1.782775
1.783967
1.865625
1.807809
2.008677
1.928806
1.740456
1.840591
1.849532
1.959801
2.078414
2.048612
2.225637
1.968741
2.310872
2.331734
2.551675
2.679825
3.047585
3.253818
3.558993
4.057884
4.399419
4.601479
4.496574
4.478693
4.554987
4.571676
4.668832
5.201697
5.532503
6.139874
8.101463
18.867850
125.307441
370.675921
974.301696
1016.001701
1016.001701
1016.001701
1016.001701
1016.001701
1016.001701
1016.001701
1016.001701
1016.001701
1016.001701
992.129445
443.914533
185.371637
41.184425
14.074445
9.363890
8.554459
8.567572
8.382797
7.952452
7.755756
7.371902
7.334948
7.019639
6.647706
6.648898
6.491542
6.891489
8.001924
9.654760
13.395548
##END
