##TITLE=9-3
##FORMAT=SPECTACLE-ASCII V-1.2
##DATA TYPE=ULTRAVIOLET SPECTRUM
##SECOND TYPE=ULTRAVIOLET SPECTRUM
##DATE=04/04/18
##TIME=13:18:39
##SPECTROMETER/DATA SYSTEM=SPECTACLE
##XUNITS=NM EM
##YUNITS=ENERGY
##YFACTOR=1
##FIRSTX=220
##LASTX=450
##NPOINTS=116
##3DDATA=Equidistant
##ZUNITS=NM EX
##FIRSTZ=210
##LASTZ=400
##ZPOINTS=39
##XYDATA=(Y..Y)
##ZVALUE=210
29.513836
29.941797
21.078587
16.364455
12.338758
11.419654
11.132956
9.815693
8.383989
6.699562
7.248521
5.783439
5.349517
5.594492
5.490780
5.955696
6.534457
6.844997
6.354451
7.040501
7.978678
8.263588
7.481575
10.335445
10.572672
12.852550
13.322830
14.582872
15.688539
15.243888
17.839670
17.015934
17.594695
19.110441
20.293593
21.158457
20.757914
20.798445
22.263527
21.625757
20.143986
21.570921
23.386478
22.067428
24.406910
23.979545
23.171902
21.524429
22.411942
22.471547
23.097992
23.596883
24.708509
24.104714
22.390485
25.080442
24.398565
23.573637
23.450851
24.340749
24.343729
23.759604
25.204420
26.796460
23.899674
25.120974
24.833679
27.289987
32.366514
37.081838
39.318800
46.145916
50.226450
59.940815
63.967705
66.397786
67.112446
67.888498
66.249967
59.762001
57.760477
48.788786
44.325590
40.516853
33.123493
28.791428
24.331808
23.701787
25.624633
25.245547
29.750466
37.673712
47.444701
61.438680
66.705942
84.640980
95.971823
106.566548
120.340586
127.770901
131.853819
134.698749
134.763718
130.486488
119.477510
114.020705
106.669664
96.856952
81.955791
66.202879
55.474639
39.660931
35.660863
27.737617
26.551485
24.141669
##ZVALUE=215
105.232596
102.542639
74.797869
58.715940
42.940974
28.109550
20.451546
17.042756
16.491413
16.280413
14.860630
11.423826
9.416938
8.017421
7.044673
6.562471
6.439686
6.344914
6.047487
6.062984
7.820725
7.996559
8.909702
10.777712
11.618733
11.496544
14.758706
14.460683
15.950799
17.810464
16.955733
18.719435
19.928813
20.314455
21.849871
24.138689
24.413466
25.418997
24.717450
25.313497
25.729537
26.504993
23.810863
24.749637
26.771426
25.592446
26.538968
28.726459
27.567744
28.720498
27.398467
27.831793
27.989745
28.148890
26.426911
29.606819
27.346611
28.728843
27.726889
28.530955
26.902556
28.172731
25.633574
28.623939
27.248859
28.677583
29.515624
29.630661
33.559799
38.104653
42.898655
46.550632
50.353408
56.352615
59.563518
61.207414
61.019659
62.328577
58.710575
54.493546
50.060749
45.887828
40.550828
36.599636
31.523705
26.574731
23.820996
22.165775
19.769669
19.650459
19.169450
19.357800
20.763874
22.466779
28.843880
35.257936
47.193766
59.371591
82.092881
99.130869
121.342540
140.218735
155.774951
173.340440
190.125704
204.352736
200.181603
192.360878
193.408728
180.667639
172.197819
153.345466
141.282678
115.109682
96.192956
72.121620
##ZVALUE=220
249.034762
245.125890
232.457519
202.550888
172.742605
118.351579
87.639689
49.399734
36.695600
27.773976
28.723478
25.494695
22.883415
20.465851
17.360449
12.937784
10.696650
9.218454
8.591413
8.104444
8.512735
8.914471
10.749698
9.887815
10.947585
12.784600
14.138818
13.877749
15.601516
16.598701
18.851757
18.934608
22.039413
21.674633
23.088455
24.613738
25.647879
29.563904
28.749704
30.271411
29.882789
30.944943
31.463504
33.658743
31.019449
32.488704
33.772588
33.920407
34.540892
34.389496
33.218861
35.966635
33.561587
37.332773
34.042597
35.153627
36.396980
34.694672
33.477545
35.229921
34.831762
32.697916
34.553409
34.112930
33.375621
35.639405
36.476851
34.601688
37.813783
39.284825
44.725537
49.855709
54.895878
56.175590
63.283443
66.697001
66.664815
60.021877
60.914755
56.970716
54.051876
47.207475
42.686462
38.482547
34.641623
29.269457
26.155710
23.429990
23.496747
21.865964
21.268725
21.985769
20.239949
19.487739
20.386577
20.295978
21.131635
21.142960
23.501515
30.940771
40.658712
58.175921
76.391697
106.592774
131.967664
165.103674
195.456743
228.064656
254.933834
279.463530
303.136706
301.447511
306.650996
299.191475
285.312533
264.693499
##ZVALUE=225
298.056006
304.775834
384.364724
407.250524
408.731699
368.583798
315.924883
223.761797
164.656639
96.254945
67.020655
45.951605
40.841699
41.444898
39.059520
34.010410
31.661987
23.315549
19.034743
14.027953
11.309981
10.748506
10.536909
11.845827
11.328459
12.864470
13.832450
14.491677
16.132593
16.883612
17.650723
18.011928
20.087957
22.736788
25.005937
28.020740
30.360818
32.058954
32.793880
35.385489
35.789609
36.338568
37.076473
38.811564
40.475726
39.608479
38.036704
42.091608
38.563609
42.123795
41.495562
38.052797
39.849877
41.026473
38.788915
37.141442
37.102699
40.647984
38.380623
39.467812
38.314462
36.880970
39.790869
38.452744
39.177537
40.442944
38.588643
40.251613
42.848587
44.661760
47.044754
50.035715
54.818988
58.015585
56.991577
58.302879
59.554577
55.941939
56.337714
48.076510
47.678947
46.182871
39.146543
35.986900
32.250881
29.348731
27.842522
24.433732
23.426414
21.884441
23.541451
22.423863
21.817684
20.592809
21.132827
20.312667
20.880699
21.452904
20.832419
21.175742
19.846559
21.366477
21.794438
25.642514
37.317872
53.823590
72.773695
107.313991
137.745738
181.156993
224.778652
279.887915
313.325524
379.319787
416.760445
449.679494
##ZVALUE=230
193.496943
210.227966
344.989896
457.082987
564.347506
669.001937
707.463026
657.637715
566.848516
421.772003
294.353962
167.188644
113.073587
72.077513
63.311458
62.536597
63.919425
58.255792
53.209662
41.944981
32.565594
23.918748
18.143654
14.614463
12.574792
13.250709
13.463497
12.584925
14.165640
15.572906
16.726851
17.861724
21.006465
21.900535
24.789572
26.953816
29.565692
31.872988
33.962727
36.406517
37.619472
39.809942
41.714907
40.876865
38.348436
43.024421
41.622519
41.169524
42.231679
40.355921
41.733980
41.665435
41.780472
41.129589
41.707754
41.822791
41.491985
41.718483
43.725967
41.160583
42.552948
41.286945
40.393472
38.573742
40.234923
38.680434
42.660832
39.396882
41.779876
45.688748
48.128963
50.067902
52.762628
56.208968
60.056448
60.314536
59.073567
57.028532
56.239963
49.510002
45.379996
44.510961
39.483905
36.590695
34.192801
31.025410
28.157830
27.319789
26.490688
26.278496
25.033951
25.203824
24.097562
25.549531
23.446679
23.547411
22.632480
23.812652
21.916628
23.335814
21.289587
23.851991
22.873878
22.789836
21.905899
23.904443
25.027990
25.660992
30.895472
46.015978
62.664747
99.161863
133.852959
200.899839
251.982808
328.370929
##ZVALUE=235
54.241419
60.563684
148.132443
266.483426
420.642495
678.038001
858.463645
1016.001701
1016.001701
1016.001701
990.099907
741.313696
532.063842
309.823751
205.983520
121.365786
93.729496
90.303421
97.623467
90.062618
83.596706
76.905489
59.117675
48.298836
31.057000
25.134683
18.763542
16.511679
15.833974
16.921759
17.555952
18.233657
20.362735
21.239519
21.576881
25.311708
26.209950
31.172633
33.673644
31.850934
36.002994
35.419464
38.729906
39.428473
41.989684
41.728616
40.428638
38.557649
39.503574
40.722489
39.740801
40.932894
42.061806
44.490695
40.314794
39.333701
39.787889
40.460825
40.892959
41.739941
39.308667
39.667487
39.371848
41.831732
40.211678
40.984750
42.453408
42.582750
45.499802
46.233535
48.458576
52.097440
54.883957
57.390928
59.796572
60.427785
62.057972
57.929754
54.565668
54.012537
48.601627
44.311881
41.202903
38.538575
34.961700
30.421615
29.211640
28.486848
27.417541
28.611422
27.688742
28.510690
26.372671
25.066733
24.919510
26.308894
25.683641
25.677681
24.758577
26.627779
26.158690
25.555491
25.549531
25.389791
25.830865
26.131868
25.122762
25.556684
26.780963
24.877787
25.251508
26.208758
29.001832
33.270717
50.075650
81.105828
##ZVALUE=240
4.887581
5.702972
19.855499
58.227777
129.490495
303.559899
524.388552
899.489522
1016.001701
1016.001701
1016.001701
1016.001701
1016.001701
1016.001701
939.292908
573.788881
371.827483
209.162831
141.049623
112.327933
120.764971
125.815868
117.371678
110.622644
89.354515
77.335835
58.549643
43.720603
31.221509
24.128556
22.479892
21.575689
19.739866
23.699999
24.424791
25.268793
26.708841
25.407672
28.472543
29.000640
30.724406
32.960773
33.310652
33.980608
34.313798
34.709573
34.918785
36.464930
37.797689
39.527416
41.104555
41.573644
40.590763
39.161444
40.964484
43.005943
41.399002
40.908456
40.149689
40.852427
41.379929
41.585565
42.813420
41.225553
40.146708
42.001605
41.205883
41.718483
47.640800
49.676895
51.433444
56.018829
60.620904
61.462522
63.409805
63.119531
61.305761
58.744550
52.016973
53.764582
48.516989
46.047568
40.936470
38.384795
34.844875
34.018755
32.397509
31.977892
32.116771
31.971931
30.419827
30.172467
29.495955
30.166507
29.278994
28.853416
28.796792
27.953982
28.833747
29.523969
28.512478
29.381514
28.900504
29.064417
27.895570
27.532578
28.533936
31.208992
29.308796
29.677749
31.766891
27.639866
28.386712
30.718446
28.349757
29.172897
##ZVALUE=245
3.643632
3.154874
3.870726
4.442930
9.112954
39.762855
101.722479
279.130936
493.077636
904.389620
1016.001701
1016.001701
1016.001701
1016.001701
1016.001701
1016.001701
1016.001701
877.587795
568.747520
287.601948
177.422762
134.774446
123.220682
135.402679
145.448446
132.684708
116.590858
103.989840
79.714656
63.786507
44.230819
35.028458
26.524663
23.344755
21.869540
24.510622
24.796724
23.529530
24.287701
28.875470
28.598905
28.966665
28.038621
30.361414
31.651855
31.975508
33.772588
32.750964
35.345554
34.638643
35.536885
37.055612
38.689971
38.583875
40.470958
40.433407
42.257905
40.449500
39.501786
41.146874
40.424466
38.952827
39.672852
37.377477
40.997863
39.971471
40.721893
42.024851
44.410825
46.861768
49.647689
52.617788
55.289865
57.663918
59.440732
58.992505
55.552721
55.362582
50.060749
46.680570
44.085979
40.974617
38.622618
34.718513
33.294559
34.420490
30.031800
29.145479
30.114651
27.170777
28.165579
29.418468
27.531981
28.249621
27.033687
29.132962
27.527809
28.428435
28.009415
28.595924
27.453899
28.045774
28.214455
29.763579
26.762486
27.911663
28.307438
28.628707
28.021932
28.466582
28.226972
29.001832
29.273629
28.998852
26.984811
25.664568
##ZVALUE=250
2.764463
3.121495
2.864599
3.611445
3.357530
4.169941
5.089641
27.076602
78.693628
223.071575
428.455472
871.307850
1016.001701
1016.001701
1016.001701
1016.001701
1016.001701
1016.001701
1016.001701
1016.001701
776.787400
405.329466
231.178999
127.982497
120.839477
133.762956
142.072439
149.062872
147.246718
135.215521
112.905502
93.235970
65.585971
51.043630
34.831762
28.341413
24.458766
24.022460
24.352670
24.853945
25.557876
26.677847
26.750565
26.635528
28.718710
30.044913
31.310916
32.290816
34.027696
33.278465
35.241842
37.387609
36.878586
40.222406
39.583445
39.349794
40.377975
39.265752
39.485693
41.605830
41.449666
40.682554
40.575862
40.030479
40.667653
38.970709
41.439533
40.476918
41.367412
42.222738
45.170784
48.044920
50.962567
50.119758
49.486756
49.548745
48.530698
45.715570
42.822957
39.376616
38.216710
34.915805
32.926798
32.124519
29.293895
28.449893
26.557446
26.174784
27.187467
26.228428
26.497841
25.269985
22.986531
24.125576
23.518801
22.915602
23.019910
23.609996
22.897720
24.473667
24.192929
23.781657
23.805499
24.051666
24.019480
24.461746
24.377704
24.412870
23.813844
24.919510
23.849607
24.271607
24.217963
24.437904
25.397539
22.972822
##ZVALUE=255
2.307892
2.430677
2.628565
2.738833
2.982616
2.739429
3.601909
3.695488
4.224777
13.357401
50.764680
177.804828
364.770889
771.430731
1016.001701
1016.001701
1016.001701
1016.001701
1016.001701
1016.001701
1016.001701
1016.001701
1016.001701
569.084883
329.142809
162.200928
117.884874
121.097565
139.345527
151.428580
159.060955
156.887770
140.311718
121.353865
93.971491
74.859858
52.266717
41.178465
34.095645
28.932691
27.525425
30.046701
30.118823
30.092597
30.922890
32.572746
32.402873
33.864975
35.723448
36.753416
39.289594
40.358901
40.613413
40.320754
39.718747
41.115880
42.752624
43.276548
43.184757
42.792559
43.270588
42.284727
43.809414
42.449832
42.401552
41.382909
40.304661
43.419600
42.760968
43.540597
45.336485
43.802857
46.243668
46.510696
47.825575
46.781898
46.483874
43.928623
40.637851
36.579967
34.474730
33.007860
30.657649
29.434562
27.458668
27.366877
25.075674
24.242997
23.569465
23.234487
23.201704
23.996830
22.054911
22.870898
23.266673
22.194982
22.206903
20.719767
21.221638
21.185875
23.698807
22.071600
21.922588
21.921992
22.784472
23.115873
22.881627
22.775531
22.309422
23.163557
21.624565
22.362471
22.908449
23.979545
22.617579
22.242665
##ZVALUE=260
2.600551
2.741814
2.434850
2.150536
2.371669
2.548695
2.742410
3.210902
3.303885
3.462434
4.364848
7.207990
27.490854
116.043687
253.920555
604.600906
971.354842
1016.001701
1016.001701
1016.001701
1016.001701
1016.001701
1016.001701
1016.001701
1016.001701
877.017975
537.998676
307.749510
148.347616
109.733939
122.162700
141.239762
161.421895
172.257423
167.711973
151.677728
130.590796
106.957555
80.938935
66.331625
49.805641
42.182803
38.009882
37.980676
36.971569
39.098859
39.103627
39.301515
42.391419
42.499900
42.857528
43.524504
45.039654
44.976473
46.788454
46.093464
47.341585
48.252940
46.514869
47.668815
48.359632
47.259927
48.081875
47.209859
45.327544
46.798587
44.226646
44.088960
45.439601
46.445727
47.530532
48.729777
47.097802
48.329830
47.673583
45.719743
43.352842
42.038560
37.677884
36.131740
35.697818
32.075644
31.722784
30.139685
27.160645
27.558804
24.844408
24.241805
22.974610
23.764968
23.197532
22.546649
21.829605
20.801425
20.767450
20.784736
20.357966
19.748807
21.256804
20.564795
20.254850
21.291971
21.110773
20.272732
20.890832
20.858645
21.178722
21.489859
21.104813
21.007657
20.177960
21.401644
21.269917
20.895600
20.151734
20.411611
##ZVALUE=265
2.322793
2.356768
2.021790
2.295971
2.342463
2.283454
2.316833
2.417564
2.517700
3.089905
3.251433
3.604889
3.966689
5.196929
14.417768
74.369907
187.796950
482.528806
857.810974
1016.001701
1016.001701
1016.001701
1016.001701
1016.001701
1016.001701
1016.001701
1016.001701
1016.001701
747.454762
432.355404
191.465616
115.563869
105.388761
128.696561
156.441927
175.223947
181.721449
178.012848
161.861777
143.772960
113.908648
95.292926
71.767569
59.879422
52.235723
48.077703
45.532584
46.638846
48.437715
48.804879
48.782825
50.031543
50.857663
48.675537
50.598979
51.040649
51.805973
53.614974
53.210855
51.750541
51.330924
51.592588
50.225854
48.882961
50.539970
46.862960
48.255920
47.170520
47.467947
46.556592
46.719909
49.282908
46.688914
48.113465
46.506524
45.996904
43.653846
41.423440
39.888620
36.462545
34.095645
33.064485
30.251741
29.495955
27.562976
26.745796
26.640892
25.706887
24.816990
23.723841
21.669865
22.657514
20.758510
21.030903
19.498467
19.675493
19.288659
20.104647
18.839836
19.877553
19.969940
19.212961
19.517541
18.806458
20.329952
19.221902
19.572973
19.875765
20.726919
20.095706
19.409657
19.885898
20.261407
19.948483
19.057989
19.343495
##ZVALUE=270
1.859665
2.099872
1.956820
2.259612
2.345443
2.223849
2.447963
2.435446
2.401471
2.758503
2.853870
3.237724
3.286600
3.574491
4.064441
4.458427
6.488562
35.758615
110.032558
360.929966
713.869929
1016.001701
1016.001701
1016.001701
1016.001701
1016.001701
1016.001701
1016.001701
1016.001701
1016.001701
1016.001701
683.383942
312.441587
162.504911
98.904967
111.285448
143.560767
164.964795
188.483596
195.898414
190.108418
179.842710
153.755546
132.462978
102.484822
85.641742
68.244934
63.367486
55.541992
56.370497
54.225922
55.135489
52.736998
52.105784
54.963827
53.930879
54.610968
54.607987
53.472519
53.847432
54.765940
53.931475
53.113699
52.416921
51.461458
52.010417
50.455928
50.207973
50.339699
51.196814
50.285459
48.706532
51.115751
49.890876
47.075748
46.857595
44.799447
43.415427
39.386749
37.958622
35.035610
34.020543
31.784773
30.319691
28.295517
27.310848
25.898814
25.503635
24.439692
23.778677
22.674799
22.836924
21.332502
21.684766
20.781755
20.775795
20.084977
20.481944
19.403696
18.870831
20.232797
19.414425
18.983483
19.278526
19.577742
20.280480
19.026995
19.899607
20.086765
19.324422
19.140840
19.631982
19.544959
18.922687
18.865466
19.737482
##ZVALUE=275
1.931787
2.004504
1.951456
1.954436
1.978874
1.904964
1.873970
2.366900
2.411604
2.514720
2.643466
2.544522
2.718568
3.102422
2.856851
3.287792
3.781915
4.281402
4.941821
17.392635
64.069629
243.011713
554.682016
987.339616
1016.001701
1016.001701
1016.001701
1016.001701
1016.001701
1016.001701
1016.001701
1016.001701
1016.001701
957.141519
465.079546
244.833827
113.575459
95.001459
121.531487
147.458911
174.911618
194.569826
202.634931
197.342634
181.883574
161.259770
131.292939
111.719966
87.156892
72.509646
63.267946
60.393810
56.951642
54.667592
55.325627
55.432916
55.044889
54.827929
54.480433
54.507852
54.012537
53.393841
52.450895
52.418709
50.815940
50.612688
49.566627
49.586892
51.414967
48.913956
50.396919
49.621463
48.852563
50.338507
49.592853
45.987964
44.233799
43.810606
40.539503
36.948919
35.822988
33.218861
32.803416
31.089783
28.485656
27.419925
26.996732
25.960803
23.292899
24.026632
22.619963
21.696687
20.420551
20.514727
20.425916
19.763708
19.855499
19.916892
18.795729
19.036531
19.514561
19.040704
20.114779
18.923879
18.401742
18.220544
18.638968
18.783808
18.671751
18.842816
18.051863
18.893480
17.976761
17.641783
17.645955
17.513633
##ZVALUE=280
1.761913
1.581907
1.953840
1.972914
1.774430
1.914501
1.774430
2.149940
1.993775
1.996756
2.064705
2.365708
2.389550
2.528429
2.472997
2.987981
3.020763
3.390908
3.580451
4.043579
4.855990
6.647706
38.707852
135.431886
431.459546
801.080465
1016.001701
1016.001701
1016.001701
1016.001701
1016.001701
1016.001701
1016.001701
1016.001701
1016.001701
1016.001701
652.368665
345.048904
140.743852
88.978410
95.306635
118.541718
148.588419
170.143843
192.938447
196.640491
189.937949
175.486803
150.839686
129.106641
102.089643
83.927512
68.154931
61.349869
53.725839
53.198934
51.845908
50.592422
51.199794
51.256418
51.840544
50.872564
51.641464
50.879717
49.254894
49.670935
49.619675
47.634840
47.561526
47.362447
48.091412
46.890974
46.177506
46.479702
44.873953
43.603778
41.861534
40.455461
38.098693
36.487579
33.303499
32.378435
29.966831
29.477477
27.521849
26.858449
24.916530
25.922656
24.597645
23.375750
21.599531
21.340847
20.978451
20.780563
20.869970
19.557476
18.900633
18.912554
19.409657
18.909574
18.534660
17.527938
18.949509
18.265843
17.653704
18.401742
18.371940
18.467903
18.339753
17.812848
18.131733
17.698407
18.137693
17.105937
17.624497
17.382503
##ZVALUE=285
1.590848
1.793504
1.486540
1.599789
1.443624
1.738667
1.749992
1.827478
2.058744
1.746416
1.687407
1.888871
2.135634
2.037883
2.321601
2.445579
2.622604
2.534986
2.996922
3.230572
3.627539
4.179478
4.307628
6.046891
15.787482
90.726018
228.738785
461.596847
993.933678
1016.001701
1016.001701
1016.001701
1016.001701
1016.001701
1016.001701
1016.001701
1016.001701
1016.001701
931.009054
522.660017
262.012482
97.731948
68.227649
84.218979
104.840994
133.474469
156.387687
174.117684
181.396604
182.450414
165.777802
146.881938
119.509697
98.056793
74.896812
63.350797
52.820444
49.205422
45.856833
45.345426
45.255423
43.899417
44.766665
44.514537
44.142604
44.019818
42.737722
43.708682
43.656826
42.590499
43.445826
43.505430
41.744709
42.510629
40.902495
39.715767
38.436651
35.632849
33.932924
33.032894
31.024814
29.568672
28.736591
26.906729
26.624799
24.869442
23.712516
23.518801
23.565888
22.117496
21.849871
20.797849
20.289421
19.993782
19.549727
19.747615
18.395782
19.265413
18.755794
18.645525
18.020868
17.800927
17.570853
18.483996
18.072724
17.682910
18.213987
18.260479
18.106699
17.806888
17.668605
17.981529
17.821789
17.004609
16.847849
16.828775
##ZVALUE=290
1.414418
1.510978
1.544952
1.546741
1.780987
1.570582
1.829863
1.707673
1.816750
1.542568
1.884699
1.717806
1.866817
2.066493
2.099872
2.136827
2.364516
2.271533
2.614856
2.762675
2.874732
3.074408
3.773570
3.932714
4.633665
5.199909
7.012486
38.194656
119.596720
377.919674
722.190738
1016.001701
1016.001701
1016.001701
1016.001701
1016.001701
1016.001701
1016.001701
1016.001701
1016.001701
1016.001701
685.706735
354.632735
125.545859
59.226751
53.840876
68.013668
94.318986
115.837455
142.117739
158.298612
168.702006
167.466998
154.697895
135.488510
107.351542
87.903738
66.415668
54.385662
44.251680
40.270686
37.163496
36.566854
36.576986
35.606623
35.685897
35.266876
35.612583
35.634637
35.850406
36.363602
35.934448
35.673976
35.384893
33.680797
33.086538
31.599998
30.609965
28.918982
27.479529
27.234554
25.881529
24.708509
24.140477
23.335814
22.445917
22.100806
20.855665
20.984411
20.345449
20.014644
18.832684
18.863678
18.635988
18.413663
17.657876
17.105937
17.514825
17.495751
17.311573
17.756820
17.593503
16.885996
17.231703
17.911792
17.748475
18.233657
17.472506
17.264485
17.856956
17.449856
17.900467
17.414689
16.966462
17.188787
16.643405
##ZVALUE=295
1.319647
1.517534
1.360774
1.224875
1.680851
1.611710
1.545548
1.377463
1.612902
1.616478
1.588464
1.594424
1.634955
1.988411
2.023578
1.821518
2.158880
1.904964
2.248883
2.469420
2.555847
2.862811
2.982616
3.239512
3.302693
3.870726
4.285574
4.860759
5.895495
11.918545
69.416761
198.213458
566.347837
988.444686
1016.001701
1016.001701
1016.001701
1016.001701
1016.001701
1016.001701
1016.001701
1016.001701
1016.001701
969.545841
454.078913
211.178660
69.173574
38.855672
46.285987
60.487986
84.499717
106.077790
130.222440
147.025585
156.274438
155.331492
140.543580
125.098825
98.838806
79.740882
58.749914
46.614408
35.830736
30.762553
28.009415
26.886463
26.518703
27.154684
27.508736
27.786493
27.330518
27.446747
28.327703
27.311444
26.611686
26.907921
25.696754
24.456978
22.934675
22.486448
21.504760
21.625757
21.081567
19.644499
19.615889
19.446611
19.210577
17.745495
17.833710
17.512441
17.222762
16.918778
17.018914
16.431808
16.678572
16.851425
16.825795
16.771555
17.433763
17.090440
17.251968
17.101765
17.127991
17.641783
17.916560
17.710924
18.205643
17.445683
18.238425
17.799735
17.122626
17.394423
17.266870
17.522573
17.177463
16.065836
##ZVALUE=300
1.257658
1.202822
1.360774
1.248717
1.279712
1.240969
1.295805
1.522899
1.554489
1.506805
1.401901
1.501441
1.510978
1.646876
1.557469
1.850724
1.795888
1.834631
1.956820
2.149940
2.069473
2.313852
2.530813
2.483726
2.800822
3.108978
3.206730
3.707409
4.079938
4.896522
5.021691
7.380843
23.694634
132.726431
327.510834
823.766589
1016.001701
1016.001701
1016.001701
1016.001701
1016.001701
1016.001701
1016.001701
1016.001701
1016.001701
1016.001701
693.344474
287.345648
127.595663
42.003989
30.957460
39.896965
52.289963
74.510574
95.500946
120.375752
134.626627
145.116448
145.897865
132.116675
116.762519
90.657473
72.110891
52.665472
39.895773
30.223727
23.894906
21.339655
21.649599
21.004677
21.339655
22.407770
22.350550
21.778941
21.618605
21.355748
20.244718
19.849539
19.148588
18.503666
17.943978
17.697811
17.231703
16.691685
17.124414
17.058849
16.371608
17.129779
16.381741
15.696883
16.030669
15.548468
15.676618
16.047955
15.823841
15.792847
15.775561
16.231537
16.065836
16.835928
16.323924
16.484857
16.433001
16.599894
17.020702
17.855763
18.113852
17.875433
17.755628
17.964840
17.967820
17.695427
17.096996
18.148422
17.251968
17.367601
##ZVALUE=305
1.230836
1.267791
1.042485
1.031756
1.101494
1.114607
1.219511
1.241565
1.262426
1.532435
1.355410
1.514554
1.400709
1.334548
1.530647
1.583695
1.657605
1.537800
1.598597
1.629591
1.938939
2.043843
2.223849
2.234578
2.658963
2.542734
3.115535
3.005862
3.313422
3.371835
3.746748
4.182458
4.732609
5.392432
14.391541
57.911873
242.676139
536.044836
1016.001701
1016.001701
1016.001701
1016.001701
1016.001701
1016.001701
1016.001701
1016.001701
1016.001701
1016.001701
945.466757
522.988439
191.079974
75.639486
27.126670
26.639700
37.156940
48.359632
70.539713
88.781714
110.559464
124.539733
135.986805
133.930445
123.814940
108.333826
83.470941
67.233443
47.394633
35.983920
25.180578
21.492839
19.514561
18.188953
18.764734
18.850565
18.719435
18.155575
17.458797
17.407537
16.219616
16.061664
16.263723
15.887618
15.614629
15.819669
15.651584
15.375614
15.457869
15.346408
15.388727
15.091896
15.508533
14.908910
15.460849
15.647411
15.125871
15.824437
15.682578
15.453696
15.978813
16.202927
16.021729
16.599894
17.378926
17.459989
17.325878
18.374920
18.182993
18.502474
18.305779
18.429756
18.167496
18.226504
17.994642
17.855763
18.080473
18.028617
##ZVALUE=310
1.053810
1.180768
1.141429
1.047850
1.188517
1.206994
1.196861
1.188517
1.180768
1.376867
1.235604
1.381636
1.242757
1.297593
1.435876
1.377463
1.512766
1.607537
1.657605
1.643896
1.544952
1.788735
1.785755
2.023578
2.185702
2.255440
2.399683
2.462864
2.786517
3.009439
3.263950
3.325939
3.638864
3.931522
4.588962
5.194545
7.169843
24.851561
135.501623
322.598815
801.795721
1016.001701
1016.001701
1016.001701
1016.001701
1016.001701
1016.001701
1016.001701
1016.001701
1016.001701
1016.001701
705.335736
292.865634
124.638677
36.002994
21.126866
24.187565
30.361414
44.027567
58.168769
79.362988
96.367598
116.540790
125.120878
125.433803
118.900537
101.443529
86.221695
62.553883
47.198534
33.153892
25.840998
21.536946
18.564463
16.638637
16.200542
15.404820
15.185475
15.050769
14.551878
14.618635
14.272928
14.892817
14.723539
14.875531
15.049577
14.275908
14.659762
14.881492
14.914870
14.575720
14.584661
15.273690
15.483499
15.255809
15.496612
15.790462
15.791655
15.584826
16.039610
16.582608
16.679764
17.050505
17.470717
17.893910
17.966628
18.238425
18.487573
19.009709
18.884540
18.810630
18.857718
19.588470
19.247532
19.041896
18.249750
##ZVALUE=315
1.171827
0.922680
0.970960
1.080632
1.001954
1.142621
0.899434
0.896454
1.114607
1.130700
1.182556
1.093745
1.275539
1.328588
1.300573
1.314878
1.482964
1.337528
1.386404
1.446605
1.390576
1.821518
1.814961
1.741648
1.714826
1.902580
1.981854
2.173781
2.330542
2.341866
2.742410
2.775788
3.189445
3.039837
3.521442
3.836751
4.151464
4.666448
5.578995
10.896921
67.602396
198.214650
573.583841
984.159708
1016.001701
1016.001701
1016.001701
1016.001701
1016.001701
1016.001701
1016.001701
1016.001701
1016.001701
938.036442
420.308709
190.141797
48.995614
21.748543
18.428564
20.767450
28.401613
38.097501
55.982471
71.860552
92.144608
106.937885
117.772818
117.933750
108.787417
96.996427
76.520443
61.812997
44.341683
33.627748
23.849607
19.171834
15.979409
14.509559
13.884902
13.315678
13.106465
13.411641
13.814569
13.899803
13.723969
13.722777
13.782978
14.140606
13.924837
14.335513
14.112592
14.656782
14.745593
15.202761
14.896989
15.275478
15.729666
16.055703
16.060472
16.173720
17.074943
17.259717
17.498732
17.555952
18.496513
18.643737
18.644929
19.154549
19.345880
19.235611
19.205809
19.608736
19.627810
19.440651
19.415617
20.028949
##ZVALUE=320
0.956655
1.037717
0.976920
1.196861
0.980496
1.003742
1.079440
1.103878
1.203418
1.054406
1.004934
1.211762
1.110435
1.116991
1.155734
1.375675
1.133680
1.205802
1.368523
1.390576
1.413822
1.416802
1.470447
1.652837
1.690984
1.750588
1.857877
1.861453
2.189875
2.032518
2.091527
2.333522
2.220869
2.575517
2.838969
3.265738
3.310442
3.615618
4.094839
4.648566
4.918575
6.141663
29.972792
104.773045
371.875763
748.010874
1016.001701
1016.001701
1016.001701
1016.001701
1016.001701
1016.001701
1016.001701
1016.001701
1016.001701
1016.001701
543.098450
271.296501
88.793635
32.641888
16.432405
15.746951
18.938780
23.460984
35.225749
47.722459
66.984892
82.312822
102.524757
108.717680
111.261606
106.690526
91.526508
77.059865
56.634545
44.559836
29.278994
21.921992
16.589761
14.340878
13.011694
12.791753
12.657642
12.760758
12.986660
13.158917
12.680888
13.616681
13.607740
13.834834
13.969541
14.456511
14.635921
14.553666
15.069842
15.206933
15.582442
15.753508
15.716553
16.325712
16.431808
17.088652
17.536879
17.898679
18.598437
19.188523
18.862486
19.511580
20.305514
20.084977
20.040870
19.554496
20.383000
20.625591
20.453930
19.927621
##ZVALUE=325
0.839829
0.863671
0.956655
0.824928
0.802875
1.016855
0.982881
1.159906
1.032948
1.102686
1.196861
1.154542
1.126528
1.124740
1.066923
1.143813
1.253486
1.208782
1.270771
1.401901
1.384616
1.329780
1.365542
1.565814
1.475811
1.502633
1.661777
1.776814
1.681447
1.735687
2.014637
1.848936
2.226830
2.276897
2.352595
2.434850
2.772808
2.615452
2.958775
3.223419
3.821850
4.057884
4.919767
5.472898
15.100837
61.137676
237.451792
517.484546
1016.001701
1016.001701
1016.001701
1016.001701
1016.001701
1016.001701
1016.001701
1016.001701
1016.001701
1016.001701
732.845664
389.845967
132.477880
47.615767
15.933514
13.859868
14.737844
16.560555
23.173690
31.433702
48.589706
63.262582
82.683563
94.389915
104.242563
104.853511
96.746683
86.401701
66.967607
52.791834
36.501884
27.435422
19.634962
15.665889
12.977719
13.077855
12.445450
12.484789
12.548566
12.846589
13.341904
13.256669
13.304949
13.985634
14.355779
14.160872
14.049411
14.793873
15.324950
15.820861
15.921593
16.351938
16.849637
16.925931
17.921925
18.398762
19.042492
19.575953
19.303560
19.621849
20.105839
19.947886
20.585656
20.715594
20.587444
20.953417
20.635724
20.535588
##ZVALUE=330
0.846982
0.931621
0.998974
0.870824
1.119971
0.858903
0.935793
0.951886
0.868440
0.983477
1.123548
1.082420
0.940561
0.814795
1.014471
1.063943
1.261830
1.244545
1.044869
1.291633
1.238585
1.194477
1.305938
1.302958
1.409650
1.328588
1.477599
1.381636
1.542568
1.486540
1.820922
1.907945
1.765490
1.931787
1.943707
2.147555
2.312660
2.466440
2.564788
2.700686
3.271699
3.104806
3.604889
3.931522
4.436970
5.250573
7.615685
27.843714
143.817067
345.858932
837.000608
1016.001701
1016.001701
1016.001701
1016.001701
1016.001701
1016.001701
1016.001701
1016.001701
1016.001701
962.949991
544.539690
199.115872
81.591606
22.335649
13.612509
12.773871
12.823939
16.618967
21.838546
33.801794
44.356585
61.779618
75.558424
90.884566
96.519589
97.088814
91.199875
77.343583
64.314604
47.288537
36.190748
26.547909
20.207763
15.541911
13.593435
12.306571
12.788773
12.350678
12.718439
12.832880
13.304949
13.582706
13.620853
13.618469
14.597774
14.559627
15.304685
15.395880
16.094446
16.736984
17.046928
17.616749
17.905831
18.258691
19.103885
19.730926
20.114779
20.157695
20.542741
20.494461
20.466447
20.878911
20.548701
20.913482
20.822883
##ZVALUE=335
0.832677
0.914931
0.780821
0.859499
0.726581
0.911951
0.803471
0.791550
0.913739
0.896454
1.010895
0.757575
0.965595
0.864863
0.820756
0.993609
1.002550
1.104474
1.081824
1.221895
0.999570
1.423955
1.201630
1.283884
1.202822
1.318455
1.333952
1.298785
1.437664
1.376867
1.361966
1.605749
1.832843
1.798868
1.798868
1.818538
1.937747
1.957417
2.276897
2.350807
2.574921
2.508759
2.639890
3.231764
3.453493
3.869534
4.016757
4.603863
5.374551
10.406971
65.360665
195.285678
561.290979
978.759527
1016.001701
1016.001701
1016.001701
1016.001701
1016.001701
1016.001701
1016.001701
1016.001701
1016.001701
749.251842
303.519964
130.282640
34.215450
15.432835
12.386441
12.741685
13.373494
16.420484
22.071600
29.059649
42.614937
54.142475
70.669651
81.396699
90.419650
90.509653
83.155632
74.499846
60.315728
48.623681
35.531521
27.678609
20.061731
16.572475
13.963580
12.614727
12.790561
12.764931
13.259649
13.442636
13.927817
13.864636
14.413595
14.410615
14.760494
15.740991
16.132593
16.611814
17.454624
17.961860
18.535852
18.482804
19.154549
19.673705
20.198822
20.120740
20.567775
20.558834
20.284653
20.609498
20.425916
20.563602
##ZVALUE=340
0.825524
0.769496
0.739694
1.005530
0.904799
0.786781
0.859499
0.848770
0.807643
0.826716
1.023412
0.913739
0.935793
0.953674
0.948906
0.993609
0.955462
0.898838
1.071692
1.151562
1.063943
0.898838
1.096725
1.121759
1.101494
1.236796
1.125932
1.198649
1.210570
1.410842
1.429915
1.524687
1.344681
1.628995
1.612902
1.648664
1.672506
1.793504
1.863837
1.870990
2.153516
2.227426
2.352595
2.633929
2.372861
2.818704
3.192425
3.446937
3.915429
4.304647
4.922748
6.785989
38.447976
125.035048
399.836898
793.643594
1016.001701
1016.001701
1016.001701
1016.001701
1016.001701
1016.001701
1016.001701
1016.001701
1016.001701
947.321653
427.214503
199.071765
50.043464
18.045902
12.633801
12.382865
12.285709
13.133883
15.500784
19.305944
28.774738
38.762689
54.342747
65.232515
77.507496
84.165931
84.679723
79.731941
70.177913
61.086416
45.917630
36.030412
26.504993
20.194650
16.035438
14.366508
13.002753
12.954473
13.066530
13.489723
13.497472
14.018416
14.562607
15.078783
14.908910
16.036630
16.498566
16.855597
17.508864
18.195510
18.609762
19.150972
19.369721
19.840598
19.497871
20.189881
19.961596
19.959807
20.079613
20.331740
##ZVALUE=345
0.830889
0.827909
0.887513
0.710487
0.893474
0.843406
0.784993
0.796914
0.670552
0.841618
0.856519
0.801682
0.812411
0.863671
0.959635
0.839829
0.899434
0.901818
0.996590
1.020432
1.071692
1.021624
1.012683
1.148582
1.164675
1.235604
1.256466
1.035929
1.269579
1.338720
1.210570
1.345873
1.365542
1.534820
1.371503
1.365542
1.817942
1.642704
1.776814
1.712441
1.823902
1.962781
2.022982
2.125502
2.353787
2.302527
2.516508
3.039837
3.065467
3.408790
3.791451
3.773570
4.402399
5.044937
15.488863
64.498782
268.279910
558.526516
1016.001701
1016.001701
1016.001701
1016.001701
1016.001701
1016.001701
1016.001701
1016.001701
1016.001701
1016.001701
548.160672
258.819461
76.931715
28.812885
13.610721
12.939572
11.806488
11.128783
11.529922
13.217926
18.363595
24.738908
36.405921
46.284795
60.651898
69.433451
76.541901
79.389811
75.859427
69.606900
57.679415
47.307611
34.893751
27.258992
20.031929
17.477870
14.906526
13.899803
13.685822
13.444424
13.908744
14.124513
14.820695
15.015602
15.443563
16.007423
16.622543
17.164946
17.494559
18.041730
18.559694
18.380880
18.854737
18.980503
18.545985
19.395947
19.200444
18.935800
##ZVALUE=350
0.884533
0.835657
0.954866
0.852942
0.682473
0.826716
0.909567
0.965595
0.729561
0.921488
0.976920
0.956655
0.915527
0.819564
0.878572
0.857711
0.849962
0.989437
0.983477
0.996590
1.102686
1.007915
1.073480
1.046658
1.076460
1.008511
1.178980
1.250505
1.344681
1.116991
1.282692
1.222491
1.384616
1.341701
1.398921
1.329780
1.630783
1.647472
1.471639
1.574755
1.530647
1.728535
1.871586
2.088547
1.994967
2.208948
2.340674
2.434850
2.388954
2.536774
2.833605
2.915859
3.370643
3.612638
4.053712
4.682541
8.649826
32.091737
151.071548
353.494883
859.019756
1016.001701
1016.001701
1016.001701
1016.001701
1016.001701
1016.001701
1016.001701
1016.001701
1016.001701
682.458878
362.705588
129.777789
45.905709
14.593601
11.644959
10.506511
10.134578
9.698868
10.349751
12.293458
16.012788
23.098588
30.888915
42.218566
52.514672
63.861609
69.597960
73.012710
71.017742
63.453913
56.274533
43.863654
35.665631
26.335716
21.852851
17.170906
15.366673
13.996959
13.674498
14.123917
14.423728
14.258623
15.225410
15.494823
16.300678
16.250610
16.599894
16.991496
17.643571
17.493963
17.732978
17.864704
18.093586
18.367767
17.872453
##ZVALUE=355
0.837445
0.862479
0.814795
0.936985
0.740886
0.678897
0.797510
0.842810
0.989437
0.947714
0.992417
0.897646
0.961423
0.897646
0.969768
0.901818
0.966787
0.963807
1.089573
1.051426
1.024604
1.225471
1.138449
1.158714
1.082420
1.194477
1.136661
1.210570
1.173615
1.147985
1.247525
1.299977
1.334548
1.414418
1.428723
1.406670
1.556873
1.474619
1.540780
1.518726
1.532435
1.721978
1.806617
1.704693
1.995564
1.829863
2.113581
2.299547
2.120733
2.592802
2.570748
2.519488
2.894998
2.977848
3.290772
3.466606
3.938675
4.484653
5.911589
13.944507
85.915923
231.849551
624.061823
1008.026600
1016.001701
1016.001701
1016.001701
1016.001701
1016.001701
1016.001701
1016.001701
1016.001701
883.608460
476.365685
185.549855
70.842505
18.225908
11.623502
10.248423
9.632707
9.264946
8.947849
9.699464
11.301637
14.888644
19.765496
28.747916
36.216974
48.319697
56.534410
64.420700
66.886544
65.720677
60.757995
51.905513
44.754744
34.900904
28.560758
22.609830
18.451810
15.478730
14.399886
14.028549
13.649464
14.614463
14.729500
15.223622
15.444756
15.669465
15.618801
16.101599
16.128421
15.942454
16.176701
16.463995
16.113520
##ZVALUE=360
0.816584
0.792742
0.958443
0.747442
0.760555
0.845790
0.865459
0.973940
0.771880
0.982881
0.946522
0.927448
1.109838
0.963807
0.953674
0.866652
1.016855
0.930429
1.025796
1.184940
1.047850
1.097918
1.336932
1.074672
1.221895
1.162887
1.142621
1.180768
1.297593
1.125932
1.244545
1.321435
1.442432
1.519918
1.467466
1.291633
1.553893
1.435876
1.558661
1.477599
1.696944
1.623631
1.716614
1.724958
1.697540
1.975894
1.992583
1.969934
2.263784
2.193451
2.337694
2.773404
2.609491
2.620816
2.848506
3.134608
3.233552
3.399849
3.937483
4.472733
5.179644
7.110834
37.775636
124.018788
401.068926
773.223639
1016.001701
1016.001701
1016.001701
1016.001701
1016.001701
1016.001701
1016.001701
1016.001701
1016.001701
685.197711
277.988911
112.405419
27.309656
12.506843
10.401607
9.801984
9.098649
8.806586
8.392930
8.797646
10.067821
12.363791
17.332435
22.641420
32.298565
40.659904
50.475597
57.449937
61.625838
61.696768
58.094859
52.625537
43.397546
36.379695
28.421879
23.013949
18.187761
16.131997
14.463663
13.740659
14.217496
13.930798
13.999939
14.332533
14.504790
14.083982
14.451742
14.308691
14.458895
14.174581
##ZVALUE=365
0.765920
0.878572
0.853539
0.832677
0.823736
0.720620
0.903606
0.936985
0.936985
0.899434
0.926852
1.009703
1.029968
0.935793
0.899434
0.935793
0.969768
0.727773
0.996590
0.926852
1.020432
1.015663
0.946522
1.132488
1.193881
1.177788
1.114607
1.178980
1.195669
1.271963
1.278520
1.209974
1.196861
1.405478
1.273751
1.390576
1.370907
1.571774
1.512766
1.349449
1.469851
1.631975
1.630783
1.436472
1.875758
1.668930
1.912713
1.795888
1.696944
1.952648
2.136827
2.053976
2.222657
2.262592
2.395511
2.597570
2.882481
3.005862
3.020763
3.347993
3.830791
4.546642
4.847646
5.688667
17.377734
64.823627
249.870420
530.277491
1016.001701
1016.001701
1016.001701
1016.001701
1016.001701
1016.001701
1016.001701
1016.001701
1016.001701
897.224545
376.920700
167.247653
42.075515
15.422702
9.818673
9.098649
8.610487
8.161664
7.694960
8.055568
8.401871
9.366870
11.703968
14.841557
21.186471
27.138591
37.352443
44.034719
52.036643
55.797696
57.207942
55.533648
49.676895
44.615865
35.808682
29.411912
22.832751
19.080639
16.087890
13.993979
13.122559
12.885928
12.759566
12.845993
12.685657
12.457967
12.141466
12.339950
##ZVALUE=370
0.853539
0.858903
0.828505
0.807643
0.765920
0.751615
0.809431
0.886917
0.786781
0.865459
0.759959
0.884533
0.898838
1.013875
0.824928
0.754595
0.846982
0.972748
0.985861
0.912547
1.074672
0.916719
1.041889
1.103878
1.038909
1.019835
1.039505
1.182556
1.063943
1.080632
1.120567
1.079440
1.137853
1.207590
1.259446
1.274943
1.231432
1.345873
1.510978
1.354814
1.407862
1.422763
1.465678
1.375675
1.532435
1.415610
1.589656
1.652837
1.653433
1.549721
1.830459
1.690984
1.909733
1.935959
2.051592
2.114773
2.070665
2.429485
2.400875
2.648830
2.887845
3.229976
3.576875
3.935695
4.473925
4.884601
8.665919
36.147833
183.570981
423.463583
953.778625
1016.001701
1016.001701
1016.001701
1016.001701
1016.001701
1016.001701
1016.001701
1016.001701
1000.409722
506.332517
247.604847
78.292489
28.251410
10.052919
8.717775
8.113980
8.168817
7.611513
7.739663
7.625818
8.498430
9.042621
10.807514
14.336705
17.875433
24.881959
31.040907
39.530993
45.864582
51.301718
54.017901
52.575469
49.289465
42.694807
36.731958
29.231906
22.602677
19.199848
15.749931
13.746619
12.466908
11.745691
10.958910
10.901690
10.759830
##ZVALUE=375
0.793934
0.763535
0.729561
0.855923
0.805855
0.813603
0.724792
0.783801
0.864863
0.895858
0.786781
0.873804
0.793934
0.720620
0.781417
0.750422
0.908971
0.932813
0.881553
0.963807
0.789762
0.958443
1.051426
0.878572
0.886917
0.884533
0.940561
0.756979
1.073480
0.955462
1.054406
1.008511
0.916719
1.102686
1.231432
1.191497
1.235604
1.155734
1.114607
1.367927
1.176000
1.275539
1.242757
1.157522
1.365542
1.332760
1.249909
1.466870
1.636744
1.475811
1.545548
1.530647
1.620650
1.697540
1.820922
1.915693
1.919866
1.946688
2.023578
2.156496
2.104640
2.394915
2.686977
2.809763
3.057718
3.324747
4.126430
4.568696
5.992651
19.257665
112.581849
272.210836
674.119592
1016.001701
1016.001701
1016.001701
1016.001701
1016.001701
1016.001701
1016.001701
1016.001701
1016.001701
751.618743
410.258770
147.649646
56.290627
14.408827
9.268522
8.266568
7.840991
8.007884
7.753968
7.875562
7.870793
8.079410
8.636713
9.719729
11.800528
16.017556
20.636916
28.069615
34.529567
41.749477
46.966672
50.970912
50.987601
48.112869
42.238832
37.437677
30.539632
25.356412
19.732714
16.751885
13.368726
11.375546
10.410547
##ZVALUE=380
0.809431
0.633597
0.700951
0.819564
0.749826
0.805855
0.827909
0.633597
0.665784
0.762939
0.606775
0.790954
0.729561
0.728965
0.747442
0.635982
0.749826
0.794530
0.830889
0.818968
0.742674
0.873804
0.836849
0.915527
0.805855
1.007915
1.048446
0.882745
1.022816
1.141429
1.036525
1.089573
1.075864
1.158714
1.327991
1.037717
1.280904
1.087785
1.164675
1.142621
1.211762
1.158714
1.253486
1.165867
1.240969
1.401901
1.374483
1.421571
1.457930
1.399517
1.414418
1.754761
1.403689
1.421571
1.502633
1.638532
1.721978
1.832843
1.958609
1.782775
2.000928
2.041459
2.089739
2.385974
2.551675
2.498627
3.004670
3.492832
4.074574
4.613996
5.556941
9.496808
57.146549
176.711679
514.618754
930.538774
1016.001701
1016.001701
1016.001701
1016.001701
1016.001701
1016.001701
1016.001701
1016.001701
976.279974
580.807924
223.358870
94.551444
23.111701
10.251999
8.627772
8.265972
8.038878
8.284450
8.067489
7.777810
7.673502
7.613897
8.127689
8.942485
10.713935
13.790727
18.460751
24.051666
32.528639
37.853718
44.911504
48.112869
48.793554
47.062635
43.026805
36.671758
31.231642
24.016500
19.659996
15.380979
##ZVALUE=385
0.641942
0.746846
0.639558
0.505447
0.544786
0.674725
0.724792
0.713468
0.739694
0.656843
0.682473
0.735521
0.598431
0.630617
0.720620
0.645518
0.913739
0.725985
0.602603
0.680685
0.764728
0.704527
0.721812
0.789762
0.793934
0.818968
0.919700
1.009703
0.964999
1.025796
1.080632
1.158714
0.985861
1.264811
1.190901
1.159906
1.254678
1.200438
1.352429
1.294613
1.278520
1.419783
1.324415
1.381636
1.318455
1.353621
1.360774
1.520514
1.405478
1.441836
1.306534
1.514554
1.416802
1.412630
1.586676
1.557469
1.756549
1.725554
1.866817
1.805425
1.670718
1.869798
1.913905
2.018809
2.135634
2.382994
2.705455
2.713799
3.322959
3.558993
4.074574
4.423857
4.890561
5.693436
23.454428
89.807510
330.366492
679.629445
1016.001701
1016.001701
1016.001701
1016.001701
1016.001701
1016.001701
1016.001701
1016.001701
1016.001701
859.956741
373.932719
171.847939
50.123930
16.779900
8.719563
8.184910
8.054972
7.720590
7.663965
7.356405
7.065535
7.114410
6.939769
7.227659
8.312464
9.440780
12.389421
15.849471
21.387935
27.220845
33.553839
38.405657
42.991638
43.957829
43.448806
41.537881
35.594702
29.193759
##ZVALUE=390
0.511408
0.626445
0.753999
0.673532
0.803471
0.665784
0.707507
0.621676
0.665784
0.604987
0.605583
0.594854
0.643730
0.599623
0.609756
0.605583
0.647902
0.620484
0.673532
0.758767
0.935793
0.781417
0.760555
1.013875
0.929832
0.850558
1.049638
1.009703
1.107454
1.179576
1.031756
1.060963
1.073480
1.449585
1.380444
1.373887
1.397729
1.572967
1.613498
1.519918
1.476407
1.505613
1.532435
1.476407
1.693964
1.630783
1.529455
1.558661
1.595616
1.616478
1.813769
1.645684
1.651645
1.815557
1.693964
1.662970
1.610518
1.872778
1.570582
1.788735
1.798868
1.853704
1.931787
2.111793
2.157688
2.208948
2.576709
2.832413
3.037453
3.297925
3.588796
3.700852
4.104972
4.223585
4.471540
4.783869
11.012554
50.819516
234.744549
525.773764
1016.001701
1016.001701
1016.001701
1016.001701
1016.001701
1016.001701
1016.001701
1016.001701
1016.001701
1016.001701
594.712496
289.043784
88.821650
29.526949
10.047555
8.243918
8.018613
7.699728
7.444620
7.161498
7.030964
6.990433
6.930828
6.977916
7.327795
7.816553
8.964539
11.118650
14.003515
17.675757
23.542643
28.448701
34.176707
38.433671
41.554570
41.465759
##ZVALUE=395
0.682473
0.684857
0.692606
0.528693
0.437498
0.660419
0.479817
0.740886
0.676513
0.673532
0.628829
0.750422
0.745654
0.607967
0.739694
0.603795
0.674725
0.779629
0.693798
0.641942
0.876784
0.790954
0.848770
0.724792
0.780821
0.979900
0.996590
0.961423
0.994802
1.043677
1.262426
1.321435
1.302958
1.359582
1.467466
1.332760
1.416802
1.822710
1.557469
1.683831
1.659989
1.739860
1.713634
1.698732
1.834631
1.715422
1.567602
1.685619
1.588464
1.715422
1.744628
1.603961
1.617670
1.736879
1.631975
1.779795
1.746416
1.844764
1.588464
1.817942
1.933575
1.916885
1.858473
1.933575
2.055764
2.304912
2.361536
2.664924
2.972484
3.155470
3.531575
3.609657
3.714561
3.553629
3.658533
3.633499
4.243851
4.624724
7.111430
27.028918
148.680806
367.080569
869.288445
1016.001701
1016.001701
1016.001701
1016.001701
1016.001701
1016.001701
1016.001701
1016.001701
1016.001701
790.728927
413.993597
151.683688
59.109926
15.459657
9.124875
8.026958
7.702708
7.709861
7.582903
7.384419
7.360578
7.399917
7.429719
7.222891
7.491708
7.707477
8.351803
9.674430
12.131929
14.896989
20.794868
25.301576
31.344891
##ZVALUE=400
0.684857
0.784993
0.596642
0.670552
0.637770
0.681877
0.627637
0.726581
0.552535
0.657439
0.740886
0.588894
0.560880
0.661612
0.665784
0.688434
0.652671
0.743866
0.797510
0.611544
0.785589
0.549555
0.725985
0.792742
0.794530
0.768900
0.984669
1.015663
0.890493
1.183748
1.206994
1.231432
1.355410
1.344681
1.455545
1.381636
1.374483
1.466870
1.512766
1.733899
1.667738
1.545548
1.670718
1.801848
1.595616
1.799464
1.665950
1.732707
1.799464
1.801848
1.605749
1.713634
1.723766
1.491904
1.742840
1.602769
1.562834
1.758933
1.769662
1.788735
1.783967
1.805425
1.933575
1.939535
2.037883
1.967549
2.354980
2.740622
2.945662
2.981424
3.102422
2.937913
3.504753
3.105998
3.196597
3.284812
3.379583
3.422499
4.129410
4.475713
5.362630
12.356639
79.495907
228.439569
632.556677
1016.001701
1016.001701
1016.001701
1016.001701
1016.001701
1016.001701
1016.001701
1016.001701
1016.001701
1001.683474
625.880957
253.138542
106.782913
25.946498
10.995865
8.193851
7.695556
7.724762
7.685423
7.839799
7.639527
7.510781
7.710457
7.488728
7.196665
7.214546
6.917715
7.427931
8.449554
10.118484
13.720989
##END
