##TITLE=DDW010
##FORMAT=SPECTACLE-ASCII V-1.2
##DATA TYPE=ULTRAVIOLET SPECTRUM
##SECOND TYPE=ULTRAVIOLET SPECTRUM
##DATE=04/30/18
##TIME=11:25:40
##SPECTROMETER/DATA SYSTEM=SPECTACLE
##XUNITS=NM EM
##YUNITS=ENERGY
##YFACTOR=1
##FIRSTX=220
##LASTX=410
##NPOINTS=96
##3DDATA=Equidistant
##ZUNITS=NM EX
##FIRSTZ=210
##LASTZ=400
##ZPOINTS=39
##XYDATA=(Y..Y)
##ZVALUE=210
12.077689
11.970997
9.791851
8.816719
8.942485
7.656813
7.512569
6.628633
5.486608
4.179478
3.152490
3.430843
2.660751
2.704859
2.347827
2.496839
2.113581
2.543926
2.428889
2.379417
3.218651
3.096461
2.467632
2.444983
3.302693
3.571510
2.441406
4.067421
3.882647
3.636479
3.751516
4.014969
4.442930
4.243851
3.957748
3.764629
4.722476
4.399419
4.702806
4.857779
5.528927
4.632473
4.974604
4.728436
4.936457
5.339980
5.961657
4.539490
5.006790
5.065799
5.073547
5.787611
6.336570
6.642938
5.896688
6.683469
6.273985
5.882978
6.417632
6.090999
6.143451
6.370544
6.821752
5.743504
5.704761
5.939603
6.397963
6.707907
7.262826
7.298589
9.342432
8.834600
10.899901
10.759830
10.710955
10.433793
12.108684
11.618733
11.213422
10.348558
9.714961
8.213520
7.630587
7.189512
7.117987
5.508661
4.735589
5.593896
5.784631
6.332994
7.806420
9.877682
12.757778
16.638637
20.199418
25.221705
##ZVALUE=215
30.413866
29.689670
24.603605
18.434525
16.038418
14.608502
13.780594
12.744665
13.232827
11.507869
9.880662
7.756948
5.250573
4.060864
3.720522
2.747774
1.991987
2.682805
3.353953
2.894998
3.253818
3.431439
2.700686
3.190637
2.815723
3.476739
3.206730
3.548861
3.604889
3.780723
3.442764
4.429817
4.411936
4.727840
4.946589
5.546808
4.769564
5.654693
4.954934
5.788803
5.369782
5.577803
4.428625
5.815625
5.254745
6.137490
6.413460
6.306767
6.873608
5.922914
5.930662
7.600784
8.046627
7.629991
7.745624
7.640719
7.930994
8.314848
7.937551
7.386804
8.264780
7.900596
7.523894
8.810759
7.355809
8.424520
7.146597
8.966923
8.010864
8.769631
9.562969
8.870959
11.020899
11.854768
13.113618
12.012720
11.541843
10.867715
10.686517
11.174679
9.811521
9.113550
8.262992
7.703900
6.976724
6.807446
5.106926
5.160570
5.615950
5.190969
5.400777
5.075932
4.728436
6.216764
8.249879
9.315610
##ZVALUE=220
69.783926
64.698458
64.379573
58.277845
53.088665
38.959980
30.969977
25.531650
23.041964
21.330714
21.615624
19.243956
18.028617
13.719797
11.802912
8.046627
7.177591
4.666448
3.578663
3.493428
3.493428
3.113747
3.233552
3.350973
2.941489
4.397631
4.090667
3.828406
3.962517
3.820658
4.099607
4.315972
4.324913
5.453825
5.744696
5.400777
5.544424
5.687475
5.970597
6.319880
7.366538
7.247925
7.321835
6.521940
6.308556
6.744862
6.779432
7.017851
7.576942
8.742809
9.560585
9.510517
10.632873
10.142922
12.007952
11.085868
10.771751
11.054873
11.224747
13.167858
11.973977
11.872649
10.751486
11.287928
11.078715
11.324883
10.711551
10.618567
11.432767
11.602640
11.596680
12.222528
12.049675
12.855530
13.046861
13.116598
12.157559
12.702942
12.131929
11.621714
10.049939
10.016561
9.278655
8.020997
7.900000
7.681847
7.164478
6.985664
6.106496
6.191730
5.908608
6.208420
6.389618
5.417466
6.533861
5.856752
##ZVALUE=225
86.555481
85.898638
107.245445
112.250447
117.352605
106.814504
92.617869
71.568489
50.818920
43.220520
33.106804
32.234788
33.416748
31.916499
31.274557
28.272867
22.857785
17.708540
13.728738
8.410811
5.859733
4.540682
3.630519
3.417730
4.127622
4.002452
4.209876
4.117489
4.423857
4.325509
5.469918
5.644560
5.335808
6.145835
5.229712
6.059408
6.885529
7.011890
6.349683
8.154511
8.769631
8.946657
8.046627
8.316636
8.488894
8.590817
7.839799
8.901954
9.836555
11.169910
11.707544
12.816787
15.069842
16.021729
15.579462
14.076829
17.641783
17.443895
17.121434
18.318892
17.917752
16.007423
16.015768
15.912652
15.878677
14.857650
15.224814
13.992786
13.820529
14.109612
15.253425
14.418960
14.868975
15.053749
14.331937
14.416575
14.322996
15.238523
13.056993
13.604760
11.096597
10.885596
10.830760
9.530783
9.813905
8.431673
8.139610
7.898808
7.803440
7.778406
7.499456
7.009506
7.384419
6.999969
7.485747
6.761551
##ZVALUE=230
58.237910
63.588619
93.213916
149.035454
175.465941
198.391676
199.242830
189.063549
166.074634
131.256580
94.339848
70.242882
52.073002
48.313737
50.537586
53.371787
54.812431
51.518679
43.435693
34.960508
27.117729
16.407967
12.059808
6.462932
5.064607
4.920959
3.914833
4.692674
5.619526
4.829764
5.343556
5.410910
5.637407
6.637573
8.398890
6.941557
7.782578
7.761717
7.882714
7.533431
8.276701
9.452701
8.924603
9.446740
9.217858
8.954406
9.570718
9.662509
10.141730
10.416508
12.412667
13.925433
16.430616
16.279817
17.645955
17.763972
19.453764
18.144846
18.560886
19.619465
19.078851
18.764734
19.215941
17.478466
17.901659
17.964840
18.067956
17.957687
16.345978
16.626716
17.542839
16.656518
17.607808
18.948913
18.475652
17.230511
17.744899
17.040968
15.588999
14.225841
13.646483
12.466908
12.745857
10.963678
11.448860
11.193752
9.964705
9.861588
9.006858
8.614659
9.059906
9.499788
8.735657
8.517504
8.364916
8.380413
##ZVALUE=235
15.024543
19.690990
38.822889
86.778998
132.984519
207.532644
257.699490
313.664675
329.773426
325.344801
275.024772
221.571922
149.535537
114.606619
83.717704
69.242716
68.781972
72.694421
79.262853
80.549717
71.960688
57.556629
46.099424
34.201741
23.287535
13.962984
9.393692
7.231832
6.225705
5.966425
5.653501
6.534457
5.838871
6.214976
6.388426
7.201433
7.552505
7.754564
7.964969
10.302663
8.463860
9.419918
9.199977
9.146929
9.362698
8.932948
9.294748
8.218884
10.171533
10.714531
11.897683
12.253523
13.277531
16.156435
15.088916
15.886426
17.417669
17.311573
16.956925
18.047690
16.834736
16.446710
16.311407
16.050935
17.631650
16.591549
15.470982
16.187429
15.988946
17.105937
16.931891
18.972754
17.176867
19.117594
18.281937
18.254519
19.807816
17.975569
17.721653
17.498732
16.059875
14.786720
13.716817
12.937784
13.073683
12.807846
11.499524
11.097789
12.560487
11.575818
11.162758
12.123585
10.293722
10.240674
10.870695
10.610819
##ZVALUE=240
2.496839
2.470613
6.766915
18.757582
47.043562
88.042617
171.450973
247.257948
374.663472
443.711877
491.676927
485.938787
444.504619
352.107882
275.655985
181.453824
135.298967
97.279549
88.218451
99.478960
108.374953
108.764768
108.149648
99.167824
79.255700
60.436726
42.920709
30.843616
18.284917
12.379885
8.746982
7.983446
7.532835
6.598830
7.469654
9.074807
7.943511
8.862615
7.714629
10.015965
10.197759
10.195971
9.624958
10.188818
10.113716
9.861588
10.205507
10.724664
9.931922
11.190772
10.726452
11.340976
11.681914
12.336969
11.833906
12.658834
12.933612
12.846589
12.671947
13.136864
14.553666
14.122725
14.572740
14.134645
13.912916
14.157891
14.135838
14.962554
14.337897
15.555620
16.406775
18.193722
18.489957
19.055605
19.960999
20.056963
19.711852
19.194484
19.044876
19.229650
16.881824
17.330647
17.703772
15.339851
16.240478
15.128851
14.262795
13.840795
13.414621
14.607906
13.312697
14.447570
13.624430
13.401508
13.504624
11.503696
##ZVALUE=245
1.888871
1.771450
1.870990
1.862645
4.273653
12.925863
36.469698
78.545809
164.406896
254.491568
386.320949
492.683649
553.603768
581.322908
554.746985
464.606881
375.688672
248.502493
180.467963
118.926764
94.890594
94.480515
108.060837
116.836429
122.812986
117.075443
105.871558
91.475844
63.820481
50.296783
31.414628
21.109581
13.636947
9.997487
8.315444
8.283854
8.589625
8.536577
9.091496
8.269548
9.411573
9.970665
10.555983
9.153485
9.086728
9.222627
9.570718
8.515716
9.220839
9.853840
10.034442
10.339618
10.680556
11.989474
10.239482
10.814667
11.404753
11.789799
10.638833
11.567473
11.996627
10.321736
11.460781
11.462569
12.386441
11.730790
12.584925
12.551546
12.157559
14.638901
14.349818
14.889836
15.612841
15.973449
18.035769
16.254783
16.844869
18.054843
17.161965
15.227795
15.257597
15.164614
14.160872
14.334917
12.973547
12.063980
12.777448
12.449622
12.071729
12.368560
13.475418
12.859702
11.395812
12.523532
11.619925
11.995435
##ZVALUE=250
1.468658
1.521707
1.790524
1.878738
1.574755
2.466440
2.397895
22.347569
45.165420
58.680773
138.526559
229.856968
473.636985
496.522784
578.954816
649.117827
649.089813
567.893982
481.857657
328.918695
157.173872
144.252777
89.658499
85.240602
97.536445
113.298893
124.360919
130.469799
125.630498
115.922689
92.946887
73.731542
48.832893
34.194589
21.453500
15.869737
10.482669
8.580685
8.972883
8.936524
9.162426
8.662939
9.222627
9.078979
10.385513
9.582639
10.281801
8.546710
9.169579
9.709597
9.955764
9.196997
10.651946
9.936690
10.420680
10.165572
10.510683
9.974837
10.831952
10.353923
10.771751
9.808540
10.824800
11.273623
11.085868
10.862947
11.774898
11.023879
12.157559
12.101531
13.263822
13.527870
13.649464
14.388561
13.809800
14.271736
15.142560
14.741421
14.409423
13.333559
12.402534
12.368560
12.912750
11.666417
11.960864
11.308789
10.974407
11.454821
10.499954
11.179447
10.226965
10.761619
10.865927
10.466576
10.314584
10.085702
##ZVALUE=255
1.573563
1.055598
1.333952
1.388788
1.574755
1.566410
1.434684
1.817942
1.470447
4.770756
15.432835
49.357414
101.627707
210.634470
321.625471
487.744808
599.687696
707.625747
735.151768
683.712959
595.996976
505.883694
306.077003
198.826790
111.132860
85.721612
83.840489
97.376704
118.030906
128.803849
138.148665
135.057569
119.641423
102.195740
73.122978
55.418611
33.067465
24.017692
14.651418
10.694861
10.104775
9.296536
8.975863
9.348989
9.059906
8.895993
9.137988
8.549690
9.471774
9.861588
10.152459
10.107756
10.109544
9.636879
9.499788
10.166764
10.514855
9.725690
9.788871
11.013746
10.615587
10.319948
10.055900
10.392666
10.001659
10.987520
10.938644
11.144876
11.515617
12.016892
12.405515
12.576580
11.710525
12.287498
12.621880
12.533665
12.246966
13.106465
12.182593
11.708736
10.389686
10.598898
10.429621
9.498596
10.177493
9.098649
9.813905
9.580851
9.500980
9.429455
9.158850
8.934736
9.109974
8.954406
8.267760
9.123683
##ZVALUE=260
1.445413
1.274943
1.527667
1.286864
1.513958
1.355410
1.726747
1.580715
1.593828
2.060533
1.581907
2.668500
7.082820
28.666854
67.729950
160.461664
264.943838
429.782867
565.968752
736.486912
805.154443
807.427764
712.403655
582.582951
397.194624
273.270607
157.112479
101.438761
72.928667
75.661540
90.776682
120.391846
132.566690
143.094659
140.873790
123.777986
107.464790
77.572465
59.286952
36.596656
24.245977
15.875697
11.830926
10.039806
9.270906
8.765459
8.842945
8.381605
9.524822
10.024905
10.326505
10.630488
10.335445
10.421872
10.518432
10.358691
10.516644
10.703802
10.905862
9.910464
10.700822
10.288954
10.719895
10.143518
10.786653
9.709597
10.731816
10.989904
11.329651
11.400580
11.972785
11.096597
12.222528
11.275411
11.430979
11.508465
11.118650
11.568666
10.578632
10.722876
10.347962
9.473562
9.493828
8.305907
8.348823
8.584857
8.474588
8.329749
8.052588
7.656813
7.354617
8.054972
7.167459
7.545948
7.437468
7.678866
##ZVALUE=265
1.339912
1.328588
1.097918
1.191497
1.232624
1.246929
1.348853
1.349449
1.317859
1.120567
1.556873
1.758933
1.578927
2.005696
3.746748
20.140409
48.299432
123.451948
217.234492
394.429564
553.422570
699.642897
847.438574
878.711939
803.827643
691.637993
510.356426
368.068814
210.329890
127.903819
82.516670
66.355467
73.870420
104.370713
120.413899
142.583847
147.819519
139.637589
126.883984
104.005933
81.313848
55.859685
38.538575
23.692846
16.306639
11.017919
9.407997
9.781718
9.171963
9.745955
10.604858
11.244416
11.303425
11.111498
11.449456
11.344552
11.846423
11.632442
11.309981
11.472702
11.625886
11.364818
10.937452
11.680722
10.587573
10.324717
10.611415
10.937452
10.640621
10.709763
11.421442
11.081696
11.366606
11.062622
11.250973
11.555552
11.608601
10.742545
10.039806
9.219646
10.286570
8.804798
8.831620
8.853674
7.884502
8.274913
8.202791
7.448792
7.446408
7.531643
7.694960
7.736683
7.525682
7.082820
7.269979
6.440878
##ZVALUE=270
1.085997
1.143813
1.191497
1.289845
1.090765
1.257658
1.311898
1.198649
1.302958
1.388788
1.485944
1.458526
1.475811
1.216531
1.586676
1.784563
2.314448
9.181499
26.495457
84.306002
167.919993
291.594863
505.855680
679.582953
860.998631
920.698643
908.980966
825.557709
645.943880
485.847592
338.233709
178.495646
105.980635
59.206486
56.202412
76.373816
98.259449
125.455856
138.747692
147.476792
143.236518
125.538707
107.094646
80.720782
59.676766
37.010908
25.345683
17.249584
13.537407
11.143684
10.601878
11.484623
11.523962
11.890531
12.845993
11.826754
11.962652
12.452602
12.730956
12.717843
11.899471
11.769533
11.984706
11.502504
11.299849
10.803938
10.523796
10.981560
11.365414
10.719895
10.718703
10.813475
10.969639
10.563731
11.038780
10.814667
10.212660
9.375811
9.770989
9.440780
9.353757
8.594990
8.587837
8.501410
8.552670
7.631779
7.979870
7.865429
8.018613
7.107854
7.294416
7.112622
7.046461
7.209778
6.999969
6.638765
##ZVALUE=275
0.999570
0.933409
1.027584
1.049638
0.978708
1.107454
1.091957
1.133680
1.167655
1.119971
1.214743
1.243949
1.190901
1.475811
1.428723
1.430511
1.645684
1.873970
2.136827
4.712939
16.442537
47.196746
135.533810
250.445604
457.592607
621.456504
806.918740
919.292569
962.383747
910.967588
803.285837
598.722696
422.212481
227.182508
133.093596
67.022443
48.298836
57.423711
75.559616
102.165937
123.312473
139.485598
146.665573
140.921474
127.056837
99.986792
82.181692
58.747530
41.725636
27.185678
19.941926
15.025735
12.868643
12.535453
12.470484
12.467504
11.874437
12.633801
12.475848
12.564659
12.177825
12.522936
12.098551
11.989474
11.510849
10.982752
10.184646
10.903478
11.161566
10.913610
11.088848
10.860562
10.708570
10.843873
10.574460
10.557771
10.017753
9.565949
9.637475
8.920431
9.050965
8.271933
8.665919
8.004904
7.671714
8.080602
7.590652
7.629991
7.383823
6.872416
7.194877
6.843805
7.162690
6.659627
6.463528
6.677508
##ZVALUE=280
0.946522
1.010895
0.812411
1.022816
1.062751
1.252890
1.016855
0.962615
1.213551
1.058578
1.040697
0.919700
1.054406
1.252890
1.396537
1.355410
1.320839
1.386404
1.597404
1.627803
1.846552
2.954602
10.051727
34.117699
105.631948
192.399621
360.499620
526.823997
747.233629
880.876780
978.582501
966.939926
847.370625
695.024729
468.320847
316.410661
159.384608
88.850856
45.215487
40.884614
56.046844
74.383616
101.575851
118.392706
138.060451
141.804814
136.459470
126.109719
101.482868
80.982447
57.892799
41.885972
26.893616
19.675493
15.111566
13.200641
11.914968
12.141466
11.999607
12.848973
12.152791
12.035966
12.074709
11.330843
11.195540
11.046529
10.935664
10.676980
10.624528
10.415912
10.549426
10.194778
10.610819
10.458827
9.818673
9.726882
8.973479
9.183884
9.096861
8.734465
8.513927
7.757545
7.984638
8.148551
7.840991
7.513762
7.620454
6.890893
7.088780
7.037520
7.190704
6.866455
7.068515
6.500483
6.676912
6.483793
##ZVALUE=285
0.755787
0.686646
0.852942
0.940561
0.784993
0.834465
0.858903
0.871420
1.133680
1.086593
0.940561
0.990629
0.941753
0.924468
1.130700
1.153946
1.146793
1.099706
1.013875
1.247525
1.286864
1.336932
1.782775
1.859665
5.171895
17.116666
59.379935
121.586919
260.149837
410.530567
584.700704
809.024572
936.428905
1001.940966
953.257680
780.805945
617.086887
388.009548
243.647695
115.882754
62.093735
32.961965
34.316778
50.864816
68.495870
97.590685
114.301443
131.486654
137.763619
132.319927
124.298930
101.931691
82.448721
59.454441
42.840838
27.340651
19.600987
14.743805
12.675524
11.539459
11.200905
11.096597
10.853410
10.491610
10.516644
10.255575
10.114908
10.131598
10.235906
9.645820
10.059476
9.607673
9.282827
9.167790
9.375811
9.268522
8.975863
8.662939
8.423924
8.190870
8.218884
8.093715
7.851720
7.416606
7.490516
7.095933
7.195473
7.178783
7.272959
7.023811
6.928444
6.420612
6.458759
6.212592
6.154776
6.339550
##ZVALUE=290
0.890493
0.777841
0.830889
0.909567
0.890493
0.831485
0.913739
0.887513
0.834465
0.790954
0.780821
0.984669
0.856519
1.004934
0.974536
1.047850
1.014471
0.984669
1.124740
1.348853
1.239777
1.253486
1.551509
1.376867
1.551509
1.872778
2.715588
7.025599
32.762885
77.786446
153.207779
318.241715
489.013791
735.009909
885.286927
1004.346013
1003.915668
877.586007
722.498894
491.283536
328.055620
167.032480
88.711977
37.219524
25.172830
32.211542
45.328736
67.365766
85.224509
110.602975
123.621821
133.723617
130.673647
118.405819
101.773739
77.372789
58.439970
38.732886
28.438568
18.583536
14.181733
11.095405
10.579824
9.573698
9.369850
9.194613
9.259582
8.679628
9.265542
8.801818
9.232759
9.107590
9.320974
8.812547
8.649826
8.669496
8.353591
8.005500
8.004904
8.105636
7.836819
7.859468
7.244945
7.323623
7.322431
7.052422
6.939769
7.304549
7.013679
6.865859
6.810427
6.547570
6.407499
6.927848
6.609559
6.579757
##ZVALUE=295
0.780821
0.828505
0.730753
0.832677
0.830889
0.808835
0.825524
0.859499
0.762939
0.792742
0.836849
0.990629
0.892878
0.942945
0.900626
0.944734
1.083612
1.051426
0.990629
1.109838
1.122952
1.055598
1.021624
1.270771
1.323819
1.352429
1.446605
1.583695
2.069473
3.227592
11.466742
48.179626
107.855797
253.791809
408.587456
646.615028
815.074444
978.787541
1016.031504
943.534970
813.931823
592.470765
420.313478
223.472714
121.105909
46.849847
24.433732
20.184517
27.137995
43.472648
60.024858
83.964467
101.418495
119.940639
128.111839
123.729706
114.664435
94.229579
76.504946
54.200888
38.828850
24.751425
17.620921
11.849999
9.592772
8.478761
7.962584
8.092523
7.908940
8.144975
8.098483
8.358955
8.505583
8.290410
8.136630
7.987618
7.716417
7.728934
7.530451
7.329583
7.094741
7.592440
7.177591
7.219911
6.847978
7.065535
6.768703
7.049441
7.082820
6.486773
6.663799
6.761551
6.513000
6.352663
6.465912
6.592870
##ZVALUE=300
0.766516
0.778437
0.852942
0.688434
0.615716
0.919700
0.879765
0.706911
0.870824
0.797510
0.795722
0.852942
1.016855
0.831485
1.000762
0.801682
0.796914
0.965595
0.884533
0.980496
1.003742
0.950694
1.089573
1.115799
1.127720
1.304746
1.168847
1.373887
1.494884
1.447797
1.795888
2.104640
7.594824
25.229454
85.748434
166.081786
341.151953
516.624451
753.149986
896.993876
1011.887789
1008.760929
884.224772
728.401542
486.081839
320.663452
160.961747
88.144541
34.232736
17.659664
17.524958
24.568439
39.066672
53.381920
77.563524
93.811750
114.478469
120.840669
117.639899
110.607743
91.351867
75.891614
53.294897
39.262772
24.218559
17.113686
10.809898
8.620620
7.679462
7.204413
7.422566
7.178783
7.316470
7.308722
7.095933
7.438660
7.384419
7.286668
7.021427
7.206798
6.743670
6.968975
6.700754
7.019639
6.881952
6.551743
6.761551
6.820560
6.419420
6.658435
6.445646
6.553531
6.238818
6.467700
6.299615
5.988479
##ZVALUE=305
0.669956
0.528693
0.761747
0.665784
0.541806
0.669956
0.773668
0.633597
0.727773
0.739694
0.941753
0.775456
0.782609
0.849962
0.890493
0.647902
0.785589
0.774860
0.888705
0.865459
0.978708
0.822544
0.811815
1.050830
0.930429
1.098514
1.127720
0.951886
1.163483
1.459718
1.347661
1.594424
1.740456
1.911521
4.009604
13.471842
55.776834
120.802522
268.788934
415.155888
648.751855
968.433619
979.253650
1014.235616
955.269933
760.125518
595.820546
380.475521
241.107941
109.483004
54.080486
19.927621
13.245940
16.259551
22.754669
37.570596
52.756667
74.585676
89.161992
103.942752
112.202764
111.657977
104.452968
87.102652
71.985722
50.626993
37.029982
22.256970
15.255809
10.324717
8.447766
7.397532
7.262826
6.896853
6.913543
6.848574
6.705523
6.718636
6.764531
6.791949
6.683469
6.565452
6.622672
6.708503
6.600618
6.775856
6.738901
6.693602
6.738901
6.312728
6.224513
6.405711
6.064773
6.220937
6.227493
5.974770
##ZVALUE=310
0.780821
0.708699
0.837445
0.640750
0.590682
0.729561
0.712872
0.679493
0.686646
0.860691
0.741482
0.577569
0.681877
0.757575
0.871420
0.801682
0.783801
0.806451
0.688434
0.822544
0.813603
0.773668
0.800490
1.043677
0.909567
1.012683
0.997782
0.955462
1.133680
1.232624
1.286864
1.350641
1.468658
1.415610
1.577735
1.636744
2.062917
7.512569
23.727417
79.549551
160.150528
327.417850
502.299666
744.075775
897.916555
1009.715796
1006.044745
886.017680
735.293627
496.464968
331.348777
167.364478
89.713931
33.324957
15.149713
11.381507
14.079809
21.792650
30.951500
47.828555
62.609911
83.971620
96.381903
105.389953
107.126832
98.488927
88.104606
67.988634
52.268505
34.714937
24.282932
14.838576
10.717511
8.030534
7.350445
6.735921
6.749630
6.552935
6.293654
6.486773
6.604791
6.439686
6.241798
6.138682
6.357431
6.308556
6.314516
6.498694
6.234646
5.732775
6.159544
6.148815
6.264448
5.851984
5.909801
5.874634
##ZVALUE=315
0.716448
0.757575
0.741482
0.752807
0.683665
0.573993
0.723600
0.749826
0.827909
0.712872
0.812411
0.685453
0.698566
0.595450
0.801682
0.714660
0.822544
0.684857
0.659823
0.972748
1.014471
0.938773
0.780821
0.892878
0.883937
0.801682
0.924468
1.112819
1.050830
1.125932
1.093745
1.183748
1.122952
1.267791
1.322627
1.393557
1.450777
1.769662
1.891851
3.885627
12.465715
51.992536
115.774870
261.322856
415.383577
657.332540
819.704533
976.630449
1015.628576
945.200920
818.942785
592.041612
423.367620
225.480795
123.731494
46.685934
19.953847
10.156631
10.145903
13.686419
18.398762
30.770898
42.051673
60.860515
75.315833
91.729760
99.928975
100.005865
94.044805
79.233646
66.554546
48.036575
35.739541
22.098422
15.392900
10.071993
8.072853
6.768703
6.611943
6.327629
6.171465
6.220937
6.223917
6.494522
6.186962
6.254911
6.242990
6.104708
6.133914
6.015897
6.063581
6.027818
5.671978
5.721450
5.737543
5.539656
##ZVALUE=320
0.667572
0.637770
0.579953
0.716448
0.541806
0.682473
0.678897
0.669956
0.802875
0.680685
0.717640
0.639558
0.522733
0.663996
0.656843
0.844598
0.690818
0.748634
0.846982
0.893474
0.908971
0.749826
0.786781
0.799894
0.911951
0.880957
0.912547
0.866652
1.002550
0.884533
0.925660
0.993609
1.004934
1.044869
1.046658
1.235604
1.310706
1.391768
1.325607
1.468658
1.689792
2.010465
5.966425
28.741956
73.542595
190.568566
314.807892
525.702834
702.507496
907.365680
995.303988
990.495682
895.619988
691.428781
509.917736
287.982821
168.995857
71.225762
32.484531
11.766553
8.435845
9.213686
11.375546
17.517805
24.703741
38.975477
53.905845
72.034001
83.995461
94.501972
94.917417
88.560581
78.945756
60.099959
46.932697
31.727552
22.449493
14.340878
10.254979
8.025765
6.840825
6.502867
6.219745
6.073713
6.150603
5.940795
6.111860
6.068945
6.097555
6.030798
5.526543
5.618930
5.560517
5.942583
5.803704
5.316734
##ZVALUE=325
0.548959
0.613928
0.519753
0.406504
0.695586
0.822544
0.791550
0.731945
0.662804
0.780821
0.789762
0.526905
0.788569
0.731945
0.695586
0.643730
0.647902
0.732541
0.680685
0.632405
0.927448
0.832677
0.760555
0.715852
0.628829
0.715852
0.618696
0.838637
0.683665
0.797510
0.909567
0.718832
0.952482
1.094937
1.123548
1.076460
0.998974
0.900626
1.171827
1.255870
1.307726
1.389980
1.476407
1.644492
3.983974
14.015436
53.747892
113.936663
252.801776
408.363938
644.290447
801.162720
956.840515
991.209745
916.017890
779.099464
543.748736
377.749801
201.749802
111.970901
42.698979
18.501878
8.121729
7.629991
8.572936
10.400414
16.311407
24.051666
38.812757
52.377582
69.921613
80.074668
88.560581
89.187622
82.911849
73.103905
57.284832
44.533610
29.653907
20.318627
13.131499
9.770989
7.389784
6.591678
6.304979
6.020665
6.030798
5.706549
5.872846
5.622506
5.535483
5.924702
5.475879
5.400777
5.390644
5.546808
##ZVALUE=330
0.684857
0.716448
0.588894
0.608563
0.680685
0.600815
0.544786
0.798702
0.613928
0.633597
0.590682
0.687838
0.721812
0.617504
0.745654
0.678897
0.553727
0.743866
0.751615
0.650883
0.635982
0.666976
0.692606
0.728965
0.752807
0.710487
0.641942
0.613928
0.650883
0.802875
0.810623
0.871420
0.892878
0.909567
0.852942
0.993609
0.916719
0.973940
0.902414
1.076460
1.071692
1.323819
1.214743
1.308918
1.391768
1.630783
1.984835
8.210540
25.849938
87.750554
167.788863
338.463783
499.491692
728.614926
876.445770
978.837609
957.875848
817.341805
659.011602
430.948734
279.136896
132.304430
68.232417
24.497509
10.774732
7.377863
7.121563
8.040667
10.263920
16.274452
23.342967
36.035776
47.998428
64.628720
74.535608
82.574487
83.263516
76.577663
68.137646
52.944422
41.596889
27.611852
19.924641
13.107657
10.060668
7.443428
6.290674
6.257892
5.805492
5.507469
5.315542
5.460978
5.518794
5.502701
5.264878
5.277991
##ZVALUE=335
0.575781
0.540614
0.468493
0.573993
0.535846
0.474453
0.513792
0.503659
0.568628
0.639558
0.669956
0.740886
0.736713
0.664592
0.705719
0.591874
0.656843
0.676513
0.625849
0.634789
0.894666
0.687838
0.769496
0.698566
0.691414
0.883937
0.633597
0.792742
0.624657
0.674725
0.912547
0.772476
0.787973
0.850558
0.831485
0.851750
0.786781
0.878572
0.966787
0.959635
0.891685
0.969768
0.916719
1.172423
1.227856
1.166463
1.339912
1.558661
1.543760
3.897548
13.744831
53.967834
114.474893
254.522562
409.636497
646.205544
808.743834
945.974588
960.581899
865.738988
731.483698
506.655574
348.224640
182.833672
95.055699
33.601522
15.018582
7.419586
6.699562
6.640553
7.659793
10.459423
14.472604
23.889542
32.628775
47.301650
58.335662
70.471764
76.268911
77.248812
72.468519
61.458945
52.248836
38.985610
30.223727
19.698739
14.100671
9.636879
7.815957
6.190538
5.663633
5.351901
5.123615
5.142689
5.013943
5.087852
##ZVALUE=340
0.637770
0.556707
0.514984
0.548959
0.471473
0.560880
0.599623
0.498891
0.430942
0.575781
0.614524
0.665784
0.729561
0.603795
0.637770
0.525713
0.471473
0.510812
0.549555
0.647902
0.506639
0.672936
0.730753
0.741482
0.417829
0.789762
0.523925
0.774860
0.664592
0.682473
0.698566
0.733733
0.820756
0.893474
0.849962
0.862479
0.798702
0.817776
0.706911
0.945926
0.716448
0.800490
1.004934
0.950694
1.008511
1.057982
1.068711
1.068711
1.343489
1.400709
1.636744
2.052784
8.866787
28.309822
89.574456
177.852511
364.081860
522.419810
737.234950
867.383480
945.366621
915.569663
767.894983
616.237521
391.905904
246.894956
114.615560
55.352449
16.985536
8.369684
6.673932
6.482601
6.779432
7.379651
9.822845
13.624430
21.531582
30.230880
44.505596
54.836869
66.333413
70.669651
71.405768
68.161488
58.432817
50.177574
37.378669
28.165579
18.627644
13.618469
9.090900
7.078648
5.842447
5.325675
4.854798
5.017519
##ZVALUE=345
0.643730
0.683665
0.540614
0.652671
0.673532
0.586510
0.595450
0.669956
0.675917
0.608563
0.752807
0.735521
0.660419
0.664592
0.701547
0.543594
0.655651
0.428557
0.530481
0.745654
0.742674
0.638962
0.719428
0.771880
0.726581
0.638962
0.843406
0.695586
0.768900
0.654459
0.518560
0.683665
0.784993
0.784993
0.859499
0.853539
0.694990
0.765920
0.813603
0.801682
1.052618
1.015663
0.942945
0.954866
0.889897
1.105666
0.948906
1.134872
1.153946
1.117587
1.244545
1.330972
1.612902
1.746416
3.258586
18.304586
50.300956
134.814978
241.357684
438.241959
601.334572
803.475976
899.984837
922.143459
848.131776
659.701824
494.723916
293.580890
168.728828
67.260861
30.060410
11.030436
7.023811
6.332994
5.994439
6.181002
6.792545
8.714795
12.374520
19.621849
28.047562
40.887594
49.616694
59.505701
64.987540
66.593885
63.800812
55.946708
48.509836
37.264824
28.305650
18.664598
13.496876
9.044409
7.187724
5.564690
##ZVALUE=350
0.505447
0.518560
0.496507
0.587702
0.692606
0.636578
0.543594
0.508428
0.511408
0.546575
0.585914
0.600815
0.525713
0.538826
0.629425
0.364780
0.521541
0.562668
0.657439
0.551939
0.576973
0.579953
0.732541
0.610948
0.687838
0.658631
0.635982
0.715852
0.602603
0.725985
0.576973
0.635982
0.647902
0.767708
0.677705
0.678897
0.693798
0.719428
0.780821
0.764728
0.754595
0.729561
0.728965
0.924468
0.853539
0.745654
0.828505
1.041889
1.166463
0.935793
1.228452
0.966787
1.144409
1.107454
1.568794
1.394749
2.114773
9.529591
28.955936
90.044737
172.120929
344.393849
501.685739
706.553459
835.567713
910.360813
875.396729
727.383494
565.798879
344.569683
213.679671
98.024607
44.394732
13.812780
7.094741
5.836487
5.577803
5.389452
5.347729
6.173849
7.829666
12.080669
16.542673
24.953485
33.664703
44.319630
52.634478
58.896542
61.495900
59.311986
54.328442
43.880939
36.186576
24.937987
19.186735
12.644529
##ZVALUE=355
0.579953
0.542998
0.568628
0.523925
0.618696
0.549555
0.561476
0.597835
0.684857
0.465512
0.541806
0.368953
0.527501
0.648499
0.520945
0.597835
0.612736
0.624657
0.664592
0.468493
0.556707
0.761747
0.664592
0.580549
0.545979
0.688434
0.653863
0.672936
0.565648
0.703931
0.694990
0.540614
0.600815
0.749826
0.844598
0.715852
0.659823
0.763535
0.593662
0.657439
0.816584
0.747442
0.760555
0.769496
0.820756
0.713468
0.755787
0.819564
0.768900
1.060963
0.960827
1.063943
0.956655
1.155734
1.006722
1.225471
1.422763
1.535416
1.623631
4.449487
15.550852
58.826804
121.411681
258.212686
407.260656
631.092787
772.055984
883.790851
886.650681
764.441490
625.093579
421.907902
268.337727
120.611787
58.908463
18.613935
8.272529
5.684495
5.300641
4.858971
4.888773
4.810691
5.449653
7.281899
9.059906
14.493465
20.548701
29.255748
37.352443
46.333671
52.170753
55.263638
54.507852
49.360991
42.400956
33.257604
##ZVALUE=360
0.352859
0.545979
0.514984
0.541806
0.466704
0.423789
0.597835
0.530481
0.615716
0.533462
0.656843
0.463724
0.556707
0.441670
0.468493
0.565648
0.676513
0.527501
0.615716
0.662804
0.523925
0.425577
0.570416
0.494719
0.644922
0.638962
0.674725
0.545979
0.648499
0.707507
0.698566
0.517964
0.747442
0.561476
0.700951
0.686646
0.729561
0.715852
0.707507
0.689626
0.857711
0.909567
0.826716
0.636578
0.709891
0.777841
0.805855
0.885725
0.952482
0.879765
0.848770
1.097918
0.947714
1.035929
0.856519
1.091957
1.177788
1.045465
1.308918
1.303554
1.540780
2.349615
6.769896
30.796528
75.990558
187.672973
313.246846
515.217781
681.218505
836.672783
876.456499
808.914900
685.657859
473.411679
322.219729
167.544484
87.759495
29.815435
12.192726
5.775690
5.071759
4.719496
4.637837
4.657507
4.574656
4.717708
5.714893
8.223653
11.144876
17.250776
23.313761
33.072829
39.472580
46.860576
49.699545
49.945712
##ZVALUE=365
0.527501
0.493526
0.565648
0.496507
0.486970
0.549555
0.538826
0.431538
0.452995
0.534654
0.497699
0.584722
0.570416
0.619888
0.430942
0.654459
0.568628
0.614524
0.617504
0.642538
0.632405
0.580549
0.742674
0.629425
0.637770
0.639558
0.629425
0.623465
0.697970
0.685453
0.535846
0.620484
0.728965
0.623465
0.625849
0.515580
0.751615
0.552535
0.662804
0.714660
0.603795
0.648499
0.678897
0.728965
0.722408
0.798702
0.862479
0.730753
0.782609
0.780821
0.665784
0.955462
0.965595
1.030564
0.946522
0.965595
1.049638
1.125932
1.124740
1.018643
1.132488
1.341701
1.558661
1.819730
3.180504
17.181635
47.031641
128.237605
235.356688
432.245731
586.161017
756.535530
839.475989
831.113458
741.780996
548.346639
393.974781
217.819810
119.825602
43.663979
17.502904
6.118417
5.091429
4.500747
4.279613
4.222989
4.081726
3.845692
4.155636
4.869699
6.552935
10.035634
13.835430
20.457506
26.677847
34.728646
##ZVALUE=370
0.365973
0.262856
0.318885
0.284910
0.421405
0.415444
0.346899
0.402927
0.449419
0.361800
0.345707
0.450611
0.119805
0.382662
0.365973
0.471473
0.466704
0.238419
0.482798
0.474453
0.376701
0.405908
0.496507
0.460744
0.489950
0.445843
0.471473
0.549555
0.540614
0.485778
0.452995
0.413656
0.478625
0.444651
0.563860
0.472665
0.462532
0.509620
0.600815
0.646710
0.528693
0.484586
0.572801
0.578761
0.417829
0.776649
0.547767
0.707507
0.657439
0.573993
0.705719
0.725985
0.702739
0.551939
0.781417
0.679493
0.591874
0.716448
0.861883
1.052618
0.905991
1.021624
1.078844
1.102686
1.222491
1.566410
1.980662
9.026527
29.397607
94.991922
178.060532
340.265632
499.869585
707.820654
809.312463
844.192505
780.972838
619.078875
461.262465
262.116790
150.243640
59.755445
27.280450
9.595752
5.178452
4.333854
4.155636
3.859997
3.719926
3.625751
3.476739
3.616810
4.228950
5.734563
8.083582
12.398958
##ZVALUE=375
0.594854
0.421405
0.516772
0.516772
0.647902
0.514984
0.467896
0.518560
0.589490
0.523925
0.495911
0.433922
0.411868
0.426769
0.434518
0.610948
0.495911
0.528693
0.561476
0.585914
0.515580
0.509620
0.473857
0.691414
0.579953
0.357628
0.463724
0.542998
0.479817
0.521541
0.560880
0.794530
0.586510
0.592470
0.573993
0.634789
0.575781
0.558496
0.620484
0.667572
0.667572
0.714660
0.619888
0.724792
0.690818
0.532866
0.786781
0.464916
0.626445
0.758767
0.688434
0.876784
0.739694
0.929832
0.814795
0.761747
0.865459
0.773668
0.818968
0.960827
0.810623
0.940561
1.006722
1.031756
1.022816
1.212955
1.216531
1.476407
1.558661
4.453659
15.971661
56.084991
121.860504
270.750523
418.998003
628.928542
752.892494
838.939548
819.146633
688.744783
540.534854
335.387588
214.133859
104.331970
52.130818
16.551614
6.862879
4.291534
3.950000
3.841519
3.856421
3.504753
3.479719
3.357530
3.427863
3.842711
##ZVALUE=380
0.550747
0.466704
0.358820
0.566840
0.609756
0.561476
0.460744
0.619888
0.413656
0.467896
0.448823
0.506639
0.549555
0.540614
0.660419
0.556707
0.546575
0.444651
0.705719
0.544786
0.451803
0.532866
0.571609
0.519753
0.604987
0.715852
0.629425
0.549555
0.596642
0.764728
0.690818
0.381470
0.600815
0.624657
0.522733
0.669956
0.524521
0.644922
0.473857
0.609756
0.703931
0.700951
0.550747
0.648499
0.579953
0.697970
0.738502
0.650883
0.822544
0.826716
0.850558
0.658631
0.715852
0.699759
0.681877
0.792742
0.750422
0.924468
0.848770
0.834465
0.799894
0.840425
0.822544
0.989437
0.972748
0.855923
1.079440
1.201630
1.290441
1.365542
1.575947
2.471805
11.152625
33.488870
101.456642
191.122890
362.907648
527.088642
722.664595
817.099810
831.734538
758.641958
598.843694
451.262593
266.101956
159.822702
66.707730
30.467510
8.969903
4.647970
4.020929
3.716946
3.550649
3.423691
3.280640
3.100634
##ZVALUE=385
0.487566
0.447631
0.446439
0.333786
0.460744
0.582933
0.402927
0.384450
0.496507
0.443459
0.583529
0.466704
0.571609
0.572801
0.361800
0.532866
0.447631
0.597835
0.469685
0.402927
0.507832
0.521541
0.543594
0.479817
0.572801
0.717640
0.476837
0.503659
0.487566
0.542998
0.365973
0.483990
0.468493
0.588894
0.401735
0.667572
0.605583
0.579953
0.599623
0.652671
0.662804
0.667572
0.501871
0.735521
0.624657
0.797510
0.634789
0.640750
0.762939
0.642538
0.681877
0.579953
0.752807
0.593662
0.739694
0.658631
0.724792
0.556707
0.669956
0.799894
0.912547
0.976920
0.742674
0.849962
0.896454
0.957847
0.955462
1.018643
0.911951
1.165867
1.243949
1.273751
1.477599
1.890659
4.354715
21.589994
56.799650
151.994824
267.552733
471.428633
625.051856
780.215859
829.288960
796.887875
707.921982
524.149537
374.222994
206.744671
118.760467
47.555566
19.074678
5.759597
3.804564
3.604889
3.584623
3.425479
##ZVALUE=390
0.415444
0.365973
0.568628
0.439882
0.512600
0.469685
0.478625
0.497699
0.465512
0.458956
0.492930
0.449419
0.425577
0.429749
0.444651
0.580549
0.509620
0.555515
0.375509
0.574589
0.448823
0.332594
0.388622
0.371933
0.474453
0.619888
0.412464
0.498891
0.519753
0.509620
0.491738
0.535846
0.521541
0.488758
0.542998
0.520945
0.560880
0.805855
0.635982
0.638962
0.512600
0.605583
0.653863
0.582933
0.783801
0.643730
0.677705
0.642538
0.733733
0.662804
0.670552
0.755787
0.679493
0.633597
0.621676
0.750422
0.477433
0.636578
0.656843
0.786781
0.698566
0.874996
0.818968
0.607967
0.687838
0.769496
0.756979
1.001954
0.960827
0.997782
1.098514
1.249909
1.598597
1.261830
1.350641
1.478791
2.355576
11.985898
37.367940
113.927722
213.845968
400.870442
547.836423
718.422532
808.556676
842.940807
779.688954
623.292923
480.258465
292.068720
170.418620
70.398450
31.592846
8.936524
4.528761
3.577471
##ZVALUE=395
0.646710
0.539422
0.517964
0.552535
0.265837
0.608563
0.607967
0.359416
0.498891
0.472665
0.466704
0.472665
0.417829
0.448823
0.466704
0.429749
0.488758
0.673532
0.411868
0.529885
0.482798
0.374913
0.568628
0.564456
0.661612
0.638962
0.539422
0.543594
0.581741
0.494719
0.619888
0.519753
0.690818
0.619888
0.531673
0.710487
0.667572
0.574589
0.671744
0.577569
0.760555
0.589490
0.670552
0.643730
0.654459
0.653863
0.758767
0.583529
0.679493
0.588894
0.672936
0.731945
0.710487
0.693798
0.702739
0.770688
0.628829
0.655651
0.519753
0.687838
0.791550
0.734925
0.658631
0.758767
0.745654
0.750422
0.883937
0.801682
0.977516
0.990629
1.254678
1.119971
1.070499
1.202822
1.214743
1.309514
1.396537
1.433492
1.731515
6.734729
23.921728
81.644654
156.428814
303.135514
449.612737
651.394725
778.453946
853.114724
835.783482
717.718005
566.462874
357.193947
222.957730
98.712444
47.487617
15.466809
##ZVALUE=400
0.557899
0.553727
0.468493
0.302792
0.513792
0.410676
0.402927
0.570416
0.266433
0.453591
0.434518
0.524521
0.466704
0.489950
0.506639
0.556707
0.389814
0.421405
0.528693
0.499487
0.476837
0.453591
0.442863
0.532866
0.180602
0.391603
0.400543
0.507832
0.561476
0.493526
0.631809
0.570416
0.455976
0.611544
0.553727
0.488758
0.638962
0.580549
0.509620
0.589490
0.578761
0.753999
0.719428
0.559688
0.684857
0.624657
0.665784
0.646710
0.513792
0.787973
0.787973
0.618696
0.671744
0.689626
0.660419
0.709891
0.649691
0.826716
0.719428
0.715852
0.643730
0.840425
0.790954
0.677705
0.737906
0.793934
0.730753
0.857711
0.817776
1.108646
1.076460
1.152754
0.992417
1.138449
1.166463
1.023412
1.037717
0.993609
1.116991
1.360774
1.519918
3.724694
12.703538
46.348572
102.181435
228.508711
364.371538
566.842556
704.011917
822.301507
844.260454
753.121972
622.895956
418.565869
278.722644
140.707493
##END
