##TITLE=DDW02
##FORMAT=SPECTACLE-ASCII V-1.2
##DATA TYPE=ULTRAVIOLET SPECTRUM
##SECOND TYPE=ULTRAVIOLET SPECTRUM
##DATE=04/30/18
##TIME=11:29:07
##SPECTROMETER/DATA SYSTEM=SPECTACLE
##XUNITS=NM EM
##YUNITS=ENERGY
##YFACTOR=1
##FIRSTX=220
##LASTX=410
##NPOINTS=96
##3DDATA=Equidistant
##ZUNITS=NM EX
##FIRSTZ=210
##LASTZ=400
##ZPOINTS=39
##XYDATA=(Y..Y)
##ZVALUE=210
16.019940
14.224648
12.438893
10.508895
10.394454
9.150505
9.565949
8.013844
6.306767
5.861521
4.648566
2.749562
2.643466
2.540946
3.057718
3.138781
2.806783
2.745986
3.206730
3.454685
3.893971
3.448725
3.561974
3.948808
4.018545
4.540682
4.112720
4.051924
4.372597
4.806519
4.834533
5.342960
5.436540
5.602837
5.582571
5.565882
6.349683
6.257892
7.437468
6.015897
6.520748
6.973743
7.100701
6.558895
5.821586
6.640553
7.033944
7.647872
7.286668
7.342696
7.676482
8.451939
8.680820
7.578731
8.342862
9.251833
7.911921
7.528663
8.256435
8.841753
9.062886
9.365678
7.942915
8.688569
8.614659
7.440448
9.790659
9.744763
10.605454
10.689497
12.767911
13.941526
15.257597
15.206933
16.036630
16.356707
16.477704
16.267896
16.217828
14.140606
13.997555
12.317896
11.951923
10.088682
8.221865
7.418990
7.629991
7.543564
7.655621
7.931590
10.861754
13.115406
15.973449
21.305680
28.091669
30.743480
##ZVALUE=215
38.951635
39.080977
32.254457
25.531650
20.513535
17.042756
15.382767
14.256835
15.337467
14.253855
11.410713
8.968711
6.246567
5.383492
4.520416
3.412962
2.913475
2.993941
3.531575
3.366470
3.359914
4.112720
3.478527
3.594756
4.647970
4.143715
4.664660
4.424453
5.157590
4.936457
4.579425
5.944967
5.745888
5.993843
5.925894
5.804896
6.824732
7.104874
7.342696
7.230639
7.712841
7.448792
7.358789
7.233620
7.682443
7.676482
8.879900
7.787943
8.220673
9.101629
10.266900
9.381771
11.204481
11.697412
9.960532
9.922981
10.885000
11.341572
11.207461
10.438561
10.649562
10.268688
10.042787
11.103749
10.229945
10.958910
11.128783
9.854436
11.799932
11.554956
12.466908
14.696717
14.982820
17.751455
18.295646
16.770959
16.766787
16.078949
15.573502
15.660524
13.437867
12.202859
10.236502
10.588765
10.285974
7.811785
7.648468
7.784963
7.666945
6.860495
6.909966
6.899834
7.850528
7.175803
9.365678
12.686849
##ZVALUE=220
85.719824
85.000992
83.559752
74.448586
62.280893
48.361421
37.625432
28.633475
23.399591
24.949908
22.287965
23.443699
21.352768
16.138554
13.555884
10.410547
7.936954
5.624890
4.544854
4.149675
4.123449
4.046559
3.813505
4.275441
4.226565
4.712939
4.767776
5.112886
5.650520
5.067587
5.933642
6.335974
6.670952
6.902814
7.733703
8.327961
7.578731
6.559491
8.387566
8.381605
8.707643
8.919835
8.666515
8.819699
8.384585
9.508729
8.936524
9.701848
10.542870
10.047555
10.917783
12.458563
12.826920
13.741851
15.537739
14.940500
15.516877
16.848445
15.935898
16.390681
16.398430
16.313791
15.066862
14.353991
14.881492
14.491677
14.162660
14.818907
14.360547
15.271902
15.034676
15.680790
17.573833
17.183423
18.452406
18.685460
17.228723
16.831756
16.951561
16.099811
14.346838
14.056563
12.853742
13.081431
10.393858
9.369850
8.711815
7.684827
8.500814
8.082986
7.819533
7.694960
7.425547
7.388592
6.695986
7.134676
##ZVALUE=225
110.164881
116.505623
133.020878
149.004459
145.513415
131.895542
120.226741
87.867975
65.183640
50.560832
39.276481
39.204955
37.977695
40.079951
37.339926
32.742620
25.920868
19.961596
15.236735
10.209680
7.513762
5.199909
4.943609
4.731417
4.649758
5.547404
4.933476
6.408691
5.736947
6.777644
7.753968
7.448792
7.750988
8.406639
8.688569
9.377599
9.939671
10.248423
9.380579
10.180473
11.797547
9.652972
10.337830
9.270906
9.779930
10.078549
11.225939
11.105537
12.698770
14.755726
15.281439
17.756820
19.563437
18.005967
21.001697
20.549893
21.242499
21.663904
22.463799
22.603869
21.548867
23.947954
22.241473
20.486712
18.971562
20.579696
19.414425
18.170476
18.072724
19.895434
20.849705
20.459890
21.651983
20.779967
21.412969
21.523833
20.304918
18.685460
18.400550
16.715527
16.493797
15.596747
14.601946
13.497472
12.601614
10.763407
11.207461
11.108518
10.564923
9.261966
9.479523
8.824468
10.256767
9.517670
9.371638
8.141994
##ZVALUE=230
81.923604
90.853572
136.201978
202.323794
244.298577
285.303593
294.220448
271.497965
240.195990
173.377991
127.904415
92.174411
62.884688
57.705641
55.598617
57.711601
57.363510
54.399967
47.158599
40.229559
27.314425
18.896461
12.079477
9.184480
6.854534
7.024407
7.515550
7.038713
8.357763
7.006526
7.857680
7.288456
8.787513
8.947849
9.623766
11.662841
10.273457
11.306405
11.062622
12.993813
11.823773
11.189580
11.992455
11.141896
12.067556
12.973547
12.957454
13.284683
13.871789
16.402602
16.629696
19.891858
21.080971
24.800897
23.926497
24.698973
26.077628
26.165843
25.904775
26.076436
26.794672
27.026534
28.555989
27.678609
24.856925
24.337769
23.621917
24.772882
24.770498
26.023984
29.027462
27.298927
28.566718
30.791759
30.306578
29.488802
28.616786
26.389956
23.286939
23.539662
21.738410
21.084547
19.081831
16.324520
16.171932
16.198754
16.281605
14.703870
14.528632
16.790628
16.752481
16.137958
16.122460
17.294884
16.216636
17.649531
##ZVALUE=235
23.569465
27.166605
56.965947
127.121806
195.256472
299.964547
379.401445
476.241708
495.303869
482.032895
409.407616
324.518681
214.648843
152.072906
103.869438
82.345605
79.613924
84.550977
89.830756
87.842941
80.072880
67.062974
53.413510
35.376549
27.397871
16.838908
11.997819
8.833408
8.772612
7.829666
7.426739
9.009838
9.366870
10.352731
10.042787
11.100769
10.790825
11.768937
11.450648
11.416674
11.656880
13.054609
13.551712
14.738441
13.717413
15.214682
15.048981
13.604760
13.902783
15.626550
18.131733
18.898845
20.550489
21.335483
21.205544
21.305680
22.970438
24.868846
25.380850
24.076700
24.681687
24.445653
23.742914
24.232864
23.592710
23.779869
24.419427
23.615956
24.763942
23.726821
25.370717
26.155710
26.585460
29.886961
28.165579
28.290749
30.188560
28.397441
27.087927
25.194883
24.187565
22.017956
22.153854
19.970536
18.822551
16.890764
17.168522
16.461611
18.415451
16.474724
14.769435
14.616847
16.070604
14.104843
14.708638
13.409853
##ZVALUE=240
2.556443
2.867579
7.761717
23.899674
51.199794
118.800402
196.963549
335.010886
443.148613
565.166473
602.316856
596.168637
533.732772
421.072841
323.244929
233.886838
144.457817
113.894939
96.156597
98.087788
114.009976
120.180845
112.535954
97.498894
77.033639
59.805512
47.286749
30.832887
20.133853
12.292862
9.516478
8.424520
8.686781
8.329749
8.320808
10.063648
10.284781
10.007620
11.032820
10.753870
10.916591
10.570884
12.908578
12.317896
12.901425
13.205409
13.994575
14.192462
14.949441
14.855862
15.730858
15.831590
16.645789
16.409755
16.861558
17.621517
17.837882
17.986894
18.099546
18.535852
19.337535
19.334555
19.758940
18.372536
18.970966
20.690560
19.348860
20.713806
20.336509
20.793676
21.304488
22.732615
24.450421
24.129748
26.062727
25.378466
26.453733
26.083589
23.262501
24.042726
22.842884
21.427870
20.673871
20.676851
19.282699
19.103885
18.164515
17.101765
17.177463
15.363693
16.234517
15.039444
16.217828
15.692711
15.522838
14.554858
##ZVALUE=245
1.950860
2.004504
2.074838
2.059937
5.973577
13.981462
45.255423
89.661479
201.641917
315.836668
487.650633
606.128573
684.765577
727.647543
682.850480
562.986732
452.979803
306.467414
209.937692
128.861666
101.445913
95.622540
110.331774
118.799806
129.108429
120.508671
103.653669
88.898540
66.970587
48.590899
35.194755
22.040606
15.106797
10.343790
10.389686
9.627938
10.101795
9.674430
10.459423
10.611415
10.599494
12.408495
12.405515
13.152957
11.879802
13.219714
14.038682
14.220476
14.186502
14.154911
15.103817
15.013814
14.796853
15.095472
15.917420
15.358925
16.174912
16.449690
16.168952
16.437769
16.995668
16.584992
16.484857
16.989708
15.424490
15.970469
16.169548
15.981793
17.028451
16.581416
18.814802
20.253658
21.561980
21.068454
22.255778
22.269487
22.803545
21.708608
20.028949
19.757748
20.550489
18.426776
19.068718
19.012690
16.998649
15.889406
17.735958
14.769435
15.116930
14.137626
13.898611
15.116930
14.508963
14.034510
12.512803
13.543963
##ZVALUE=250
1.938939
1.773834
1.639724
1.940727
1.680851
2.102852
2.636909
10.538697
27.971864
79.490542
151.951909
309.113860
450.268984
633.620024
743.724704
822.051764
818.832517
739.418864
589.968562
450.125933
271.009803
173.259974
105.902553
91.087818
100.060701
113.372803
124.811530
135.151744
128.809810
110.346675
96.889734
69.256425
53.335428
34.154654
22.929907
14.726520
11.833906
10.858774
11.236668
10.841489
10.510683
11.690855
11.443496
11.749864
12.727976
12.248755
13.341904
12.835860
13.383627
14.507771
13.659000
14.020801
13.524890
14.923811
14.180541
13.241768
14.448762
15.459657
14.824867
14.529824
15.128851
14.578700
14.583468
15.245676
14.577508
14.680624
14.512539
14.857650
15.900731
15.513897
16.474724
16.824603
17.529726
18.065572
18.083453
17.757416
19.136667
17.409921
17.218590
16.688704
17.172694
15.719533
14.333725
14.267564
13.975501
12.821555
12.214780
11.929870
12.863874
12.048483
12.068748
12.028813
11.005998
10.706782
11.576414
10.388494
##ZVALUE=255
1.582503
1.554489
1.723766
1.843572
1.804829
1.803637
1.768470
1.637936
2.440810
5.239844
22.820830
54.056644
109.267831
241.268873
377.678871
600.292683
746.324658
909.699798
933.781862
884.422660
753.969550
596.780777
375.373960
232.126713
128.062963
95.773935
89.136958
98.470449
119.544864
130.515695
140.967965
132.372975
125.455856
100.609660
75.241923
52.173734
38.586855
22.381544
16.179681
12.703538
11.609793
10.918975
11.077523
11.767745
11.915565
11.653900
11.643767
11.808872
11.456609
11.927485
12.535453
12.975931
14.385581
13.321638
13.381839
14.703870
13.736486
13.777614
13.610721
13.631582
13.751984
12.838840
13.518929
12.004972
13.726950
12.108684
14.183521
12.977719
13.190508
13.690591
13.469458
14.658570
14.790893
14.477968
14.366508
15.198588
15.090704
14.351606
14.473796
13.680458
13.149977
12.829900
12.247562
11.610985
12.003779
10.644794
9.770989
9.446740
10.151863
9.392500
8.930564
9.279847
8.572936
9.855628
9.404421
8.701682
##ZVALUE=260
1.709461
1.864433
1.760721
1.980662
1.940727
1.979470
1.924634
1.782775
1.964569
2.057552
2.498627
3.273487
8.226633
34.864545
79.443455
185.965896
307.200551
518.063903
699.603558
911.342502
1016.280651
1016.280651
906.525850
740.801692
494.334698
332.069993
186.176896
115.890503
79.783797
80.173612
95.841885
121.491551
136.727691
145.740509
140.880942
125.378966
107.027888
78.776479
60.078502
40.063858
26.910901
16.810894
13.193488
11.103749
11.237860
10.599494
11.213422
10.497570
11.542439
11.753440
11.798739
12.733936
12.940764
12.332797
12.894869
12.893677
12.524724
13.390779
14.526844
13.726950
13.548732
14.218688
13.505816
12.663603
12.089610
12.365580
12.527704
12.459755
12.813807
13.054609
13.460517
14.056563
14.033914
14.086962
13.560653
13.678670
13.441443
11.613965
12.026429
11.880994
11.313558
10.726452
10.759830
10.023713
9.533763
9.002686
8.708835
8.893609
8.512735
8.067489
8.573532
8.453727
8.218884
7.933974
8.591413
8.204579
##ZVALUE=265
1.301765
1.418591
1.340508
1.426935
1.512766
1.517534
1.560450
1.686811
1.667738
1.769662
2.020597
1.815557
1.906753
2.280474
5.495548
19.069910
67.511797
133.124590
235.127807
448.391438
637.140870
889.350772
1013.309956
1016.031504
1006.755829
826.801658
654.363632
420.321822
276.349783
141.339898
89.349747
68.268776
79.781413
105.600953
123.401880
144.771934
148.083568
141.847730
128.520727
103.603601
81.858635
55.118799
38.576722
24.533868
17.195940
11.814833
10.839701
10.776520
11.079907
10.846853
12.157559
11.830926
12.367964
12.926459
13.215542
13.098717
13.404489
12.053847
13.274550
13.398528
13.644695
12.510419
12.819767
12.270808
12.467504
11.651516
12.397766
12.054443
12.574792
12.398958
11.989474
11.669993
12.669563
12.447834
12.263656
11.755824
11.211634
11.037588
10.685921
9.704828
10.126829
9.345412
8.615851
8.457899
8.804798
8.581877
8.126497
7.465482
8.399487
7.805824
7.565618
6.813407
6.930828
6.817579
7.204413
7.254481
##ZVALUE=270
1.220703
1.252890
1.104474
1.090765
1.180768
1.051426
1.262426
1.088977
1.176596
1.327991
1.429915
1.642704
1.629591
1.743436
1.795888
1.923442
2.518892
10.830760
31.966567
99.846721
197.644830
339.310765
597.760677
793.350935
1003.052592
1015.959978
1015.959978
970.996022
762.733817
573.175550
393.052697
207.544565
122.140646
64.210892
60.734749
79.322457
101.930499
128.938556
142.082572
149.589777
146.788955
127.833486
109.154582
79.737902
59.535503
36.810637
27.129650
18.041730
13.587475
11.170506
12.118816
12.306571
12.276769
12.825727
12.444854
14.037490
14.121532
13.953447
13.959408
13.763905
13.979673
13.709664
12.793541
12.817979
12.526512
12.073517
12.047887
12.339950
11.981726
11.182427
11.868477
11.498928
12.019873
11.782646
11.234879
11.146665
11.502504
11.064410
10.398626
9.677410
9.369850
8.759499
8.699894
8.235574
8.072853
7.946491
7.892847
7.612705
7.242560
7.024407
7.292628
7.319450
6.851554
7.068515
6.911755
6.491542
##ZVALUE=275
1.085997
1.065731
1.171827
1.199841
1.167655
1.126528
1.232624
1.442432
1.285672
1.325607
1.282692
1.328588
1.371503
1.583695
1.491904
1.559854
1.843572
1.846552
1.995564
4.992485
19.059777
53.409934
157.105923
291.958451
533.873439
724.939704
952.666998
1016.037464
1016.037464
1016.037464
966.115594
712.530017
510.681868
275.340676
157.340765
75.926781
53.132772
58.842897
76.938868
105.868578
124.723911
143.444538
147.501826
139.234662
127.859712
103.433728
82.543492
58.343410
43.186545
27.463436
20.574927
15.364885
13.715625
13.465881
13.714433
13.656616
14.302731
14.039874
13.619661
13.955832
14.232993
13.808608
13.521910
12.685657
12.545586
12.561679
12.269616
12.595654
12.014508
11.927485
11.812449
11.571646
12.219548
11.945963
11.503696
11.491776
10.932684
10.359883
10.468960
10.164976
9.370446
8.582473
8.051991
8.304715
7.962584
8.103848
7.348657
7.631779
7.130504
7.032752
7.040501
7.190704
6.659627
6.839633
6.601810
6.851554
##ZVALUE=280
1.210570
1.151562
1.054406
1.167655
1.148582
0.998974
1.090765
1.170635
1.098514
1.304746
1.378655
1.252890
1.359582
1.312494
1.236796
1.627803
1.483560
1.658797
1.793504
1.895428
2.120733
2.586842
12.597442
40.417910
124.832392
227.589607
427.353978
620.588660
873.792768
1016.032696
1016.032696
1016.032696
1016.032696
814.463496
604.622960
350.475907
210.025907
93.320608
52.796602
42.943954
53.888559
79.142451
100.502968
123.871565
137.312412
145.593882
138.081908
123.129487
107.197762
79.414845
60.955882
41.389465
30.420423
20.752549
16.275644
14.102459
13.506413
13.953447
13.742447
14.006495
14.171600
13.672709
13.211966
13.218522
12.713671
12.723804
12.300611
12.257695
12.456775
12.038946
11.739731
11.857748
11.558533
10.842681
11.097789
11.028647
10.535717
10.064840
9.773970
9.239912
9.038448
8.443594
8.329749
8.156896
7.931590
7.756948
7.560849
7.193685
7.544756
7.310510
7.225871
7.230639
6.452799
6.769896
6.613731
7.161498
##ZVALUE=285
0.996590
1.061559
1.019835
1.076460
0.958443
1.096725
1.053810
1.047850
0.947714
1.097918
1.227856
1.147985
1.310706
1.196861
1.140833
1.360774
1.457930
1.528859
1.468658
1.513958
1.529455
1.823902
2.031922
2.423525
6.342530
20.238757
70.751905
147.867799
316.912532
492.589474
689.805746
962.170959
1016.031504
1016.031504
1016.031504
958.249569
753.319860
474.287868
299.130678
145.112872
75.301528
37.005544
34.809709
53.628683
71.419477
99.612474
116.869807
134.409666
141.663551
135.971904
126.719475
103.779435
84.629655
59.639812
44.525862
29.074550
21.765828
16.451478
14.908910
14.101863
13.500452
13.362765
13.225675
12.558699
12.424588
12.449622
11.910796
12.064576
11.516809
11.063814
11.525750
11.836886
11.027455
10.670424
11.156797
10.776520
10.229945
9.483695
9.468794
8.768439
8.931756
8.840561
8.462667
8.659959
7.916689
8.272529
7.621646
7.524490
7.769465
7.518530
7.092953
7.071495
7.293820
7.358789
6.664991
6.595850
##ZVALUE=290
0.728965
0.749826
0.974536
0.874996
0.940561
0.874996
1.015663
0.906587
1.170635
1.088977
1.027584
1.027584
0.922680
1.328588
1.043677
1.225471
1.255870
1.177788
1.211762
1.203418
1.428723
1.514554
1.610518
1.833439
1.924634
2.290606
2.652407
11.338592
33.563972
104.555488
197.326541
404.576659
604.843497
890.951753
1016.031504
1016.031504
1016.031504
1016.031504
867.884755
585.516691
393.150449
197.059512
103.713870
41.864514
27.165413
33.480525
47.205687
70.570707
88.918805
113.840699
127.279758
137.076974
136.473775
122.348666
104.350448
78.733563
60.846806
41.292906
30.025840
21.106601
16.499758
14.431477
12.643933
12.294650
12.009740
11.700988
11.383891
11.447668
11.310577
10.754466
11.270642
11.046529
11.042953
10.454655
10.609627
9.968877
10.247827
9.343624
9.504557
8.443594
8.391738
8.450747
8.210540
8.097887
7.775426
7.773638
7.674694
7.475615
7.443428
7.385612
7.171631
6.861687
7.203817
6.748438
6.934404
6.765723
##ZVALUE=295
1.031756
1.089573
0.925660
1.024604
1.178980
0.893474
1.012683
0.970960
1.028776
0.877976
0.973940
1.030564
1.147985
1.165867
1.141429
1.144409
1.070499
1.208782
1.113415
1.194477
1.166463
1.286864
1.385808
1.417994
1.552701
1.795888
1.973510
1.943707
2.159476
3.854632
20.206571
56.570768
129.573941
303.261876
483.142734
774.389505
979.429483
1016.076803
1016.076803
1016.076803
989.035964
719.328523
498.562455
260.056853
143.850446
55.885911
28.013587
21.262765
28.579831
45.858622
63.441992
87.676644
106.013417
123.321414
131.218433
127.424598
118.047595
96.348524
80.627799
58.032870
42.956471
28.430820
20.519495
14.526844
12.746453
10.927916
10.643601
10.638833
10.518432
10.525584
10.732412
10.619760
10.249615
10.458827
10.062456
9.758472
9.444952
8.956790
8.763671
8.844733
8.474588
8.207560
8.038878
7.947683
8.057952
7.456541
7.842779
7.493496
7.476807
7.207990
7.285476
6.957650
7.105470
6.741881
6.551743
6.702542
##ZVALUE=300
0.976920
0.764728
0.903606
0.898838
0.965595
0.755787
0.962615
0.820756
1.072884
0.971556
0.933409
0.990629
1.122952
1.072884
1.001954
1.109838
1.154542
1.054406
1.043677
1.196861
1.080632
1.210570
1.279712
1.201630
1.373887
1.570582
1.486540
1.634955
1.588464
1.802444
2.000928
2.532601
9.164810
31.829476
103.218555
199.519396
407.743454
616.642833
902.248621
1016.031504
1016.031504
1016.031504
1016.031504
884.472728
596.566796
391.993523
196.335912
107.290745
40.574670
20.942688
19.706488
27.014613
42.143464
57.173967
81.860423
99.306703
117.006898
124.229789
121.887922
114.828944
96.564889
80.024600
56.875944
43.452978
27.431846
20.101666
13.855696
11.836886
10.246634
9.791851
9.954572
9.554625
9.545684
9.897947
9.528995
9.333491
8.910894
8.724928
8.477569
8.324981
7.913709
7.965565
7.642508
7.695556
7.385612
7.415414
7.029772
7.121563
7.004738
7.019639
6.599426
7.118583
6.715655
6.912947
6.228685
6.388426
##ZVALUE=305
0.792742
0.887513
0.792742
0.775456
0.766516
0.940561
0.786781
0.792742
0.980496
0.848770
0.961423
0.868440
0.936985
0.978708
0.933409
0.971556
0.926852
0.995994
0.975728
1.015663
1.099706
1.020432
1.031756
1.285672
1.309514
1.157522
1.246929
1.380444
1.402497
1.520514
1.528859
1.654625
1.788735
2.316833
3.754497
21.532774
59.319735
168.146491
303.175449
551.670790
764.306784
1009.195447
1016.031504
1016.031504
1016.031504
928.699970
728.776455
466.499925
293.902755
133.423805
67.152977
24.548769
15.671849
18.780828
26.005507
40.727854
56.235790
77.588558
92.647672
108.852983
117.098689
114.502907
107.629895
91.186762
75.133443
52.348971
38.445592
25.746822
17.946959
12.573600
10.872483
9.698868
9.247661
9.257793
8.877516
8.309484
7.908940
8.143783
7.868409
7.786751
7.531643
7.288456
7.479787
7.508993
7.247925
7.176995
6.865859
7.125735
6.833673
6.784797
6.743670
6.456971
6.437898
6.709695
6.623864
6.123781
##ZVALUE=310
0.747442
0.745654
0.569820
0.738502
0.724792
0.663996
0.733733
0.715852
0.761747
0.894666
0.813603
0.954866
0.862479
0.852942
0.826716
0.749826
0.832677
0.777841
0.825524
0.950694
0.913739
1.068711
1.152754
1.131892
1.304746
1.093745
1.087785
1.103878
1.172423
1.398921
1.311898
1.403689
1.583695
1.594424
1.745820
1.989603
2.344847
9.088516
31.257868
104.915500
205.438733
418.775678
629.276633
920.721889
1016.031504
1016.031504
1016.031504
1016.031504
900.422931
608.040690
406.450629
203.610659
109.882951
40.012002
19.358993
13.533831
16.749501
24.454594
34.365654
51.276684
66.873431
87.609887
101.128817
110.380650
110.733509
101.393461
88.819861
71.237683
54.450631
36.802888
26.227832
17.421842
12.827516
9.940863
8.589625
7.636547
7.612705
7.229447
7.270575
7.199645
6.970763
7.099509
6.982684
6.918907
6.848574
6.688833
6.663799
6.846786
6.471872
6.503463
6.133914
6.479621
6.090999
6.207824
6.067753
6.178617
##ZVALUE=315
0.708699
0.612736
0.691414
0.780821
0.710487
0.720620
0.846982
0.634789
0.820756
0.776649
0.815988
0.815988
0.962615
0.833869
0.777841
0.794530
0.858903
0.801682
0.731945
0.857711
0.857711
1.085997
0.948906
1.050830
0.882745
1.066923
1.032948
1.106858
1.202822
1.238585
1.330972
1.210570
1.283884
1.343489
1.609921
1.771450
1.751781
1.836419
2.168417
4.189610
15.221834
62.679648
137.017965
315.243006
512.256622
829.404593
1007.880569
1016.036868
1016.036868
1016.036868
998.643637
729.752779
516.898036
275.341868
151.969790
55.785775
24.986863
12.562871
12.273788
15.315413
21.182895
33.176541
44.431686
61.841607
77.227950
94.010830
101.615787
103.065968
96.953511
81.549883
68.717599
49.376488
35.674572
22.904873
16.634464
11.107922
8.819699
7.739663
7.225871
6.816983
6.684661
6.461740
6.486773
6.638765
6.319880
6.500483
6.394982
6.388426
6.060600
6.295443
6.192923
5.728602
6.096959
5.699992
5.994439
5.900860
##ZVALUE=320
0.814795
0.709891
0.698566
0.796914
0.775456
0.548959
0.740886
0.835657
0.809431
0.850558
0.833869
0.889897
0.833869
0.918508
0.918508
0.816584
0.813603
0.770688
0.720620
0.807643
0.921488
0.881553
0.975728
0.929832
1.166463
1.187921
1.150966
1.068711
1.131892
1.013875
1.154542
1.250505
1.165867
1.326799
1.326799
1.434684
1.804829
1.733899
1.619458
1.789927
1.876950
2.656579
6.783605
34.367442
87.814927
231.384635
385.584831
654.157996
874.322653
1016.066670
1016.066670
1016.066670
1016.066670
881.186724
648.304820
363.587737
209.436417
87.412596
39.352775
14.156699
10.009408
11.074543
12.681484
19.182563
27.057528
41.563511
54.949522
73.390603
85.873604
95.677972
96.119642
90.225935
79.746842
61.935782
48.032999
31.990409
23.058653
14.575720
10.767579
7.706881
6.771684
6.639957
6.292462
6.398559
6.133914
6.175637
6.092787
6.078482
5.856752
6.041527
6.046891
5.906820
5.709529
5.823970
5.704761
5.717874
##ZVALUE=325
0.846982
0.726581
0.653863
0.774860
0.870824
0.502467
0.570416
0.628829
0.640750
0.688434
0.708699
0.661612
0.653863
0.725985
0.837445
0.796914
0.873804
0.827909
0.782609
1.009703
1.004934
0.913739
0.981688
0.767708
0.836849
0.847578
0.834465
0.810623
0.923872
0.844598
0.806451
0.930429
1.202822
1.077652
0.953674
1.242757
1.349449
1.367927
1.365542
1.460910
1.468658
1.759529
1.762509
2.089739
3.871918
21.978617
58.583617
154.976845
281.050801
530.070662
746.289492
1002.327800
1016.031504
1016.031504
1016.031504
941.463709
723.636746
443.923473
270.604491
120.519996
57.832599
18.163919
9.637475
8.288622
8.645654
11.953712
16.158819
25.841594
37.592649
54.791570
68.560839
81.472993
88.506937
89.523792
83.434582
71.005821
58.416724
41.631460
30.489564
19.065738
14.166832
9.256601
7.287860
6.368756
5.897880
5.795956
5.925894
5.671978
5.749464
5.489588
5.543828
5.585551
5.312562
5.398989
5.418658
5.548596
##ZVALUE=330
0.818968
0.736713
0.736713
0.771880
0.784993
0.672936
0.580549
0.666976
0.866652
0.522733
0.570416
0.497699
0.593662
0.784993
0.780821
0.749826
0.825524
0.847578
0.663996
0.884533
0.747442
0.892878
0.886917
0.712872
0.920892
0.930429
0.783801
0.910759
0.899434
0.893474
1.007915
0.825524
0.899434
0.983477
1.032948
1.101494
1.120567
1.230836
1.047850
1.268983
1.242757
1.334548
1.432896
1.637936
1.833439
1.983643
2.524853
9.890795
31.339526
104.880929
203.117728
411.003828
609.970689
897.246003
1016.032696
1016.032696
1016.032696
993.954539
812.564492
535.458922
348.762870
165.707469
83.433986
28.919578
12.229681
7.053614
6.902814
7.983446
9.966493
16.232729
23.552775
37.050843
49.233437
66.613555
75.373650
83.012581
83.994865
77.760816
67.490935
52.358508
40.529966
27.052760
19.976497
13.163686
10.065436
7.295609
6.387830
5.790591
5.880594
5.462766
5.274415
5.273819
5.272627
5.049706
5.111694
5.081892
##ZVALUE=335
0.550747
0.728965
0.625849
0.623465
0.615716
0.574589
0.754595
0.592470
0.744462
0.746846
0.641942
0.665784
0.886917
0.674725
0.768900
0.657439
0.636578
0.623465
0.733733
0.671744
0.812411
0.791550
0.813603
0.727773
0.841618
0.727773
0.818968
0.880957
0.682473
0.634789
0.711679
0.963807
0.919700
0.959635
1.132488
0.961423
1.118779
1.001954
1.063943
1.065731
1.174808
1.261830
1.203418
1.341701
1.354814
1.482964
1.557469
1.803637
1.876950
4.791617
16.180873
64.791441
137.267709
309.089422
495.576859
790.660977
988.099575
1016.031504
1016.031504
1016.031504
907.922983
626.933575
427.255630
221.434832
115.841627
38.940907
16.254783
7.718801
6.858706
6.885529
7.564425
10.316968
14.035702
23.763776
33.232570
47.823787
59.844851
71.248412
77.552795
77.848434
72.552562
61.074495
51.653981
38.132668
28.965473
19.420981
13.488531
9.571910
7.363558
5.895495
5.552769
5.232692
5.337596
5.013943
5.193949
4.965663
##ZVALUE=340
0.541806
0.438690
0.574589
0.619888
0.658631
0.420809
0.607967
0.562668
0.621676
0.617504
0.478625
0.463724
0.754595
0.649691
0.783801
0.652671
0.542998
0.482798
0.447631
0.633597
0.762939
0.729561
0.646710
0.734925
0.733733
0.681877
0.668764
0.667572
0.713468
0.642538
0.986457
0.795722
0.907779
0.903606
0.658631
0.887513
0.817776
0.807643
0.816584
1.033545
0.934601
1.020432
1.119971
1.161695
1.274943
1.311898
1.348853
1.503825
1.463890
1.572967
1.652837
2.704859
8.213520
39.920807
98.831654
244.718790
410.674810
676.496029
880.745649
1015.986800
1015.986800
1015.986800
984.055996
732.528567
517.826676
273.061991
152.468681
59.655905
23.491979
8.231997
6.769896
6.628633
6.367564
7.621646
9.697676
14.621615
21.224618
32.040477
42.973757
57.097673
66.427588
72.481632
72.638988
67.698956
60.464740
48.346519
38.545728
27.351975
20.408630
13.498664
9.804964
6.867647
5.756617
5.312562
4.985929
4.867911
##ZVALUE=345
0.621676
0.602603
0.702739
0.711679
0.773668
0.678897
0.581741
0.577569
0.746846
0.724792
0.614524
0.564456
0.597835
0.704527
0.597835
0.723600
0.540614
0.707507
0.571609
0.653863
0.843406
0.722408
0.705719
0.809431
0.764728
0.618696
0.597835
0.601411
0.811815
0.636578
0.621676
0.756979
0.912547
0.816584
0.975728
0.941753
0.937581
1.019835
0.858903
0.984669
0.739694
0.963807
0.949502
0.935793
1.125932
1.028776
1.078844
1.197457
1.210570
1.320839
1.320839
1.448989
1.646876
2.074838
4.051924
21.615624
61.378479
163.710713
292.767882
536.089540
737.864971
988.857746
1016.048789
1016.048789
1016.048789
814.656019
612.110496
365.258455
207.639933
81.995726
35.892725
12.219548
7.319450
6.469488
6.186962
6.246567
6.905794
8.847713
12.452602
20.149946
28.630495
41.164756
50.009489
59.481859
64.685941
67.051649
64.204931
56.450963
49.032569
37.441850
28.313994
18.639565
13.452768
8.785725
6.817579
5.437732
##ZVALUE=350
0.630617
0.557899
0.628829
0.564456
0.764728
0.776649
0.661612
0.793934
0.648499
0.778437
0.583529
0.564456
0.590682
0.633597
0.582933
0.893474
0.675917
0.712872
0.758767
0.686646
0.960827
0.848770
0.638962
0.807643
0.874996
0.754595
0.672936
0.712872
0.715852
0.620484
0.783801
0.830889
0.842810
0.823736
0.843406
0.936985
0.849962
0.990629
0.904799
0.981688
0.967979
1.052618
0.946522
1.025796
1.032948
1.063943
1.118779
1.204610
1.128912
1.211762
1.357794
1.350641
1.312494
1.590848
1.533628
1.842976
2.360940
11.159778
35.803914
110.504627
210.956931
424.436927
618.331432
869.227648
1012.375951
1016.097665
1016.097665
901.361704
699.072480
426.394939
261.519551
122.010708
55.628419
15.610456
7.885695
6.334782
5.914569
5.654693
5.526543
6.438494
7.923841
12.350678
17.411709
25.731921
33.654571
45.113564
53.268671
59.354901
62.445998
59.641600
54.056644
44.288635
36.374927
25.414824
19.138455
12.462735
##ZVALUE=355
0.542998
0.551939
0.547767
0.457764
0.634789
0.581741
0.633597
0.620484
0.587702
0.616908
0.600815
0.478625
0.474453
0.742674
0.554919
0.566840
0.601411
0.665784
0.576973
0.671744
0.683665
0.752807
0.561476
0.605583
0.591874
0.683665
0.618696
0.627637
0.657439
0.596642
0.722408
0.873804
0.664592
0.906587
0.820756
0.618696
0.726581
0.701547
0.714660
0.793934
0.910759
0.832677
0.914931
0.851750
0.921488
0.930429
1.002550
1.026988
1.028776
1.161695
1.024604
1.136661
1.044869
1.394749
1.338720
1.332760
1.618862
1.800656
1.800656
5.292892
18.640757
72.164536
149.207711
317.080617
498.905778
774.841905
952.959657
1016.031504
1016.031504
951.243639
777.126551
525.299907
332.072973
148.878694
71.989894
22.092462
9.492636
5.910993
5.686879
5.170703
5.203485
5.105734
5.609989
7.213950
9.472966
15.000701
21.059513
30.291677
38.573742
47.222972
53.601861
56.210756
55.208802
48.626661
42.813420
33.565760
##ZVALUE=360
0.470877
0.603795
0.661612
0.609756
0.440478
0.573993
0.639558
0.620484
0.630617
0.603795
0.578761
0.515580
0.578761
0.529885
0.656843
0.668764
0.621676
0.652671
0.684857
0.628829
0.688434
0.580549
0.570416
0.597835
0.674725
0.519753
0.725985
0.557899
0.723600
0.727773
0.707507
0.580549
0.926852
0.896454
0.836849
0.659823
0.703931
0.800490
0.737906
0.715852
0.786781
0.829697
0.686646
0.855923
0.975728
0.909567
1.054406
0.914931
1.008511
1.148582
1.127720
1.100898
1.149774
1.171827
1.176596
1.266599
1.218915
1.444817
1.511574
1.655817
1.720786
2.860427
8.552670
37.908554
93.522668
233.598948
388.865471
641.869903
845.767856
1016.031504
1016.031504
1007.786989
870.949626
605.100989
408.310890
201.269984
104.612708
37.152767
14.280677
6.152987
5.387664
5.153418
4.923940
4.750490
4.508495
4.965663
5.836487
8.275509
11.393428
17.451644
23.822784
33.341646
40.106773
47.420859
50.491691
50.106645
##ZVALUE=365
0.609756
0.446439
0.628829
0.535846
0.437498
0.708699
0.659823
0.621676
0.519753
0.660419
0.552535
0.590682
0.663996
0.627637
0.641942
0.757575
0.687838
0.689626
0.511408
0.456572
0.652671
0.620484
0.648499
0.628829
0.638962
0.724792
0.599623
0.550747
0.637770
0.800490
0.683665
0.768900
0.586510
0.818968
0.798702
0.611544
0.722408
0.805855
0.704527
0.762939
0.801682
0.909567
0.815988
0.896454
0.811815
0.865459
0.777841
0.752807
0.713468
1.056790
0.918508
1.134872
1.063943
1.238585
1.052618
1.305938
1.304746
1.376867
1.386404
1.412630
1.517534
1.558661
1.741648
2.036691
4.067421
21.313429
57.670474
154.950619
288.587809
534.951687
724.625587
942.512751
1016.025543
1016.025543
928.022861
688.726902
494.974852
274.270773
148.395896
53.757429
21.283627
7.004738
5.198717
5.082488
4.838705
4.340410
4.313588
3.994703
4.271865
4.965663
6.487966
10.324717
14.234781
21.301508
27.655959
36.236644
##ZVALUE=370
0.441670
0.272989
0.321865
0.236630
0.504851
0.309944
0.519753
0.429749
0.393987
0.352859
0.470877
0.530481
0.398755
0.434518
0.371933
0.328422
0.392795
0.380874
0.469685
0.614524
0.420809
0.401735
0.517964
0.499487
0.469685
0.568628
0.388622
0.456572
0.431538
0.541806
0.605583
0.725985
0.535846
0.622869
0.603795
0.545979
0.556707
0.468493
0.572801
0.505447
0.592470
0.655651
0.653863
0.567436
0.682473
0.742674
0.482798
0.691414
0.517964
0.630617
0.577569
0.763535
0.706911
0.656843
0.803471
1.039505
0.855923
0.868440
0.957847
0.839829
1.021624
1.185536
1.092553
1.270771
1.479983
1.559854
2.347827
11.059642
36.069751
117.187500
221.890807
424.781442
623.996854
880.674720
1005.817652
1015.871763
982.822776
781.251788
582.398772
329.559445
186.840892
73.098540
32.591820
10.565519
5.537868
4.377961
4.141927
3.988743
3.829598
3.632903
3.575683
3.740788
4.379749
5.951524
8.265972
12.641549
##ZVALUE=375
0.351667
0.251532
0.403523
0.324845
0.105500
0.440478
0.197887
0.399947
0.401735
0.380874
0.311732
0.178814
0.411868
0.520945
0.546575
0.404716
0.392795
0.544786
0.483990
0.157952
0.328422
0.487566
0.216961
0.432730
0.285506
0.255704
0.463724
0.420809
0.265837
0.537634
0.442863
0.370741
0.236630
0.455976
0.438690
0.415444
0.506639
0.494719
0.330806
0.459552
0.565648
0.414848
0.502467
0.607967
0.628829
0.481606
0.528693
0.582933
0.655651
0.476837
0.493526
0.532866
0.572801
0.549555
0.607967
0.646710
0.730753
0.720620
0.926852
0.778437
0.639558
0.854731
0.830889
0.955462
1.161695
1.100898
1.148582
1.430511
1.746416
4.622936
25.447607
64.956546
170.314908
306.002498
547.063947
739.625692
957.248807
1015.813947
1010.023952
891.508460
645.713806
461.609960
256.843567
143.534541
55.795908
22.377968
6.796718
4.169941
3.852844
3.672838
3.597736
3.493428
3.118515
3.145933
3.039837
3.620982
##ZVALUE=380
0.401735
0.402927
0.189543
0.295639
0.280738
0.455976
0.413656
0.323653
0.407696
0.353456
0.339746
0.127554
0.218749
0.401735
0.263453
0.323653
0.446439
0.277758
0.338554
0.367761
0.415444
0.510812
0.292659
0.454783
0.443459
0.304580
0.391603
0.344515
0.525713
0.520945
0.080466
0.480413
0.438690
0.603795
0.396967
0.488758
0.513792
0.433922
0.342727
0.342727
0.614524
0.509620
0.617504
0.506639
0.515580
0.587702
0.477433
0.556707
0.462532
0.611544
0.510812
0.531673
0.579953
0.529885
0.627637
0.551939
0.446439
0.515580
0.669956
0.638962
0.709891
0.814795
0.711679
0.808835
0.746846
0.930429
1.061559
1.200438
1.287460
1.545548
1.731515
2.922416
10.265708
49.328804
115.318894
270.402431
438.840985
688.740015
874.067545
1015.857458
1015.857458
926.941037
766.495466
519.877672
351.514816
173.800588
90.175867
30.497909
12.186766
4.818439
4.008412
3.716946
3.321767
3.257990
3.176928
3.194809
##ZVALUE=385
0.483990
0.441670
0.501871
0.487566
0.451803
0.361800
0.521541
0.483990
0.470877
0.470877
0.469685
0.510812
0.496507
0.473857
0.434518
0.398755
0.596642
0.476837
0.505447
0.562668
0.563860
0.523925
0.400543
0.596642
0.589490
0.699759
0.461936
0.578761
0.732541
0.572801
0.556707
0.639558
0.549555
0.726581
0.662804
0.707507
0.452995
0.641942
0.712872
0.650883
0.632405
0.875592
0.716448
0.560880
0.690818
0.613928
0.827909
0.575781
0.730753
0.701547
0.741482
0.717640
0.787973
0.753999
0.746846
0.826716
0.830889
0.930429
0.849962
0.918508
0.803471
0.688434
0.889897
0.942945
0.879765
0.953674
1.047850
1.042485
1.050830
1.134872
1.581907
1.613498
1.818538
1.989603
5.158782
27.719736
72.541833
186.540484
331.987739
585.722923
779.016018
975.284576
1016.032696
994.494557
876.075029
650.354624
468.864441
257.799625
146.936774
59.092641
23.211837
6.405711
4.096627
3.806949
3.448725
3.440976
##ZVALUE=390
0.464916
0.649691
0.548959
0.465512
0.537634
0.572801
0.521541
0.492930
0.461936
0.352859
0.401735
0.515580
0.498891
0.477433
0.472665
0.581741
0.301600
0.365973
0.589490
0.523925
0.540614
0.467896
0.537634
0.485778
0.463724
0.513792
0.558496
0.696778
0.516772
0.613928
0.656843
0.717640
0.668764
0.667572
0.639558
0.707507
0.617504
0.655651
0.696778
0.695586
0.698566
0.769496
0.765920
0.850558
0.754595
0.717640
0.757575
0.665784
0.740886
0.690818
0.816584
0.700951
0.853539
0.746846
0.785589
0.756979
0.606775
0.685453
0.702739
0.740886
0.702739
0.716448
0.903606
0.893474
0.990629
0.982881
0.863671
1.108646
1.125932
1.203418
1.258850
1.296997
1.529455
1.513958
1.640916
1.582503
3.193617
11.842847
54.327846
124.706626
290.019512
458.128452
694.174767
867.556930
1012.199521
1016.032696
952.944756
803.588033
556.491017
378.261805
194.707513
98.992586
33.997893
12.319684
4.473925
3.767610
##ZVALUE=395
0.438690
0.377893
0.409484
0.473857
0.476837
0.382662
0.440478
0.594854
0.467896
0.405908
0.519753
0.411868
0.441670
0.368953
0.275970
0.469685
0.340939
0.509620
0.393987
0.628829
0.491738
0.571609
0.445843
0.525713
0.527501
0.522733
0.497699
0.554919
0.518560
0.644922
0.743866
0.546575
0.601411
0.723600
0.613928
0.604987
0.623465
0.663996
0.786781
0.712872
0.736713
0.783801
0.541806
0.708699
0.866652
0.961423
0.747442
0.720620
0.757575
0.686646
0.833869
0.799894
0.696778
0.886917
0.878572
0.742674
0.717640
0.713468
0.780821
0.854731
0.810623
0.799894
0.887513
0.891685
0.965595
1.074672
1.049638
1.211762
1.176000
1.003742
1.193881
1.142621
1.259446
1.357794
1.354814
1.432896
1.401901
1.613498
2.130866
7.543564
27.483702
97.976923
192.383528
382.866859
563.194752
813.161731
967.415571
1016.031504
1016.031504
897.083879
706.645846
440.949798
281.014442
131.881833
62.147975
19.321442
##ZVALUE=400
0.599623
0.574589
0.533462
0.531673
0.405908
0.518560
0.494719
0.449419
0.522733
0.534654
0.483990
0.452995
0.466704
0.608563
0.581741
0.546575
0.560880
0.675917
0.434518
0.534654
0.443459
0.503659
0.505447
0.538826
0.584722
0.536442
0.382662
0.477433
0.634789
0.482798
0.660419
0.610948
0.628829
0.696778
0.735521
0.622869
0.701547
0.697970
0.646710
0.702739
0.736713
0.629425
0.684857
0.576973
0.641942
0.722408
0.647902
0.696778
0.794530
0.813603
0.663996
0.837445
0.754595
0.736713
0.663996
0.751615
0.711679
0.763535
0.880957
0.791550
0.881553
0.932813
0.868440
0.844598
0.898838
0.926852
0.971556
1.026988
1.107454
1.164675
1.195669
1.382828
1.124740
1.265407
1.140833
1.209974
1.301765
1.323819
1.307726
1.496673
1.776814
3.472567
17.144680
48.917532
140.402913
255.129933
478.887558
666.636825
901.008844
1009.250879
1016.031504
955.649614
744.021535
554.525852
323.626995
193.856955
##END
