##TITLE=FDDW02
##FORMAT=SPECTACLE-ASCII V-1.2
##DATA TYPE=ULTRAVIOLET SPECTRUM
##SECOND TYPE=ULTRAVIOLET SPECTRUM
##DATE=04/30/18
##TIME=11:35:58
##SPECTROMETER/DATA SYSTEM=SPECTACLE
##XUNITS=NM EM
##YUNITS=ENERGY
##YFACTOR=1
##FIRSTX=220
##LASTX=410
##NPOINTS=96
##3DDATA=Equidistant
##ZUNITS=NM EX
##FIRSTZ=210
##LASTZ=400
##ZPOINTS=39
##XYDATA=(Y..Y)
##ZVALUE=210
16.296506
16.299486
13.074875
10.851622
10.917783
10.907650
9.717941
8.027554
6.348491
5.813837
4.760623
3.371835
2.845526
3.343821
3.114939
3.245473
2.912879
3.742576
2.734661
3.300905
3.620982
3.615618
4.232526
4.974604
5.398989
8.050799
10.086894
13.308525
17.368793
20.632744
25.260448
28.467774
30.767918
34.864545
35.344958
37.544966
36.007762
35.999417
35.434961
34.474730
32.115579
29.988885
29.335618
27.765632
27.901530
23.923516
24.034977
23.004413
21.624565
19.801855
20.068884
17.938614
17.760992
16.511679
16.461611
16.127825
15.262961
14.368892
14.694929
13.679862
13.307929
13.311505
11.637807
12.532473
11.505485
11.492968
10.644794
11.171699
12.475848
13.361573
14.215708
14.930964
17.333627
18.125772
20.330548
19.807816
21.590590
19.766688
21.511912
18.421412
17.627478
15.669465
13.955832
13.373494
11.061430
9.821653
7.500648
7.699728
7.983446
9.311438
11.735559
14.179945
19.279718
24.443865
31.196475
37.432909
##ZVALUE=215
45.852661
42.794943
34.137964
27.876496
21.228790
18.565655
18.035769
15.546679
14.637709
12.169480
11.958480
9.563565
8.054972
5.408525
4.378557
3.722906
3.853440
3.581643
3.381968
3.076792
4.165769
3.456473
4.606843
5.222559
5.966425
8.410811
12.256503
15.526414
21.353960
25.266409
27.558804
33.635497
37.216544
40.321946
42.349696
42.983890
44.114590
42.258501
41.544437
39.102435
37.818551
37.481785
35.678744
33.033490
30.261874
28.669834
26.046634
23.737550
24.380684
21.787882
22.620559
21.131635
20.653605
21.024942
19.828677
19.156933
19.325614
17.593503
16.848445
16.694665
14.900565
16.263723
13.703704
13.953447
13.752580
12.714863
13.241768
14.328957
13.369918
15.568733
14.462471
16.062856
16.920567
17.162561
18.247962
19.368529
20.694733
20.456910
19.140840
18.057823
15.696883
15.186667
13.835430
11.401772
10.166764
10.150671
9.351969
7.984638
7.758737
7.477999
6.040931
6.855726
7.088780
8.094907
11.061430
14.337897
##ZVALUE=220
94.156861
96.847415
92.312694
80.315471
65.227747
52.226782
39.216876
30.022860
27.463436
26.172996
25.891662
23.514628
22.004843
19.206405
15.148520
12.215972
7.813573
5.811453
4.804730
3.996491
3.628731
4.813671
4.725456
5.108714
6.387830
9.879470
12.201667
17.711520
23.212433
29.620528
33.474565
39.994717
44.119954
49.157739
48.997998
50.672889
55.025816
51.504970
50.792694
47.593713
46.335459
42.575598
40.616989
36.845803
36.055446
36.797523
33.348799
29.937625
30.167699
29.022694
26.315451
26.641488
25.588870
25.821924
23.491979
23.044944
22.962689
21.508932
21.662712
21.673441
20.888448
19.023418
17.338991
18.739700
18.510818
18.287897
17.609596
17.473698
17.819405
16.462803
16.616583
18.583536
20.714998
19.303560
21.262765
20.378828
21.044612
18.172860
18.215775
18.329620
17.105937
16.305447
14.157891
12.331605
11.658669
10.260940
8.999705
8.618832
8.037686
7.754564
7.365942
8.327961
6.941557
7.723570
7.783771
6.446838
##ZVALUE=225
125.122666
130.974650
151.003599
168.496966
166.780949
149.360895
128.078461
93.236566
70.926547
53.800941
40.036440
38.826466
39.734840
38.648844
36.417842
35.482645
28.285980
21.959543
16.047955
10.510683
8.219481
5.460978
6.101727
5.948544
6.685853
9.262562
12.084842
18.076897
21.638870
27.314425
31.830668
34.829974
39.215684
40.770769
45.540929
45.064688
44.823885
45.831800
44.921637
43.322444
44.271946
43.079853
39.353967
36.242604
34.160614
32.807589
30.491948
29.370785
26.363730
27.725697
29.487610
27.834773
27.691722
27.934909
27.129650
27.215481
25.834441
27.906895
26.049614
26.896000
25.602579
24.598837
23.084879
24.181604
22.010803
20.867586
20.257831
20.796657
17.718673
19.744635
21.260977
21.528602
20.907521
20.975471
21.971464
21.548867
20.845532
20.833611
19.949675
18.553734
16.242862
16.203523
15.092492
12.844801
11.703968
11.852980
9.318590
10.138750
9.346604
7.855892
8.107424
7.977486
8.064508
8.652806
8.315444
8.711815
##ZVALUE=230
89.810491
95.843673
140.966773
206.574798
244.001746
277.736783
289.409757
266.003609
232.148767
183.342695
122.112632
88.765621
64.672828
57.992935
58.060884
61.667562
59.949756
57.897568
47.885776
42.469501
29.540658
19.844770
13.908744
9.670854
7.693768
8.312464
11.073947
12.871623
15.442967
18.858910
20.303726
24.047494
27.219653
30.390620
31.297803
31.131506
31.164885
32.883883
31.321645
28.838515
31.735897
29.838681
28.438568
26.695728
25.873780
24.412870
25.340915
23.343563
22.767782
24.377704
24.431944
24.447441
26.836991
27.491450
27.553439
27.015805
26.483536
26.132464
26.977658
26.490688
26.650429
26.582479
25.235415
23.212433
22.650957
23.133755
22.610426
21.827817
21.814704
22.561550
22.699833
22.824407
22.292733
23.885965
22.202730
21.770597
22.418499
21.776557
20.393729
19.277930
18.681884
15.248656
15.896559
16.243458
13.340712
13.772845
12.657642
11.221766
11.688471
10.029674
10.645986
9.863973
9.398460
9.433627
9.916425
10.319948
##ZVALUE=235
26.587844
30.745864
61.165690
129.869580
197.667480
290.105939
361.191630
446.341634
458.671451
445.400476
380.167961
302.504897
201.965570
150.547624
101.342797
85.066557
83.436966
87.817907
88.254809
88.870525
82.839727
69.007874
53.013563
38.481951
27.103424
16.109943
13.661981
12.284517
12.692809
11.401772
13.860464
14.541745
15.991926
16.615987
15.969872
17.629862
19.288659
20.770431
19.003749
20.866990
22.191405
20.676851
19.718409
19.554496
19.224882
18.292665
17.947555
17.409921
18.796921
18.918514
19.380450
20.394921
22.087693
22.685528
22.524595
22.683740
23.780465
21.627545
24.286509
22.313595
23.832917
24.169683
23.443699
21.573901
20.225644
18.608570
20.665526
20.255446
20.086765
20.756721
21.774769
22.357702
23.436546
24.492741
24.628639
23.199916
23.641586
21.852851
20.510554
18.863678
18.503666
17.824769
16.799569
15.777946
15.676618
15.932918
13.901591
12.133718
11.102557
12.058616
12.291670
11.348724
11.745691
13.744831
11.531711
12.730956
##ZVALUE=240
2.113581
2.999902
11.127591
27.343631
74.561834
129.466653
251.512527
354.990959
519.037843
598.785877
648.467541
629.914999
575.204492
437.995791
322.165489
206.389427
144.975781
107.978582
98.800659
102.033615
110.374689
116.263628
109.243989
102.771521
80.993772
63.804984
45.167804
31.782985
21.209717
16.212463
13.774633
11.505485
11.432767
12.512803
13.549924
12.598634
15.563965
14.078617
16.455650
15.238523
15.676618
16.863942
15.358925
16.993880
17.473698
15.745759
16.192794
16.576648
15.180707
15.883446
15.542507
16.025901
16.239882
16.342998
17.845631
17.455816
17.423630
16.601682
17.260909
16.823411
18.177629
17.290711
17.578602
16.440749
18.082857
17.524958
17.682910
16.918778
16.175508
18.600821
20.871758
20.250678
21.217465
22.638440
21.577477
23.268461
20.608902
20.291805
18.935800
19.128919
18.842816
18.294454
15.932918
15.655756
15.118718
13.457537
13.600588
13.252497
13.017654
12.047887
12.267828
12.632608
13.056993
12.169480
12.655854
11.155605
##ZVALUE=245
2.101660
2.032518
2.130866
2.081990
4.552603
19.021630
49.217939
121.109486
215.637684
345.759988
541.296005
661.076903
768.955946
773.144960
698.345900
592.512488
420.146585
301.122665
252.543688
129.139423
100.028515
100.723505
108.959675
126.811862
124.242902
119.690895
110.484958
91.016889
73.503852
53.163767
39.126873
27.282834
20.354986
16.241670
14.773607
16.034842
15.947819
17.246604
17.005801
18.342733
16.935468
16.605854
18.418431
17.688870
17.220974
17.805696
17.137527
15.644431
16.016960
15.865564
16.286969
16.403794
15.803576
16.406775
14.847517
15.275478
15.516877
16.196966
15.384555
14.852881
14.654994
14.135838
13.580918
14.518499
14.200807
13.887882
14.089942
13.776422
14.881492
17.048717
17.128587
16.487837
17.491579
18.381476
18.416643
19.467473
18.574595
18.080473
17.280579
16.484857
15.879869
15.429854
14.027953
13.350844
13.630986
12.303591
11.919737
11.892915
11.846423
11.160970
11.009574
11.454821
10.734797
11.155605
10.701418
10.716915
##ZVALUE=250
1.481771
2.089739
1.986623
1.944900
1.888871
2.209544
3.298521
10.566711
30.431747
87.879896
178.605914
356.194973
520.559549
724.591613
845.253468
912.022591
883.647799
757.957697
611.131787
410.019755
274.899602
182.927847
111.153722
92.065930
103.519559
114.678741
132.435560
137.438774
138.634443
124.417543
101.876855
84.695816
67.396760
42.747855
32.632947
25.255680
21.498799
20.800829
20.412803
19.770861
21.064878
21.111965
20.071864
20.548701
19.501448
19.832850
19.482970
18.069744
18.512607
17.590523
17.280579
16.486645
16.110539
17.550588
15.917420
16.003847
14.471412
13.871789
14.389753
14.415979
14.864802
14.133453
13.816953
13.686419
13.202429
12.258887
12.717843
13.724566
12.600422
13.860464
14.225841
14.600754
15.472770
16.660690
17.102957
16.263723
15.821457
16.380548
15.347600
14.812946
13.254881
12.382865
12.992620
11.481643
10.684729
10.249615
10.175705
10.152459
10.221601
9.986758
9.840727
10.217428
9.384751
9.005666
9.797812
9.316802
##ZVALUE=255
1.648664
1.845956
1.884699
1.577735
1.946688
1.811981
1.802444
2.134442
2.580881
5.333424
22.758842
57.385564
117.057562
263.329744
410.319567
659.467578
823.915005
995.064974
1016.031504
959.048867
817.440748
634.879470
387.176871
240.202546
132.089853
94.399452
92.147589
105.812550
130.102634
143.348575
150.993466
149.523616
138.907433
117.059946
97.892880
70.906878
56.140423
40.736794
34.021735
29.624701
25.767684
26.511550
25.365949
24.185777
25.672913
22.554994
22.149682
21.830797
20.717978
21.468997
20.293593
19.959807
19.168854
18.538833
16.787648
17.663836
16.933680
17.024875
15.928745
15.253425
15.173554
14.321804
14.369488
14.413595
13.382435
12.098551
11.748672
12.189746
13.387799
13.084412
13.028979
13.509989
13.817549
15.270710
15.042424
13.827682
14.162660
13.707876
12.383461
12.462735
11.679530
9.692907
10.093451
9.451509
9.549856
9.073615
8.581877
8.380413
8.655787
7.813573
8.282661
7.679462
8.191466
7.690787
8.270741
7.735491
##ZVALUE=260
1.350641
1.558661
1.589656
1.527667
1.491904
1.652837
1.586676
1.667738
1.886487
2.163649
2.226830
2.819896
9.015799
36.985874
80.964565
189.694762
313.604474
537.362695
737.257004
981.215835
1016.031504
1016.031504
1016.031504
851.769447
569.500923
392.818451
213.441849
129.898787
92.988610
96.047521
110.377669
140.967965
157.188773
170.652866
169.040561
153.950453
135.308504
104.936957
83.089471
62.562823
49.301982
41.107535
35.778880
31.864643
29.540658
27.360916
27.556419
26.004910
24.884939
23.931861
23.199916
22.403598
22.817850
20.497441
20.219684
19.836426
18.253922
18.268824
16.995668
16.431808
16.463995
15.168786
14.806986
14.433861
13.735890
13.409853
12.524724
12.204647
13.554692
12.848973
12.549758
12.692809
12.055635
12.370944
13.340712
12.682676
11.721849
11.421442
10.278821
10.213852
9.539723
8.809566
9.095669
8.590817
8.269548
8.014441
8.475780
7.984638
8.190870
7.511973
7.416606
6.948709
7.543564
6.949902
7.401705
6.454587
##ZVALUE=265
1.480579
1.343489
1.507998
1.361966
1.492500
1.541972
1.771450
1.581907
1.660585
1.733899
1.641512
1.948476
2.253652
2.369881
4.828572
24.012923
56.480765
144.682527
249.361396
456.355810
650.891662
846.817493
1016.031504
1016.031504
1016.031504
940.681696
713.169575
519.312620
307.134986
195.457935
126.539469
93.244910
102.432966
133.301616
156.673789
179.312825
185.095668
175.955892
163.597465
138.068795
113.627911
83.757639
66.480637
50.765872
42.406917
34.390688
31.647682
28.535724
27.604699
26.082993
26.464462
24.409890
23.314953
22.567511
21.206737
21.004677
20.989776
19.285679
18.471479
17.671585
17.370582
15.731454
16.172528
15.290976
13.710856
13.475418
13.514757
12.421608
13.121963
12.399554
12.106895
12.291670
11.479855
12.412667
11.787415
11.118650
10.552406
10.453463
9.821653
9.696484
9.162426
8.346438
8.102655
7.748604
6.955862
7.905960
7.064939
7.428527
6.777644
7.098913
6.828904
6.601810
6.415844
6.444454
6.193519
6.875992
##ZVALUE=270
1.113415
0.995994
1.018643
0.947714
0.980496
1.066923
1.301765
1.262426
1.236796
1.317859
1.311898
1.524687
1.380444
1.431704
1.732707
1.875758
2.693534
10.612607
32.536983
100.026727
195.758939
340.786576
580.515862
773.719549
994.192958
1015.934944
1015.934944
960.118771
751.953721
573.410988
403.187871
225.031972
141.372681
91.282725
89.876652
112.258792
136.583447
161.961913
176.613927
181.136727
179.679990
160.559416
138.232708
108.356476
85.636973
60.392618
48.220754
37.663579
31.474829
26.712418
26.029944
24.413466
24.609566
21.742582
21.930933
21.416545
19.672513
19.306540
18.615723
18.127561
16.636848
15.825629
15.903711
15.193820
13.668537
13.384819
12.516975
12.811422
11.779666
11.903644
12.689829
11.821985
11.456609
11.617541
11.860728
10.542870
10.204911
10.021925
9.774566
8.634925
8.405447
7.743835
7.914901
7.574558
7.063746
6.895661
7.051826
6.634593
6.669760
6.612539
6.441474
6.109476
6.485581
5.815625
5.936623
5.865693
##ZVALUE=275
1.190901
1.015663
0.930429
0.892878
1.126528
1.149774
1.097918
1.289845
1.320839
1.238585
1.345873
1.338720
1.349449
1.365542
1.413822
1.525879
1.705885
1.988411
2.140999
5.686879
19.620657
54.180622
152.431726
282.157660
514.510870
699.474812
920.888782
1016.031504
1016.031504
1016.031504
923.916698
686.107874
495.954752
278.628469
174.410939
93.908906
75.997710
83.826780
102.172494
132.253766
147.054791
166.246891
175.061822
167.614818
150.633454
122.951865
102.227926
73.993802
56.634545
39.379001
30.710697
25.475621
23.468733
21.050572
20.217896
19.933581
18.905997
18.549562
17.918944
17.436743
16.666651
15.575886
14.444590
14.124513
13.790727
13.115406
12.770891
12.082458
11.728406
11.088848
11.687875
11.225939
11.046529
10.878444
10.330677
10.531545
10.411739
9.641647
9.278655
9.202957
8.536577
8.132458
8.208752
7.344484
6.876588
6.808639
6.744862
6.659627
6.513000
6.223917
6.596446
6.330609
6.056428
6.628633
6.343722
6.257892
##ZVALUE=280
0.954866
0.934601
1.133680
1.072884
1.088977
1.077652
1.212955
1.160502
0.979900
1.079440
1.298785
1.217723
1.136661
1.275539
1.353621
1.283884
1.163483
1.439452
1.560450
1.810789
2.031922
2.653599
14.860630
46.193004
134.444833
236.477852
428.247452
604.455471
846.597552
999.280810
1016.031504
1016.031504
994.751453
769.921541
574.260950
331.602693
204.065442
100.453496
62.651634
53.319931
66.566467
91.565847
111.343861
136.201978
147.576928
154.679418
149.707794
132.902861
115.105510
88.170767
67.682862
46.120882
34.260750
24.670959
20.080805
16.950965
15.802979
14.962554
14.835000
14.223456
14.621615
14.337897
13.627410
12.933612
12.583733
11.937618
11.423826
11.206865
10.590553
10.830760
10.203719
9.893775
10.404587
10.170937
9.208918
9.754896
9.204745
8.954406
8.668900
8.420944
8.229613
7.576942
7.610917
7.279515
7.222891
6.623864
6.656647
6.450415
6.415844
6.400943
6.727576
6.323457
6.134510
5.720854
5.903840
6.047487
##ZVALUE=285
0.929832
0.815988
0.951886
0.870824
0.870824
1.004934
1.061559
0.945926
1.000762
1.196861
1.008511
1.133680
1.083612
1.181960
1.298785
1.361966
1.264811
1.348853
1.583695
1.527667
1.685619
1.815557
1.790524
2.252460
8.332729
31.780601
78.501701
195.828676
325.206518
551.269650
739.077926
970.716476
1016.031504
1016.031504
1016.031504
889.390707
698.328614
432.849526
272.877812
133.131742
71.540475
38.502812
38.349628
55.616498
75.962543
103.589892
119.865537
137.282610
145.363808
139.972568
128.597617
107.311606
89.154840
63.208938
45.568943
29.854774
21.147728
15.430450
13.488531
11.834502
12.430549
11.527538
11.255741
10.949969
11.457801
10.361671
10.219812
10.447502
10.489821
9.828806
10.305643
9.772778
9.683967
9.355545
10.025501
8.900762
8.950830
8.769631
8.559823
8.209944
7.947683
7.436872
7.122755
7.247925
7.026792
6.704926
6.633997
6.229877
6.555915
5.976558
6.276965
5.896688
6.350875
6.044507
5.933642
5.948544
##ZVALUE=290
0.894666
0.960827
0.823736
0.875592
1.038909
1.052618
1.039505
0.877976
0.979900
0.944734
0.951886
1.005530
0.999570
0.954866
1.132488
1.257658
1.250505
1.251698
1.271963
1.349449
1.426935
1.286864
1.454949
1.603961
1.805425
2.089739
3.137589
10.333657
51.215887
119.869709
221.070647
432.669520
631.359816
901.138783
1016.031504
1016.031504
1016.031504
986.676812
807.807446
548.756719
361.237526
182.101727
95.692873
40.775537
27.607679
34.943819
48.081875
70.363879
89.635849
113.918781
129.482746
137.222409
136.969686
123.085976
106.719732
79.908967
61.188936
40.640831
29.272437
18.743873
14.125705
11.472702
10.496974
9.848475
9.730458
9.491444
9.245872
9.490848
9.359717
9.396672
8.777976
9.164810
8.941889
9.047985
8.343458
8.065701
8.164644
8.287430
8.012652
7.526875
7.194877
6.994605
7.199645
6.542802
6.724596
6.478429
6.915927
6.033778
6.749630
6.397963
6.121993
6.034970
6.234646
5.807877
5.664825
5.937815
##ZVALUE=295
0.873804
0.958443
0.808835
0.910759
0.900626
0.937581
0.928640
0.759959
0.898838
0.774860
1.070499
1.024604
1.088977
0.874996
0.994802
1.094937
1.011491
1.152754
1.160502
1.106858
1.252890
1.210570
1.431704
1.368523
1.569986
1.582503
1.733899
1.867414
2.286434
3.994703
14.665723
66.147447
149.338841
340.821743
530.351996
812.147856
991.759896
1016.034484
1016.034484
1016.034484
914.695859
652.908683
459.025502
244.064927
134.617686
50.397515
26.843548
22.389889
28.851628
45.619607
61.997771
87.085962
105.830431
123.266578
130.218863
128.441453
117.102861
96.143484
79.034567
55.414438
41.301847
25.269985
17.918944
12.155771
9.756684
8.655787
7.816553
8.193851
8.139610
7.815957
7.872581
8.201599
8.392930
8.117557
7.986426
7.959604
7.730722
7.732511
7.128716
7.383823
6.937981
6.858706
6.491542
6.504655
6.529689
6.373525
6.273985
6.461740
6.520748
6.295443
6.230474
6.462932
5.816817
6.173849
5.931854
5.828738
##ZVALUE=300
0.795722
0.771880
0.696778
0.917912
0.867844
0.816584
0.846982
0.796914
0.903606
0.658631
0.760555
0.945926
0.918508
0.998974
0.826716
0.923872
1.027584
1.024604
0.958443
0.937581
1.088977
1.406670
1.109838
1.339912
1.336932
1.418591
1.544952
1.377463
1.740456
1.947880
1.913905
2.458692
5.900860
33.442974
85.034966
218.534470
374.184847
642.739534
848.852992
1016.032696
1016.032696
1016.032696
1005.573869
779.323578
572.029948
318.038464
190.065503
85.257888
41.064620
19.033551
18.242598
27.283430
38.368702
58.995485
76.892972
100.448728
114.542842
124.689937
123.045444
111.694932
97.962618
73.751807
57.686567
38.534403
26.607513
16.008615
11.665821
8.556843
7.448792
7.233620
7.595420
6.847978
7.214546
7.097721
6.865859
6.941557
6.783605
7.028580
6.709695
6.408691
6.555915
6.407499
6.548762
6.753802
6.192923
6.060600
6.094575
6.270409
5.971789
5.966425
6.274581
5.788803
6.005764
5.921721
5.572438
5.844831
##ZVALUE=305
0.556707
0.518560
0.543594
0.722408
0.522733
0.614524
0.752807
0.543594
0.710487
0.805855
0.693798
0.644922
0.561476
0.793934
0.652671
0.840425
0.804663
0.693798
0.697970
0.836849
0.873804
0.927448
0.801682
0.973940
1.043677
0.944734
1.126528
0.998974
1.038909
1.353621
1.477599
1.733899
1.488924
2.010465
3.445745
18.956661
53.075552
150.888562
273.437500
499.334931
705.979466
957.491994
1015.930772
1015.930772
1015.930772
856.335759
668.973923
423.095822
263.811946
120.544434
59.043765
21.340847
13.855696
17.115474
23.935437
39.424896
53.480864
75.968504
92.643499
107.683539
116.482973
113.725662
107.630491
88.616610
71.893930
50.167441
36.602616
23.405552
15.430450
9.941459
8.285642
7.007718
6.671548
6.262660
6.407499
6.177425
6.036758
6.198883
5.941987
6.027818
5.985498
6.414652
6.296635
6.336570
6.105900
5.986691
5.797744
5.790591
5.862713
5.611777
5.653501
5.689859
5.585551
5.465746
5.369782
5.508661
##ZVALUE=310
0.688434
0.678897
0.957847
0.678897
0.734925
0.735521
0.746846
0.732541
0.726581
0.692606
0.736713
0.766516
0.746846
0.650883
0.900626
0.868440
0.858903
0.844598
0.845790
0.843406
0.924468
0.966787
1.032948
0.843406
1.033545
0.981688
0.987649
0.911951
1.049638
1.250505
1.423955
1.168847
1.632571
1.481771
1.552701
1.832843
1.907945
8.254647
27.133822
90.894699
180.377960
372.931957
566.122532
832.961798
999.423862
1016.032696
1016.032696
990.331769
820.954442
553.223491
367.749929
184.744596
98.193884
34.802556
15.863776
11.651516
14.191866
22.377968
32.253861
48.997402
64.674616
84.275603
98.020434
108.423829
108.941793
99.673867
88.989735
69.596767
53.104758
34.607649
24.569631
15.286803
11.068583
7.571578
6.693602
6.010532
6.206632
5.625486
5.819798
5.880594
5.755424
5.612969
5.767941
5.918741
6.042719
5.746484
5.646944
5.874634
5.783439
6.007552
5.756617
5.500913
5.421638
5.565882
5.545616
5.367994
##ZVALUE=315
0.682473
0.708699
0.734925
0.651479
0.551939
0.681877
0.722408
0.604987
0.769496
0.669956
0.699759
0.713468
0.744462
0.733733
0.732541
0.690818
0.826716
0.797510
0.933409
0.935793
0.831485
0.851750
0.888705
0.965595
1.085997
0.930429
0.851750
0.785589
1.207590
1.086593
1.243949
1.225471
1.127720
1.236796
1.505613
1.380444
1.716614
1.596808
1.889467
3.532767
16.972423
48.574805
141.423941
257.119536
490.913391
698.377490
945.900679
1016.031504
1016.031504
1016.031504
882.935524
696.063638
437.489748
273.387432
125.260949
59.108734
19.363761
10.802746
10.718703
12.823939
20.271540
28.783679
44.805408
59.404969
80.425739
91.573000
102.428794
102.400780
94.136596
82.247853
63.421726
50.125718
33.195615
23.660660
14.342666
10.028481
7.418990
6.440878
5.585551
5.438924
5.528927
5.703568
5.640984
5.617738
5.625486
5.669594
5.714893
5.521774
5.591512
5.440712
5.371571
5.407929
5.318522
5.082488
5.324483
5.460978
##ZVALUE=320
0.577569
0.601411
0.647902
0.491738
0.612736
0.692606
0.562668
0.618696
0.723600
0.720620
0.680685
0.693798
0.676513
0.573993
0.638962
0.643730
0.678897
0.700951
0.520945
0.907779
0.924468
0.899434
0.862479
0.843406
0.898838
1.015663
0.920892
0.877976
0.942945
0.986457
1.058578
1.088977
1.155734
1.208782
1.204610
1.415610
1.437664
1.373887
1.352429
1.576543
1.732707
2.343655
6.134510
31.894445
79.875588
212.095976
352.520943
590.967536
790.612698
1003.594995
1016.017795
1016.017795
996.798873
773.285031
565.433502
317.883492
182.407498
77.725649
35.318732
12.499690
8.721948
9.242892
11.610985
17.513633
25.335550
40.735602
54.023862
72.679520
85.682869
95.262527
95.796585
90.357661
80.177784
61.699748
47.914982
31.004548
22.085905
13.727546
9.864569
6.996989
5.811453
5.636811
5.594492
5.177855
5.177855
4.996657
5.365610
5.172491
5.252957
4.966855
5.203485
5.126595
5.056858
5.019903
5.313754
4.979968
##ZVALUE=325
0.528693
0.583529
0.583529
0.698566
0.593662
0.745654
0.580549
0.784993
0.657439
0.666976
0.697970
0.530481
0.509620
0.567436
0.588894
0.549555
0.679493
0.607967
0.591874
0.645518
0.721812
0.581741
0.665784
0.809431
0.496507
0.711679
0.918508
0.825524
0.780821
0.831485
0.969768
1.019835
0.999570
0.975728
1.153946
1.002550
1.035929
1.109838
1.259446
1.308918
1.499653
1.476407
1.572967
1.917481
3.545880
20.366907
53.998828
143.436790
259.930491
487.671494
683.729649
924.080610
1016.035676
1016.035676
1016.035676
828.929543
636.007786
389.469862
237.294436
104.841590
50.378442
16.192794
8.774996
7.597804
8.331537
11.095405
15.891790
25.506616
36.696792
55.720806
67.441463
81.936717
89.889765
90.051889
83.857775
70.576668
58.409572
42.786598
30.373931
19.242764
13.208985
8.272529
6.721616
5.963445
5.506873
5.239844
5.081892
5.204678
5.103946
5.006790
5.107522
5.146861
4.667640
5.031824
4.745722
4.942417
##ZVALUE=330
0.586510
0.463724
0.354648
0.570416
0.715852
0.677705
0.574589
0.489950
0.660419
0.476837
0.526905
0.594854
0.688434
0.614524
0.733733
0.596642
0.661612
0.738502
0.722408
0.648499
0.512600
0.574589
0.603795
0.543594
0.707507
0.728965
0.803471
0.893474
0.947714
0.823736
0.681877
0.864863
0.839829
0.797510
0.834465
0.976920
0.902414
0.979900
1.145601
1.077652
1.034737
1.279712
1.151562
1.305938
1.494884
1.582503
2.302527
6.520748
33.474565
84.575415
209.375024
350.293517
597.993731
788.483620
997.255445
1016.013622
1016.013622
932.695866
704.408884
514.513850
289.112926
165.365934
66.656470
29.435754
10.356903
7.140636
6.673932
7.340908
10.339618
15.341640
24.630427
33.998489
49.882531
62.282681
75.683594
82.052946
84.413886
79.359412
68.284869
55.423975
38.718581
29.237866
18.851757
13.261437
9.270906
6.920695
5.584955
5.298853
4.884601
4.823804
4.953742
4.825592
4.590750
4.689693
4.810691
4.735589
##ZVALUE=335
0.432730
0.386834
0.528693
0.475645
0.484586
0.513792
0.491738
0.526905
0.565648
0.604987
0.726581
0.672936
0.567436
0.507832
0.555515
0.656843
0.630617
0.677705
0.541806
0.572801
0.628829
0.632405
0.543594
0.669956
0.679493
0.470877
0.605583
0.651479
0.568628
0.727773
0.789762
0.698566
0.797510
0.803471
0.846982
0.778437
0.923872
0.948906
0.870824
0.907779
0.965595
0.919700
0.850558
1.100898
1.189709
1.462698
1.266599
1.655817
1.804829
4.402995
15.155673
59.776902
127.211809
286.007524
459.966660
723.336935
899.679661
1016.031504
1016.031504
968.321562
813.100934
555.033684
377.206802
198.421478
104.405880
36.739707
15.042424
6.997585
6.288886
6.418824
7.011890
9.850860
13.773441
23.662448
32.925606
47.794580
59.604645
71.608424
77.081919
78.532696
73.421597
62.508583
51.851869
37.899613
28.866529
19.407868
13.886690
9.242892
6.892681
5.433559
5.004406
4.738569
4.543662
4.589558
4.638433
4.613996
##ZVALUE=340
0.560880
0.551939
0.531673
0.457764
0.729561
0.517964
0.527501
0.467896
0.550747
0.638962
0.554919
0.567436
0.769496
0.578761
0.608563
0.570416
0.724792
0.697970
0.669956
0.574589
0.622869
0.500679
0.468493
0.497699
0.846982
0.692606
0.641942
0.598431
0.635982
0.605583
0.751615
0.777841
0.756979
0.873804
0.958443
0.801682
0.940561
0.956655
0.850558
0.933409
0.957847
1.093745
1.017451
1.103878
1.109838
1.225471
1.249909
1.153946
1.427531
1.330972
1.491904
2.532601
7.497668
36.069751
87.504983
218.181610
365.616679
607.714653
793.415904
984.359980
1016.031504
997.530818
872.743726
641.613007
453.841686
239.366889
131.803751
52.536726
21.076798
7.778406
6.411672
5.975962
6.032586
6.788969
9.155869
14.367700
20.360947
31.640530
42.955875
57.023764
66.586733
72.773695
73.292851
68.022609
61.192513
49.041510
38.531423
27.125478
19.744635
12.681484
9.126663
6.428957
5.302429
4.602671
4.596710
4.228950
##ZVALUE=345
0.505447
0.541806
0.411868
0.306964
0.398755
0.520945
0.541806
0.461936
0.560880
0.585914
0.694990
0.617504
0.552535
0.510812
0.530481
0.399947
0.638962
0.390410
0.515580
0.554919
0.561476
0.538826
0.644922
0.512600
0.630617
0.587702
0.640750
0.651479
0.652671
0.583529
0.550747
0.492930
0.589490
0.758767
0.677705
0.610948
0.808835
0.753999
0.797510
0.803471
0.808835
0.965595
0.877976
0.835657
0.883937
1.096725
1.004934
1.080632
1.046658
1.244545
1.325607
1.307726
1.490712
1.789927
3.570914
19.851923
55.813789
150.183439
269.565582
489.390492
669.701695
893.200636
995.419025
1012.252569
935.563445
734.345913
544.556975
313.446522
178.576708
73.586702
32.516718
10.868907
6.676912
5.939603
5.696416
5.494952
6.015897
8.198619
11.532903
19.116998
27.043819
41.070580
50.207973
60.064793
65.477490
67.807436
65.152645
57.618618
49.882531
37.882924
28.154850
18.499494
13.105869
8.675456
6.642938
5.147457
##ZVALUE=350
0.574589
0.598431
0.653863
0.600815
0.543594
0.570416
0.509620
0.428557
0.358820
0.541806
0.549555
0.511408
0.355840
0.433922
0.520945
0.488758
0.549555
0.335574
0.604987
0.578761
0.445843
0.527501
0.562668
0.681877
0.665784
0.532866
0.699759
0.572801
0.554919
0.708699
0.624657
0.646710
0.724792
0.659823
0.576973
0.740886
0.668764
0.761747
0.639558
0.717640
0.725985
0.724792
0.809431
0.882745
0.685453
0.881553
0.885725
0.896454
1.032948
1.042485
1.132488
1.186728
1.231432
1.403689
1.435876
1.577735
2.111793
10.447502
31.874776
100.050569
193.722844
393.575430
575.371981
807.019472
950.076580
1016.031504
972.634554
802.453756
616.592765
370.453596
224.863887
97.334981
44.370890
13.247728
6.972551
5.660653
5.575418
5.051494
4.915595
5.999804
7.265806
11.854768
16.784668
24.690628
33.080578
45.114756
53.365827
60.604811
61.716437
59.731603
54.381490
44.065714
36.231875
25.630593
18.947721
12.353659
##ZVALUE=355
0.546575
0.617504
0.492930
0.460744
0.622869
0.405908
0.534654
0.485778
0.612736
0.488758
0.464916
0.491738
0.458956
0.550747
0.537634
0.507832
0.494719
0.394583
0.615716
0.562668
0.506639
0.486970
0.435710
0.746846
0.697970
0.754595
0.667572
0.496507
0.528693
0.714660
0.630617
0.587702
0.625849
0.671744
0.709891
0.821948
0.687838
0.799894
0.854731
0.713468
0.845790
0.769496
0.904799
0.786781
0.740886
0.820756
0.614524
0.841618
0.935793
0.951886
0.943542
1.081824
1.008511
1.063943
1.116991
1.151562
1.302958
1.345873
1.696944
4.973412
16.884804
65.475702
136.193633
290.721655
464.472771
722.622871
883.308649
1000.195742
995.244980
845.235586
683.236718
456.559658
287.060738
128.748417
61.576962
18.924475
8.626580
5.498528
5.182624
4.822612
4.625916
4.694462
5.162954
7.030964
9.468794
15.055537
20.669699
30.100942
37.507415
46.769977
52.650571
56.245923
54.897666
49.713850
43.041706
33.981800
##ZVALUE=360
0.484586
0.550747
0.557899
0.433922
0.237823
0.511408
0.403523
0.387430
0.586510
0.451803
0.603795
0.511408
0.654459
0.668764
0.543594
0.463724
0.475645
0.493526
0.602603
0.553727
0.578761
0.691414
0.497699
0.385642
0.614524
0.524521
0.637770
0.680685
0.542998
0.632405
0.526905
0.611544
0.767708
0.566840
0.624657
0.619888
0.583529
0.736713
0.772476
0.648499
0.791550
0.625849
0.767708
0.840425
0.612736
0.719428
0.729561
0.811815
0.717640
0.697970
0.870824
0.884533
0.989437
1.021624
1.105666
0.954866
1.146793
1.356602
1.276731
1.606941
1.743436
2.742410
7.767677
35.145879
85.048676
212.245584
355.718732
587.374568
778.281689
954.296589
1003.369689
914.621949
763.448477
516.897440
347.077847
178.093910
92.075467
32.128692
12.611747
5.981922
5.107522
4.770756
4.344583
4.316568
4.194975
4.649758
5.545616
7.886887
11.163950
17.463565
24.071932
33.516884
40.231943
47.978759
50.626993
50.028563
##ZVALUE=365
0.566840
0.489950
0.405908
0.413656
0.331998
0.372529
0.301600
0.408888
0.365973
0.378489
0.385642
0.411868
0.327826
0.303984
0.540614
0.430942
0.471473
0.446439
0.490546
0.323653
0.495911
0.402927
0.448823
0.531673
0.570416
0.519753
0.590682
0.629425
0.504851
0.661612
0.488758
0.599623
0.449419
0.530481
0.517964
0.628829
0.529885
0.729561
0.609756
0.529885
0.553727
0.682473
0.498891
0.562668
0.554919
0.826716
0.765920
0.689626
0.667572
0.858903
0.847578
0.781417
0.889897
0.767708
1.130700
0.924468
0.970960
1.099706
1.138449
1.176596
1.289845
1.477599
1.497865
1.924634
3.579855
19.158721
52.031875
140.127540
263.877511
491.197705
673.519969
876.283646
972.207785
959.995985
846.504569
616.040826
433.609486
236.832500
127.203465
45.964718
18.274784
6.316900
5.037785
4.401803
4.246831
4.130602
3.877878
3.721714
3.953576
4.829764
6.277561
9.753704
14.047623
21.131635
27.329922
35.442710
##ZVALUE=370
0.543594
0.407696
0.454783
0.557899
0.527501
0.481606
0.473857
0.333786
0.446439
0.409484
0.563860
0.463724
0.547767
0.525713
0.390410
0.498891
0.443459
0.435710
0.546575
0.456572
0.428557
0.647902
0.523925
0.538826
0.510812
0.521541
0.515580
0.531673
0.475645
0.721812
0.652671
0.527501
0.689626
0.626445
0.658631
0.718832
0.564456
0.533462
0.661612
0.542998
0.876784
0.642538
0.808835
0.609756
0.669956
0.637770
0.660419
0.636578
0.894666
0.836849
0.759959
0.771880
0.752807
0.731945
0.788569
0.863671
0.867844
0.920892
0.968575
1.071692
1.078844
1.184940
1.259446
1.383424
1.578927
1.639724
2.224445
10.179877
32.743812
103.869438
199.799538
387.091637
569.008589
811.833739
935.583711
978.269577
901.743770
706.028938
522.207618
292.451978
165.455937
65.193772
28.802752
8.962750
5.022883
4.447699
4.129410
3.781915
3.697872
3.442764
3.496408
3.746748
4.226565
5.588531
7.845759
12.286901
##ZVALUE=375
0.432730
0.303984
0.356436
0.432730
0.422597
0.296831
0.463724
0.319481
0.406504
0.498891
0.491738
0.386834
0.314713
0.411868
0.306964
0.400543
0.364780
0.448823
0.482798
0.357628
0.388622
0.390410
0.467896
0.488758
0.531673
0.446439
0.491738
0.589490
0.666976
0.620484
0.579953
0.580549
0.697970
0.622869
0.617504
0.645518
0.816584
0.729561
0.775456
0.771880
0.817776
0.748634
0.583529
0.650883
0.741482
0.429749
0.688434
0.710487
0.637770
0.734925
0.737906
0.724792
0.699759
0.823736
0.733733
0.719428
0.823736
0.819564
0.858903
0.857711
0.965595
1.056790
1.097918
1.038909
1.076460
1.139641
1.221895
1.363754
1.749992
4.861951
16.669631
61.503649
134.722590
298.236012
465.607047
707.288980
859.946012
966.900587
953.284502
797.233582
620.926619
375.794768
235.938430
113.232732
55.995584
17.377734
7.096529
4.423857
4.090667
3.725886
3.599524
3.552437
3.371835
3.159642
3.378987
3.730655
##ZVALUE=380
0.284910
0.546575
0.524521
0.400543
0.607967
0.440478
0.474453
0.459552
0.556707
0.331998
0.450611
0.433922
0.291467
0.332594
0.315905
0.431538
0.481606
0.507832
0.466704
0.539422
0.550747
0.501871
0.508428
0.545979
0.550747
0.534654
0.555515
0.556707
0.496507
0.669956
0.705719
0.731945
0.678897
0.807643
0.981688
0.898838
1.023412
0.888705
0.905991
0.817776
0.728965
0.904799
0.693798
0.837445
0.727773
0.709891
0.751615
0.752807
0.703931
0.794530
0.722408
0.783801
0.742674
0.778437
0.686646
0.822544
0.865459
0.724792
0.888705
0.870824
0.868440
0.880957
0.785589
0.916719
0.870824
1.102686
1.053810
1.012683
1.452565
1.327991
1.630783
2.664924
9.427667
44.422746
103.736520
243.014693
393.525958
619.985461
788.555741
934.305787
961.163640
853.329897
706.025958
479.340553
318.567753
154.713988
79.087615
26.882887
10.870695
4.672408
3.855824
3.607869
3.558993
3.340840
3.062487
3.292561
##ZVALUE=385
0.353456
0.379682
0.423789
0.353456
0.346899
0.233650
0.526905
0.427961
0.543594
0.452995
0.338554
0.378489
0.369549
0.436902
0.525713
0.380874
0.469685
0.333786
0.337958
0.483990
0.460744
0.487566
0.413656
0.448823
0.571609
0.573993
0.748634
0.830889
0.853539
0.919700
1.112819
1.301765
1.525879
1.473427
1.567602
1.527667
1.432896
1.552701
1.458526
1.559854
1.575947
1.379848
1.300573
1.343489
1.284480
1.155734
1.193881
1.037717
0.875592
1.118779
1.070499
1.037717
0.811815
0.851750
0.997782
0.933409
0.871420
0.976920
0.929832
1.043677
0.945926
0.967979
1.024604
0.995994
0.733733
1.172423
0.898838
0.985861
1.068711
1.217723
1.389980
1.431704
1.536608
1.917481
4.791617
25.609732
66.920519
170.029998
296.844840
516.243577
691.033006
870.992541
935.075879
900.222659
794.144869
588.012934
421.948433
229.080915
129.015446
51.560998
20.309687
5.875826
4.003644
3.460646
3.324747
3.409982
##ZVALUE=390
0.431538
0.299811
0.346899
0.419617
0.326633
0.406504
0.298619
0.408888
0.477433
0.467896
0.415444
0.460744
0.484586
0.321865
0.342727
0.416636
0.407696
0.502467
0.485778
0.501871
0.640750
0.347495
0.465512
0.300407
0.557899
0.739694
0.801682
0.953674
1.148582
1.294613
1.730919
1.675487
2.032518
2.236962
2.406836
2.337694
2.325773
2.225637
2.199411
2.163649
1.975894
1.880527
1.772642
1.691580
1.613498
1.538992
1.590848
1.249909
1.352429
1.160502
1.165867
1.162887
0.886917
1.056790
1.121759
1.035929
0.998974
0.987649
0.958443
0.981688
0.880957
0.835657
0.854731
0.799894
1.030564
0.809431
0.989437
1.102686
1.061559
1.143813
1.424551
1.380444
1.206994
1.503825
1.368523
1.757741
2.559423
13.937950
43.407679
131.366849
245.846510
453.916788
613.593459
803.161860
902.729034
935.030580
869.928598
693.750978
530.523658
320.729613
186.452866
75.319409
33.013821
9.152889
4.406571
3.590584
##ZVALUE=395
0.515580
0.410676
0.390410
0.344515
0.348687
0.466704
0.400543
0.281930
0.354648
0.284910
0.490546
0.375509
0.558496
0.250936
0.364780
0.188947
0.324845
0.366569
0.343919
0.483990
0.443459
0.473857
0.502467
0.512600
0.636578
0.777841
0.888705
1.082420
1.435876
1.603961
1.965761
2.382994
2.545714
2.643466
2.926588
2.968907
3.051758
3.056526
2.976656
2.647638
2.794862
2.448559
2.369881
2.229810
1.992583
1.922846
1.757741
1.726747
1.627803
1.703501
1.534820
1.333952
1.287460
1.129508
1.130700
1.176596
1.053810
0.965595
1.018643
0.919700
0.898838
0.958443
1.047850
1.015663
0.938773
0.932813
0.914931
1.069903
1.068711
1.215935
1.166463
1.275539
1.359582
1.208782
1.343489
1.442432
1.285672
1.389980
1.686811
7.242560
26.021600
93.624592
182.706714
360.637903
523.771644
749.495029
882.737637
966.714025
943.983793
806.415677
636.118650
399.213433
252.201557
117.919445
56.009889
17.324686
##ZVALUE=400
0.845790
0.878572
0.776649
0.718832
0.694990
0.646710
0.629425
0.647902
0.793934
0.676513
0.737906
0.644922
0.595450
0.529885
0.677705
0.723600
0.562668
0.662804
0.678897
0.601411
0.747442
0.644922
0.709891
0.824928
0.862479
1.140833
1.119971
1.398921
1.947880
2.440810
2.487898
2.728701
2.976656
3.467798
3.498793
3.631711
3.497601
3.381968
3.383756
3.273487
3.377795
3.065467
2.738833
2.534986
2.577901
2.526641
2.172589
2.234578
2.052784
1.854897
1.779795
1.830459
1.653433
1.566410
1.434684
1.407862
1.389980
1.295805
1.274943
1.299977
1.200438
1.080632
1.274943
1.239777
1.140833
1.210570
1.409650
1.222491
1.165867
1.267791
1.332760
1.329780
1.435876
1.458526
1.278520
1.491904
1.474619
1.583695
1.599789
1.694560
2.016425
3.343821
15.985966
46.801567
136.501789
249.630809
461.296439
638.789535
848.546028
943.418741
948.545933
861.199498
666.560531
493.817925
287.244916
172.835588
##END
