##TITLE=FQP00601
##FORMAT=SPECTACLE-ASCII V-1.2
##DATA TYPE=ULTRAVIOLET SPECTRUM
##SECOND TYPE=ULTRAVIOLET SPECTRUM
##DATE=03/01/18
##TIME=13:46:14
##SPECTROMETER/DATA SYSTEM=SPECTACLE
##XUNITS=NM EM
##YUNITS=ENERGY
##YFACTOR=1
##FIRSTX=220
##LASTX=410
##NPOINTS=96
##3DDATA=Equidistant
##ZUNITS=NM EX
##FIRSTZ=210
##LASTZ=400
##ZPOINTS=39
##XYDATA=(Y..Y)
##ZVALUE=210
2.155900
1.682639
2.075434
2.631545
2.063513
2.395511
2.377629
2.818704
2.280474
2.258420
2.254844
2.403855
2.051592
2.502799
2.553463
2.274513
2.772808
2.973676
2.782941
3.371835
3.606677
3.199577
3.486872
3.118515
3.603697
4.259944
3.781915
4.284978
4.828572
4.427433
4.380941
4.839897
4.524589
5.569458
5.011559
4.679561
5.007982
5.523562
5.569458
5.235672
6.146431
4.778504
5.055666
5.886555
5.639791
6.063581
5.490780
4.569888
5.513430
5.560517
6.503463
5.176663
5.370975
5.699992
6.100535
5.193949
5.129576
5.712509
5.606413
5.572438
5.104542
6.013513
5.363822
5.883574
5.834699
6.020665
6.166697
7.724762
7.514954
8.582473
9.738803
11.141896
13.314486
15.608668
16.084909
15.999675
16.806722
17.233491
15.218854
16.336441
14.201999
12.781620
11.545420
9.552836
8.588433
8.485913
6.960630
6.280541
7.238984
5.706549
6.851554
6.604791
6.449819
6.509423
7.103682
6.478429
##ZVALUE=215
7.035732
7.382631
5.623698
5.588531
4.196763
4.656911
5.149841
5.251765
4.658699
4.882812
5.247593
4.901886
3.866553
4.471540
3.269911
2.892613
2.192855
2.866983
3.514886
3.647804
3.254414
4.428625
3.803968
3.746748
4.325509
4.486442
4.975796
4.521608
5.271435
5.986691
4.790425
5.871654
6.131530
6.577969
6.313920
5.691648
5.636811
6.356835
6.369948
6.861687
6.145835
6.629825
6.997585
5.662441
5.946755
6.414652
6.041527
5.964637
6.382465
6.844997
7.166862
6.091595
7.123947
5.728602
6.760955
6.343722
7.714629
6.321669
5.857944
6.538630
6.885529
6.978512
6.180406
6.279945
6.804466
5.533695
7.556677
7.379651
8.252859
8.839965
10.727644
12.422800
13.152957
15.039444
18.116832
18.874407
19.422770
18.217564
16.353726
16.208887
16.324520
15.934706
14.576912
10.394454
10.594726
9.988546
8.831620
7.788539
6.934404
6.577969
6.652474
7.293820
6.418824
7.476807
6.186962
8.520484
##ZVALUE=220
22.852421
22.211671
25.218725
23.433566
24.233460
19.085407
16.884804
13.918877
10.520816
11.437535
12.887716
12.598634
11.037588
11.243820
9.535551
7.512569
6.487966
4.330873
4.350543
3.265738
3.604889
3.794432
4.194975
3.783703
4.512668
4.400611
4.922748
6.039739
5.762577
7.380843
6.661415
7.523894
8.145571
6.358624
9.354949
8.835793
8.394718
7.935762
8.343458
8.178949
8.637905
8.484721
8.332729
7.324815
7.688999
7.263422
6.795526
7.666945
7.761717
8.265972
7.018447
7.010698
7.327795
7.688999
7.377863
6.903410
8.083582
7.109642
7.900000
7.412434
7.077456
8.017421
6.486773
7.568598
7.763505
8.157492
7.788539
8.046627
7.931590
9.782910
12.117624
12.513995
13.790727
15.721917
18.333793
19.144416
16.808510
18.683672
19.306540
18.420815
16.693473
15.574694
13.261437
12.598634
11.777878
11.839867
9.698868
8.931756
8.375645
7.151961
8.083582
8.687973
8.115768
8.637905
7.881522
7.898808
##ZVALUE=225
38.134456
38.915873
55.431724
66.275597
72.125793
73.446631
65.727830
59.446692
46.212673
32.998919
26.200414
22.980571
25.711656
26.138425
26.000738
23.292899
20.643473
17.566681
11.495948
8.412600
6.026626
5.036592
3.955960
3.379583
5.082488
5.320907
5.803704
6.209612
7.310510
6.782413
8.085966
10.058880
8.300543
9.805560
10.184646
11.473894
10.592937
9.804964
9.848475
9.725690
9.837747
9.520650
10.420680
8.922815
8.605719
9.159446
8.127689
9.270906
8.679628
7.892847
8.412600
8.056760
8.131862
8.284450
8.278489
7.773638
7.748604
7.459521
8.462667
8.237958
8.566976
8.686781
9.197593
9.196997
8.458495
7.997751
8.038878
10.161996
9.514689
11.119843
13.540983
12.990832
14.305711
16.290545
15.006661
16.359687
16.854405
16.126633
15.771985
15.192628
14.212728
14.279485
13.205409
13.539791
13.028979
12.891889
12.162924
11.392832
11.891723
11.096597
11.633635
11.197925
10.642409
9.816885
10.850430
10.902882
##ZVALUE=230
30.486584
37.449598
55.158734
93.091726
121.162534
150.698423
162.111521
156.089664
140.620470
119.315982
83.107948
60.081482
46.164989
42.975545
44.656992
47.338605
51.051974
48.799515
44.571757
33.894777
27.259588
18.026829
11.927485
8.030534
6.272793
5.971789
5.402565
6.219745
7.147789
6.872416
7.733703
8.656979
8.708835
9.542704
9.658933
10.340810
10.300875
10.364652
10.305643
11.150837
9.890795
10.078549
10.696650
9.442568
9.420514
8.778572
7.857680
9.498596
8.223653
8.872747
7.849932
8.941889
8.160472
8.307695
8.431673
7.925630
8.347631
8.253455
8.964539
8.994937
9.401441
10.191798
8.959770
10.783672
9.531975
10.512471
10.598898
10.924935
12.425780
13.678670
14.969707
14.635921
15.430450
16.917586
18.536448
18.325448
20.537972
18.381476
21.123886
18.364787
18.987656
16.875863
17.987490
17.170906
16.183853
16.960502
16.140938
16.431808
15.962720
17.744899
15.616417
15.267730
16.430616
15.136600
15.289783
15.447736
##ZVALUE=235
11.735559
13.011694
28.952956
71.428418
113.611817
173.149705
233.193636
297.654867
315.022469
306.820869
276.988745
212.788582
158.316493
108.143687
84.897876
72.004795
70.842505
72.683692
83.329678
79.738498
74.285865
64.255595
48.059821
33.567548
21.362901
15.211701
10.405779
7.462502
6.773472
7.016659
7.306933
8.214712
8.346438
7.703900
9.332895
8.170605
8.042455
8.658767
9.570718
8.255839
8.838773
9.611845
9.810925
8.666515
9.334683
7.990599
7.858872
9.501576
9.112954
7.980466
8.222461
7.997751
9.048581
8.177757
8.830428
9.222627
9.372830
9.051561
10.034442
9.612441
10.079741
11.754632
12.634993
11.802912
12.149811
14.010668
13.288856
15.401840
14.568567
16.528964
18.210411
18.624663
20.451546
21.179914
21.627545
25.943518
26.109815
25.392771
26.242733
26.228428
26.045442
25.166869
25.021434
23.631454
24.629831
23.396611
23.646951
24.015903
25.424957
23.892522
22.835732
22.672415
21.749735
23.366809
22.859573
21.383762
##ZVALUE=240
1.997948
2.808571
5.419850
20.441413
40.495992
94.459653
152.423978
254.572630
334.759951
410.467982
456.023812
458.417535
400.986671
336.032510
239.924788
177.634954
118.208528
100.510716
92.580914
103.052855
117.700696
122.844577
114.118457
100.618601
83.711743
62.912703
45.858622
29.713511
21.668673
12.200475
9.001493
7.501841
6.844997
6.526709
7.222891
8.513927
8.029938
7.514954
7.352829
7.823706
8.564591
8.167624
8.432865
8.492470
8.284450
8.575916
8.488894
9.519458
8.625984
7.826686
8.815527
9.240508
8.808970
9.614825
9.414554
10.228753
9.522438
9.557605
10.529757
11.751652
11.961460
11.695623
11.620522
12.681484
12.560487
15.031695
14.007688
16.124845
17.263889
20.543933
19.248724
21.629930
23.531914
24.950504
28.112531
28.104782
28.330684
28.878450
30.041933
30.313730
30.643940
32.003522
29.762983
32.694936
30.227900
29.343963
30.202866
30.897856
29.771924
30.842423
32.121539
29.474497
29.884577
30.361414
31.227469
31.230450
##ZVALUE=245
2.184510
1.739860
1.801848
1.566410
3.531575
9.488463
33.321977
76.726675
189.742446
298.835635
496.273637
632.816553
721.781850
769.853592
738.060474
605.830550
488.300920
343.454480
242.416859
159.394741
122.318864
109.734535
114.552975
126.762986
131.319761
129.052997
112.641454
92.988610
68.021417
51.459670
34.169555
21.781921
15.725493
9.442568
8.342862
8.114576
7.856488
8.503795
9.036660
9.037852
8.292794
9.414554
9.230971
9.048581
9.218454
8.653998
9.016991
9.926558
9.349585
9.451509
9.623766
10.379553
9.175539
9.455681
9.685755
9.492636
9.985566
10.640621
10.672808
10.458827
11.107922
12.224913
12.796521
13.631582
14.505982
14.762878
15.296936
16.141534
18.026829
19.921660
22.099614
22.835732
25.157928
27.425885
28.983951
31.305552
30.469894
32.692552
31.136870
32.824874
31.861663
30.261874
31.140447
31.266809
31.900406
29.366612
31.745434
32.122731
32.936931
31.141639
29.985905
30.790567
31.764507
32.339692
31.191707
31.804442
##ZVALUE=250
1.166463
1.315475
1.604557
1.632571
1.365542
1.421571
2.860427
7.664561
35.200715
84.051490
232.133865
383.812785
549.386740
767.477751
881.859660
942.342877
916.682482
784.731507
651.599765
446.934700
298.054814
197.555423
120.617747
102.669001
109.238625
120.829940
136.363506
142.382979
135.180950
125.800967
110.056996
80.647469
61.303973
35.016537
25.251508
14.946461
12.288690
9.391904
10.269880
9.465814
10.369420
11.413693
10.335445
10.762811
9.705424
10.866523
10.390878
10.575652
10.691881
10.582805
9.309649
10.150671
9.920597
9.419918
10.697842
10.311604
10.073781
10.666847
11.224747
11.229515
11.669993
11.783838
11.420846
12.682676
12.107491
13.910532
15.219450
15.606880
17.497540
18.945932
19.279718
22.008419
24.004579
27.435422
28.757453
28.886795
29.787421
31.235814
33.533573
32.198429
32.752752
31.057596
32.202601
30.212998
31.423569
30.801892
30.742884
31.702518
29.971600
29.679537
30.208826
30.464530
31.015873
31.062961
31.228662
31.564832
##ZVALUE=255
1.356602
1.094937
1.288652
1.116991
1.327991
1.535416
1.503825
1.809597
1.928806
6.011724
17.293692
72.492957
161.435604
358.731747
542.101860
830.568671
1006.707549
1015.622616
1015.622616
1015.622616
973.836780
780.602694
488.873720
318.921804
173.962712
122.725964
95.677972
107.919574
127.325654
143.323541
148.656964
147.569776
132.799745
108.725429
85.598826
58.531761
43.074489
26.270747
18.939972
13.218522
11.856556
12.720823
12.138486
11.585951
11.621714
11.984706
10.617971
11.717677
10.240674
10.132790
11.177659
10.609627
11.294484
10.386705
9.682775
10.107756
10.507703
10.194778
10.661483
10.411739
10.784864
10.873675
12.414455
12.539625
12.476444
13.153553
13.562441
14.240742
14.932752
16.864538
17.760992
20.776987
21.680593
23.669600
24.702549
25.910735
25.740862
26.215911
28.119683
27.880669
27.945638
28.089881
28.476715
27.370453
28.047562
27.965903
27.410984
28.647780
29.133558
27.282834
28.789639
28.730631
28.797984
30.076504
29.210448
30.182600
##ZVALUE=260
0.798702
0.897646
1.186728
0.885725
1.084805
1.273751
0.902414
1.304746
1.588464
1.704693
1.818538
3.466606
11.667609
47.490001
117.577910
311.460495
511.927605
830.809474
1015.462875
1015.462875
1015.462875
1015.462875
1015.462875
912.461877
567.258596
376.416445
210.285783
120.696425
82.306862
86.308718
109.101534
131.546855
152.499676
162.805915
155.489445
140.065551
115.291476
89.693666
63.974857
44.775605
29.090643
21.600723
14.933944
13.799667
12.700558
11.972785
12.021661
11.929870
11.186600
11.815429
11.285543
11.771917
10.268688
11.189580
10.703802
9.441972
9.983778
9.661913
9.769797
10.293722
10.183454
11.077523
10.852814
11.246800
11.325479
11.934638
12.600422
12.980700
14.745593
15.292764
17.345548
17.529726
19.792914
20.551682
21.106601
23.742914
23.558736
23.895502
24.708509
25.427938
24.815798
25.175810
25.614500
26.564598
25.570989
26.172996
25.218725
25.613904
26.260614
26.649833
25.431514
27.091503
27.435422
27.645826
27.659535
27.940869
##ZVALUE=265
0.943542
1.028776
0.892878
0.809431
1.278520
0.829697
1.235604
1.308918
1.293421
1.506805
1.558661
1.891851
2.373457
1.949668
7.065535
24.011731
103.882551
223.912001
394.136906
704.126954
970.802903
1015.750766
1015.750766
1015.750766
1015.750766
924.773812
695.114732
425.954461
271.504521
136.905909
84.464550
74.152946
90.106726
117.994547
138.860941
158.486962
164.687634
156.788826
142.747760
113.485456
91.960430
66.462755
45.384765
29.916763
21.950603
16.232729
13.960600
13.196468
13.010502
12.648702
12.661815
12.020469
11.274815
11.386871
11.338592
11.519790
10.317564
11.036992
10.809898
10.923743
10.224581
11.547804
11.284947
11.038780
11.705756
12.103915
12.612939
13.954639
14.379621
14.945865
15.798807
17.643571
18.489957
20.649433
20.842552
22.243857
22.324920
23.460984
23.741722
24.338961
23.883581
23.796558
24.568439
24.157763
23.967624
24.275780
24.719834
24.782419
24.387836
24.719834
24.598837
25.306940
25.306940
25.785565
26.541948
26.727915
##ZVALUE=270
1.212955
1.245737
1.318455
1.323819
1.203418
1.267791
1.415610
1.443624
1.364946
1.471639
1.626611
1.548529
1.533628
1.938939
1.772642
2.176762
2.808571
12.064576
34.976602
126.236677
254.566669
434.978008
733.851790
945.127606
1016.051769
1016.051769
1016.051769
1013.097763
780.474544
580.181479
409.851670
206.692815
114.173889
67.469478
68.155527
93.240738
116.157532
144.114494
161.199570
166.525841
161.830783
141.858459
119.842887
89.890957
68.801641
43.487549
31.637549
21.380782
16.690493
13.734698
12.923479
12.129545
12.452602
11.907816
11.686683
11.631846
10.930896
10.985732
11.764765
11.199713
10.661483
10.915995
11.233687
11.876822
11.620522
11.741519
11.863708
12.851954
13.839602
14.965534
15.337467
16.488433
16.596913
18.344522
18.175840
19.479990
19.442439
20.493865
20.556450
21.602511
21.294951
21.788478
22.167563
22.609830
22.226572
23.104548
23.045540
23.025870
23.491979
24.060607
24.434924
24.611950
24.544597
24.787784
24.927855
26.111603
##ZVALUE=275
0.580549
0.687838
0.746846
0.651479
0.832677
0.882745
0.731945
0.911951
0.730753
0.763535
0.753999
0.847578
1.053810
1.050830
1.294613
1.070499
1.263618
1.690984
1.462698
3.898740
14.146566
39.991736
116.360784
222.642422
426.267982
583.546758
759.373903
864.138007
890.439749
821.388960
708.572865
509.027839
353.651643
189.507008
112.573504
62.882900
51.562786
64.854622
86.399913
117.150545
136.801600
159.721971
163.285732
157.826543
140.187740
113.888979
91.707706
63.686967
46.398640
28.170943
20.694733
14.188886
12.163520
10.638833
10.050535
10.308623
10.413527
10.544658
10.643601
10.891557
10.419488
10.810494
10.648966
11.546612
11.489987
11.830926
11.753440
12.870431
13.085604
13.990998
14.364719
15.562773
15.838742
16.717911
17.113686
18.064976
18.372536
18.277764
18.216968
19.078851
19.786954
19.646883
21.078587
20.724535
20.672679
21.466613
21.407604
21.661520
22.537708
22.526979
23.457408
24.096966
24.416447
25.200844
25.084615
25.521517
##ZVALUE=280
0.678897
0.627637
0.592470
0.582933
0.599623
0.706911
0.632405
0.739694
0.542998
0.653863
0.714660
0.722408
1.029968
0.941753
0.870824
0.708699
0.819564
1.184940
1.188517
1.226664
1.377463
1.951456
11.017919
32.763481
96.801519
178.258419
346.138477
510.001779
722.937584
857.402682
922.167897
895.834565
786.471963
575.528741
419.866443
235.271454
144.902468
69.729686
46.209693
45.309663
59.659481
87.249875
109.591484
136.892796
152.422786
156.200528
150.648952
133.282542
114.675760
83.652735
63.858628
41.221976
28.169751
18.133521
13.269782
10.437965
10.022521
9.833574
9.947419
9.944439
9.862781
10.370612
10.591745
10.929704
11.466742
11.765957
11.692643
12.443662
12.844801
14.484525
14.542937
15.477538
15.832782
16.337633
16.820431
17.539859
17.959476
18.068552
18.263459
19.214749
19.206405
20.021796
20.404458
20.816922
21.074414
20.764470
21.465421
22.365451
21.640658
22.450686
22.885799
23.110509
24.065971
24.408698
25.340915
25.532842
##ZVALUE=285
0.499487
0.538826
0.639558
0.682473
0.603795
0.679493
0.671744
0.631809
0.759959
0.756979
0.752807
0.632405
1.021624
0.858903
0.816584
0.880957
0.803471
0.999570
0.823736
1.055598
1.417994
1.183748
1.472831
1.559854
4.404783
14.336705
49.148798
99.146962
224.462748
379.817486
562.319756
807.238817
951.838493
1013.644934
944.812894
731.739998
553.753972
326.669812
203.732848
97.044706
53.783655
33.356547
37.801862
56.311488
76.215863
107.423663
126.557946
144.528747
151.977539
147.842765
135.163665
109.713674
89.493990
61.207414
43.603778
26.567578
17.870665
12.335777
10.365844
9.500980
9.734631
10.403991
10.301471
10.759830
11.802912
11.865497
11.819601
12.943745
13.664961
14.331937
14.516711
15.297532
16.120672
16.815662
16.730428
17.589927
17.945766
18.486977
18.906593
18.834472
19.351840
19.425750
20.576715
20.425916
20.666718
21.117926
21.428466
21.532774
22.137761
22.348762
22.474527
23.169518
23.713708
24.674535
24.415851
25.556684
##ZVALUE=290
0.552535
0.508428
0.501871
0.535846
0.534654
0.619888
0.644922
0.652671
0.455976
0.409484
0.667572
0.786781
0.626445
0.725985
0.731945
0.748634
0.719428
0.937581
0.946522
0.865459
0.929832
0.955462
1.058578
1.096725
1.373887
1.369715
1.909733
5.623698
25.695562
61.862469
123.959780
267.672539
424.003005
656.314492
798.078775
901.980996
891.613960
757.060647
612.894893
398.928523
257.653594
126.374960
68.732500
31.449795
24.963617
35.580993
50.512552
74.492693
93.867779
121.945739
136.050582
146.544576
143.354535
128.484964
109.062791
80.810785
60.637593
39.779544
28.149486
17.510653
13.591647
10.920763
10.462999
10.676980
10.862947
11.142492
12.388825
12.840629
13.363957
14.302731
14.433861
15.345812
15.845895
16.428828
16.681552
17.580986
17.767549
18.569827
18.631816
19.577742
18.855929
19.931793
20.372868
20.115972
20.324588
21.040440
20.827651
21.660924
20.667911
20.847917
20.906925
21.113753
20.565987
21.227598
20.898581
21.411777
##ZVALUE=295
0.267625
0.522733
0.435710
0.563860
0.499487
0.393987
0.453591
0.559688
0.529885
0.593662
0.433922
0.503659
0.500679
0.491738
0.431538
0.650883
0.612736
0.614524
0.688434
0.767708
0.753999
0.987649
0.887513
0.740886
0.852942
1.040697
0.988841
1.098514
1.275539
2.466440
13.103485
38.156509
85.498691
204.593539
330.759883
530.362725
661.500692
783.331990
809.183717
735.737681
630.131960
450.679660
306.448936
157.873631
88.283420
37.159920
22.117496
20.569563
29.193759
46.875477
66.246986
91.956854
110.421777
130.519867
139.402747
133.868456
125.523806
102.507472
82.962513
58.105588
42.575598
27.442575
19.502640
14.633536
12.191534
12.105703
12.360811
12.656450
12.976527
13.898611
14.823675
15.210509
15.809536
16.443729
17.385483
17.756820
17.854571
18.555522
18.940568
19.036531
19.610524
20.430684
20.477772
20.957589
20.991564
20.780563
20.973682
20.804405
20.855665
20.695925
21.062493
21.051764
20.511746
21.359921
21.099448
20.396709
##ZVALUE=300
0.456572
0.378489
0.480413
0.483990
0.420809
0.622869
0.474453
0.508428
0.442863
0.484586
0.503659
0.409484
0.379682
0.365973
0.608563
0.609756
0.511408
0.652671
0.704527
0.611544
0.770688
0.995994
0.787973
0.847578
0.936985
0.833869
0.917912
0.922680
0.874996
1.070499
1.261830
1.558661
5.799532
19.350648
65.243840
126.541853
261.342525
393.681526
574.031472
683.858991
762.029886
752.069950
649.773479
533.016920
352.791548
228.976607
116.750002
63.784719
26.129484
16.180873
18.382668
25.931597
42.370558
59.700608
83.437562
104.310513
124.850869
133.097768
130.589604
121.481419
101.547837
84.250569
60.270429
44.262409
29.748678
21.919608
15.953779
13.956428
13.755560
14.174581
14.697909
15.541911
16.019940
16.365647
17.261505
17.619729
18.323660
18.591881
19.480586
19.643903
20.397902
21.392703
21.133423
20.937920
21.000504
21.941662
21.973848
21.582842
21.402836
21.129847
21.334887
21.580458
21.175742
21.355748
21.813512
20.894408
##ZVALUE=305
0.488758
0.391603
0.270605
0.506639
0.433922
0.302792
0.559688
0.434518
0.393987
0.427961
0.499487
0.409484
0.504851
0.661612
0.481606
0.486970
0.515580
0.455976
0.487566
0.532866
0.583529
0.527501
0.976920
0.573993
0.716448
0.819564
0.925660
0.787973
0.916719
0.879765
0.981688
1.207590
1.146793
1.199841
3.078580
12.385845
49.755573
104.985833
218.715668
333.130956
510.443449
630.607009
746.129751
778.932571
707.188845
599.398017
426.209569
295.445919
154.700875
86.505413
35.528541
18.002987
12.569427
15.874505
26.121736
38.201809
61.318874
78.837872
100.251436
115.403533
124.819875
125.002861
114.198923
102.503896
77.926517
61.470866
42.612553
31.380653
21.525621
17.814636
15.810728
15.379786
16.486645
16.606450
17.480850
17.436743
18.874407
19.033551
19.886494
19.755960
20.594001
21.266937
21.153688
21.275878
21.247864
22.032857
21.912456
21.615624
21.711588
21.850467
21.673441
21.859407
21.631718
21.910667
21.255612
21.063685
##ZVALUE=310
0.324845
0.344515
0.387430
0.342727
0.340939
0.449419
0.388622
0.420809
0.418425
0.476837
0.415444
0.474453
0.180602
0.336766
0.417829
0.491738
0.501871
0.442863
0.596642
0.552535
0.373721
0.389814
0.681877
0.556707
0.582933
0.747442
0.756979
0.753999
0.785589
0.910759
0.643730
0.730753
0.738502
0.976920
0.957847
1.118779
1.320839
6.932616
23.157001
77.236891
145.007968
279.851556
407.220721
577.528477
683.643818
759.963989
748.783946
652.608871
540.440679
370.083451
247.664452
126.409531
69.254637
26.836991
13.716817
11.267662
15.100837
23.775697
34.616590
54.722428
71.389675
94.067454
108.449459
119.545460
120.344758
112.434626
99.292994
80.647469
63.693523
44.658780
33.788681
24.666786
21.234751
17.998815
18.369555
18.164515
18.768907
19.165874
19.939542
20.750761
20.945668
20.992756
21.531582
21.757483
21.878481
22.163987
22.265911
22.459626
23.087859
22.429824
22.471547
22.214651
22.171736
21.541715
21.775961
21.654963
##ZVALUE=315
0.280738
0.295639
0.405908
0.405908
0.385642
0.300407
0.258684
0.470877
0.448823
0.384450
0.330806
0.460744
0.414848
0.346899
0.398755
0.516772
0.562668
0.546575
0.475645
0.472665
0.515580
0.431538
0.624657
0.506639
0.586510
0.589490
0.544786
0.595450
0.688434
0.503659
0.681877
0.719428
0.675917
0.755787
0.849962
0.899434
0.875592
1.086593
1.255870
2.608895
9.747744
39.984584
88.759661
195.751786
313.426852
497.232676
607.406497
710.165501
741.079450
683.728456
589.219928
426.044464
300.591588
161.909461
90.354681
34.813881
17.255545
9.826422
10.885596
15.039444
21.657944
35.238862
48.246980
69.749951
87.594986
105.215907
113.980770
116.459727
109.168887
92.257857
78.775883
60.529709
47.301650
33.347607
26.258826
21.751523
19.781590
19.779801
19.652843
20.506978
20.878911
21.349788
22.228956
21.991730
22.489429
22.587776
22.504926
22.561550
23.173690
22.723675
22.742748
22.727847
22.157431
21.941662
22.204518
22.143722
##ZVALUE=320
0.320673
0.234842
0.347495
0.367761
0.393987
0.332594
0.285506
0.383854
0.400543
0.267625
0.445843
0.376701
0.424981
0.384450
0.346899
0.502467
0.286698
0.292659
0.323653
0.419617
0.476837
0.381470
0.334978
0.347495
0.517964
0.384450
0.468493
0.569820
0.602603
0.580549
0.719428
0.844598
0.731945
0.588894
0.637770
0.660419
0.788569
0.776649
0.955462
1.115799
1.095533
1.385808
4.129410
22.475719
58.529973
147.327781
240.622759
394.805670
518.956780
655.626655
709.635019
702.271461
637.458563
496.429801
363.305807
203.822851
117.886662
50.798655
25.051832
11.040568
9.191632
11.329651
13.809800
21.618605
29.950738
47.548413
62.850714
83.203912
96.766949
109.470487
111.102462
104.936957
94.122887
75.523853
61.003566
44.991970
35.689473
27.405620
23.537874
21.315813
21.177530
21.532774
21.442771
21.870732
22.087693
22.680759
22.164583
22.323728
22.163987
22.353530
22.107959
22.542477
22.098422
22.276640
21.678805
21.821856
##ZVALUE=325
0.384450
0.330806
0.241995
0.365973
0.358820
0.266433
0.333786
0.352859
0.246763
0.309944
0.298619
0.315905
0.450611
0.217557
0.289679
0.282526
0.417829
0.431538
0.411868
0.300407
0.449419
0.464916
0.384450
0.370741
0.509620
0.521541
0.620484
0.617504
0.608563
0.400543
0.415444
0.662804
0.598431
0.543594
0.557899
0.430942
0.865459
0.537634
0.804663
0.815988
0.842810
1.000762
0.917912
1.144409
2.255440
14.102459
37.845969
98.777413
176.145434
325.277448
448.727012
597.695708
670.683980
698.855519
650.113821
517.893434
392.239690
242.082477
150.090456
68.139434
34.378767
13.653636
9.598732
9.614825
10.883808
15.015602
20.513535
32.143593
44.817924
64.505935
80.302954
95.526576
104.512572
106.516480
100.538731
87.092519
74.294806
57.877898
45.657754
33.411980
28.394461
24.016500
22.791624
21.677613
21.309853
21.282434
21.875501
21.780729
22.525787
21.834970
22.115707
21.163821
21.660924
21.639466
21.879673
21.454692
##ZVALUE=330
0.332594
0.189543
0.338554
0.174642
0.407696
0.177622
0.359416
0.284910
0.269413
0.278950
0.309944
0.400543
0.369549
0.354648
0.247955
0.366569
0.273585
0.361800
0.395775
0.357628
0.593662
0.378489
0.536442
0.536442
0.351667
0.358820
0.537634
0.320673
0.392795
0.420809
0.522733
0.462532
0.517964
0.621676
0.548959
0.495911
0.672936
0.694990
0.612736
0.661612
0.466704
0.780821
0.834465
0.880957
0.855923
0.978708
1.410842
6.523728
20.302534
65.930486
126.630664
252.594948
369.062424
535.545945
631.755590
688.014627
661.345720
548.702478
439.720750
291.999578
189.973712
91.132522
49.029589
20.112991
11.197925
9.374619
9.736419
11.634827
14.813542
22.263527
30.821562
45.669675
59.653521
79.578757
90.749860
100.052953
101.203918
94.320774
85.613728
69.070458
56.852698
43.043494
35.194755
28.599501
25.043488
22.791624
22.243857
21.406412
21.643639
21.795630
21.373630
21.240711
21.409988
21.043420
21.426678
21.261573
##ZVALUE=335
0.268817
0.250936
0.354648
0.292659
0.469685
0.248551
0.150800
0.301600
0.320673
0.166893
0.068545
0.131726
0.134706
0.139475
0.176430
0.214577
0.116825
0.403523
0.401735
0.299811
0.325441
0.120997
0.376701
0.229478
0.343919
0.258684
0.282526
0.472665
0.287890
0.371933
0.333786
0.295639
0.481606
0.481606
0.272989
0.527501
0.445843
0.427961
0.540614
0.579953
0.535846
0.421405
0.555515
0.599623
0.823736
0.684857
0.731945
0.890493
1.271963
2.748966
10.017753
40.283799
85.064769
190.399885
301.488638
471.080542
583.582520
667.995811
675.312877
602.878928
499.642491
337.625742
227.942467
119.921565
64.931512
25.350451
13.612509
9.616613
10.264516
10.558963
12.312531
15.727878
20.901561
32.016635
42.568445
60.572624
73.759556
87.160468
93.751550
95.905662
91.200471
79.604983
68.614483
55.568814
45.623779
34.881830
29.532909
24.600625
22.580624
21.535754
21.171570
20.450950
20.292997
20.249486
20.485520
20.810962
##ZVALUE=340
0.187755
0.413656
0.233650
0.398755
0.292659
0.178814
0.301600
0.104904
0.220537
0.131726
0.238419
0.287890
0.287890
0.228882
0.228882
0.509620
0.364780
0.299811
0.324845
0.301600
0.453591
0.263453
0.315905
0.294447
0.241995
0.347495
0.363588
0.385642
0.373721
0.382662
0.429749
0.480413
0.337958
0.386834
0.418425
0.314713
0.443459
0.638962
0.423789
0.602603
0.652671
0.512600
0.524521
0.624657
0.667572
0.651479
0.789762
0.751615
0.865459
0.742674
1.029968
1.572967
4.872680
24.008751
59.319735
147.646666
246.371627
400.330424
516.753793
629.812479
662.018657
619.342923
536.877513
394.725800
279.629827
152.982473
84.033608
33.741593
17.366409
10.609627
10.226965
10.677576
11.193752
13.271570
15.955567
22.305846
30.173659
43.723583
55.000782
71.591735
81.806779
90.587735
91.148615
85.704923
77.899694
65.813661
54.686666
43.161511
34.832954
27.954578
24.216771
21.174550
20.065904
19.576550
19.728541
19.592643
##ZVALUE=345
0.203848
0.246763
0.283718
0.307560
0.220537
0.387430
0.234842
0.355840
0.230670
0.235438
0.210404
0.349879
0.324845
0.337958
0.440478
0.277758
0.223517
0.213981
0.227690
0.204444
0.213981
0.313520
0.289679
0.297427
0.296831
0.353456
0.402927
0.318885
0.288486
0.377893
0.309944
0.326633
0.373721
0.382662
0.397563
0.331998
0.460744
0.427961
0.352859
0.495911
0.519753
0.486970
0.400543
0.606775
0.517964
0.572801
0.561476
0.620484
0.621676
0.628829
0.919700
0.820756
0.881553
1.096725
2.238750
13.907552
38.233995
100.709796
182.064772
322.378874
432.888865
560.208559
614.326596
619.086623
561.460853
429.406762
319.572687
190.398693
109.973550
46.252608
23.562908
12.040734
10.441542
10.203719
10.616779
11.574626
12.634993
15.831590
20.064712
29.929876
39.576888
53.967834
64.482689
75.158477
81.213713
84.364414
81.266761
73.905587
65.124631
53.034425
42.779446
32.902956
27.549863
22.622943
20.902753
19.525886
##ZVALUE=350
0.173450
0.197887
0.231862
0.148416
0.302792
0.307560
0.193715
0.232458
0.171661
0.245571
0.318885
0.352859
0.167489
0.183582
0.184774
0.348687
0.253916
0.268817
0.281930
0.308752
0.333786
0.114441
0.345707
0.194907
0.409484
0.212789
0.249743
0.363588
0.421405
0.406504
0.191927
0.305772
0.309944
0.247955
0.236630
0.348687
0.241995
0.275970
0.437498
0.423789
0.435710
0.278950
0.511408
0.609756
0.347495
0.421405
0.635982
0.589490
0.577569
0.709891
0.585914
0.835657
0.617504
0.718832
0.801682
0.851750
1.264811
6.320477
20.769835
64.502954
123.204589
244.010687
349.704623
482.013822
560.765862
598.358512
566.390753
467.208624
360.276699
220.061541
135.641694
64.820647
32.594800
13.357997
10.233521
9.778738
10.351539
10.781884
11.258721
13.001561
14.979839
20.552874
26.289821
35.957694
45.732856
58.338642
67.005754
75.856447
77.815652
75.991750
70.045590
59.192777
50.699711
39.415956
32.263994
25.418997
##ZVALUE=355
0.414848
0.406504
0.449419
0.377893
0.337958
0.395775
0.375509
0.457764
0.363588
0.564456
0.402927
0.515580
0.390410
0.543594
0.364780
0.433922
0.323653
0.442863
0.498891
0.486970
0.567436
0.515580
0.360608
0.326633
0.534654
0.369549
0.422597
0.374913
0.565648
0.539422
0.412464
0.476837
0.537634
0.591874
0.478625
0.435710
0.475645
0.817776
0.505447
0.610948
0.561476
0.562668
0.525713
0.675917
0.665784
0.663996
0.696778
0.761747
0.769496
0.663996
0.692606
0.744462
0.695586
0.807643
0.665784
0.882745
0.941753
0.917912
1.286864
3.194809
10.727644
41.696429
86.013675
182.068944
285.657644
433.828831
519.358516
578.977466
568.331480
478.685498
385.817885
255.724788
164.240003
75.911880
38.980842
15.805960
10.460615
9.386539
9.579659
9.972453
10.667443
11.611581
12.403727
14.431477
17.684698
23.764968
31.309724
42.231679
50.987601
61.219931
67.117810
70.149899
69.424510
63.265562
57.026744
47.358871
##ZVALUE=360
0.364780
0.349879
0.277758
0.393987
0.332594
0.468493
0.389814
0.374913
0.406504
0.561476
0.303984
0.308752
0.390410
0.432730
0.465512
0.369549
0.450611
0.428557
0.333786
0.597835
0.489950
0.300407
0.450611
0.390410
0.394583
0.478625
0.475645
0.426769
0.491738
0.533462
0.484586
0.505447
0.450611
0.472665
0.396967
0.593662
0.418425
0.425577
0.554919
0.506639
0.666976
0.583529
0.605583
0.542998
0.551939
0.533462
0.596642
0.594854
0.550747
0.648499
0.561476
0.690818
0.707507
0.735521
0.826716
0.836849
1.042485
0.979900
0.890493
1.063943
0.990629
1.601577
6.288886
19.884706
62.345862
120.068789
237.176418
351.510644
500.050783
574.352741
591.487885
542.916656
425.348878
316.294432
185.780525
112.344623
49.722791
24.677515
11.190772
8.931756
8.890629
9.135604
9.491444
9.872913
10.144711
11.176467
12.852550
15.071630
20.485520
25.572777
35.157800
42.774677
53.689480
58.875680
63.903928
64.008832
##ZVALUE=365
0.329614
0.308752
0.287890
0.269413
0.364780
0.213981
0.140667
0.295639
0.251532
0.157952
0.204444
0.348687
0.326633
0.321865
0.211596
0.342727
0.377893
0.289679
0.401735
0.247955
0.348687
0.327826
0.267625
0.242591
0.266433
0.343919
0.204444
0.409484
0.197887
0.274777
0.331998
0.239611
0.296831
0.234842
0.372529
0.346899
0.378489
0.375509
0.302792
0.364780
0.402927
0.495911
0.463724
0.231862
0.358820
0.406504
0.543594
0.461936
0.392795
0.618696
0.392795
0.462532
0.523925
0.545979
0.457764
0.507832
0.525713
0.610948
0.641942
0.697970
0.760555
0.925660
0.877976
0.997782
2.101660
11.589527
32.421947
89.880824
165.985823
307.008624
430.946946
566.822886
624.857545
595.610738
505.819917
350.707769
242.399573
130.923986
72.528720
29.624701
14.988780
8.713603
7.949471
8.200407
8.661747
8.686781
8.923411
9.322762
9.715557
11.165738
12.907982
17.716885
22.054911
29.964447
37.369728
45.725703
##ZVALUE=370
0.278950
0.145435
0.254512
0.227690
0.138879
0.184774
0.382662
0.223517
0.185966
0.389814
0.313520
0.163913
0.206828
0.176430
0.201464
0.203848
0.172853
0.384450
0.350475
0.265837
0.238419
0.196695
0.151992
0.164509
0.144839
0.049472
0.282526
0.090599
0.162721
0.351667
0.241995
0.246763
0.401735
0.283718
0.125766
0.334978
0.436902
0.309944
0.229478
0.409484
0.403523
0.354648
0.413656
0.549555
0.444651
0.377893
0.556707
0.484586
0.354648
0.426769
0.416636
0.417829
0.310540
0.391603
0.330806
0.434518
0.333786
0.538826
0.525713
0.571609
0.449419
0.686646
0.574589
0.783801
0.966787
0.969768
1.387000
4.885793
25.707483
60.898662
140.867829
222.769976
349.999666
448.131561
535.307527
547.046661
490.417480
401.992798
266.182423
172.675848
81.490874
43.613911
18.599629
10.211468
7.498860
7.489920
7.487535
7.805824
8.057952
8.409619
8.446574
8.971691
9.867549
11.764765
15.653968
19.367933
##ZVALUE=375
0.206828
-0.059605
0.091791
0.117421
0.259876
0.123978
0.184774
0.292659
0.129938
0.291467
0.121593
0.168681
0.273585
0.067949
0.156760
0.396967
0.247955
0.249743
0.240803
0.223517
0.149608
0.113845
0.165701
0.246763
0.250936
0.239611
0.366569
0.343919
0.214577
0.211596
0.273585
0.266433
0.115633
0.218749
0.202656
0.162721
0.181794
0.301600
0.185966
0.228882
0.301600
0.436902
0.206828
0.239611
0.078678
0.363588
0.402927
0.344515
0.345707
0.275970
0.081658
0.229478
0.237823
0.355840
0.249743
0.365973
0.313520
0.256896
0.453591
0.438690
0.442863
0.546575
0.490546
0.535846
0.686646
0.515580
0.697970
0.705719
0.857711
3.360510
12.263656
44.876933
94.053745
195.215940
288.860798
407.980680
484.168530
530.244708
508.530736
420.579910
326.089859
204.588771
130.078793
67.017674
35.351515
13.951659
8.166432
7.078648
7.023811
6.963611
7.180572
7.305741
7.502437
7.754564
8.274913
8.902550
##ZVALUE=380
0.235438
0.238419
0.337958
0.160933
0.173450
0.187755
0.137687
0.226498
0.268817
0.259876
0.215769
0.213981
0.198483
0.229478
0.202656
0.156760
0.183582
0.227690
0.145435
0.166893
0.277758
0.176430
0.235438
0.314713
0.221729
0.207424
0.187755
0.253916
0.246763
0.289679
0.327826
0.370741
0.267625
0.349879
0.273585
0.262856
0.353456
0.271797
0.170469
0.335574
0.354648
0.276566
0.281930
0.246763
0.314713
0.393987
0.390410
0.195503
0.273585
0.357628
0.214577
0.243783
0.403523
0.082850
0.260472
0.454783
0.340939
0.238419
0.432730
0.380874
0.348687
0.456572
0.343919
0.450611
0.529885
0.534654
0.678897
0.595450
0.764728
0.723600
0.934601
1.662970
6.322861
30.698776
70.316792
159.821510
250.309706
377.541780
464.093685
533.951521
529.772639
448.569655
367.001891
255.006552
171.082616
84.791780
44.782758
17.875433
9.698868
6.277561
5.996823
6.537437
6.650686
6.545782
6.966591
7.229447
##ZVALUE=385
0.176430
0.126958
0.225902
0.139475
0.196695
0.115633
0.255704
0.305772
0.137687
0.279546
0.136495
0.116825
0.210404
0.170469
0.171661
0.281930
0.008941
0.307560
0.210404
0.250936
0.177622
0.225902
0.270605
0.201464
0.277758
0.406504
0.242591
0.160933
0.190735
0.302792
0.278950
0.067949
0.109673
0.209808
0.248551
0.171661
0.315905
0.275970
0.226498
0.382662
0.242591
0.286698
0.192523
0.367761
0.339746
0.290871
0.325441
0.310540
0.119805
0.166893
0.243783
0.386834
0.279546
0.398755
0.349879
0.357628
0.258684
0.284910
0.468493
0.389814
0.512600
0.347495
0.485778
0.410676
0.378489
0.546575
0.650883
0.534654
0.623465
0.647902
0.791550
0.814795
0.724792
0.957847
2.786517
16.695857
43.753982
110.073686
193.509459
332.082510
433.417559
531.460643
552.124977
509.607792
439.510942
317.068696
223.287940
121.684670
69.765449
29.978752
14.440417
6.740689
5.928874
5.692840
6.045699
6.113648
##ZVALUE=390
0.235438
0.210404
0.101924
0.211596
0.165701
0.249743
0.218749
0.163913
0.209808
0.246763
0.185966
0.234842
0.097752
0.191927
0.137687
0.208616
0.143647
0.239611
0.159740
0.239611
0.271797
0.169873
0.264645
0.183582
0.201464
0.340939
0.062585
0.170469
0.136495
0.266433
0.374913
0.182986
0.219941
0.363588
0.212789
0.076890
0.282526
0.396967
0.323653
0.271797
0.329614
0.279546
0.326633
0.237823
0.232458
0.253916
0.311732
0.143647
0.414848
0.217557
0.379682
0.302792
0.320673
0.275970
0.351667
0.331998
0.457764
0.278950
0.189543
0.330806
0.451803
0.254512
0.382662
0.415444
0.479817
0.400543
0.393987
0.523925
0.557899
0.575781
0.694990
0.767708
0.696778
0.811815
0.754595
0.965595
1.437664
8.423924
26.706457
83.162785
157.265663
294.561982
402.340889
514.412522
571.142435
578.979850
523.113608
403.257012
301.273465
177.769661
103.830695
42.994618
20.111799
8.019805
5.979538
5.262494
##ZVALUE=395
0.201464
0.231862
0.105500
0.152588
0.182986
0.142455
0.122786
0.110865
0.155568
0.015497
0.190735
0.319481
0.102520
0.177622
0.265837
0.316501
0.165701
0.066757
0.302792
0.210404
0.060797
0.242591
0.280738
0.191927
0.087619
0.317693
0.137687
0.355840
0.389814
0.233650
0.158548
0.162721
0.148416
0.072718
0.173450
0.291467
0.225902
0.263453
0.325441
0.350475
0.439882
0.246763
0.155568
0.405908
0.309944
0.372529
0.221729
0.308752
0.257492
0.211596
0.399947
0.296831
0.327826
0.329614
0.252724
0.352859
0.418425
0.315905
0.379682
0.521541
0.218749
0.357628
0.421405
0.324845
0.306964
0.399947
0.421405
0.436902
0.622869
0.744462
0.607967
0.666976
0.696778
0.645518
0.685453
0.612736
0.759959
0.825524
1.166463
4.546642
16.658902
58.817863
114.692450
223.037004
331.745744
481.665730
567.487478
616.270900
590.440631
496.051908
383.737683
231.490731
141.896009
62.344670
30.170679
11.605620
##ZVALUE=400
0.098944
0.100732
0.209808
0.240803
0.155568
0.136495
0.253916
0.069737
0.212789
0.155568
0.240803
0.094771
0.107884
0.157952
0.225902
0.226498
0.193715
0.192523
0.157952
0.172853
0.271797
0.199676
0.150800
0.206828
0.207424
0.258684
0.161529
0.248551
0.399947
0.315905
0.261664
0.286698
0.245571
0.230670
0.223517
0.152588
0.376701
0.321865
0.084639
0.393987
0.289679
0.391603
0.342727
0.326633
0.348687
0.376701
0.205636
0.368953
0.273585
0.308752
0.336766
0.366569
0.228882
0.312924
0.228882
0.431538
0.296831
0.341535
0.194907
0.280738
0.360608
0.413656
0.356436
0.448823
0.305772
0.484586
0.394583
0.526905
0.535846
0.665784
0.560880
0.685453
0.776649
0.573993
0.560880
0.646710
0.588894
0.557899
0.698566
0.851750
0.806451
2.234578
8.504987
32.862425
71.383715
164.494514
269.371867
427.515507
533.139706
625.605583
627.678037
545.376539
445.089936
298.148990
193.870664
96.499920
##END
