##TITLE=FQP00651
##FORMAT=SPECTACLE-ASCII V-1.2
##DATA TYPE=ULTRAVIOLET SPECTRUM
##SECOND TYPE=ULTRAVIOLET SPECTRUM
##DATE=03/01/18
##TIME=13:28:21
##SPECTROMETER/DATA SYSTEM=SPECTACLE
##XUNITS=NM EM
##YUNITS=ENERGY
##YFACTOR=1
##FIRSTX=220
##LASTX=410
##NPOINTS=96
##3DDATA=Equidistant
##ZUNITS=NM EX
##FIRSTZ=210
##LASTZ=400
##ZPOINTS=39
##XYDATA=(Y..Y)
##ZVALUE=210
2.555847
2.444983
2.003908
1.867414
2.708435
2.775788
2.860427
2.835989
2.748966
2.244711
2.099872
2.066493
2.148747
1.891851
2.945662
2.327561
2.467632
2.353787
2.492666
3.502965
2.950430
2.817512
4.435778
3.233552
3.724694
3.354549
3.871918
3.906488
3.121495
4.217625
4.586577
3.987551
3.262758
4.629493
4.456639
4.527569
4.156828
4.311800
4.444718
4.537702
5.139709
4.569888
5.264878
5.156994
4.649758
5.146861
4.801750
5.676746
5.096793
5.016923
5.020499
4.686713
5.000830
4.219413
5.193949
4.744530
5.700588
4.898906
4.787445
5.212426
5.091429
5.304813
5.605817
5.747676
5.612969
5.878806
6.745458
7.008910
8.447766
9.086728
11.215806
12.515783
14.713407
14.181733
15.537739
17.518997
19.015670
18.745661
20.410419
19.990802
18.678904
18.114448
15.643835
14.727712
9.930730
8.351803
7.561445
6.088614
5.861521
5.083680
5.033612
4.809499
4.929900
6.178617
5.507469
6.676912
##ZVALUE=215
7.509589
6.434917
7.011890
4.939437
5.079508
4.097819
4.058480
5.312562
5.353689
5.420446
5.304813
5.037785
4.126430
3.050566
3.220439
2.909899
2.825856
2.640486
2.908707
3.891587
3.902912
2.938509
4.484653
3.240705
4.253983
4.317760
4.188418
4.019737
5.277991
4.892945
4.888773
5.181432
4.975796
5.067587
5.139709
5.973577
5.111694
5.350709
4.902482
4.998446
4.760623
5.078912
5.250573
6.264448
5.378723
4.571676
5.179644
4.563928
5.684495
5.846620
4.558563
4.213452
4.994869
5.537868
5.963445
5.190969
6.555915
5.358458
5.343556
5.334616
6.404519
5.373955
5.997419
6.113648
5.492568
5.517602
5.759597
5.672574
7.067919
8.502603
9.478927
11.149645
13.621449
14.042854
14.750957
15.931726
15.401840
15.613437
15.779734
14.706850
12.738705
11.915565
11.466742
9.340644
8.354783
6.121993
6.359816
5.948544
5.913973
5.645752
4.984736
5.309582
5.631447
5.505681
5.658865
5.376935
##ZVALUE=220
22.857785
24.017692
27.553439
26.257634
23.698807
19.627810
14.646649
12.248755
11.843443
10.465980
11.541843
10.860562
12.176633
10.422468
8.300543
6.559491
6.066561
4.570484
3.836751
3.000498
3.789663
3.475547
3.702641
4.327893
4.230738
4.232526
4.451871
4.540682
4.935861
4.960895
5.252957
5.009770
5.138516
5.217791
4.667640
5.194545
6.138682
5.166531
6.291866
6.117821
5.916953
5.898476
5.588531
5.700588
5.464554
5.420446
5.339980
5.302429
5.735755
5.159974
5.365610
5.632639
5.874634
4.753470
4.590750
6.001592
5.706549
5.271435
4.992485
5.560517
6.258488
5.709529
5.671978
5.385876
5.867481
6.060600
6.291866
6.610751
7.679462
8.911490
9.650588
10.159612
12.121797
13.041496
14.019608
13.426542
13.841987
15.971661
15.413761
16.763806
15.267730
13.930798
12.578964
11.853576
9.740591
9.270906
7.884502
6.873608
6.862879
5.601645
5.947948
6.948709
6.591678
6.756783
6.042719
5.609989
##ZVALUE=225
38.109422
43.829679
52.313805
69.393516
73.979497
73.540807
66.265464
50.172806
38.020611
30.146837
23.371577
22.739768
24.142861
24.685860
25.725961
24.057627
19.061565
16.769767
10.904670
9.277463
6.144643
4.533529
4.919767
4.466772
3.926754
5.208850
5.144477
5.177855
5.820990
6.099939
6.267428
5.951524
5.667806
6.548762
7.794499
6.518960
7.085800
5.623698
6.615520
6.956458
6.728768
7.316470
6.908774
6.781816
6.332994
6.366968
5.830526
6.054640
6.011724
5.524755
5.975962
6.398559
6.489754
7.442832
6.354451
6.124973
5.838871
6.510615
7.112622
6.615520
6.839633
6.802678
6.010532
6.815791
7.590652
6.632805
7.909536
8.657575
9.444952
10.266900
10.656714
11.968613
12.825727
14.290810
17.703772
14.570951
15.597939
16.201735
15.261769
15.022755
14.935732
14.594793
14.192462
12.936592
11.053681
11.012554
10.885596
8.168817
9.131432
8.510947
7.857680
8.400679
7.849932
8.339882
8.308887
8.025765
##ZVALUE=230
35.608411
36.795735
69.188476
100.491643
140.705705
171.356797
185.304880
169.091821
151.152611
118.839741
85.445642
59.400797
48.515797
42.987466
44.479966
47.572851
49.974918
48.486590
43.367743
34.360886
25.100708
19.123554
12.700558
7.888675
5.836487
5.011559
6.152987
5.379915
6.426573
7.033944
7.370710
7.593632
6.010532
7.431507
8.020997
7.914901
7.737875
8.939505
7.419586
7.695556
8.684993
8.564591
8.350611
8.527637
7.564425
7.155538
7.502437
8.378625
7.924438
8.193851
8.887649
8.842945
8.291602
8.013844
7.909536
8.751750
8.968711
8.990765
9.928942
9.190440
9.364486
9.573698
10.166764
10.622740
9.778738
11.053681
10.819435
11.167526
11.589527
13.704896
14.722943
17.147660
18.100739
21.164417
21.505952
23.101568
22.523999
24.613738
25.368929
23.601651
23.140907
22.552609
21.368861
19.664764
17.958879
17.469525
16.496778
15.482903
14.017820
12.603998
14.526844
12.369752
12.182593
12.059808
11.167526
12.679696
##ZVALUE=235
11.685491
14.786720
33.572912
76.947808
131.881833
211.425424
280.746818
369.547009
416.178703
426.991582
399.940610
333.161950
243.177414
177.694559
110.351443
87.084770
75.572729
78.781843
83.015561
83.251595
77.298880
65.713525
54.486990
37.761927
26.154518
15.315413
12.836456
9.184480
9.345412
9.682775
9.633899
9.705424
9.750724
9.187460
10.463595
9.458661
10.571480
10.034442
10.378957
9.490848
11.678934
10.515451
10.684729
10.606647
11.169910
9.799600
10.957718
10.997653
10.421872
10.233521
12.586713
10.826588
10.205507
9.499788
11.899471
13.140440
12.632608
12.109876
12.917519
13.674498
14.475584
15.197992
14.886856
13.172626
14.570951
14.846921
17.356873
17.277598
20.637512
21.484494
24.536848
26.683807
29.048920
31.416416
33.692718
35.699606
37.090778
37.256479
37.629604
35.503507
36.585927
33.917427
31.118989
27.972460
25.998950
25.500655
23.024678
23.838878
21.198988
19.921660
20.054579
19.248724
19.134879
19.527674
18.423796
19.363761
##ZVALUE=240
2.880692
2.787709
10.788441
29.877424
82.486868
158.225894
310.841799
462.377667
661.028028
779.961944
850.652456
812.442899
726.343989
552.296638
420.451760
259.743929
181.883574
117.381811
101.552606
103.579760
116.390586
121.086836
114.963651
104.790926
84.460974
68.285465
48.430562
34.829974
20.632744
15.066862
13.024807
10.337830
9.451509
10.293722
9.715557
10.731816
10.068417
10.005832
9.096861
11.008978
10.888577
11.545420
10.322928
10.002851
12.422800
10.717511
9.699464
12.155771
11.305809
10.960698
11.245608
11.457801
11.894703
12.903810
12.631416
12.993813
12.666583
13.117790
13.218522
14.049411
13.302565
14.378428
13.203621
15.461445
14.533997
15.223622
17.081499
19.976497
20.724535
24.432540
27.022958
30.959845
33.348799
34.583807
39.848685
37.937760
41.607618
40.235519
42.731762
41.152835
39.340854
35.031438
33.727884
29.985905
27.842522
25.979877
25.881529
26.749969
25.112629
25.394559
23.636818
24.132729
21.234751
23.663640
21.803975
23.050904
##ZVALUE=245
1.780987
1.796484
1.645684
2.354980
3.541708
18.082857
48.403740
131.651759
235.780478
424.760580
581.055880
776.900649
863.773823
889.893770
816.487670
653.677583
504.746437
322.730541
215.143561
121.044517
101.975799
96.377730
112.953782
122.429729
130.241513
124.677420
111.912489
95.738769
72.072744
51.840544
34.574866
22.061467
14.328957
9.142756
7.846951
7.703900
7.799864
7.595420
7.481575
7.924438
7.765889
8.034706
8.075833
8.538961
7.402897
7.812977
7.808805
7.699728
7.734895
9.013414
8.308887
8.751750
8.588433
8.894801
8.560419
8.835793
8.752942
9.658933
9.510517
8.471608
10.106564
9.579659
10.857582
11.186600
12.414455
12.738705
14.086962
13.887882
14.746785
17.901659
18.026829
20.523667
19.711852
24.927855
25.993586
27.003884
27.464628
28.206706
27.570724
27.619600
26.682615
24.795532
24.309754
24.477839
22.309422
22.982955
22.746921
21.106601
21.438599
22.419691
22.186637
22.074580
20.864606
21.313429
21.417737
21.140575
##ZVALUE=250
1.313686
1.559854
1.477599
1.453757
1.638532
1.941919
2.798438
6.639957
35.253763
89.447498
233.203769
385.544896
560.683608
774.133801
874.080658
919.376016
866.856575
713.281631
567.162633
359.455943
232.902765
148.286819
100.750923
93.294978
107.128620
119.382739
135.724545
140.717626
131.938457
119.357705
105.178952
74.894428
56.005716
31.644702
22.637844
12.815595
9.517670
6.918907
6.838441
6.671548
6.982684
6.282926
6.264448
7.261634
7.808805
6.399751
7.750988
7.317662
7.367730
7.367730
7.033944
7.455945
8.382797
7.090569
7.293820
6.983876
7.370710
7.681847
7.871985
7.690787
8.560419
8.825660
9.348989
8.858442
9.980798
10.755658
10.972619
11.834502
13.125539
14.777780
16.170740
18.789768
19.897819
21.765828
23.718476
26.061535
26.655793
27.858615
27.937889
26.885867
25.374889
24.154782
23.691654
22.765994
21.168590
20.791888
21.086931
20.019412
21.856427
20.429492
20.305514
19.653440
20.198822
21.536946
20.208955
21.273494
##ZVALUE=255
1.135468
1.367927
1.338720
1.572967
1.469851
1.549721
1.808405
1.653433
2.028942
5.612969
18.374920
68.657994
164.547563
380.352736
580.843687
871.579647
1015.750766
1015.750766
1015.750766
958.941579
776.721835
581.453443
330.990553
201.177001
110.263824
89.741945
88.221431
103.749633
128.082633
139.391422
149.921775
144.933462
131.481886
103.836656
83.086491
56.456923
38.860440
23.158789
14.194846
9.956956
8.574724
7.657409
7.809997
7.368922
7.480979
7.626414
7.657409
7.338524
7.685423
7.039905
7.142425
6.898642
7.062554
7.437468
6.809831
7.178783
7.537603
7.945895
7.493496
7.672906
7.118583
7.462502
7.771850
8.236766
8.701682
8.781552
9.736419
9.974837
10.503531
11.981726
13.131499
13.628602
15.839934
16.327500
17.839670
18.122792
18.191934
17.854571
17.969608
17.719865
18.693805
17.482638
17.420650
17.555952
18.298626
18.305779
18.665791
18.540621
18.907785
16.837716
17.440915
17.751455
18.333793
18.385649
18.611550
19.098520
##ZVALUE=260
0.958443
0.772476
0.913739
0.865459
0.996590
1.080632
0.971556
0.926852
1.109838
1.060963
1.402497
2.188683
5.748868
23.075938
51.069856
129.619837
224.011540
380.013585
520.977378
692.124963
770.079494
778.091550
687.992573
562.084913
371.121764
255.161524
147.888660
96.696615
74.298978
80.912709
97.169876
125.779510
143.561959
154.616833
148.419738
132.974982
107.831955
81.128478
57.044625
37.905574
24.100542
13.145804
8.468628
6.559491
5.875826
5.252957
5.722642
5.832911
5.170703
5.428791
5.423427
5.565882
5.840659
5.152822
5.348921
6.194711
5.206466
5.515814
5.895495
5.178452
6.475449
6.428957
6.196499
5.821586
6.924868
7.459521
7.608533
8.247495
8.858442
9.892583
10.634661
10.979772
11.541843
13.132691
12.721419
14.293790
14.469624
14.471412
14.440417
14.231801
16.925931
15.141964
15.905499
15.499592
15.243888
15.355945
16.789436
15.712976
16.290545
15.708804
16.054511
16.587973
18.238425
17.748475
17.156601
16.726851
##ZVALUE=265
1.026988
1.212955
0.639558
0.888705
0.895858
0.989437
1.207590
1.159906
1.214743
1.128912
1.502633
1.651645
1.493692
2.037883
3.775954
10.744929
41.316748
88.360906
205.387473
345.207453
644.131899
921.385884
1015.750766
1015.750766
1015.750766
1015.750766
957.793593
584.316850
355.371833
157.777667
86.738467
71.116686
82.424879
110.962987
133.391619
154.249668
155.256987
149.246454
135.894418
107.365847
84.671974
54.872632
36.160946
22.428632
13.824701
8.680820
7.456541
6.742477
6.863475
6.451607
6.709695
6.287694
6.197691
6.177425
6.387830
6.724596
6.353855
6.245971
6.792545
6.412864
6.769896
6.941557
6.878972
6.879568
7.959604
7.892847
8.164644
8.527637
8.769631
10.184646
9.962916
11.280775
12.042522
12.866855
15.348792
15.173554
14.655590
16.008615
15.995502
15.821457
15.536547
14.738441
15.323758
14.778972
15.031695
14.968514
15.904903
15.885830
15.556812
16.103983
15.715957
16.003847
15.573502
15.740991
16.028881
16.327500
##ZVALUE=270
1.128912
1.010895
0.901818
1.042485
1.043677
1.097918
0.999570
0.994802
1.207590
1.229644
1.583695
1.454949
1.430511
1.639724
1.714826
2.037883
2.335906
8.886456
24.730563
83.755851
193.015933
374.023914
745.884776
1015.750766
1015.750766
1015.750766
1015.750766
1015.750766
1015.750766
999.780893
695.679784
336.852670
173.181891
72.255731
64.815879
86.810589
109.671950
137.103796
153.785944
156.007409
154.199600
136.208534
115.067959
82.592964
59.678555
35.631657
24.413466
13.510585
9.698868
7.106662
6.780624
6.521940
6.741881
6.725788
6.707907
6.790757
6.696582
6.601810
6.697774
6.771684
6.792545
6.674528
7.070899
6.904602
7.107854
7.985830
7.869601
8.376837
8.741617
9.736419
10.807514
11.760592
11.744499
13.093948
14.182925
13.602972
14.375448
14.001727
14.641881
14.681816
14.588833
13.378859
14.160872
13.909936
14.020801
14.515519
14.768839
14.207959
14.569759
14.487505
14.596581
14.069676
14.629960
14.360547
14.579892
15.502572
##ZVALUE=275
0.758767
0.752807
0.734925
0.650883
0.863671
0.838637
0.811815
0.962615
1.163483
0.938773
0.993609
1.124740
1.082420
1.243949
1.316667
1.248717
1.271963
1.529455
1.741648
3.720522
13.362765
38.209558
119.427443
271.975994
602.811575
867.015719
1015.752554
1015.752554
1015.752554
1015.752554
1003.462672
690.277815
453.961492
219.269991
120.618939
58.652759
47.269464
59.149861
80.022812
109.629631
130.410790
148.311853
153.944492
147.804618
135.912895
106.378794
84.979534
57.878494
40.816665
23.664832
14.697909
9.206533
7.065535
6.203651
6.019473
6.007552
5.746484
5.714893
6.300807
6.487966
6.726980
6.487966
7.052422
7.366538
7.282495
7.554889
7.804632
8.203983
8.467436
9.316802
10.262728
10.133982
11.277795
11.344552
11.487603
11.721849
12.524724
12.439489
12.184978
12.784600
12.567639
12.948513
13.376474
12.707710
12.807846
12.133718
12.493730
12.987852
12.845993
13.301969
12.981892
13.191700
13.341904
13.871789
13.213754
13.944507
##ZVALUE=280
0.694990
0.491738
0.599623
0.697970
0.790954
0.690818
0.791550
0.797510
0.662804
0.862479
0.774860
0.818968
0.862479
0.680685
0.932813
0.876784
1.016855
1.026988
1.119971
1.226664
1.431704
1.745820
8.047819
26.545525
80.848932
151.960850
289.720893
427.704453
615.306497
731.137991
805.881023
807.905793
739.732981
576.449633
429.142714
247.816443
149.791837
69.809556
41.931868
39.879680
54.984689
82.596540
104.061961
130.014420
143.943429
152.154565
145.219564
127.524734
108.751655
76.552629
58.082938
36.105514
23.113489
13.508797
8.774996
6.212592
5.562901
5.641580
5.871654
5.659461
5.920529
6.028414
6.436706
6.377697
7.101893
6.939769
7.290840
7.896423
7.923841
8.258820
8.894801
8.969903
9.522438
9.695888
10.240674
10.994673
11.177659
11.775494
11.335611
11.802912
12.091994
11.466742
12.820959
12.370944
12.527704
12.427568
11.901855
11.936426
12.469888
12.517571
12.465715
12.372732
12.708902
12.278557
12.491941
12.435913
##ZVALUE=285
0.472665
0.437498
0.568628
0.421405
0.463724
0.618696
0.551939
0.587702
0.472665
0.695586
0.554919
0.558496
0.717640
0.578761
0.726581
0.732541
0.781417
0.802875
0.922680
0.988841
1.081824
1.080632
1.276731
1.367927
3.867745
12.873411
44.323802
92.636943
202.461481
314.777493
415.711999
615.851879
720.662475
775.495768
745.262504
622.785687
494.390726
318.729877
202.855468
98.100901
53.284764
31.420588
33.184886
52.789450
73.859692
101.639628
121.684670
139.042735
145.093799
141.571760
129.951835
105.912685
85.369945
57.586432
39.598942
22.534728
14.552474
8.936524
6.898642
5.946755
5.667806
6.118417
6.451607
6.542802
7.027984
7.116795
7.309914
8.135438
7.989407
8.716583
8.993745
9.383559
9.857416
10.203719
10.612607
10.760427
10.692477
11.098981
11.398792
11.596680
11.514425
12.036562
11.836886
12.125969
11.900663
12.274981
12.007952
11.801720
12.216568
12.198687
12.263656
12.357831
11.848807
12.386441
12.296438
12.174845
##ZVALUE=290
0.377893
0.670552
0.593662
0.641942
0.653863
0.630617
0.415444
0.466704
0.621676
0.600815
0.745654
0.692606
0.601411
0.547767
0.755787
0.678897
0.687838
0.616908
0.682473
0.772476
0.913739
0.956655
0.927448
1.253486
1.149774
1.022816
1.580715
5.203485
23.946762
55.962801
112.236738
240.640640
369.022489
555.757880
669.857860
754.703879
746.488571
653.435588
533.162951
362.192988
242.070556
122.250915
66.357851
29.692650
23.103952
33.473969
46.950579
70.160627
91.986656
118.519664
133.044720
143.807530
140.847564
126.206875
106.416941
78.382492
58.162808
36.988854
24.699569
14.706850
10.296702
7.329583
6.476641
6.614923
6.621480
6.946921
7.628798
7.761717
8.224845
8.578897
8.759499
9.404421
9.852648
10.335445
10.601878
11.130571
11.011958
11.439919
11.381507
11.524558
11.351705
12.182593
12.261868
11.863708
11.990666
12.314916
12.630820
12.252927
12.656450
12.285709
12.025833
11.787415
12.316704
11.822581
11.691451
11.635423
##ZVALUE=295
0.534654
0.420809
0.435710
0.316501
0.402927
0.551939
0.438690
0.490546
0.500679
0.587702
0.399947
0.471473
0.506639
0.566840
0.623465
0.708699
0.600815
0.617504
0.667572
0.885725
0.701547
0.811815
0.874996
1.006722
1.098514
1.091957
1.151562
1.083612
1.281500
2.476573
8.298755
34.204721
79.671741
186.564922
300.185680
477.527976
594.178438
714.574456
740.747452
686.730742
590.273738
424.132943
299.498439
162.297487
89.184642
35.053492
20.894408
19.505620
27.840734
45.467615
63.956976
89.812875
108.916759
126.857758
135.288835
132.939816
121.509433
100.493431
80.006719
55.576563
39.118528
24.254918
16.694665
10.666847
8.797646
7.946491
7.821918
7.961988
8.872747
8.814931
8.978844
9.882450
9.794831
10.235906
10.875463
11.164546
11.634827
11.448860
11.750460
11.828542
11.571646
12.203455
12.392998
12.305975
12.087822
12.452602
12.159944
11.895895
11.985898
11.821985
12.113452
11.940598
11.505485
11.654496
11.880994
12.078881
##ZVALUE=300
0.406504
0.398755
0.326633
0.261664
0.395775
0.551939
0.512600
0.481606
0.552535
0.404716
0.504851
0.539422
0.536442
0.485778
0.419617
0.658631
0.644922
0.535846
0.609756
0.629425
0.638962
0.657439
0.561476
0.682473
0.807643
0.791550
0.909567
1.035929
0.986457
1.054406
1.055598
1.209974
5.095601
17.716885
61.090589
121.085644
249.096751
373.286009
547.276735
648.159981
731.689930
724.748969
634.487867
519.181490
349.226594
227.307677
116.680861
63.371658
27.353764
15.443563
16.836524
25.051832
41.235685
58.199763
81.852674
103.429556
122.628808
128.578544
126.884580
117.618442
98.001957
81.469417
56.515932
41.048527
25.792718
18.038750
12.040734
10.139942
8.868575
8.917451
9.293556
9.597540
10.118484
10.441542
10.959506
10.834932
11.372566
11.154413
11.609793
11.924505
12.397766
12.169480
12.491941
12.107491
12.387633
12.840629
12.579560
12.258887
12.410879
12.069941
11.881590
12.169480
11.223555
11.960864
11.628866
12.124777
##ZVALUE=305
0.557899
0.346899
0.418425
0.435710
0.512600
0.302792
0.529885
0.459552
0.381470
0.541806
0.422597
0.473857
0.486970
0.433922
0.417829
0.446439
0.409484
0.381470
0.530481
0.613928
0.614524
0.545979
0.410676
0.632405
0.641942
0.770688
0.790954
0.767708
0.753999
0.910759
0.803471
0.886917
1.071692
1.290441
2.132654
11.774898
32.993555
95.352530
172.159672
320.657492
450.423956
606.941581
693.089962
716.473460
668.792725
537.584424
420.219898
260.931849
164.910555
77.835917
39.247870
16.382933
12.275577
16.449690
23.845434
40.742755
56.855679
79.624653
98.022819
113.667846
121.736526
120.812654
112.420917
93.394518
76.754689
53.122640
39.547682
25.724769
17.801523
12.513995
10.828972
10.012984
9.826422
10.552406
10.524988
10.910630
10.929704
11.030436
11.859536
11.545420
12.221932
12.300611
12.443662
12.700558
12.936592
12.541413
12.115836
12.772679
12.750626
12.390614
12.135506
12.233853
11.894703
11.288524
11.860728
11.622906
##ZVALUE=310
0.371933
0.413656
0.501871
0.392795
0.329614
0.465512
0.458956
0.393987
0.551939
0.604987
0.561476
0.299811
0.550747
0.430942
0.520945
0.459552
0.531673
0.670552
0.447631
0.426769
0.649691
0.455976
0.609756
0.674725
0.680685
0.749826
0.667572
0.822544
0.636578
0.631809
0.717640
0.786781
0.861883
0.839829
1.086593
1.276731
1.477599
5.140901
17.060637
56.697726
113.701820
237.426758
357.775688
532.572865
644.299984
720.014572
706.933737
613.599420
503.998995
334.621668
222.106576
110.702515
60.390830
23.553967
12.365580
10.075569
13.906956
23.051500
32.992959
51.419735
68.667531
92.393756
105.618834
114.675760
116.570592
105.765462
95.616579
74.161887
57.529807
38.286448
27.859807
18.940568
14.756918
11.583567
11.159778
11.133552
10.940433
11.313558
11.620522
12.257695
12.105703
12.002587
12.719631
12.102723
12.604594
12.560487
12.695789
12.872815
12.392998
12.692809
12.608767
12.686849
12.011528
12.589693
12.113452
12.170672
##ZVALUE=315
0.331998
0.355840
0.344515
0.463724
0.459552
0.299811
0.255704
0.315905
0.364780
0.437498
0.350475
0.387430
0.460744
0.462532
0.559688
0.502467
0.363588
0.285506
0.692606
0.385642
0.574589
0.416636
0.540614
0.458956
0.453591
0.469685
0.616908
0.625849
0.708699
0.759959
0.721812
0.624657
0.641942
0.835657
0.758767
0.862479
0.998974
0.984669
1.201630
2.388954
8.824468
37.138462
81.125498
184.757710
298.946500
475.789905
593.543649
698.528886
716.066957
654.827952
560.481548
401.591659
278.940797
149.618983
81.295967
31.586885
15.257597
9.054542
9.685755
13.778806
19.538999
33.310652
46.593547
65.985918
83.426833
100.038648
110.026002
109.849572
103.181601
88.493824
73.179603
53.959489
40.301681
26.655793
20.095706
14.377832
12.551546
11.888742
11.772513
11.766553
12.382865
12.631416
12.572408
12.542605
12.710690
12.658834
13.013482
12.714863
12.300611
12.462735
12.006760
12.419820
12.168884
12.194514
12.162924
12.311935
##ZVALUE=320
0.337958
0.227690
0.189543
0.269413
0.351667
0.369549
0.357628
0.428557
0.390410
0.291467
0.367761
0.352859
0.301600
0.482798
0.370741
0.264645
0.461936
0.408888
0.419617
0.251532
0.390410
0.365973
0.498891
0.368953
0.419617
0.404716
0.622869
0.427961
0.657439
0.650883
0.607967
0.838637
0.734925
0.655651
0.566840
0.746846
0.821948
0.691414
0.892878
0.989437
1.229644
1.240969
4.159808
21.230578
54.736733
137.780905
229.175687
383.078456
508.637428
645.412803
705.142617
695.822835
631.461740
481.849909
352.398753
197.125673
112.687945
48.790574
23.303628
10.400414
8.264780
9.338856
11.897683
18.938780
27.628541
45.014620
59.000850
77.914596
91.730952
103.999972
105.091929
99.506974
87.804794
69.525838
54.690838
38.006902
28.472543
20.006895
15.922785
13.726950
12.593865
12.351871
12.376904
12.599826
12.374520
12.660623
12.485981
12.642741
12.545586
12.831688
12.186766
12.277961
12.258887
12.572408
12.441874
12.073517
##ZVALUE=325
0.290871
0.388622
0.331998
0.311732
0.258684
0.207424
0.395775
0.359416
0.297427
0.462532
0.289679
0.321865
0.326633
0.287890
0.280738
0.299811
0.394583
0.407696
0.412464
0.396967
0.459552
0.450611
0.415444
0.526905
0.476837
0.465512
0.458956
0.429749
0.565648
0.502467
0.589490
0.546575
0.578761
0.643730
0.645518
0.858903
0.706911
0.596642
0.816584
0.918508
0.802875
1.047850
0.850558
1.058578
2.547503
16.251802
41.201711
104.600787
186.748505
338.555574
465.985537
615.565777
692.861676
711.552501
658.905506
514.765978
391.342640
237.165689
142.892003
63.051581
31.640530
12.625456
8.756518
8.046627
9.217858
12.575984
18.190742
28.809905
40.816665
61.020851
75.211525
90.560913
98.716617
100.240707
93.749762
79.860687
66.486597
49.821734
38.182735
26.433468
20.440817
15.855432
14.179945
13.196468
13.056993
12.934804
12.428761
12.374520
12.565851
12.444854
12.299418
12.120605
12.244582
12.138486
12.155771
12.313724
##ZVALUE=330
0.294447
0.294447
0.241995
0.261664
0.319481
0.249743
0.271797
0.269413
0.374913
0.417829
0.349879
0.426769
0.408888
0.360608
0.394583
0.117421
0.415444
0.335574
0.385642
0.342727
0.399947
0.375509
0.443459
0.312924
0.458956
0.394583
0.291467
0.265837
0.399947
0.447631
0.481606
0.436902
0.455976
0.498891
0.584722
0.481606
0.490546
0.651479
0.673532
0.606775
0.757575
0.736713
0.829697
0.914931
0.962615
1.119971
1.455545
4.776716
25.597811
62.399507
148.909688
246.209502
413.909554
541.929603
679.714680
730.434656
689.409971
605.235696
444.255471
319.506526
175.570846
100.138783
41.294694
20.044446
9.442568
8.045435
8.118749
9.283423
13.155937
18.217564
29.513836
39.975643
56.699514
71.067810
85.854530
91.917515
94.490647
88.473558
76.192617
63.404441
46.907663
36.323667
26.539564
20.935535
16.077757
14.262795
12.744665
12.634993
12.464523
12.556911
12.028813
11.872649
12.186766
11.886954
11.846423
12.232661
##ZVALUE=335
0.268817
0.392795
0.216961
0.273585
0.118613
0.265837
0.322461
0.279546
0.375509
0.415444
0.478625
0.308752
0.260472
0.374913
0.394583
0.433922
0.309944
0.246763
0.362992
0.401735
0.375509
0.292659
0.299811
0.448823
0.411868
0.421405
0.437498
0.393987
0.489950
0.469685
0.517964
0.366569
0.545979
0.362992
0.365973
0.422597
0.417829
0.537634
0.539422
0.681877
0.508428
0.542998
0.499487
0.595450
0.780821
0.863671
1.014471
1.007915
0.941753
2.666712
9.223819
36.940575
80.288649
180.549622
295.599699
478.940606
602.864623
705.527663
713.879466
632.283688
525.141954
348.852873
234.709978
121.796727
63.935518
24.498701
12.504458
8.206964
7.894635
8.335710
9.409785
12.741685
17.489791
27.570724
38.015842
54.380894
67.490935
81.054568
87.390542
88.105798
83.386898
71.847439
60.893893
46.679974
37.018657
26.612878
20.963550
15.958548
14.237761
12.756586
12.266636
11.786819
12.005568
12.061000
11.517406
11.684895
##ZVALUE=340
0.285506
0.281930
0.298619
0.229478
0.350475
0.372529
0.220537
0.298619
0.344515
0.363588
0.314713
0.399947
0.288486
0.304580
0.404716
0.223517
0.249743
0.360608
0.312924
0.276566
0.381470
0.362992
0.170469
0.389814
0.368953
0.272989
0.368953
0.246763
0.217557
0.387430
0.338554
0.414848
0.278950
0.419617
0.490546
0.444651
0.513792
0.371933
0.484586
0.566840
0.481606
0.496507
0.582933
0.436902
0.725985
0.699759
0.574589
0.684857
0.643730
0.805855
0.906587
1.688600
5.001426
24.902821
60.610771
150.175691
255.067945
416.722894
528.090000
636.357665
666.459799
617.167950
531.049967
386.564732
266.613960
139.048696
78.493953
34.057498
16.078949
8.723736
7.974505
8.379817
8.448958
9.999871
12.068748
18.648505
25.630593
38.227439
50.009489
66.664815
75.817704
83.018541
83.772540
78.390837
71.699619
57.572722
47.924519
35.448670
27.907491
20.367503
15.870929
13.159513
12.258887
11.529922
10.861754
11.163950
##ZVALUE=345
0.186563
0.220537
0.047684
0.169873
0.177622
0.229478
0.297427
0.343919
0.222921
0.298619
0.230670
0.234842
0.249743
0.306964
0.341535
0.373721
0.296831
0.231862
0.230670
0.304580
0.244975
0.219941
0.290871
0.175834
0.100732
0.276566
0.375509
0.170469
0.270605
0.495911
0.307560
0.484586
0.521541
0.370741
0.394583
0.394583
0.499487
0.525713
0.366569
0.245571
0.398755
0.484586
0.467896
0.429749
0.612736
0.598431
0.575781
0.580549
0.753999
0.754595
0.632405
0.698566
0.908971
0.843406
2.412796
8.907914
37.952662
76.338649
165.925026
260.013938
402.538776
503.358841
582.938790
590.045452
522.254705
430.387855
290.658474
191.998482
92.093945
46.758652
18.047690
10.379553
8.240938
7.903576
8.074641
8.457899
9.444952
11.460781
16.639829
23.818612
35.424829
45.854449
59.221983
67.842603
75.845718
77.331662
73.337555
67.339540
56.271553
46.222806
34.317970
26.732683
19.424558
15.552640
12.778640
11.983514
##ZVALUE=350
0.143647
0.301600
0.222921
0.184774
0.233650
0.214577
0.300407
0.343919
0.323653
0.184774
0.327826
0.316501
0.389814
0.162721
0.120997
0.224710
0.304580
0.195503
0.279546
0.334978
0.314713
0.274777
0.298619
0.298619
0.295639
0.240803
0.472665
0.345707
0.346899
0.407696
0.426769
0.429749
0.439882
0.355840
0.377893
0.376701
0.295639
0.194907
0.421405
0.416636
0.406504
0.309944
0.505447
0.479817
0.527501
0.631809
0.511408
0.522733
0.395775
0.405908
0.522733
0.515580
0.697970
0.727773
0.826716
0.799894
1.428723
4.528761
21.420717
50.002933
119.611621
202.340484
334.694982
426.688790
525.029898
558.337569
528.157949
457.742810
323.829651
221.553445
114.701986
64.449906
26.839972
12.953877
7.736683
7.465482
7.372499
7.680655
8.293986
8.907914
11.158586
14.919639
22.811890
30.140877
41.570663
51.053762
62.263608
67.675710
70.595741
68.569779
61.101913
53.414702
41.400790
32.907724
24.538636
19.802451
##ZVALUE=355
0.268817
0.301600
0.194907
0.157952
0.175834
0.246763
0.197887
0.212789
0.181794
0.245571
0.152588
0.298619
0.262856
0.257492
0.243783
0.297427
0.340939
0.337958
0.274777
0.354648
0.280738
0.450611
0.489950
0.112653
0.254512
0.262856
0.299811
0.297427
0.500679
0.210404
0.354648
0.304580
0.393987
0.257492
0.154972
0.357628
0.261664
0.211596
0.436902
0.404716
0.391603
0.366569
0.356436
0.415444
0.367761
0.326633
0.530481
0.379682
0.444651
0.502467
0.462532
0.609756
0.508428
0.581741
0.609756
0.620484
0.783801
0.862479
0.965595
2.134442
11.816621
32.016635
87.159872
154.206753
279.862881
379.085541
487.582684
536.147952
524.928570
459.964871
341.186523
252.506733
144.330859
81.954002
33.500791
16.470551
8.423924
7.208586
6.988645
6.899834
7.285476
7.668734
8.489490
10.113716
13.726950
18.471479
27.089715
34.882426
46.646595
54.312944
61.634779
64.221621
62.694550
57.953000
48.608780
42.120814
##ZVALUE=360
0.281930
0.257492
0.238419
0.351667
0.206828
0.184774
0.107884
0.062585
0.204444
0.169873
0.174642
0.264645
0.227690
0.232458
0.213981
0.318885
0.238419
0.290871
0.272989
0.307560
0.227690
0.301600
0.325441
0.217557
0.279546
0.374913
0.287890
0.207424
0.400543
0.302792
0.367761
0.350475
0.198483
0.404716
0.291467
0.241995
0.418425
0.384450
0.294447
0.159740
0.383854
0.354648
0.400543
0.474453
0.569820
0.467896
0.364780
0.415444
0.401735
0.409484
0.534654
0.615716
0.522733
0.576973
0.650883
0.648499
0.776649
0.813603
0.842810
0.850558
0.853539
1.367927
4.153848
19.479990
46.184659
113.469958
194.624662
327.974558
427.064896
511.589646
533.969998
487.373471
408.972502
279.697776
186.713934
93.583465
50.742626
20.629764
10.391474
6.666780
6.766915
6.690621
6.748438
6.979704
6.894469
7.787943
9.008646
12.151599
15.448928
22.001863
29.447675
39.880872
46.936870
53.618550
57.770610
57.510734
##ZVALUE=365
0.207424
0.111461
0.157952
0.164509
0.426769
0.181794
0.148416
0.234842
0.195503
0.173450
0.379682
0.341535
0.289679
0.236630
0.226498
0.268817
0.257492
0.174642
0.173450
0.290871
0.308752
0.340939
0.186563
0.288486
0.194907
0.395775
0.342727
0.311732
0.422597
0.395775
0.399947
0.349879
0.267625
0.393987
0.278950
0.143647
0.456572
0.067949
0.257492
0.563860
0.238419
0.462532
0.346899
0.527501
0.510812
0.371933
0.258684
0.412464
0.387430
0.444651
0.371933
0.484586
0.505447
0.584722
0.466704
0.651479
0.512600
0.575781
0.501871
0.643730
0.718832
0.784993
0.769496
1.065731
1.897812
10.777712
28.245449
75.615644
139.531493
256.832838
346.792936
446.304679
488.975644
485.020876
430.325866
320.438743
233.372450
131.957531
74.503422
29.667616
13.935566
6.962419
6.221533
6.215572
6.197691
6.249547
6.257892
6.352663
6.540418
7.697940
9.679794
13.643503
18.044710
25.997758
33.350587
41.925907
##ZVALUE=370
0.178814
0.164509
0.134706
0.005960
0.241995
0.026822
0.109673
0.258684
0.144839
0.387430
0.403523
0.059605
0.136495
0.195503
0.167489
0.116825
0.440478
0.241995
0.232458
0.206828
0.208616
0.338554
0.314713
0.190735
0.168681
0.287890
0.219941
0.245571
0.220537
0.309944
0.320673
0.227690
0.223517
0.227690
0.329614
0.310540
0.338554
0.381470
0.297427
0.289679
0.412464
0.257492
0.213981
0.344515
0.402927
0.269413
0.210404
0.323653
0.376701
0.447631
0.313520
0.403523
0.357628
0.321865
0.523925
0.317693
0.323653
0.364780
0.417829
0.495911
0.605583
0.557899
0.410676
0.546575
0.746846
0.751615
1.138449
5.235672
17.209649
55.771470
105.581880
198.731422
288.636684
404.659510
462.324619
479.026437
442.501903
352.846980
265.743732
152.166486
88.496804
38.435459
19.227862
8.389950
6.228685
5.427599
5.538464
5.812645
5.656481
5.785823
5.886555
6.225705
6.690621
8.842945
11.300445
16.700625
##ZVALUE=375
0.168681
0.224710
0.164509
0.283718
0.163913
0.109673
0.170469
0.199676
0.054836
0.203848
0.277758
0.405908
0.314713
0.157952
0.287890
0.270605
0.155568
0.318885
0.176430
0.285506
0.364780
0.284910
0.189543
0.312924
0.321865
0.352859
0.206828
0.290871
0.075698
0.121593
0.332594
0.137687
0.123978
0.378489
0.293851
0.339746
0.349879
0.374913
0.378489
0.238419
0.184774
0.188947
0.121593
0.220537
0.345707
0.481606
0.267625
0.310540
0.270605
0.396967
0.291467
0.238419
0.372529
0.517964
0.306964
0.306964
0.450611
0.472665
0.364780
0.390410
0.514984
0.504851
0.613928
0.534654
0.476837
0.611544
0.622869
0.723600
0.850558
2.909899
9.711981
34.044981
72.128773
158.302784
246.700644
367.684960
436.000824
483.430624
461.570621
385.724902
296.755433
184.046626
116.964579
59.850812
31.549931
11.950731
6.928444
4.993677
5.189776
5.287528
5.319715
5.270839
5.184412
5.292892
5.578995
6.333590
##ZVALUE=380
0.206828
0.195503
0.184774
0.293851
0.292659
0.130534
0.100732
0.303984
0.234842
0.304580
0.255704
0.214577
0.094771
0.216961
0.164509
0.169873
0.181794
0.002980
0.191927
0.211596
0.209808
0.279546
0.323653
0.227690
0.210404
0.164509
0.265837
0.229478
0.136495
0.186563
0.129938
0.275970
0.274777
0.283718
0.401735
0.380874
0.323653
0.143647
0.109673
0.308752
0.200868
0.385642
0.330806
0.348687
0.363588
0.217557
0.120997
0.278950
0.244975
0.374913
0.306964
0.338554
0.278950
0.279546
0.287890
0.267625
0.200868
0.290871
0.312924
0.309944
0.505447
0.437498
0.322461
0.395775
0.418425
0.616908
0.521541
0.646710
0.618696
0.857711
0.864863
1.376867
5.646944
26.649833
60.402751
137.091875
214.033723
322.589874
401.017666
460.865498
461.772680
400.658846
331.704617
232.838988
157.563686
79.823732
43.154955
16.466975
8.247495
5.128980
4.960895
4.718900
4.672408
4.658699
5.064607
4.820824
##ZVALUE=385
0.057817
0.215769
0.167489
0.202656
0.222921
0.075698
0.190735
0.240803
0.180602
0.130534
0.187755
0.101924
0.098944
0.118613
0.142455
0.264645
0.249743
0.093579
0.244975
0.301600
0.225902
0.272989
0.311732
0.118613
0.222921
0.262856
0.141859
0.234842
0.191927
0.228882
0.209808
0.218749
0.280738
0.293851
0.295639
0.182986
0.134706
0.171661
0.268817
0.400543
0.244975
0.351667
0.287890
0.307560
0.283718
0.181794
0.245571
0.218749
0.348687
0.294447
0.302792
0.239611
0.341535
0.184774
0.405908
0.331998
0.322461
0.185966
0.430942
0.386834
0.347495
0.379682
0.508428
0.334978
0.247955
0.501871
0.551939
0.517964
0.581741
0.597835
0.690818
0.810623
0.877976
0.972748
2.758503
15.541911
43.814778
111.904740
191.621780
320.549011
407.539606
478.426814
487.137437
449.400544
390.415788
282.837749
200.852752
109.900832
63.579679
27.584434
12.625456
5.305409
4.547834
4.217625
4.174709
4.374981
##ZVALUE=390
0.234842
0.232458
0.261664
0.205636
0.091791
0.124574
0.231862
0.037551
0.089407
0.176430
0.249743
0.085831
0.112653
0.161529
0.372529
0.179410
0.104904
0.175834
0.193715
0.125766
0.126958
0.160933
0.251532
0.230670
0.044703
0.181794
0.154972
0.152588
0.163913
0.197887
0.228882
0.254512
0.382662
0.313520
0.270605
0.293851
0.240803
0.296831
0.279546
0.272989
0.175834
0.259876
0.359416
0.329614
0.215769
0.270605
0.292659
0.194907
0.192523
0.303984
0.300407
0.159740
0.322461
0.347495
0.186563
0.241995
0.347495
0.395775
0.230670
0.218749
0.472665
0.359416
0.463724
0.432730
0.429749
0.526905
0.594854
0.483990
0.510812
0.672936
0.664592
0.734925
0.655651
0.802875
0.974536
0.977516
2.909899
14.054775
56.706667
116.633773
234.998465
334.030986
449.905992
518.205762
551.888943
526.359677
442.300439
358.437896
239.089727
160.473585
83.639622
44.943690
17.575622
8.042455
4.439950
4.160404
##ZVALUE=395
0.173450
0.115633
0.103712
0.205636
0.171661
0.165701
0.195503
0.163913
0.267625
0.242591
0.243783
0.150800
0.228882
0.155568
0.113845
0.319481
0.238419
0.251532
0.209808
0.221729
0.096560
0.449419
0.248551
0.155568
0.197887
0.214577
0.116825
0.196695
0.266433
0.250936
0.214577
0.149608
0.251532
0.397563
0.330806
0.183582
0.338554
0.119805
0.281930
0.296831
0.247955
0.271797
0.245571
0.281930
0.336766
0.300407
0.269413
0.168681
0.191927
0.217557
0.295639
0.164509
0.252724
0.336766
0.141859
0.355840
0.400543
0.308752
0.440478
0.373721
0.424981
0.365973
0.353456
0.336766
0.484586
0.519753
0.409484
0.488758
0.680685
0.564456
0.673532
0.652671
0.797510
0.590682
0.670552
0.784993
0.700951
0.774860
1.021624
5.763769
24.420619
88.464618
167.832971
307.984948
422.181487
540.309548
587.164760
580.375791
527.341962
413.533449
310.360789
185.382962
117.643476
57.173967
28.404593
10.666847
##ZVALUE=400
0.150800
0.171661
0.136495
0.014901
-0.010729
0.114441
0.159740
0.195503
0.082850
0.123978
0.159740
0.267625
0.316501
0.250936
0.213981
0.060797
0.198483
0.161529
0.088811
0.157952
0.210404
0.153780
0.178814
0.177622
0.306964
0.254512
0.265837
0.188947
0.173450
0.421405
0.302792
0.158548
0.254512
0.219941
0.182986
0.272989
0.248551
0.206828
0.101924
0.194907
0.369549
0.192523
0.264645
0.242591
0.216961
0.331998
0.251532
0.326633
0.295639
0.254512
0.263453
0.152588
0.240803
0.191927
0.270605
0.247955
0.319481
0.279546
0.176430
0.327826
0.213981
0.247955
0.398755
0.364780
0.412464
0.383854
0.393987
0.451803
0.586510
0.677705
0.399947
0.621676
0.592470
0.525713
0.519753
0.549555
0.593662
0.719428
0.532866
0.623465
0.900626
2.209544
8.131862
33.566952
73.456764
161.020756
251.278877
377.206802
453.225970
502.959490
499.184728
423.389673
340.914726
221.699476
145.161748
73.725581
##END
