##TITLE=FQP00602
##FORMAT=SPECTACLE-ASCII V-1.2
##DATA TYPE=ULTRAVIOLET SPECTRUM
##SECOND TYPE=ULTRAVIOLET SPECTRUM
##DATE=03/01/18
##TIME=13:50:27
##SPECTROMETER/DATA SYSTEM=SPECTACLE
##XUNITS=NM EM
##YUNITS=ENERGY
##YFACTOR=1
##FIRSTX=220
##LASTX=410
##NPOINTS=96
##3DDATA=Equidistant
##ZUNITS=NM EX
##FIRSTZ=210
##LASTZ=400
##ZPOINTS=39
##XYDATA=(Y..Y)
##ZVALUE=210
1.858473
2.301931
1.663566
1.907945
2.062917
2.481937
2.135634
2.737641
2.418756
1.865625
2.334714
2.018809
1.892447
1.944900
2.059937
1.941919
2.283454
2.643466
2.489686
2.501607
2.683997
3.105998
2.996922
3.252625
3.014803
3.265738
3.164411
4.187822
5.506873
5.138516
5.313754
5.069971
5.389452
5.675554
5.508661
5.409718
5.741715
5.500913
5.820990
5.362630
5.600452
5.451441
5.426407
5.613565
6.091595
5.092621
4.797578
4.933476
5.318522
5.302429
4.794598
5.012751
4.977584
5.412698
4.529953
4.875660
4.293919
4.151464
4.460812
5.087852
3.950596
4.331470
4.482865
4.312992
4.708767
5.004406
4.254580
4.498959
4.382730
5.944967
6.401539
7.734895
9.106994
8.843541
10.102987
9.531975
10.831952
8.933544
8.720756
9.281635
8.347631
7.540584
7.562637
5.964637
5.514622
5.276799
4.961491
4.678965
4.115701
4.737973
3.999472
4.122853
4.678965
4.873872
4.262924
5.545616
##ZVALUE=215
6.698966
6.747842
4.830956
5.278587
5.210638
4.353523
4.127622
4.432797
5.184412
5.183816
4.183650
3.475547
3.350973
3.488660
3.340840
2.837777
2.836585
2.245903
2.974868
2.650619
2.704859
2.557635
3.368855
3.170967
3.866553
2.716780
4.561543
5.420446
5.283952
5.859733
7.474422
6.453991
7.489920
7.293820
8.885860
8.393526
8.159876
8.733869
7.928610
8.003712
7.782578
8.198619
7.252693
7.402897
7.533431
7.056594
6.886721
6.832480
5.946755
6.640553
5.287528
6.366968
6.107688
5.461574
5.765557
5.353689
5.615950
5.214810
5.283952
5.890727
6.308556
5.338788
4.700422
4.943609
5.023479
5.262494
4.618764
5.669594
6.804466
5.950928
6.477833
8.154511
8.815527
8.480549
9.765625
10.093451
10.075569
9.194613
8.882880
9.181499
9.108782
8.684993
8.286834
7.623434
6.536841
6.407499
6.055832
5.357862
4.547834
4.932880
4.362464
4.401803
3.964901
4.710555
5.089641
4.583597
##ZVALUE=220
21.228790
21.913648
23.779869
21.957755
19.177794
16.427636
12.667775
10.108948
10.200739
9.822845
10.355711
11.476874
10.409951
10.185838
9.255409
7.272959
4.950762
4.872680
3.787875
3.044605
3.091693
3.917813
3.558993
4.329681
3.433824
4.492998
6.142855
6.467700
7.398725
7.991791
10.261536
10.363460
12.227893
14.070868
12.946725
12.503862
13.134480
13.694763
13.470650
12.358427
13.188720
12.001991
11.894703
11.018515
10.799766
9.381771
9.622574
10.322928
9.732842
8.778572
7.820725
7.960796
7.474422
6.881952
7.317662
7.649660
7.009506
7.310510
6.134510
6.495714
6.326437
6.471872
6.254911
6.511807
7.302761
5.654693
6.690621
6.553531
6.452799
7.214546
7.697940
8.015633
9.046793
10.709763
9.439588
11.356473
11.041760
10.622740
11.076927
10.266900
10.193586
9.065866
7.784963
7.689595
6.849766
6.352663
6.803870
6.425977
6.387830
5.032420
6.308556
7.203817
6.376505
6.472468
6.462932
6.410480
##ZVALUE=225
41.589737
44.127703
53.594708
67.089796
66.647530
65.735579
58.183670
45.041442
33.800602
26.511550
23.540854
22.703409
24.744868
28.391480
25.950670
24.450421
19.494891
16.184449
11.883974
8.701682
6.237626
4.042983
4.848838
4.248619
4.154444
5.302429
5.572438
8.303523
9.586811
9.620786
12.265444
13.662577
15.048981
15.333891
16.302466
17.718673
18.288493
16.789436
18.155575
16.029477
15.757680
16.302466
16.338825
13.921857
13.446808
14.058948
12.957454
10.970831
11.792779
12.246966
10.924935
10.312796
9.975433
9.496808
8.926988
9.495616
8.817911
8.052588
8.977652
8.755922
7.715821
9.175539
8.233786
7.832646
8.585453
7.168651
8.327961
9.231567
9.829998
9.298921
10.284781
11.325479
12.300611
14.056563
15.260577
13.854504
13.640523
14.942884
13.496876
13.543963
14.368892
12.231469
11.885762
11.785626
10.373592
11.164546
10.995865
9.621978
9.316802
10.230541
10.699630
9.831786
9.819865
9.650588
10.155439
10.625720
##ZVALUE=230
38.735867
46.489835
71.382523
112.100840
143.683553
176.897645
183.157921
177.466869
154.640675
124.421716
88.423491
62.980652
47.414899
42.048693
46.521425
47.007799
49.808621
46.726465
43.425560
34.798980
27.085543
17.676950
13.054609
8.122921
6.444454
6.361604
6.977916
8.193851
9.680986
10.548830
11.325479
11.868477
13.539791
14.067888
15.304685
15.630722
17.135739
16.609430
16.511679
16.658902
15.884638
17.065406
15.618801
15.574694
14.396906
15.127659
16.908646
14.463663
14.547706
14.103651
14.671683
13.814569
13.241768
12.313724
12.944937
12.865663
11.624694
12.152791
12.007952
11.791587
12.547970
12.423992
13.583899
14.059544
13.184547
13.440847
13.714433
14.964938
15.932918
18.008947
18.101931
21.453500
20.772815
23.463964
24.369955
26.185513
26.351810
25.899410
26.403666
23.322701
24.878979
22.008419
20.459890
19.505620
18.953681
18.663406
18.200874
18.063784
20.014644
16.795993
18.261671
17.060637
17.927885
17.507672
17.945766
17.972589
##ZVALUE=235
11.379719
13.623834
40.574670
78.153610
166.452527
243.712664
364.095569
455.713868
532.298684
559.223890
508.002639
436.374545
343.900919
221.397877
154.825449
98.033547
78.439713
78.827739
83.801746
81.846714
77.040792
66.336989
51.144958
37.619472
24.865866
19.153953
13.541579
11.735559
9.585619
11.078715
11.496544
11.870861
11.477470
12.884736
14.054775
12.529492
14.017820
15.941858
15.729666
15.078783
14.425516
15.274882
15.146732
14.509559
15.273690
15.477538
15.288591
13.494492
16.311407
13.190508
14.943480
14.433861
14.513731
15.032887
15.025735
14.973879
14.577508
14.752746
14.412999
15.564561
15.449524
16.713738
16.859770
15.766621
18.049479
16.433001
18.077493
20.970702
20.891428
23.506880
24.212599
27.213693
30.038953
33.283830
35.855770
36.129951
37.140846
37.505627
36.029816
33.657551
33.422709
32.286644
31.692982
29.376745
28.180480
27.358532
26.454926
26.405454
26.710629
25.720596
27.173758
26.873946
24.874806
27.524829
27.218461
25.884509
##ZVALUE=240
2.180934
2.504587
5.089641
19.486547
46.255589
114.220977
190.487504
338.839889
482.890606
609.338880
745.257735
775.827765
734.371543
642.479658
486.839414
366.324782
222.700834
159.688592
123.347640
104.641914
111.306906
116.987824
116.922855
104.321837
85.775852
64.930916
48.249960
30.562878
21.596551
15.613437
12.405515
11.870861
11.735559
12.600422
12.408495
11.763573
13.592839
13.551712
14.450550
14.384985
14.282465
13.839602
13.654828
13.601780
13.518929
15.563965
14.772415
14.384985
15.596747
13.754964
14.127493
15.096664
14.639497
14.227629
14.828444
14.572740
14.242530
15.548468
16.194582
14.564991
15.797615
17.170906
16.666651
18.442869
18.798709
18.799901
20.351410
20.283461
21.948814
24.918914
25.784969
28.263927
30.092001
30.784607
32.904744
35.256743
35.222769
34.551620
34.995675
36.083460
33.344626
33.412576
33.201575
32.505989
30.818582
32.777786
31.733513
30.753613
33.909678
33.991933
31.185746
31.166673
31.760931
30.535460
32.852888
31.950474
##ZVALUE=245
1.610518
1.803637
1.830459
2.149940
3.515482
12.825727
37.049651
77.790618
176.987648
281.880498
431.693792
526.971817
599.077940
628.369451
581.839681
483.330488
384.232998
265.466571
185.450912
114.942789
94.389915
97.799897
111.492872
123.489499
129.508972
128.096938
115.191936
96.358657
71.170926
54.003596
39.654970
24.305582
16.272664
11.382699
9.651780
10.425448
11.156797
11.725426
11.705756
10.851622
11.062622
11.522770
11.622906
13.109446
11.816621
12.693405
12.217760
11.057854
12.266636
11.576414
10.448694
10.463595
11.279583
11.912584
11.859536
11.154413
11.906624
12.435913
12.169480
12.654662
12.760758
12.938976
12.283921
13.947487
15.435815
15.766621
15.563965
14.938712
17.224550
20.448565
21.322966
21.446943
23.287535
24.861693
25.050640
26.162863
28.320551
27.567744
29.028654
29.154420
30.178428
29.690862
31.329989
31.511784
30.558705
31.195879
30.904412
29.597878
30.401945
32.009482
30.471683
31.455755
31.773448
30.514598
31.355619
31.078458
##ZVALUE=250
0.869632
1.421571
1.330972
1.382828
1.733899
1.456738
1.941919
6.859899
29.454827
63.446760
154.526830
250.777006
356.627703
500.217676
578.974485
638.082623
629.316568
554.698706
467.037559
326.327682
216.450691
149.692893
99.177957
89.893937
106.363893
122.064948
135.097504
140.016675
134.406686
122.722983
103.356838
83.908439
64.507723
41.026473
31.134486
19.373894
16.398430
14.094710
14.370680
15.589595
14.304519
14.618635
15.277863
15.292764
14.500618
14.147758
13.635755
13.363957
13.053417
13.256669
13.350844
12.375712
12.677908
12.781620
12.064576
12.277961
11.852980
12.136698
12.642741
12.692809
13.307929
11.883974
13.257861
12.783408
14.253855
14.345646
14.420748
14.845729
16.874671
18.008947
19.324422
19.726753
21.580458
23.008585
23.512840
22.975802
24.532676
25.554895
26.146770
26.465654
27.970672
28.049946
28.698444
27.952790
27.918816
29.224753
28.427839
28.442740
30.483603
28.924942
29.237866
29.694438
30.565858
29.552579
31.057000
29.485822
##ZVALUE=255
1.127720
1.159906
1.134872
1.345873
1.117587
1.158714
1.272559
1.516938
1.843572
3.995895
20.337701
54.487586
109.257698
234.794617
347.929001
524.662733
630.058646
714.036822
732.883811
671.941638
573.735833
450.754762
281.836987
185.151696
107.723475
86.251497
89.520812
103.591681
132.990479
146.317482
152.237415
150.318742
138.825774
113.211870
94.216466
65.238476
50.376654
33.617616
26.613474
21.768808
20.669699
19.742846
18.198490
18.607974
18.008947
16.845465
16.525984
16.256571
16.472936
16.759634
15.722513
14.820695
14.521480
14.045835
13.716817
12.976527
13.647676
13.744831
13.251901
12.121797
13.448000
12.728572
13.306737
13.559461
13.610721
13.594627
14.224648
15.819669
16.087890
17.001629
17.518997
18.656850
20.136833
20.346642
22.244453
22.493601
22.087693
23.322701
24.622679
24.408698
25.990605
25.845766
25.128722
25.514960
25.763512
27.876496
27.981997
26.989579
28.014779
28.275847
27.551651
27.879477
27.340651
28.676987
28.476715
27.459860
##ZVALUE=260
0.875592
0.820756
0.907779
0.891685
1.163483
1.032948
1.407862
1.123548
1.131892
1.466870
1.621842
2.423525
7.357597
29.723644
68.505406
182.997584
298.897624
496.932864
650.577545
819.211602
875.437856
861.143470
732.508898
586.522818
384.668708
258.150697
153.479576
103.548765
82.600713
93.625784
112.324953
142.921805
160.923600
171.669722
165.735483
152.121782
133.871436
104.580522
80.296993
56.159496
44.432878
32.301545
27.758479
25.013685
22.979975
22.063851
21.807551
21.781921
20.736456
19.993782
18.624663
18.595457
16.839504
17.057657
16.191602
15.643835
15.660524
14.565587
14.423728
13.429523
14.176965
14.207959
13.607740
14.606714
14.466643
14.287829
14.478564
14.826655
15.386939
15.758872
17.187595
18.766522
19.290447
19.797683
21.787882
23.005605
23.114681
22.836924
22.838712
23.956895
22.959709
24.484992
24.204850
25.788546
26.140809
26.656985
26.717782
25.442839
26.761889
26.740432
27.197599
26.852489
26.638508
26.922822
27.712584
28.364658
##ZVALUE=265
0.926852
1.315475
1.247525
1.091957
1.028776
0.974536
1.305938
0.992417
1.132488
1.367927
1.154542
1.439452
1.384616
1.940727
4.584789
19.486547
45.620799
122.512579
226.373672
450.666547
679.199696
938.233733
1015.750766
1015.750766
1015.750766
1015.750766
825.886726
568.794012
312.035680
181.960464
109.189749
85.431933
99.727511
132.635832
154.671669
175.952911
180.809498
172.743797
161.749721
128.929615
109.216571
78.974962
60.351491
43.249726
34.966469
28.180480
26.376843
25.430918
23.625493
22.383928
20.502806
19.993782
19.660592
18.467903
17.820597
16.358495
16.288757
15.722513
16.504526
15.124679
13.915896
14.080405
14.523864
14.010668
14.704466
14.689565
14.175773
15.115738
15.412569
16.662478
17.252564
18.085837
19.380450
20.096898
20.425916
22.162795
21.563768
23.296475
23.598671
23.662448
24.596453
24.165511
24.505854
25.121570
24.249554
24.355650
24.459958
24.970770
24.612546
25.812984
24.711490
25.552511
25.802851
24.719834
26.087761
26.085973
##ZVALUE=270
0.751615
0.986457
0.955462
0.824928
0.718832
0.835657
1.100898
0.855923
1.129508
1.088977
1.166463
0.932813
1.165867
1.103878
1.389980
1.611710
2.441406
10.160804
26.535988
80.187917
166.515708
292.954445
540.203452
757.898688
997.483730
1015.702486
1015.702486
969.513655
744.479895
541.690588
365.418792
195.338726
119.178891
80.500841
83.189607
108.149648
132.408738
160.941482
175.723433
186.302662
176.411867
156.150460
137.861967
103.408694
82.535744
57.555437
43.708682
32.782555
28.097630
22.332668
20.363927
19.898415
19.045472
18.573999
17.266870
16.446710
16.409755
15.149713
15.482903
14.641881
14.368892
14.202595
14.519691
13.046861
13.616681
13.496876
14.413595
14.455914
14.574528
15.364885
16.234517
17.406940
17.806888
18.564463
18.209815
19.159913
19.347668
20.583868
19.484758
20.892620
20.892620
21.211505
21.474957
22.303462
22.178888
22.658706
22.499561
23.399591
23.634434
23.635626
23.010969
22.910833
22.502542
23.504496
24.038553
24.701953
##ZVALUE=275
0.783801
0.795722
0.884533
0.889897
0.899434
0.899434
0.811815
0.836849
0.801682
0.922680
0.979900
1.135468
1.098514
0.929832
1.181960
1.327991
1.238585
1.583695
1.607537
5.002618
16.578436
44.255853
128.544569
243.523717
457.677841
641.148686
886.467695
1015.750766
1015.750766
1015.750766
986.957550
720.162988
507.114530
271.653533
156.498551
81.642866
66.296458
80.590844
100.684762
129.241943
152.140856
170.708895
177.116990
167.446733
152.978897
123.816729
101.401806
75.412989
55.571795
37.531853
28.494000
21.242499
19.004941
16.845465
15.776753
15.368462
14.532804
14.522672
14.930964
14.153719
13.362765
13.541579
13.850927
13.258457
13.776422
13.025999
13.588667
13.821721
14.700890
14.973879
15.904903
16.018748
17.228723
18.079877
17.917752
18.901825
19.531846
18.962622
20.132661
19.982457
20.359755
21.280646
20.885468
21.292567
21.463633
22.268891
21.972656
22.282600
21.888614
22.501945
22.567511
23.644567
21.697879
22.756457
23.787618
22.882819
##ZVALUE=280
0.660419
0.641942
0.654459
0.827909
0.672936
0.637770
0.869632
0.871420
0.802875
0.809431
0.661612
0.867844
0.907779
0.948906
1.013875
0.928640
1.091957
1.299977
1.455545
1.506805
1.449585
2.190471
10.612011
31.690598
99.541545
185.253620
362.903476
529.513955
777.451992
964.452624
1015.760899
1015.760899
1015.760899
856.439471
627.665520
356.787443
211.099982
94.106793
56.836605
53.483844
68.301558
95.695853
117.931962
146.367550
160.079598
163.926482
158.543587
140.987635
121.973753
91.018677
69.316626
45.270920
32.891631
22.204518
16.343594
14.231801
13.183951
12.931824
12.037754
12.313724
12.366772
13.063550
12.877584
13.122559
12.802482
13.668537
14.035702
14.198422
14.360547
15.003681
15.622973
16.319752
16.808510
17.534494
18.878579
18.887520
18.792748
19.122958
19.838810
19.618869
19.905567
20.649433
20.475984
21.161437
21.389723
21.221638
21.428466
21.726489
21.426678
20.946860
21.856427
21.368861
21.779537
21.575689
22.776723
21.993518
##ZVALUE=285
0.473857
0.680685
0.727773
0.676513
0.623465
0.775456
0.765920
0.637770
0.788569
0.846982
0.661612
0.751615
0.657439
0.966787
0.798702
1.071692
0.827909
1.272559
1.053810
1.036525
1.337528
1.305938
1.718998
1.907945
5.305409
17.616749
55.629611
113.292933
248.838663
395.754576
568.290949
795.648694
954.356790
1015.756726
1012.370586
874.226689
699.985623
441.752672
279.640555
133.115649
69.706440
38.242936
39.345622
59.725642
80.182552
110.586882
130.218863
147.737861
155.130625
149.009824
136.357546
111.919641
91.682673
63.845515
46.360493
28.857589
20.048618
14.396906
12.640953
11.296868
11.788607
11.569858
11.658669
12.368560
12.746453
13.060570
13.317466
14.532804
14.235973
15.490651
15.426874
16.943812
17.217994
17.273426
17.809868
18.858910
18.721819
19.213557
18.742681
19.769669
19.752979
20.229816
20.589828
21.843910
21.623969
21.650791
21.597743
21.889806
21.238923
21.285415
22.014976
21.019578
21.436810
21.109581
20.984411
21.432638
##ZVALUE=290
0.789762
0.813603
0.558496
0.572801
0.719428
0.590682
0.777841
0.811815
0.856519
0.912547
0.777841
0.917912
0.901818
0.931621
0.884533
1.090765
1.165867
0.942945
1.138449
1.114607
1.263618
1.099706
1.261830
1.289845
1.599789
1.847744
2.390742
7.999539
31.842589
74.619651
183.282495
315.469503
543.031693
726.202726
908.355713
968.946815
927.225947
815.023780
606.193542
445.339680
253.785849
149.704814
66.228509
35.724640
27.496815
34.228563
52.991509
71.354508
99.735856
120.397806
139.176846
146.093965
144.020915
132.484436
108.334422
87.747574
60.370564
43.717623
28.117895
20.163655
14.763474
12.191534
12.258887
11.890531
12.315512
12.815595
13.657808
13.411641
14.349818
15.257597
15.899539
16.838908
17.148852
17.403960
18.495917
18.553734
19.000769
19.344687
20.012856
19.926429
20.134449
20.820498
21.439791
21.322966
21.538734
21.620989
21.711588
22.086501
22.093654
21.362901
21.276474
21.469593
21.815896
21.939874
21.586418
21.434426
##ZVALUE=295
0.464916
0.504851
0.420809
0.501871
0.562668
0.530481
0.542998
0.625849
0.447631
0.603795
0.662804
0.816584
0.707507
0.701547
0.694990
0.529885
0.876784
0.680685
0.727773
0.640750
0.715852
0.877976
0.907779
0.916719
0.852942
1.141429
1.266599
1.326799
1.446605
3.072619
15.862584
45.157671
107.440948
261.128545
421.969891
650.499463
792.407990
898.630619
898.983479
795.598030
665.753484
472.811460
323.536992
168.880820
94.622970
38.834810
22.100806
21.910667
29.873848
48.538446
67.919493
92.734694
111.426711
133.066773
139.929652
136.920810
122.316480
102.509856
83.389878
59.019923
42.764544
28.483868
20.706654
15.846491
13.672709
12.847781
13.097525
13.086796
13.518929
14.966726
15.736818
16.065836
16.228557
17.773509
18.260479
18.752813
18.919706
19.618869
19.508600
20.566583
20.106435
20.903945
20.347834
21.011829
21.538734
22.035837
22.360682
21.853447
21.582842
21.693707
22.031665
21.484494
21.322966
21.094680
21.357536
21.508932
##ZVALUE=300
0.463724
0.393987
0.507832
0.318885
0.398755
0.346899
0.621676
0.508428
0.476837
0.411868
0.533462
0.508428
0.522733
0.531673
0.541806
0.635982
0.647902
0.605583
0.677705
0.694990
0.732541
0.774860
0.790954
0.738502
0.759959
0.729561
0.920892
0.943542
1.349449
1.304746
1.517534
1.729727
6.238818
21.937490
79.935789
164.364576
349.646807
528.301597
763.709545
887.750983
940.398574
894.934535
737.406015
591.614842
384.193659
247.216821
126.397014
67.163706
27.061701
17.160773
18.625855
26.242733
42.821765
58.973432
84.879994
105.376840
123.252869
131.471753
130.984783
121.205449
102.612972
84.116459
59.861541
45.288801
30.188560
22.032857
16.601682
15.030503
14.543533
14.688969
15.597939
15.421510
17.409921
17.002821
18.219948
18.569827
19.420981
19.584894
19.872785
20.872951
20.676851
21.852851
21.836758
21.776557
22.246838
22.188425
22.597909
22.708774
21.986961
22.303462
22.120476
22.041798
21.918416
21.790862
21.767616
21.084547
##ZVALUE=305
0.383854
0.538826
0.490546
0.436902
0.395775
0.395775
0.421405
0.741482
0.570416
0.540614
0.513792
0.380874
0.564456
0.749826
0.517964
0.693798
0.535846
0.669956
0.695586
0.594854
0.560880
0.547767
0.686646
0.682473
0.680685
0.699759
0.879765
0.876784
0.814795
0.881553
1.102686
1.141429
1.328588
1.500845
2.929568
15.185475
42.413473
124.492645
232.546926
436.758995
610.276461
812.025666
905.425549
908.088684
817.291737
614.788532
465.775728
291.996598
179.908872
82.759857
42.436719
17.283559
13.132691
17.541647
25.142431
42.156577
58.425665
83.908439
99.902749
118.018985
125.102997
123.533607
115.894675
98.460913
81.511736
59.875846
44.639707
30.167699
22.897720
18.573999
16.823411
16.834736
17.077923
17.526746
18.023849
18.806458
19.539595
19.771457
20.916462
20.638704
20.859838
21.942854
22.189617
22.978783
22.862554
23.467541
23.006797
22.908449
23.054481
22.716522
22.637844
22.664666
22.618771
22.796988
21.784902
22.187829
##ZVALUE=310
0.349879
0.401735
0.404716
0.374913
0.367761
0.277758
0.478625
0.435710
0.298619
0.338554
0.463724
0.299811
0.425577
0.498891
0.377893
0.443459
0.507832
0.546575
0.523925
0.679493
0.531673
0.471473
0.549555
0.592470
0.576973
0.600815
0.670552
0.860691
0.692606
0.687838
0.763535
0.981688
0.869632
0.998974
1.125932
1.170635
1.377463
6.191730
21.171570
69.683790
134.886503
272.187591
403.836966
585.993528
695.087910
776.194930
765.284896
664.776564
545.416474
363.547802
243.268609
121.060610
65.844655
25.973916
13.462901
11.382699
15.283823
23.827553
34.880638
54.466724
71.036816
94.990730
108.528733
120.283961
120.772719
110.916495
99.491477
79.154968
63.696504
43.808818
33.956766
25.683641
21.408796
18.415451
18.564463
18.476844
19.446611
19.748807
20.615458
21.031499
21.583438
22.230744
21.939874
23.152828
22.605658
22.922754
22.987723
23.669600
23.558736
23.658872
23.399591
22.856593
23.152828
22.331476
22.808909
22.622943
##ZVALUE=315
0.241995
0.414848
0.266433
0.379682
0.390410
0.355840
0.332594
0.360608
0.329614
0.418425
0.365973
0.393987
0.380874
0.386834
0.283718
0.324845
0.478625
0.209808
0.344515
0.406504
0.407696
0.330806
0.407696
0.406504
0.630617
0.502467
0.519753
0.575781
0.498891
0.744462
0.680685
0.674725
0.665784
0.817776
0.751615
0.746846
0.797510
0.878572
1.172423
2.933741
10.458827
43.897629
94.914436
207.586884
330.811739
519.458652
635.229945
740.261674
765.429735
700.607896
602.638721
431.903005
303.891897
163.416862
90.447664
35.427809
16.873479
10.007620
10.684729
15.233755
21.560788
35.046935
48.123598
68.758726
85.750818
104.134679
114.388466
115.489960
109.615922
93.311667
80.054998
61.476827
48.013926
33.533573
27.667880
22.352934
20.969510
20.870566
20.348430
21.608472
21.502972
22.238493
22.883415
22.752881
22.993684
23.461580
24.325848
23.619533
23.097992
24.076700
23.790598
23.280978
22.957921
23.413897
22.930503
22.750497
##ZVALUE=320
0.400543
0.258684
0.385642
0.386834
0.292659
0.241995
0.328422
0.288486
0.408888
0.318885
0.425577
0.318885
0.267625
0.247955
0.261664
0.553727
0.526905
0.264645
0.419617
0.394583
0.346899
0.438690
0.457764
0.629425
0.471473
0.432730
0.499487
0.485778
0.537634
0.712872
0.696778
0.630617
0.548959
0.526905
0.700951
0.745654
0.718832
0.806451
1.073480
0.895858
1.167655
1.643896
4.476905
24.416447
62.249899
157.021880
254.581571
412.079692
542.944670
681.207776
740.022659
727.971792
656.121969
505.471826
368.700624
205.975771
118.279457
51.926970
24.960637
11.359453
9.686947
11.141896
14.056563
21.549463
30.304790
47.873855
62.632561
82.904696
97.049475
110.156536
110.475421
104.885697
93.618631
76.239705
61.908960
45.371652
35.498738
28.746724
24.555922
22.378564
22.145510
22.198558
22.538900
22.438765
22.918582
23.455620
23.365617
23.708940
23.252964
23.959875
23.459792
22.880435
22.612810
23.329854
23.419857
23.285747
##ZVALUE=325
0.142455
0.288486
0.400543
0.314713
0.357628
0.379682
0.485778
0.430942
0.404716
0.298619
0.394583
0.329614
0.448823
0.403523
0.304580
0.342727
0.443459
0.412464
0.397563
0.430942
0.490546
0.396967
0.360608
0.473857
0.493526
0.300407
0.396967
0.509620
0.510812
0.508428
0.509620
0.522733
0.442863
0.610948
0.553727
0.642538
0.679493
0.669956
0.732541
0.818968
0.862479
0.866652
1.158714
1.136661
2.484918
15.249848
40.889978
108.905435
189.294815
342.680812
466.647744
616.696477
696.749687
724.828839
673.221946
536.695719
407.887697
250.510573
153.003931
69.332719
35.023689
13.944507
9.890795
9.921789
11.202693
15.687943
20.652413
32.581687
44.913888
65.621734
79.256892
96.513629
105.365515
106.816888
100.756884
87.653995
74.679852
58.644414
46.784878
35.051703
28.896928
24.752617
23.671985
23.049712
23.175478
23.407936
23.158789
23.598671
23.011565
23.421645
23.212433
22.998452
23.102760
22.952557
22.367835
23.337603
##ZVALUE=330
0.142455
0.126958
0.223517
0.265837
0.129938
0.168681
0.063777
0.210404
0.248551
0.278950
0.206828
0.131726
0.068545
0.176430
0.144839
0.239611
0.265837
0.076890
0.229478
0.212789
0.194907
0.272989
0.375509
0.268817
0.216961
0.344515
0.395775
0.294447
0.193715
0.290871
0.265837
0.360608
0.372529
0.381470
0.320673
0.581741
0.593662
0.371933
0.524521
0.515580
0.390410
0.661612
0.702739
0.729561
0.897646
0.811815
1.327991
6.436706
21.858811
72.403550
136.444569
267.300606
387.280583
548.936725
645.604730
707.122684
682.100654
575.323701
462.107658
299.146771
193.064809
92.287660
48.642755
20.625591
11.642575
9.926558
10.214448
12.043715
15.061498
22.388697
30.644536
45.962930
60.155988
79.326630
91.425776
99.980831
101.530552
94.414949
86.580515
69.945455
57.674646
43.875575
36.195517
29.489994
26.047826
23.691654
23.031831
22.539496
22.882819
22.688508
22.405982
21.824837
22.477508
22.133589
22.822618
22.107959
##ZVALUE=335
0.268817
0.289679
0.315905
0.270605
0.205636
0.243783
0.277758
0.297427
0.283718
0.343919
0.384450
0.450611
0.373721
0.373721
0.333786
0.266433
0.378489
0.327826
0.415444
0.278950
0.369549
0.232458
0.299811
0.496507
0.408888
0.365973
0.341535
0.512600
0.451803
0.476837
0.542998
0.494719
0.559688
0.454783
0.511408
0.601411
0.454783
0.546575
0.484586
0.620484
0.540614
0.673532
0.419617
0.765920
0.762939
0.837445
0.758767
0.899434
1.203418
2.964735
10.871887
44.358969
91.981888
200.005770
313.751698
482.487679
590.388775
680.228472
685.085654
614.522696
514.155626
353.542566
240.545869
127.817988
68.988800
27.448535
14.399886
10.224581
10.305643
11.215806
12.765527
16.079545
21.246672
32.498837
43.548942
60.894489
73.951483
87.608695
94.693899
97.022653
91.444850
80.636740
69.840550
56.227446
46.930909
36.472678
30.620694
25.640726
24.234653
22.511482
22.041798
21.783710
21.573901
21.314621
21.617413
21.314621
##ZVALUE=340
0.193715
0.232458
0.342727
0.113845
0.175834
0.082850
0.142455
0.128746
0.133514
0.094771
0.032783
0.186563
0.212789
0.286698
0.286698
0.324845
0.327826
0.321865
0.316501
0.314713
0.260472
0.221729
0.085831
0.401735
0.371933
0.264645
0.315905
0.311732
0.308752
0.374913
0.257492
0.455976
0.462532
0.141859
0.207424
0.442863
0.242591
0.482798
0.461936
0.464916
0.479817
0.432730
0.523925
0.334978
0.500679
0.732541
0.681877
0.736713
0.718832
0.863671
0.843406
1.508594
5.237460
26.380420
64.789653
156.414509
255.241990
408.838987
522.789955
633.188486
666.825771
627.858639
548.297763
402.586460
284.177661
150.941610
84.852576
36.791563
18.050671
10.831952
10.541677
10.624528
11.563897
13.979673
16.166568
22.935867
29.898882
44.362545
56.572556
73.339939
82.825422
91.763735
91.872811
87.189674
80.343485
66.640973
56.473613
43.846965
36.448836
29.306412
25.538802
22.267699
21.290779
21.029711
20.720959
20.551682
##ZVALUE=345
0.183582
0.199676
0.190735
0.160933
0.243783
0.206828
0.261664
0.247955
0.303984
0.325441
0.435710
0.305772
0.254512
0.308752
0.290871
0.141859
0.307560
0.185966
0.432730
0.383854
0.201464
0.288486
0.305772
0.385642
0.162721
0.430942
0.428557
0.248551
0.332594
0.440478
0.481606
0.358820
0.409484
0.485778
0.419617
0.437498
0.508428
0.339746
0.607967
0.405908
0.456572
0.523925
0.497699
0.590682
0.453591
0.434518
0.496507
0.720620
0.810623
0.648499
0.782609
0.930429
1.048446
0.919700
2.895594
12.024641
48.150420
97.053647
198.971629
300.854445
450.259447
548.459888
628.535748
635.025501
564.858913
468.416810
320.057869
213.771462
101.437569
52.322745
21.011829
12.689829
10.402799
10.703802
11.188984
11.778474
13.411641
16.148686
21.790862
28.616786
41.610599
52.548647
65.113902
75.342655
83.072782
85.735917
81.876516
76.056719
64.779520
54.801702
43.067932
35.106540
28.110743
24.066567
21.317601
20.354986
##ZVALUE=350
0.200868
0.132918
0.299811
0.122786
0.166893
0.131726
0.138879
0.208616
0.171661
0.206828
0.253916
0.377893
0.320673
0.295639
0.076890
0.127554
0.249743
0.224710
0.318885
0.309944
0.364780
0.263453
0.226498
0.306964
0.394583
0.189543
0.390410
0.306964
0.282526
0.273585
0.354648
0.327826
0.362992
0.249743
0.372529
0.288486
0.327826
0.351667
0.336766
0.344515
0.256896
0.547767
0.466704
0.274777
0.290871
0.427961
0.397563
0.510812
0.413656
0.478625
0.618696
0.523925
0.693798
0.767708
0.833869
0.830889
1.608729
5.759597
27.418733
62.029958
145.077705
234.775543
378.588438
486.772656
587.984920
621.543527
577.737689
499.505997
348.266959
236.185789
122.011900
69.640875
29.964447
15.500784
10.192990
10.019541
10.283589
11.060834
11.771917
12.835860
16.553998
20.318627
27.771592
35.723448
47.816634
57.897568
69.157481
74.680448
77.663660
76.364875
69.686770
62.129498
50.814748
42.078495
32.001734
26.957989
##ZVALUE=355
0.268817
0.402927
0.109673
0.184774
0.258684
0.322461
0.385642
0.256896
0.474453
0.323653
0.415444
0.363588
0.332594
0.230670
0.291467
0.336766
0.208616
0.228882
0.227690
0.301600
0.314713
0.356436
0.375509
0.324845
0.381470
0.431538
0.590682
0.374913
0.298619
0.297427
0.457764
0.286698
0.209808
0.231862
0.399947
0.413656
0.371933
0.193715
0.362992
0.315905
0.480413
0.445843
0.373721
0.376701
0.554919
0.490546
0.566840
0.430942
0.389814
0.504851
0.500679
0.515580
0.594854
0.552535
0.667572
0.743866
0.760555
0.939965
1.209974
3.409982
13.366938
49.621463
97.372532
196.155906
295.683742
436.211824
526.828766
594.424605
588.834882
506.086946
410.026908
269.652605
173.610449
81.711411
41.316748
16.600490
10.528564
9.788871
9.576678
9.988546
10.691881
11.596680
12.763739
15.062690
18.243790
24.876595
31.788945
42.357445
51.890612
61.246753
67.804456
71.355700
70.121884
64.240694
57.213902
47.926903
##ZVALUE=360
0.301600
0.158548
0.188947
0.094771
0.225902
0.264645
0.281930
0.246763
0.211596
0.144839
0.199676
0.208616
0.214577
0.301600
0.330806
0.421405
0.329614
0.143647
0.264645
0.372529
0.294447
0.329614
0.256896
0.285506
0.328422
0.402927
0.265837
0.247955
0.324845
0.419617
0.438690
0.294447
0.244975
0.307560
0.357628
0.398755
0.391603
0.470877
0.314713
0.397563
0.355840
0.418425
0.534654
0.392795
0.343919
0.359416
0.457764
0.387430
0.375509
0.488758
0.517964
0.608563
0.611544
0.662804
0.620484
0.688434
0.663996
0.656843
0.825524
0.988841
1.086593
1.835823
6.460547
29.645562
67.399740
152.064562
241.349936
370.101929
470.601916
563.282967
581.986904
537.066460
454.425812
310.729742
208.770633
104.705691
56.969523
23.733974
12.597442
9.217858
9.134412
9.590983
9.895563
10.012984
10.592937
11.212826
12.919903
15.916824
19.626617
26.659966
34.200549
45.279860
52.556992
60.774684
63.279867
63.921809
##ZVALUE=365
0.207424
0.117421
0.302792
0.339746
0.261664
0.295639
0.234842
0.196695
0.257492
0.266433
0.151992
0.359416
0.234842
0.177622
0.230670
0.296831
0.341535
0.246763
0.341535
0.162721
0.307560
0.321865
0.386834
0.195503
0.337958
0.350475
0.300407
0.293851
0.366569
0.311732
0.417829
0.204444
0.349879
0.193715
0.453591
0.326633
0.431538
0.481606
0.373721
0.380874
0.302792
0.485778
0.269413
0.478625
0.271797
0.407696
0.488758
0.442863
0.391603
0.443459
0.425577
0.647902
0.321865
0.536442
0.384450
0.801682
0.794530
0.560880
0.688434
0.643730
0.790954
0.868440
1.016855
1.217723
2.448559
14.454722
40.934682
104.814768
180.108547
303.202868
404.850841
508.216619
554.915667
538.869500
473.796725
345.610976
247.893929
138.879418
78.842640
32.452941
15.945435
8.850694
8.253455
8.197427
8.777976
8.873940
9.142756
9.681582
9.887815
11.517406
13.413429
17.881989
22.413731
30.473471
37.221909
46.455860
##ZVALUE=370
0.194907
0.183582
0.175834
0.322461
0.194907
0.187755
0.350475
0.172853
0.244975
0.244975
0.257492
0.215769
0.386834
0.167489
0.211596
0.170469
0.275970
0.214577
0.326633
0.293851
0.361800
0.293851
0.361800
0.280738
0.273585
0.263453
0.240803
0.297427
0.416636
0.400543
0.236630
0.191927
0.285506
0.218749
0.321865
0.386834
0.278950
0.289679
0.428557
0.380874
0.259876
0.286698
0.376701
0.369549
0.403523
0.471473
0.345707
0.396967
0.411868
0.359416
0.510812
0.396967
0.414848
0.460744
0.449419
0.491738
0.485778
0.538826
0.538826
0.716448
0.465512
0.745654
0.685453
0.681877
0.788569
0.914931
1.491904
7.146597
24.031997
75.256824
135.763884
248.273611
349.654555
472.661853
537.079573
547.744632
498.912930
391.544700
289.607644
164.025426
94.212890
39.974451
20.706654
10.275841
7.892847
7.594824
7.891655
7.861853
8.031726
8.337498
8.958578
9.207726
10.013580
12.373924
15.286803
20.534992
##ZVALUE=375
0.232458
0.221729
0.326633
0.188947
0.296831
0.139475
0.117421
0.301600
0.103712
0.152588
0.225902
0.211596
0.379682
0.293851
0.356436
0.067949
0.194907
0.297427
0.293851
0.288486
0.184774
0.096560
0.208616
0.274777
0.335574
0.330806
0.349879
0.303984
0.359416
0.302792
0.193715
0.305772
0.423789
0.313520
0.237823
0.205636
0.324845
0.325441
0.319481
0.477433
0.422597
0.380874
0.271797
0.391603
0.302792
0.298619
0.317693
0.393987
0.208616
0.466704
0.383854
0.326633
0.219941
0.267625
0.539422
0.337958
0.420809
0.454783
0.353456
0.449419
0.403523
0.450611
0.545979
0.457764
0.647902
0.712872
0.790954
0.835657
0.951886
3.452897
12.619495
44.746995
94.229579
196.670890
295.201540
424.621701
496.389866
538.731813
520.302653
427.923799
331.192613
203.577876
130.193830
66.052675
35.369992
14.338493
8.202791
7.010698
7.068515
7.180572
7.615685
7.424951
7.759929
8.293986
8.667707
9.155869
##ZVALUE=380
0.172853
0.149608
0.026822
0.123978
0.217557
0.296831
0.248551
0.287890
0.181794
0.212789
0.229478
0.376701
0.269413
0.178814
0.247955
0.190735
0.165701
0.232458
0.287890
0.194907
0.214577
0.186563
0.252724
0.328422
0.223517
0.208616
0.182986
0.394583
0.223517
0.137687
0.188947
0.202656
0.356436
0.271797
0.343919
0.255704
0.285506
0.208616
0.191927
0.217557
0.151992
0.367761
0.202656
0.418425
0.211596
0.247955
0.390410
0.301600
0.250936
0.434518
0.394583
0.460744
0.304580
0.329614
0.308752
0.452995
0.314713
0.351667
0.410676
0.494719
0.467896
0.486970
0.465512
0.518560
0.582933
0.671744
0.780821
0.554919
0.744462
0.734925
1.069903
1.512766
8.677840
26.367903
77.874660
138.962865
253.428817
356.788635
473.935604
526.547432
523.335934
470.864773
367.532969
276.439786
163.072944
97.316504
42.677522
21.677613
9.050965
6.592870
6.298423
6.575584
6.769896
6.823540
7.387996
7.248521
##ZVALUE=385
0.213981
0.230670
0.322461
0.118613
0.117421
0.237823
0.275970
0.198483
0.092983
0.298619
0.087619
0.163913
0.161529
0.248551
0.317693
0.267625
0.244975
0.406504
0.197887
0.309944
0.130534
0.039935
0.249743
0.088811
0.203848
0.252724
0.213981
0.192523
0.236630
0.170469
0.257492
0.330806
0.182986
0.296831
0.419617
0.337958
0.291467
0.155568
0.253916
0.408888
0.298619
0.349879
0.239611
0.285506
0.335574
0.290871
0.266433
0.373721
0.443459
0.295639
0.385642
0.373721
0.372529
0.262856
0.240803
0.255704
0.456572
0.396967
0.535846
0.321865
0.261664
0.436902
0.321865
0.408888
0.422597
0.469685
0.414848
0.619888
0.617504
0.671744
0.873804
0.778437
0.985861
1.207590
3.241897
18.561482
46.425462
111.342669
188.302994
315.287709
410.243869
502.325892
527.065992
493.983626
426.814556
308.846831
223.049521
130.477548
74.409842
30.307770
14.255643
6.584525
5.703568
5.641580
6.061792
6.013513
##ZVALUE=390
0.067949
0.163913
0.146627
0.030994
0.000000
0.143647
0.094771
0.019670
0.014901
0.078678
0.053644
0.122786
0.094771
0.172853
0.021458
0.020862
0.024438
0.054836
0.148416
-0.003576
0.069737
-0.033975
0.121593
0.000596
0.086427
0.108480
0.164509
0.125766
0.128746
0.026822
0.070930
0.223517
0.104904
0.093579
0.188947
0.145435
0.196695
0.192523
0.253916
0.188947
0.098944
0.108480
0.290871
0.045896
0.178814
0.182986
0.177622
0.129938
0.212789
0.231862
0.317693
0.267625
0.213981
0.199676
0.293851
0.195503
0.202656
0.165701
0.143647
0.232458
0.144839
0.245571
0.228882
0.400543
0.317693
0.369549
0.360608
0.473857
0.400543
0.479817
0.471473
0.597835
0.690818
0.544786
0.694990
0.887513
1.503825
9.645820
29.771924
85.815787
153.222680
273.956656
364.897847
462.095737
516.611934
528.251529
482.999682
378.080606
287.673473
174.113512
102.973580
43.687820
21.417737
8.281469
5.797744
5.282760
##ZVALUE=395
0.079870
0.286698
0.138879
0.291467
0.166893
0.205636
0.281930
0.218749
0.200868
0.178814
0.176430
0.142455
0.130534
0.244975
0.267625
0.281930
0.238419
0.302792
0.348687
0.273585
0.286698
0.178814
0.079870
0.095963
0.146627
0.218749
0.135899
0.236630
0.294447
0.296831
0.362992
0.453591
0.212789
0.335574
0.287890
0.378489
0.329614
0.351667
0.317693
0.306964
0.276566
0.385642
0.289679
0.260472
0.379682
0.332594
0.481606
0.456572
0.204444
0.455976
0.352859
0.468493
0.269413
0.292659
0.321865
0.224710
0.313520
0.360608
0.353456
0.112653
0.308752
0.344515
0.413656
0.347495
0.430942
0.330806
0.422597
0.439882
0.659823
0.572801
0.448823
0.615716
0.743866
0.761747
0.804663
0.683665
0.836849
0.864863
1.001954
5.455613
19.258857
63.041449
114.532709
206.519961
297.381878
419.021845
489.319563
528.443456
511.682630
434.319973
342.780948
214.245915
137.734413
66.602826
32.979846
12.427568
##ZVALUE=400
0.204444
0.180602
0.247955
0.259876
0.166893
0.222921
0.292659
0.164509
0.274777
0.209808
0.074506
0.161529
0.213981
0.103712
0.037551
0.135899
0.202656
0.204444
0.242591
0.093579
0.247955
0.262856
0.123978
0.246763
0.170469
0.204444
0.498891
0.338554
0.312924
0.123978
0.508428
0.287890
0.372529
0.345707
0.221729
0.317693
0.203848
0.351667
0.264645
0.386834
0.278950
0.395775
0.454783
0.301600
0.362992
0.199676
0.250936
0.195503
0.404716
0.220537
0.397563
0.254512
0.305772
0.267625
0.384450
0.281930
0.325441
0.347495
0.369549
0.250936
0.375509
0.243783
0.337958
0.359416
0.426769
0.355840
0.321865
0.478625
0.622869
0.671744
0.571609
0.633597
0.666976
0.613928
0.602603
0.776649
0.587702
0.564456
0.714660
0.896454
0.846982
2.504587
9.971857
35.739541
74.695945
158.662796
243.958831
366.986990
444.989800
506.796837
515.315533
455.214977
376.106501
251.846910
168.121457
86.556673
##END
