##TITLE=QP00602
##FORMAT=SPECTACLE-ASCII V-1.2
##DATA TYPE=ULTRAVIOLET SPECTRUM
##SECOND TYPE=ULTRAVIOLET SPECTRUM
##DATE=03/01/18
##TIME=13:42:57
##SPECTROMETER/DATA SYSTEM=SPECTACLE
##XUNITS=NM EM
##YUNITS=ENERGY
##YFACTOR=1
##FIRSTX=220
##LASTX=410
##NPOINTS=96
##3DDATA=Equidistant
##ZUNITS=NM EX
##FIRSTZ=210
##LASTZ=400
##ZPOINTS=39
##XYDATA=(Y..Y)
##ZVALUE=210
2.662539
2.632737
2.005696
2.637506
2.526641
2.584457
2.261996
2.497435
2.830625
2.847910
2.706647
2.179742
2.128482
2.629757
2.410412
2.922416
3.052950
2.658963
2.841949
3.243685
3.219843
3.990531
3.529787
4.136562
3.942847
3.840923
5.302429
4.514456
4.264712
4.744530
5.889535
5.480647
5.761981
6.161928
4.839897
5.862713
6.262660
5.946755
6.449819
5.747676
6.492734
6.823540
7.079840
6.107688
6.332994
6.832480
6.737709
7.816553
7.844567
7.739663
7.787943
8.730888
9.111762
8.478761
7.461905
8.188486
8.923411
8.534789
9.487867
8.967519
8.720756
9.268522
10.581613
9.201765
9.855628
9.292960
9.873509
11.254549
14.287829
15.412569
19.279718
20.975471
24.109483
27.927756
32.945871
36.879778
36.434531
37.579536
38.492680
37.409663
32.069683
28.052926
25.287867
18.226504
16.812682
13.823509
12.693405
11.165738
9.693503
9.639859
9.474754
9.148717
9.143949
8.979440
9.433627
9.566545
##ZVALUE=215
6.444454
6.454587
5.606413
4.493594
3.707409
4.329681
4.144907
5.725622
4.761815
6.191730
6.271601
5.006790
4.267693
3.664494
3.621578
3.436804
3.181696
4.257560
3.603697
4.112720
3.300905
3.721714
5.196929
4.434586
4.862547
5.817413
5.471706
5.296469
5.406737
5.318522
6.191730
6.092787
6.576777
6.973743
6.500483
7.890463
6.400943
6.395578
7.499456
8.788705
7.063746
7.342696
7.226467
8.698702
8.224845
10.024905
8.869767
9.260774
7.726550
9.399652
9.138584
9.658933
10.551810
9.103417
9.701848
10.822415
9.950995
9.418726
9.141564
9.652972
9.759665
9.130836
9.998679
10.325909
10.095835
10.855794
11.778474
11.645555
15.414953
17.030835
18.991828
22.476912
25.457740
29.962659
33.466816
36.102533
36.786795
38.493872
38.199425
35.326481
34.533739
29.583573
26.315451
22.961497
19.391775
14.917850
13.085604
11.808872
11.376739
9.829998
10.508895
9.990931
9.775758
10.352731
10.514855
11.355877
##ZVALUE=220
20.446777
23.542643
23.237467
25.396943
22.680759
21.354556
14.719963
14.468431
11.590719
11.616945
10.947585
11.588931
12.435913
10.497570
9.930730
7.524490
6.116629
5.262494
3.760457
4.653931
3.959537
4.227757
4.844666
4.793406
5.020499
4.877448
6.058812
5.808473
5.305409
5.303621
5.526543
5.876422
7.109642
6.715655
6.923676
7.402897
7.701516
8.117557
8.540750
8.954406
8.561611
8.902550
9.042621
8.374453
9.981990
9.061694
8.635521
8.717775
9.679794
8.934736
9.505749
10.119677
9.500980
10.085702
10.655522
10.188818
12.193918
11.019707
11.154413
11.365414
11.486411
11.439919
10.971427
11.715889
12.786984
13.496876
12.264848
12.493730
16.311407
19.117594
22.218823
23.458600
29.492974
33.811927
36.850572
36.193728
40.093660
37.310719
37.118793
36.734939
32.086968
33.874512
29.829741
25.914907
21.861792
19.140840
16.029477
15.092492
13.801455
12.599826
12.949705
12.523532
11.863708
11.263490
11.362433
11.019707
##ZVALUE=225
38.779974
42.683482
53.423643
71.789622
80.370903
82.814693
78.050494
61.985850
49.800873
36.252737
27.696490
24.451613
24.693608
26.514530
25.609732
26.479959
20.583868
17.113686
12.686849
8.452535
7.160902
5.794764
4.169941
5.512834
5.565882
5.452633
5.318522
5.094409
6.121993
6.712675
6.086826
6.191730
7.545948
8.198619
7.130504
8.008480
8.280873
8.589625
7.999539
8.395910
9.397864
10.051727
10.012984
9.778738
9.650588
8.670688
10.692477
9.417534
9.716749
10.725856
9.817481
11.070967
11.369586
11.365414
10.758638
11.831522
11.697412
11.088848
10.751486
11.881590
11.839867
12.259483
11.491776
12.668967
13.319850
12.800694
15.279651
15.529990
16.894937
20.455718
21.795630
27.174950
28.990507
31.157732
34.038424
34.265518
36.391616
36.208630
35.091639
34.211874
31.484962
29.259920
27.007461
21.928549
20.381808
19.166470
16.926527
18.148422
15.873909
16.865730
16.022921
15.214682
15.262961
14.057755
15.438795
16.045570
##ZVALUE=230
30.568838
37.012696
59.414506
105.177760
140.052438
186.027884
211.135745
210.972428
197.300911
164.463520
111.127496
78.921914
51.829815
43.893456
43.871999
48.740506
49.483776
48.329830
43.973923
35.066605
29.634833
17.655492
13.579726
8.701682
7.200837
6.688833
6.122589
6.386638
7.083416
7.013679
6.269813
7.647872
7.852912
8.846521
9.188652
9.108782
9.253621
9.346604
10.790825
10.606647
9.169579
10.795593
9.953976
10.517836
10.255575
10.329485
10.314584
10.744929
10.159612
11.599660
12.649894
11.395812
11.419654
11.835694
12.452602
13.306737
12.558699
13.448000
12.636781
14.239550
13.614893
14.281869
15.191436
14.985800
15.797615
15.550852
16.728640
20.116568
19.603968
23.370981
25.055408
28.507710
31.812787
32.390952
35.132766
35.293698
38.674474
37.788749
36.731958
35.281777
33.401847
31.005740
29.553771
27.893782
24.914742
24.948716
22.488832
22.933483
21.535754
21.695495
20.391941
21.739602
20.880699
20.141602
19.670725
20.236969
##ZVALUE=235
10.960698
12.336969
28.732419
71.697831
120.146871
198.014975
275.577903
359.228849
406.835675
400.019884
369.874835
290.779471
222.360492
138.075948
99.114776
76.930523
72.816610
74.882507
83.997846
84.080696
75.206757
67.577958
48.458576
36.174655
22.070408
17.494559
12.878776
8.338690
8.565784
7.599592
7.149577
8.178949
8.776784
8.182526
8.945465
8.994937
9.003878
10.050535
8.699894
10.044575
9.603500
9.818673
9.510517
10.414720
11.244416
10.695457
11.525750
11.773705
10.649562
11.948943
11.660457
12.240410
12.985468
13.035536
12.656450
12.978911
12.333989
13.048649
14.770627
15.621781
15.502572
14.989972
15.654564
16.695857
17.289519
19.233823
19.106865
21.560788
21.959543
24.751425
29.000640
29.471517
33.940673
36.521554
41.298866
39.763451
41.502714
39.691925
37.781000
38.806796
37.579536
35.841465
33.737421
32.540560
30.819774
29.996634
29.441714
26.740432
26.660562
27.699471
28.955936
27.428865
27.249455
27.673841
26.266575
27.643442
##ZVALUE=240
2.279878
2.254844
5.570650
18.472672
38.880706
94.614625
170.908570
304.864645
418.983698
532.547832
642.979741
650.310516
581.066608
500.292778
369.756818
262.699723
159.909725
119.997859
102.458596
101.380944
115.732551
119.120479
115.446448
103.905797
87.623000
63.719749
49.148798
31.870604
20.381808
13.442636
9.926558
8.000731
8.250475
8.270741
7.719994
8.003712
9.068847
9.514689
9.744763
8.931756
8.969903
10.039806
9.083748
9.842515
9.861588
8.759499
10.224581
9.947419
10.585785
11.092424
11.167526
11.239648
11.682510
11.308789
12.460947
12.401938
12.825727
13.983846
13.435483
15.216470
14.789701
16.560555
17.017722
18.514991
17.910600
19.260645
19.444823
23.613572
24.533868
26.144981
29.307604
33.517480
35.825968
40.475726
41.531920
43.353438
42.424798
43.599606
42.551756
41.619539
43.740869
37.438869
37.867427
37.339926
37.300587
34.503937
35.969615
33.471584
34.429431
35.867691
34.352541
34.141541
31.704903
33.511519
31.464696
32.534599
##ZVALUE=245
1.626611
1.169443
1.366735
1.754761
3.919601
10.473728
39.526820
81.153512
195.928812
300.068855
491.535664
635.953546
747.936964
818.209648
804.792643
688.194036
569.101572
394.526720
271.693468
153.795481
116.125941
99.077821
111.319423
124.397874
132.370591
129.512548
114.160776
95.381737
70.682764
52.156448
38.138628
22.898912
14.429688
9.100437
7.919669
7.390976
8.345842
7.782578
7.579923
8.458495
8.416772
8.955598
8.661747
7.721782
8.822680
8.551478
8.813739
9.640455
9.252429
9.200573
9.591579
10.200739
10.462999
10.185838
10.040998
11.646748
9.891987
10.723472
11.708736
12.526512
13.376474
13.796687
13.173819
15.781522
17.199516
17.300844
17.855763
19.183755
21.671653
24.360418
24.935603
29.434562
31.302571
34.893751
35.701990
38.658977
38.463473
38.437843
37.439466
35.711527
35.630465
34.187436
36.524534
34.243464
33.541918
32.294989
31.409860
32.587647
34.428835
32.958984
31.983852
33.350587
33.030510
31.646490
34.075975
34.955740
##ZVALUE=250
1.325607
1.358986
1.172423
1.588464
1.476407
1.968741
2.380610
10.727644
30.384660
70.370436
176.938772
296.572447
496.013761
640.376806
807.377696
905.260444
926.652551
871.071815
759.969950
559.530854
404.579639
230.343938
155.239701
107.004642
105.120540
123.940706
138.838887
137.500763
135.123730
120.745897
100.412965
75.580478
55.627823
33.672452
23.490787
14.229417
9.584427
7.451773
8.174777
7.218719
7.963777
7.618666
7.784963
7.544756
7.895827
8.521676
8.369684
9.088516
8.932948
8.720756
8.472800
8.451939
8.092523
9.843707
9.126663
9.564757
9.575486
9.977818
10.154843
9.704828
10.652542
12.036562
11.748672
12.950897
13.151765
14.604926
14.986992
16.283989
17.598867
19.831657
22.073984
25.643706
27.554631
29.527545
30.629635
31.632781
33.865571
32.701492
32.427907
30.141473
31.521916
32.845736
31.971931
30.683875
30.689836
30.416846
29.560924
30.969977
30.906796
32.301545
31.440854
31.366944
30.202866
32.783747
33.049583
30.239820
##ZVALUE=255
1.170635
0.932813
1.142621
1.318455
1.467466
1.337528
1.365542
1.715422
2.060533
5.388856
25.079846
62.024593
128.192902
268.686414
410.696864
639.340878
790.886879
927.239656
985.598564
925.390720
806.309581
637.235641
404.968858
262.809992
139.867663
101.682544
90.153813
103.042722
128.949881
138.692856
144.534707
142.254829
131.737590
104.486942
80.833435
55.207610
38.275719
22.375584
14.703870
9.122491
8.028746
7.596612
7.477999
7.200837
7.411838
7.092953
7.507801
7.565618
7.535815
7.973909
8.064508
7.746816
8.044839
8.033514
7.573962
8.100867
9.358525
8.986592
9.702444
8.803606
9.684563
10.721684
10.900497
11.071563
12.542605
12.646914
13.090968
14.692545
15.866756
18.649697
17.967820
20.862818
24.407506
25.347471
26.131868
26.275516
26.916862
27.705431
27.305484
28.924942
26.800632
27.246475
29.009581
27.882457
27.324557
27.080774
27.641654
28.802752
28.089881
29.060841
29.134750
28.225780
28.190613
28.070807
28.944612
29.747486
##ZVALUE=260
1.008511
1.189709
1.038909
1.201630
1.260638
1.203418
1.160502
1.212955
1.096725
1.665950
1.808405
2.421737
8.513927
36.591887
82.296729
204.250813
345.968604
576.581955
769.901872
999.389887
1015.750766
1015.750766
987.636447
804.959536
530.980825
351.724625
201.080441
124.538541
84.968805
83.997846
101.554990
128.572583
144.439936
154.253840
148.466825
132.782459
113.639832
83.194971
61.884522
38.189888
24.998784
14.100671
10.597706
8.460879
7.952452
7.585883
7.496476
7.783771
6.993413
7.911921
7.562637
7.919669
8.052588
8.228421
8.864999
8.636713
8.503795
8.663535
9.294748
8.888841
9.708405
9.767413
10.253787
11.279583
11.394620
11.174679
12.272000
13.818741
15.405416
16.558766
18.493533
20.617843
20.585656
22.931695
24.439692
24.180412
24.984479
26.435852
25.732517
25.581717
25.795698
24.336576
24.662614
26.386976
26.006699
26.641488
27.158856
26.343465
25.939941
27.261972
27.083755
26.312470
28.177500
27.648807
27.269721
27.423501
##ZVALUE=265
1.224875
1.068711
1.059771
1.127720
1.023412
1.296997
1.024604
1.221895
1.180768
1.299977
1.742840
1.458526
1.499653
1.976490
4.725456
24.870634
64.643621
171.335936
306.433439
570.672750
801.414847
1000.021696
1015.750766
1015.750766
1015.750766
962.114930
703.398585
493.972898
269.777775
160.153508
99.294782
72.689652
82.347989
112.196803
133.159757
153.467655
158.430934
152.309537
136.727691
111.474991
87.090731
57.540536
41.010976
23.834705
16.400814
10.766983
8.624792
8.889437
8.507967
9.020567
9.284616
8.690953
8.609891
8.989573
8.753538
9.188652
9.491444
9.081960
8.976460
9.833574
9.981990
10.723472
10.649562
10.688901
11.558533
12.286901
13.100505
13.979673
14.669895
16.460419
17.735958
19.188523
21.591783
22.387505
22.606850
22.902489
23.445487
23.457408
23.654699
24.245977
23.507476
22.904873
24.149418
24.028420
24.818778
24.536848
23.712516
25.702715
25.614500
25.814772
25.068521
25.216937
25.735497
25.376678
25.494695
26.717782
##ZVALUE=270
0.957847
0.879765
1.068711
1.030564
0.825524
1.032948
1.219511
1.083612
1.008511
1.251698
1.376867
1.231432
1.295805
1.539588
1.591444
1.832843
2.345443
10.780692
33.015609
116.812587
235.986710
424.125791
759.080648
999.763608
1015.751958
1015.751958
1015.751958
1015.751958
940.568447
694.898963
468.435884
238.773823
132.608414
70.370436
64.946413
87.244511
110.387802
138.794780
152.200460
161.366463
155.544877
138.342977
117.586851
83.239675
63.633919
39.677620
26.678443
16.362667
13.341904
10.126829
9.051561
9.866953
9.648800
9.015799
9.188652
9.404421
9.558797
10.450482
10.277629
10.827780
10.741949
10.727644
10.897517
12.048483
12.321472
12.324452
12.903810
13.941526
14.526844
16.285777
16.735792
18.790960
18.941760
20.625591
20.822883
22.498965
22.272468
22.098422
23.197532
22.698641
22.600889
22.422671
22.445917
22.968650
22.617579
23.157597
23.932457
23.627877
24.206638
23.442507
23.846626
24.352670
23.908615
25.664568
24.998784
24.824739
##ZVALUE=275
1.054406
0.722408
0.811815
0.761747
0.933409
0.862479
0.976920
1.273751
0.950694
1.157522
1.182556
1.191497
1.510978
1.077652
1.394749
1.389980
1.589656
1.901984
2.114773
4.454851
18.748641
80.492496
184.167027
418.184400
697.396994
1015.750766
1015.750766
1015.750766
1015.750766
1015.750766
1015.750766
865.980983
591.673851
307.375789
170.971751
80.581903
55.060983
64.778924
82.945824
113.841891
135.005713
154.097676
159.591436
154.437423
137.708783
111.611485
89.548826
59.998631
44.226646
27.670860
19.365549
14.232993
10.775924
10.223985
10.208488
10.493994
10.249615
11.479855
10.665655
12.014508
11.402965
11.771917
12.150407
12.882948
13.364553
13.423562
14.311671
14.577508
15.515685
17.804503
17.535686
19.593835
20.368695
21.403432
22.989511
23.656487
23.157001
22.913814
23.387671
23.216605
23.331642
22.989511
22.535920
23.242831
22.345781
22.993684
22.683740
24.037957
23.181438
23.275614
23.053885
22.758842
23.397803
23.179650
23.370981
24.001598
##ZVALUE=280
1.060963
0.597835
0.776649
0.864863
0.987649
0.945926
0.944734
0.975728
0.875592
0.956655
0.889897
1.425743
1.091957
1.290441
1.360774
1.467466
1.322627
1.554489
1.635551
1.679659
2.189875
2.400875
12.757778
44.564605
152.044892
291.016698
576.444864
881.951451
1015.750766
1015.750766
1015.750766
1015.750766
1015.750766
1015.750766
919.137597
505.989790
285.756588
116.480589
62.260628
47.682524
59.822798
87.277889
109.416842
136.934519
150.536895
158.339739
150.515437
133.773685
113.560557
86.600780
64.109564
42.313933
28.848648
18.523932
13.968945
12.114644
11.400580
10.962486
10.592937
11.686683
12.284517
12.702942
12.607574
13.697743
14.396906
14.869571
14.228821
15.718937
16.131997
17.975569
18.586516
19.816756
21.059513
21.991730
22.425652
23.041964
23.039579
23.219585
22.877455
23.057461
22.405982
22.090673
22.991896
22.193789
22.880435
22.331476
22.834539
22.270679
22.654533
23.462772
23.196936
22.699833
22.880435
23.119450
23.161769
23.407936
##ZVALUE=285
0.930429
0.866652
0.853539
0.881553
0.908971
0.978708
0.930429
0.994802
0.997782
0.849962
0.982881
0.804663
0.885725
0.852942
1.022816
1.096725
0.952482
1.094937
1.435876
1.444817
1.839995
1.685619
2.224445
2.383590
7.634759
26.764870
90.816617
184.901953
413.091779
680.545568
976.017714
1015.750766
1015.750766
1015.750766
1015.750766
1015.750766
1015.750766
794.163942
505.696535
236.130953
113.478899
45.202971
40.559769
57.733655
80.163479
108.640790
126.746893
146.116614
152.320862
147.121549
136.456490
110.696554
88.531971
62.496662
45.458674
27.931929
19.731522
14.712811
12.895465
11.883974
12.279749
12.254715
12.765527
13.407469
13.622642
14.530420
15.147924
15.455484
16.774535
17.630458
18.151999
19.991994
20.364523
21.104813
21.234751
22.078753
22.339821
22.256970
21.492839
22.006631
21.352768
22.179484
22.109747
22.450686
22.296906
22.027493
21.912456
22.708774
22.556782
22.821426
21.949410
21.902919
21.836758
22.511482
22.430420
22.347569
##ZVALUE=290
0.780821
0.642538
0.636578
0.713468
0.767708
0.728965
0.741482
0.817776
0.831485
0.860691
0.945926
0.857711
0.843406
0.839829
0.977516
0.909567
0.860691
1.231432
1.353621
1.178980
1.437664
1.376867
1.692772
1.742840
1.818538
1.983643
3.322959
11.232495
56.894422
135.955811
268.920660
558.011532
856.794715
1015.750766
1015.750766
1015.750766
1015.750766
1015.750766
1015.750766
765.684843
493.643880
242.272615
124.662519
49.334764
29.983521
37.478805
50.865412
73.390603
95.745921
122.205615
137.848854
146.776438
145.113468
130.759478
110.741854
82.978606
63.870549
42.489767
29.089451
19.236803
15.212893
12.613535
12.448430
11.943579
12.866855
13.567805
13.822913
14.579892
15.412569
16.597509
17.348528
17.972589
18.847585
20.599961
20.340681
21.188855
20.817518
21.264553
21.074414
20.687580
21.271706
21.133423
21.304488
21.395683
22.372603
22.433996
22.445917
22.489429
22.830963
21.885633
21.596551
21.970868
21.959543
21.796823
21.537542
21.914840
##ZVALUE=295
0.647902
0.562668
0.551939
0.754595
0.752807
0.682473
0.678897
0.776649
0.622869
0.690818
0.537634
0.658631
0.852942
0.930429
0.735521
1.125932
0.958443
0.920892
1.050830
1.193881
1.083612
1.144409
1.232624
1.245737
1.594424
1.597404
1.827478
2.048612
2.288818
4.414916
18.443465
88.225603
203.828812
480.132699
763.765574
1015.750766
1015.750766
1015.750766
1015.750766
1015.750766
1015.750766
936.013460
642.944574
334.839821
180.259943
66.138506
32.635927
23.383498
30.767918
49.230456
66.613555
93.850493
112.727880
131.512880
139.986873
134.877563
126.916766
103.752613
83.826780
59.020519
43.837428
28.866529
21.263957
16.052723
13.931990
13.270974
13.559461
13.880730
14.909506
16.146898
16.998649
17.428994
18.898845
19.544959
19.318461
20.246506
20.091534
20.663738
21.121502
20.675659
21.467805
21.480918
21.030903
21.527410
21.483898
21.917820
21.721721
21.646619
21.961927
22.173524
22.044778
21.663904
21.484494
21.828413
22.268891
21.816492
##ZVALUE=300
0.742674
0.730753
0.685453
0.470877
0.609756
0.737906
0.784993
0.725985
0.705719
0.784993
0.866652
0.715852
0.716448
0.739694
0.863671
0.681877
0.814795
1.016855
0.692606
0.730753
1.157522
1.145601
1.232624
1.232624
1.320839
1.203418
1.514554
1.576543
1.740456
1.626611
1.971722
2.728701
11.751652
42.449832
148.670673
302.604437
641.438961
970.084667
1015.750766
1015.750766
1015.750766
1015.750766
1015.750766
1015.750766
805.273652
515.970588
251.351595
128.350854
45.175552
22.951961
21.154881
27.843714
45.694709
61.927438
85.809827
104.619861
124.436617
131.212473
131.716728
122.046471
102.654696
84.136724
61.005950
45.815706
31.235814
22.089481
17.434955
15.136600
14.991760
15.570521
17.891526
17.724633
18.672943
19.061565
19.065738
20.259619
20.422935
20.362735
20.759702
21.156669
21.876693
22.054911
21.916628
22.152662
21.892786
21.906495
22.274852
22.426844
22.895932
22.031665
21.970868
21.809936
21.579862
21.486878
21.499991
21.569729
##ZVALUE=305
0.583529
0.685453
0.598431
0.796914
0.631809
0.709891
0.653863
0.640750
0.618696
0.766516
0.716448
0.876784
0.797510
0.807643
0.859499
0.934601
0.845790
0.946522
1.040697
0.894666
1.030564
0.853539
1.009703
1.069903
1.373887
1.257658
1.342893
1.635551
1.519918
1.701713
1.598597
1.920462
2.268553
2.710819
4.713535
28.727651
84.420443
257.915854
483.750701
919.618607
1015.831828
1015.831828
1015.831828
1015.831828
1015.831828
1015.831828
1015.831828
732.196569
439.170003
187.651515
83.816648
27.992725
16.852617
19.945502
27.081966
44.173598
60.871840
83.397627
102.741718
118.840933
125.147700
124.407411
116.132498
99.320412
81.931949
59.649944
46.126842
31.824708
24.928451
20.116568
18.785000
18.467903
19.222498
19.271970
20.001531
20.071864
20.608902
20.782948
21.179914
20.822883
21.878481
22.088885
22.371411
22.247434
23.014545
22.684932
22.191405
23.154616
23.047924
22.979975
22.559762
22.721887
22.254586
22.094846
22.113919
21.922588
##ZVALUE=310
0.588894
0.620484
0.443459
0.627637
0.687838
0.677705
0.659823
0.793934
0.722408
0.802875
0.757575
0.684857
0.800490
0.875592
0.753999
0.949502
0.795722
0.811815
0.886917
0.924468
0.868440
1.067519
1.004934
1.055598
0.901818
1.151562
1.322627
1.222491
1.376867
1.452565
1.401901
1.629591
1.694560
2.082586
2.218485
2.325773
2.787709
11.775494
41.608810
148.414969
308.474898
660.344958
987.847447
1015.830636
1015.830636
1015.830636
1015.830636
1015.830636
1015.830636
966.184735
629.161000
300.047994
150.217414
50.423741
21.031499
14.088750
17.469525
25.855899
36.839843
55.947900
71.494579
94.638467
107.743740
118.799806
121.082664
112.128854
100.914836
81.250668
64.685941
45.476556
35.493970
27.046800
23.299456
20.925999
19.833446
20.092726
20.383000
20.520687
21.010637
21.135807
22.186637
22.279620
22.538900
22.989511
22.906661
23.287535
23.340583
23.268461
23.518801
22.652745
23.111701
22.664666
22.836924
23.353696
22.760630
22.291541
##ZVALUE=315
0.492930
0.606775
0.471473
0.525713
0.679493
0.481606
0.590682
0.478625
0.609756
0.689626
0.642538
0.722408
0.688434
0.615716
0.761747
0.624657
0.747442
0.620484
0.824928
0.712872
0.660419
0.907779
1.001954
0.924468
0.949502
1.087785
1.019835
0.917912
1.115799
1.109838
1.329780
1.127720
1.292825
1.682639
1.475811
1.834631
2.049804
2.136827
2.497435
5.835891
21.223426
90.277791
203.408003
482.643843
812.204480
1015.751958
1015.751958
1015.751958
1015.751958
1015.751958
1015.751958
1015.751958
825.477839
426.333547
222.269893
73.968768
29.040575
13.754964
13.659596
17.475486
23.252964
36.754608
50.853491
71.653724
87.097883
106.105804
114.396811
116.010904
110.050440
96.148849
81.098676
61.864853
49.500465
35.266876
28.782487
23.885965
21.572709
21.085739
21.565557
21.712780
22.085905
21.548867
22.431612
22.528768
22.741556
23.432970
22.863746
22.869706
23.273826
23.167729
23.199916
22.743940
22.955537
23.150444
22.766590
22.646785
##ZVALUE=320
0.589490
0.491738
0.541806
0.730753
0.426769
0.425577
0.651479
0.579953
0.566840
0.419617
0.724792
0.662804
0.602603
0.743866
0.602603
0.755787
0.674725
0.764728
0.873804
0.683665
0.680685
0.705719
0.643730
0.634789
0.698566
0.843406
0.954866
0.962615
1.107454
1.023412
1.084805
1.232624
1.182556
1.263618
1.338720
1.548529
1.864433
1.823902
2.001524
2.222657
2.606511
3.783703
12.142658
82.887411
238.434672
637.975931
986.526012
1015.750766
1015.750766
1015.750766
1015.750766
1015.750766
1015.750766
1015.750766
985.296965
558.505654
313.646793
126.068592
52.086711
17.427802
12.648702
13.413429
16.291738
22.972822
32.648444
49.705505
65.378547
85.661411
99.414587
111.116767
113.086700
107.913613
96.890926
77.575445
63.390732
46.421885
37.106872
29.461980
25.324821
22.715926
22.043586
22.252798
22.472739
22.510886
22.564530
23.110509
22.663474
23.602843
23.755431
23.558736
23.528934
22.610426
22.659898
22.507906
23.003817
22.236705
##ZVALUE=325
0.405908
0.541806
0.638962
0.665784
0.707507
0.529885
0.505447
0.590682
0.536442
0.419617
0.516772
0.516772
0.649691
0.799894
0.566840
0.598431
0.696778
0.542998
0.871420
0.740886
0.671744
0.607967
0.859499
0.837445
0.748634
0.715852
1.009703
0.993609
0.979900
0.930429
1.101494
0.934601
1.297593
1.388788
1.387596
1.320839
1.385808
1.487732
1.594424
1.779795
1.871586
2.199411
2.514720
3.093481
5.749464
36.508441
100.351572
296.293497
574.060678
1015.764475
1015.764475
1015.764475
1015.764475
1015.764475
1015.764475
1015.764475
1015.764475
744.135976
440.361500
188.081861
87.278485
26.408434
13.852715
12.444854
13.670921
17.484426
23.064613
34.392476
47.283769
67.506433
81.335902
96.471906
106.095672
108.311772
101.892948
87.950826
75.739622
59.219599
47.643781
35.143495
29.339790
25.329590
23.499727
22.868514
22.362471
23.044944
23.010969
22.957921
23.137927
22.887588
22.731423
21.960735
22.943616
22.447705
21.976829
22.296906
##ZVALUE=330
0.333786
0.483990
0.310540
0.513792
0.583529
0.531673
0.499487
0.574589
0.481606
0.535846
0.345707
0.517964
0.302792
0.439882
0.366569
0.540614
0.603795
0.647902
0.445843
0.608563
0.546575
0.584722
0.694990
0.522733
0.638962
0.714660
0.699759
0.839829
0.852942
0.772476
0.699759
0.747442
0.788569
0.934601
0.852942
0.920892
1.029968
0.979900
0.965595
1.370907
1.390576
1.263618
1.534820
1.734495
1.877546
2.222657
3.142953
17.699599
60.039759
186.534524
349.401832
689.106584
984.890461
1015.747786
1015.747786
1015.747786
1015.747786
1015.747786
1015.747786
922.093391
600.211620
276.932716
136.111975
43.546557
18.255711
11.666417
11.889935
13.493896
16.372800
23.821592
32.776594
47.606826
61.391592
80.374479
91.603994
101.208687
102.427602
96.026659
86.638927
70.196986
57.852864
43.377876
35.715699
29.117465
25.945902
23.200512
22.409558
21.873713
22.059679
21.917820
21.667480
21.343827
21.813512
21.612644
21.450520
21.651983
##ZVALUE=335
0.429749
0.399947
0.330806
0.539422
0.455976
0.455976
0.529885
0.555515
0.382662
0.473857
0.535846
0.524521
0.590682
0.317693
0.548959
0.672936
0.392795
0.432730
0.504851
0.602603
0.514984
0.559688
0.631809
0.660419
0.560880
0.477433
0.643730
0.757575
0.770688
0.523925
0.730753
0.854731
0.831485
0.762939
0.727773
0.770688
0.797510
1.036525
1.014471
1.014471
1.130700
1.141429
1.285672
1.382828
1.405478
1.662970
2.032518
2.172589
2.506971
8.808970
35.704970
143.858790
288.950801
605.738759
928.650498
1015.727520
1015.727520
1015.727520
1015.727520
1015.727520
1015.727520
970.231891
662.083626
339.351892
176.346898
57.926774
23.514628
12.706518
12.039542
12.818575
14.481544
17.841458
23.193955
33.315420
44.951439
61.698556
74.053407
89.194775
94.724894
96.126795
92.065930
80.589652
69.845915
55.286884
45.535564
35.519600
29.873848
25.424957
23.197532
21.662712
21.383762
21.083951
20.756721
20.743608
20.381808
20.951629
##ZVALUE=340
0.372529
0.462532
0.348687
0.352859
0.446439
0.396967
0.413656
0.360608
0.345707
0.345707
0.474453
0.456572
0.447631
0.422597
0.353456
0.435710
0.561476
0.419617
0.392795
0.615716
0.484586
0.434518
0.504851
0.551939
0.574589
0.434518
0.541806
0.534654
0.590682
0.646710
0.573993
0.745654
0.584722
0.671744
0.703931
0.953674
0.728965
0.896454
0.860691
0.990629
0.979900
0.978708
1.138449
1.217723
1.218915
1.527667
1.562834
1.653433
1.899600
2.172589
2.657771
4.970431
22.397637
114.913583
263.143778
593.298674
926.594734
1015.707850
1015.707850
1015.707850
1015.707850
1015.707850
1015.707850
1015.707850
762.952566
391.377807
212.276578
84.452629
34.281611
14.316440
12.948513
13.287663
13.531446
15.397668
18.129945
24.109483
31.740665
44.230819
56.674480
72.917938
82.665682
91.297626
91.160536
86.181760
79.006553
66.570640
55.727959
43.095946
35.727620
28.533936
24.755597
21.646619
20.445585
20.083785
19.625425
19.693971
##ZVALUE=345
0.353456
0.270605
0.407696
0.314713
0.269413
0.219941
0.304580
0.189543
0.233650
0.183582
0.334978
0.445843
0.320673
0.466704
0.483990
0.440478
0.394583
0.475645
0.307560
0.408888
0.426769
0.403523
0.475645
0.232458
0.437498
0.272989
0.527501
0.502467
0.545979
0.534654
0.442863
0.515580
0.574589
0.548959
0.455976
0.714660
0.560880
0.634789
0.719428
0.868440
0.865459
0.836849
0.970960
0.979900
0.876784
1.044869
1.170635
1.144409
1.421571
1.500845
1.864433
1.998544
2.202988
2.949834
10.630488
51.758885
225.299001
449.919701
893.042684
1015.635729
1015.635729
1015.635729
1015.635729
1015.635729
1015.635729
1015.635729
885.777473
576.409698
257.175565
122.355819
39.826632
19.142628
13.558865
12.863874
13.202429
13.736486
14.712811
16.659498
22.328496
29.954910
41.552782
52.304864
66.050887
74.492693
83.388686
84.618926
81.188679
75.597763
63.419938
53.638816
42.711496
34.250617
27.125478
23.440719
20.432472
19.426942
##ZVALUE=350
0.314713
0.368953
0.349879
0.322461
0.361800
0.242591
0.307560
0.356436
0.200868
0.304580
0.234842
0.466704
0.459552
0.417829
0.352859
0.433922
0.309944
0.578761
0.532866
0.430942
0.426769
0.342727
0.581741
0.503659
0.601411
0.555515
0.345707
0.478625
0.595450
0.571609
0.585914
0.639558
0.401735
0.710487
0.659823
0.675917
0.546575
0.637770
0.696778
0.696778
0.755787
0.698566
0.838637
0.935793
0.967979
1.106858
1.085997
1.173615
1.237988
1.164675
1.568794
1.571774
1.849532
1.912713
2.269745
2.633929
4.167557
27.157664
95.989704
322.719812
611.752868
1015.622616
1015.622616
1015.622616
1015.622616
1015.622616
1015.622616
1015.622616
1015.622616
675.712824
397.102833
175.662637
77.712536
23.251772
14.092922
12.610555
12.580752
12.592673
12.760758
14.182925
16.624928
22.112727
27.673841
37.092566
45.787692
58.147907
67.940950
74.853897
77.741742
75.925589
70.116520
59.166551
50.575733
39.482713
32.554865
26.004910
##ZVALUE=355
0.471473
0.462532
0.494719
0.491738
0.461936
0.510812
0.401735
0.285506
0.332594
0.443459
0.419617
0.500679
0.561476
0.565648
0.527501
0.601411
0.495911
0.489950
0.421405
0.542998
0.729561
0.673532
0.508428
0.658631
0.629425
0.616908
0.623465
0.799894
0.653863
0.607967
0.709891
0.713468
0.523925
0.599623
0.730753
0.795722
0.770688
0.873804
0.823736
0.823736
0.972748
0.897646
1.043677
1.002550
1.000762
1.153946
1.019835
1.152754
1.209974
1.354814
1.403689
1.475811
1.700521
1.770854
1.898408
2.102852
2.392530
2.715588
3.135800
11.735559
44.772625
191.332698
399.691463
830.260515
1015.750766
1015.750766
1015.750766
1015.750766
1015.750766
1015.750766
1015.750766
958.018899
600.423813
256.960988
115.046501
33.046603
15.623569
11.967421
11.848807
11.804700
12.302995
12.606978
13.433695
15.623569
19.100904
25.001764
31.823516
41.942000
51.151514
61.288476
66.943765
71.719885
69.946647
63.860416
56.846738
47.246814
##ZVALUE=360
0.458956
0.545979
0.406504
0.440478
0.369549
0.404716
0.325441
0.485778
0.461936
0.389814
0.503659
0.268817
0.531673
0.460744
0.381470
0.518560
0.447631
0.345707
0.488758
0.510812
0.507832
0.441670
0.498891
0.648499
0.641942
0.532866
0.601411
0.549555
0.628829
0.569820
0.524521
0.758767
0.571609
0.732541
0.719428
0.661612
0.800490
0.723600
0.682473
0.857711
0.647902
0.774860
0.859499
0.961423
0.970960
0.914931
0.928640
1.106858
1.267791
1.414418
1.229644
1.425743
1.330972
1.412630
1.681447
1.881719
2.072453
2.172589
2.332926
2.812743
3.209710
6.130934
23.375750
112.756491
278.396010
707.484484
1015.647650
1015.647650
1015.647650
1015.647650
1015.647650
1015.647650
1015.647650
1015.647650
730.393529
345.723629
179.648995
64.217448
25.271773
12.291670
11.908412
11.549592
11.588931
11.694431
11.731982
12.389421
13.697743
16.703606
20.505786
27.205944
34.851432
45.319796
52.679777
61.127543
63.778758
63.948631
##ZVALUE=365
0.353456
0.401735
0.437498
0.357628
0.493526
0.435710
0.383854
0.485778
0.503659
0.461936
0.639558
0.527501
0.489950
0.481606
0.454783
0.587702
0.635982
0.626445
0.371933
0.622869
0.663996
0.593662
0.523925
0.584722
0.503659
0.594854
0.478625
0.776649
0.685453
0.613928
0.446439
0.608563
0.777841
0.881553
0.643730
0.774860
0.705719
0.858903
0.883937
0.898838
0.939965
0.978708
0.649691
0.818968
0.936985
0.792742
0.797510
1.025796
1.086593
1.063943
1.192689
1.358986
1.419783
1.404881
1.369715
1.590848
1.704693
1.897812
2.053976
2.128482
2.413988
2.733469
3.271699
3.661513
8.422732
56.680441
157.549977
428.766012
789.064765
1015.645862
1015.645862
1015.645862
1015.645862
1015.645862
1015.645862
1015.645862
1015.645862
593.839884
314.334631
106.562972
38.314462
13.024807
10.867715
10.631680
10.576844
10.477901
10.750890
10.966659
11.128783
12.375712
14.249682
18.281937
22.969842
31.384826
38.234591
46.843886
##ZVALUE=370
0.432730
0.384450
0.560880
0.367761
0.403523
0.445843
0.413656
0.338554
0.419617
0.346899
0.509620
0.464916
0.496507
0.440478
0.502467
0.401735
0.614524
0.469685
0.589490
0.477433
0.595450
0.669956
0.544786
0.515580
0.608563
0.711679
0.630617
0.598431
0.497699
0.453591
0.521541
0.549555
0.569820
0.603795
0.642538
0.617504
0.505447
0.631809
0.713468
0.700951
0.767708
0.751615
0.805855
0.806451
0.801682
0.780821
0.875592
0.935793
0.885725
0.879765
1.142621
1.157522
1.139641
0.991821
1.418591
1.275539
1.340508
1.407862
1.421571
1.719594
1.756549
1.739860
2.124906
2.239943
2.612472
3.242493
4.716516
25.947690
87.086558
281.928778
533.648729
990.259647
1015.682817
1015.682817
1015.682817
1015.682817
1015.682817
1015.682817
1015.682817
671.575665
363.034606
129.352808
54.580569
17.842650
10.988712
9.561777
9.668469
9.379983
9.347796
9.390712
9.593964
10.109544
10.939837
13.083816
15.793443
20.987988
##ZVALUE=375
0.427961
0.343919
0.282526
0.346899
0.405908
0.350475
0.565648
0.397563
0.471473
0.369549
0.557899
0.367761
0.530481
0.505447
0.371933
0.423789
0.381470
0.406504
0.279546
0.487566
0.558496
0.538826
0.417829
0.495911
0.298619
0.574589
0.599623
0.630617
0.544786
0.557899
0.593662
0.621676
0.552535
0.600815
0.664592
0.589490
0.613928
0.567436
0.575781
0.428557
0.583529
0.633597
0.701547
0.658631
0.691414
0.726581
0.918508
0.859499
0.836849
0.848770
0.837445
0.740886
0.751615
0.863671
0.847578
0.845790
0.926852
1.098514
1.021624
1.192689
1.207590
1.222491
1.273751
1.557469
1.633763
1.784563
2.099872
2.519488
3.190637
11.104941
44.201612
164.042711
342.443585
737.473965
1015.750766
1015.750766
1015.750766
1015.750766
1015.750766
1015.750766
1015.750766
784.384608
472.717881
205.097795
97.753406
29.374957
12.769699
8.713603
8.609891
8.312464
8.412600
8.299947
8.744597
8.746982
8.845925
9.783506
##ZVALUE=380
0.259876
0.334978
0.289679
0.328422
0.222921
0.164509
0.326633
0.384450
0.368953
0.256896
0.397563
0.413656
0.353456
0.348687
0.445843
0.271797
0.336766
0.380874
0.292659
0.337958
0.383854
0.358820
0.330806
0.312924
0.359416
0.430942
0.402927
0.407696
0.496507
0.273585
0.440478
0.535846
0.469685
0.503659
0.531673
0.478625
0.629425
0.380874
0.474453
0.557899
0.584722
0.512600
0.612736
0.814795
0.628829
0.568628
0.598431
0.644922
0.663996
0.656843
0.724792
0.704527
0.521541
0.761747
0.853539
0.774860
0.664592
1.111627
0.884533
1.103878
1.015663
1.224875
1.225471
1.231432
1.335740
1.494884
1.834631
1.785755
2.190471
2.580881
3.395677
5.495548
35.342574
113.881826
356.212854
642.573833
1015.750766
1015.750766
1015.750766
1015.750766
1015.750766
1015.750766
1015.750766
957.177877
544.254780
315.767527
126.937628
55.874586
16.671419
9.188652
7.792711
7.890463
7.767677
7.667542
7.720590
7.863641
##ZVALUE=385
0.339746
0.337958
0.368953
0.352859
0.209808
0.373721
0.341535
0.321865
0.323653
0.475645
0.479817
0.310540
0.293851
0.287890
0.445843
0.360608
0.403523
0.432730
0.213981
0.266433
0.430942
0.374913
0.412464
0.370741
0.516772
0.316501
0.339746
0.384450
0.516772
0.445843
0.424981
0.318885
0.494719
0.431538
0.390410
0.428557
0.350475
0.485778
0.476837
0.592470
0.370741
0.580549
0.595450
0.713468
0.634789
0.351667
0.729561
0.634789
0.705719
0.599623
0.720620
0.932813
0.822544
0.933409
0.787973
0.789762
0.725985
0.927448
1.006722
1.035929
0.892878
0.933409
1.114607
1.259446
1.230836
1.444817
1.368523
1.712441
1.875758
2.176762
2.529621
2.518892
2.944469
3.751516
11.130571
77.580810
210.697651
533.040762
931.044817
1015.750766
1015.750766
1015.750766
1015.750766
1015.750766
1015.750766
1015.750766
866.567492
457.642674
250.784755
98.168850
37.310719
10.559559
7.682443
7.400513
7.207990
7.423759
##ZVALUE=390
0.320673
0.264645
0.294447
0.360608
0.332594
0.514984
0.322461
0.244975
0.298619
0.347495
0.285506
0.429749
0.378489
0.408888
0.450611
0.215769
0.350475
0.348687
0.319481
0.307560
0.469685
0.406504
0.198483
0.381470
0.457764
0.554919
0.422597
0.450611
0.326633
0.413656
0.409484
0.344515
0.484586
0.406504
0.489950
0.337958
0.417829
0.486970
0.535846
0.559688
0.527501
0.540614
0.578761
0.587702
0.512600
0.563860
0.504851
0.695586
0.741482
0.539422
0.655651
0.439882
0.718832
0.743866
0.761747
0.927448
0.851750
0.848770
0.858903
0.911951
0.955462
0.951886
0.990629
1.180768
1.209974
1.196861
1.292825
1.561642
1.850724
1.981854
2.201796
2.541542
2.439618
2.603531
2.848506
3.232956
5.098581
33.976436
114.419460
379.242897
738.253593
1015.750766
1015.750766
1015.750766
1015.750766
1015.750766
1015.750766
1015.750766
1015.750766
664.848685
363.083482
139.928460
60.267448
16.045570
8.177757
7.222891
##ZVALUE=395
0.345707
0.374913
0.355840
0.225902
0.303984
0.327826
0.275970
0.373721
0.455976
0.293851
0.395775
0.179410
0.336766
0.310540
0.262856
0.476837
0.315905
0.480413
0.291467
0.372529
0.394583
0.391603
0.178814
0.318885
0.322461
0.424981
0.372529
0.460744
0.524521
0.522733
0.287890
0.435710
0.398755
0.373721
0.493526
0.598431
0.533462
0.534654
0.674725
0.423789
0.624657
0.522733
0.515580
0.575781
0.573993
0.509620
0.617504
0.524521
0.516772
0.798702
0.560880
0.645518
0.593662
0.647902
0.489950
0.592470
0.850558
0.769496
0.802875
0.757575
0.820756
0.776649
0.871420
0.989437
1.102686
1.069903
1.324415
1.342893
1.514554
1.726747
1.678467
1.925826
1.878738
2.125502
2.071857
2.205968
2.451539
2.622604
3.339648
15.212893
59.976578
211.165547
403.640866
779.740810
1015.750766
1015.750766
1015.750766
1015.750766
1015.750766
1015.750766
1015.750766
787.466764
465.030670
186.717510
83.858967
25.570989
##ZVALUE=400
0.166893
0.084639
0.182986
0.217557
0.304580
0.159740
0.389814
0.185966
0.430942
0.119805
0.261664
0.295639
0.156760
0.203848
0.108480
0.213981
0.235438
0.244975
0.314713
0.255704
0.268817
0.286698
0.218749
0.348687
0.307560
0.142455
0.270605
0.282526
0.159740
0.253916
0.255704
0.291467
0.437498
0.219941
0.329614
0.369549
0.333786
0.395775
0.427961
0.533462
0.375509
0.415444
0.218749
0.467896
0.454783
0.342727
0.526905
0.489950
0.451803
0.573993
0.428557
0.500679
0.548959
0.611544
0.559688
0.559688
0.543594
0.550747
0.447631
0.620484
0.774860
0.756979
0.690818
0.821948
0.729561
0.728965
0.808835
1.229644
1.378655
1.385808
1.438856
1.430511
1.505613
1.663566
1.530647
1.570582
1.519918
1.889467
1.935959
2.259612
2.641678
9.162426
37.923455
138.954520
287.397504
621.209741
959.986448
1015.674472
1015.674472
1015.674472
1015.674472
1015.674472
1015.674472
922.066569
590.566993
279.002786
##END
