##TITLE=QP00652
##FORMAT=SPECTACLE-ASCII V-1.2
##DATA TYPE=ULTRAVIOLET SPECTRUM
##SECOND TYPE=ULTRAVIOLET SPECTRUM
##DATE=03/01/18
##TIME=13:21:42
##SPECTROMETER/DATA SYSTEM=SPECTACLE
##XUNITS=NM EM
##YUNITS=ENERGY
##YFACTOR=1
##FIRSTX=220
##LASTX=410
##NPOINTS=96
##3DDATA=Equidistant
##ZUNITS=NM EX
##FIRSTZ=210
##LASTZ=400
##ZPOINTS=39
##XYDATA=(Y..Y)
##ZVALUE=210
2.247691
2.137423
1.922846
2.340674
2.275705
2.758503
2.590418
2.625585
2.623796
2.996922
2.556443
2.966523
2.774596
2.602935
2.904534
2.608895
2.724528
3.716946
3.296733
3.554821
3.611445
3.813505
4.597902
4.477501
5.114675
4.742742
5.070567
4.799962
5.127788
5.486608
5.686879
5.639791
5.560517
6.351471
5.999804
7.332563
7.210970
6.607771
7.909536
7.753968
7.425547
7.467866
8.078814
8.235574
7.559657
8.577704
7.930994
8.599758
9.089708
9.342432
10.091662
8.984804
9.498596
9.170771
9.238720
9.978414
9.698868
9.812713
10.162592
10.311604
10.562539
11.508465
11.108518
9.744763
11.261702
10.909438
11.325479
13.954639
15.695691
17.199516
18.491745
24.321675
27.861595
33.205748
36.784410
41.174889
44.101477
43.919683
44.130683
40.384531
40.237904
30.655861
25.997758
22.286773
17.660856
14.990568
14.769435
11.906624
12.436509
12.723804
11.423826
11.578798
12.174845
12.036562
11.285543
11.717677
##ZVALUE=215
8.464456
8.887649
7.719994
5.652905
5.636811
5.307794
4.784465
5.373955
6.062984
5.752444
5.921721
4.984736
5.044937
3.899932
3.795624
4.097819
4.205704
4.150867
4.137754
4.484653
3.640652
4.163980
3.975630
5.111694
4.978776
4.906654
5.972981
6.833673
5.689859
5.973577
5.768538
6.387830
6.795526
6.704926
7.260442
6.838441
6.817579
7.189512
7.781982
6.391406
7.289648
7.622838
8.620620
7.397532
7.540584
8.825660
7.153749
9.406805
7.894635
8.708835
8.892417
8.553863
9.806752
9.101629
9.121895
9.183884
9.378791
10.014772
10.463595
10.303855
11.100769
9.424686
10.862947
10.394454
10.754466
11.538863
11.882782
12.739897
13.945699
18.740892
19.154549
23.730993
29.173493
32.307506
35.584569
37.350655
36.264658
37.298799
35.233498
33.293962
32.125711
29.407740
28.030872
23.590922
20.227432
16.646981
16.418695
13.151765
11.363626
11.502504
10.495782
10.261536
10.191798
10.089874
10.887980
10.938644
##ZVALUE=220
35.939813
34.647584
38.960576
39.219856
35.238862
28.247833
24.162531
16.374588
12.286901
11.449456
10.880828
13.247728
12.663603
11.173487
9.399652
8.046627
6.686449
6.091595
5.491972
4.984736
4.981756
5.672574
5.404949
5.753636
6.607771
6.519556
6.344914
7.388592
7.343888
7.318854
7.229447
7.273555
8.006692
8.155704
8.347631
7.583499
8.583665
7.736683
8.854866
8.942485
9.123683
9.574890
10.156631
9.630919
10.307431
10.534525
10.267496
11.357665
10.178685
11.153817
10.664463
10.935664
11.255741
10.816455
11.356473
11.533499
11.079907
12.656450
11.717677
12.344718
11.880994
12.589693
12.526512
11.459589
11.881590
13.399720
13.189912
14.017820
16.725659
18.551946
22.697449
26.121736
29.847622
32.661557
35.575628
36.444664
39.680600
38.897991
41.432977
37.796497
37.515759
34.338832
32.554865
25.915504
23.189783
18.895864
16.887784
12.711883
11.469722
11.541843
12.019873
11.591911
11.471510
12.202859
10.310411
11.205673
##ZVALUE=225
50.795674
54.730773
67.902803
86.593628
96.554756
90.092421
77.212453
58.452487
42.593479
32.819510
25.964975
23.137927
24.472475
26.499629
26.035905
23.584962
20.613670
16.716719
13.110638
10.346770
7.486939
5.783439
5.404949
5.091429
5.407929
5.638599
5.624890
6.477833
5.640984
7.026792
6.790757
5.803704
6.219745
7.272959
6.377697
6.762743
7.236600
6.750822
7.336736
7.212758
7.683635
7.542968
7.657409
7.328987
8.187890
7.406473
7.475615
7.871985
8.168817
7.402897
8.540750
7.669926
8.125901
8.743405
8.640885
8.521676
8.758903
8.688569
8.294582
9.189844
9.051561
8.928776
10.171533
11.026859
9.618998
10.557771
10.265708
11.439919
12.101531
13.002753
16.164780
15.711784
17.831922
20.861626
21.860600
25.583506
24.741888
24.908781
25.584698
22.981763
21.505952
19.862652
19.943714
16.945601
14.061928
12.950897
11.991858
11.850595
12.193918
9.955764
10.169744
10.497570
10.900497
11.232495
10.855794
11.011958
##ZVALUE=230
47.986507
53.988695
82.879663
134.082437
175.441504
212.294459
227.641463
217.794776
200.159550
167.941451
117.646456
81.913471
53.455830
45.424700
43.633580
48.440695
47.219992
48.398972
44.651628
33.728480
27.211905
18.337965
13.682842
8.295774
6.587505
6.041527
5.815625
6.387830
6.261468
6.513596
5.745888
6.496906
6.322861
6.874800
6.897449
7.352829
6.391406
7.719994
7.645488
7.133484
7.982850
7.377863
7.685423
8.703470
7.908940
8.217692
8.262992
8.942485
9.061694
8.503795
8.551478
8.021593
9.884834
8.382797
10.488629
8.824468
10.610819
9.791851
9.929538
9.981990
11.103749
11.111498
9.766817
10.445714
12.528896
12.370944
12.669563
12.772679
13.661981
15.519857
16.397834
18.273592
21.865964
23.374557
24.452806
25.016665
25.999546
26.360750
26.225448
24.093986
22.862554
19.936562
17.526746
16.769767
17.068982
15.562773
14.304519
15.304685
14.413595
14.838576
13.710856
13.834834
14.258623
14.017820
14.896989
13.584495
##ZVALUE=235
17.062426
20.616651
49.362779
90.371966
166.879892
305.866599
338.609815
411.594510
451.355577
430.188775
405.959487
279.636979
267.426968
191.777945
102.087855
94.406605
80.165863
79.993606
84.825754
82.571507
76.373816
69.400668
53.023696
38.417578
23.154616
17.259717
11.158586
8.036494
7.313490
7.171631
8.013844
7.099509
7.702708
8.373857
7.769465
7.738471
7.541776
7.363558
8.650422
8.915663
7.603765
8.309484
8.835793
7.557869
8.366704
9.048581
9.086728
8.918643
8.871555
9.242892
9.310842
9.448528
8.941889
10.110736
10.284781
10.776520
11.195540
11.127591
11.053681
10.927916
12.077689
11.690855
13.060570
13.404489
14.753938
13.965964
14.039874
17.152429
17.062426
18.915534
20.607710
22.701621
24.504662
28.724670
30.871630
30.396581
28.705001
29.234886
27.832985
26.287436
26.572943
23.569465
21.566749
21.065474
18.971562
21.658540
19.307733
19.058585
18.384457
18.905997
17.718673
17.694831
18.669963
18.127561
16.534925
17.842650
##ZVALUE=240
2.630949
2.802610
7.229447
19.699931
44.651628
109.078884
189.711452
328.979492
447.962880
604.364872
698.826909
709.192753
641.147494
502.473712
374.516845
221.971869
155.203938
109.632611
100.304484
104.056001
111.857653
116.771460
113.240480
104.931593
80.976486
65.676570
46.536922
32.651424
18.259883
14.737844
8.793473
7.911921
7.386804
7.303953
7.515550
8.377433
7.374883
7.247925
7.189512
7.401705
8.019805
8.668900
7.699728
8.461475
7.900596
8.336902
8.744597
9.661913
9.549856
9.604692
9.630919
10.356903
10.629892
10.808706
10.877848
10.253787
11.288524
10.813475
12.493730
11.724830
12.390614
11.781454
14.011860
13.811588
14.980435
15.912652
15.161633
16.350746
19.519925
21.266937
22.335649
26.867986
28.340816
31.423569
33.403635
34.202933
34.748912
34.277439
33.353567
32.453537
31.360984
29.999614
28.327703
24.756789
26.410818
24.715662
25.327802
24.966598
23.674965
24.169683
23.370981
23.089647
24.414659
22.652745
24.056435
22.124648
##ZVALUE=245
1.434684
1.632571
1.487732
2.327561
4.105568
15.598536
41.680932
106.363893
197.732449
380.001664
543.545485
705.107450
859.822035
885.038972
827.639699
709.273815
510.850549
355.407000
208.480954
141.213536
100.095868
102.895498
116.492510
128.669739
130.920410
123.732686
112.214684
91.882944
72.983503
48.440695
34.445524
21.022558
13.630986
8.011460
6.731749
6.919503
6.784797
7.607937
7.156730
8.188486
8.062720
7.060766
6.961823
8.155704
7.921457
7.800460
7.211566
7.905960
8.374453
9.242892
8.366704
9.078979
9.513497
8.740425
9.340644
10.239482
9.454489
9.822845
9.646416
10.420680
10.626912
10.799766
12.175441
13.157725
12.982488
13.659596
15.623569
15.964508
17.378926
19.330978
22.337437
24.126768
25.592446
29.163957
30.686855
31.179786
32.977462
31.418800
32.339692
31.136870
29.587746
29.740930
28.024912
25.641918
26.685596
25.232434
23.874640
24.475455
23.148656
21.784902
22.968650
22.864938
22.403598
21.235943
23.775697
21.322966
##ZVALUE=250
1.212955
1.104474
1.618862
1.323819
1.802444
1.289845
2.815723
9.464622
37.800670
77.226758
192.318559
334.073901
515.062809
773.491859
928.267837
1015.650630
1015.650630
909.562707
756.706595
514.088869
350.903869
220.704675
121.454000
98.101497
103.924870
120.682716
135.144591
139.805675
134.385824
120.962858
107.128620
77.202916
58.419704
34.660697
24.570823
13.534427
9.323955
7.546544
7.329583
7.124543
7.175803
6.734729
7.373691
7.437468
7.586479
7.511973
7.252693
7.686615
7.673502
8.203983
8.663535
8.369684
8.582473
7.945895
7.934570
8.697510
8.977652
9.176731
8.869767
9.527802
9.959936
10.001659
10.399818
11.352897
11.611581
13.101697
12.079477
13.670921
14.995933
16.442537
18.057823
19.670725
22.789836
25.711656
27.055740
27.367473
27.790666
27.709603
29.204488
27.623773
27.380586
27.771592
25.470853
26.099682
25.128722
23.129582
22.235513
21.081567
20.878911
22.216439
21.000504
21.429658
20.419955
22.197962
21.505952
21.230578
##ZVALUE=255
1.322627
1.012683
1.610518
1.237988
1.498461
1.546741
1.782775
2.041459
1.900792
4.946589
25.046468
61.128736
124.095678
273.082852
432.559848
697.999597
904.811621
1015.750766
1015.750766
1015.750766
1004.881859
817.305446
517.794490
325.392485
165.575743
106.215477
93.371868
100.233555
121.398568
139.335990
147.628784
142.086744
129.711628
105.469823
81.515908
56.534410
37.777424
21.768808
13.550520
9.414554
7.412434
7.331967
7.365942
6.650686
7.906556
7.427931
7.058978
7.342696
6.957650
6.836653
7.787943
7.337928
7.289648
7.343888
7.402897
7.814765
7.492900
8.084774
7.891655
8.196831
8.493662
8.717775
8.772612
9.371638
9.535551
10.549426
10.630488
10.860562
12.465715
14.080405
15.749931
16.730428
18.380880
19.872785
20.083785
20.613670
20.996928
20.506978
20.637512
20.913482
21.211505
20.117760
19.555688
19.407868
19.241571
19.475818
18.027425
17.946959
19.451976
19.454956
19.416809
18.346906
19.309521
19.830465
19.485950
20.205975
##ZVALUE=260
1.151562
1.041889
1.058578
1.353621
1.304746
1.422763
1.434684
1.385808
1.603961
1.848936
2.466440
3.080964
9.319782
41.888952
92.254877
214.661956
351.203680
573.718548
767.429471
995.785594
1015.750766
1015.750766
1015.750766
909.511447
643.285513
451.600552
283.194780
174.940825
103.110671
86.028576
99.447966
128.484964
140.513778
151.163936
144.010782
132.976770
110.250711
82.843900
60.800910
36.218762
23.173690
13.956428
9.142756
7.375479
6.966591
6.270409
6.563663
6.581545
6.497502
6.696582
6.855726
6.483793
6.923676
6.938577
6.363988
6.809831
6.600618
7.528663
6.855726
7.411838
7.371902
8.350611
8.123517
8.452535
8.196831
9.177923
9.926558
10.589957
11.334419
11.926889
12.874603
14.656782
15.445948
16.250610
17.395616
18.350482
18.086433
18.280745
18.988848
18.111467
18.343925
17.904639
18.383861
17.763972
17.236471
17.483830
16.932487
17.434955
17.462969
17.782450
18.461943
17.900467
18.153787
17.331839
18.848777
19.188523
##ZVALUE=265
0.977516
1.079440
0.844598
1.247525
1.302958
1.259446
1.033545
1.200438
1.438856
1.384616
1.516938
1.598597
1.823902
2.275705
5.086660
24.268627
62.342882
155.935884
285.948515
533.704758
764.774680
994.610786
1015.752554
1015.752554
1015.752554
1015.752554
1001.894474
768.939853
454.852581
271.990895
155.409575
84.793568
84.903836
113.174915
131.202936
154.739618
158.385634
150.799751
136.680603
106.104612
83.509684
55.903792
38.030744
22.414923
14.646649
8.471608
6.977916
6.961823
6.405711
6.803870
6.860495
6.854534
6.724596
6.599426
6.807446
7.113814
7.063746
7.791519
6.641746
6.943941
7.191896
7.170439
7.253885
7.566810
7.653832
8.234978
8.733869
9.474754
10.561943
11.282563
12.459755
13.424754
13.579726
15.276670
15.847683
16.220808
16.567707
18.007755
17.547607
16.104579
16.520619
16.085505
15.264750
15.895963
15.666485
15.972853
14.955997
16.412735
16.310811
16.779900
15.975833
16.686916
15.758872
17.057657
15.948415
16.474724
##ZVALUE=270
0.926852
1.114607
1.058578
1.137853
0.925660
0.964999
1.041889
1.177788
1.224875
1.243949
1.335740
1.389980
1.447797
1.489520
1.433492
1.922846
2.707839
11.264682
34.791827
108.286738
216.309428
379.851460
669.838786
917.683840
1015.760899
1015.760899
1015.760899
1015.760899
1015.760899
985.867381
726.583600
402.610898
230.709910
100.137591
70.975423
85.999966
108.061433
137.752891
151.477456
156.220794
153.084993
133.066773
113.074780
81.619620
59.571862
35.401583
24.587512
14.510751
10.034442
7.721782
7.185936
7.130504
6.725788
6.258488
6.823540
6.653666
6.553531
6.490946
6.976724
7.803440
7.344484
7.401705
7.433891
8.232594
7.479787
8.303523
8.767843
9.514689
9.638667
11.247993
11.358857
12.558699
13.038516
13.335943
14.490485
14.087558
14.306903
14.555454
14.347434
13.885498
13.910532
13.542771
14.657974
14.239550
14.760494
14.529824
14.712811
14.490485
14.763474
14.406443
14.612675
15.705824
14.842749
14.853477
14.683604
15.947819
##ZVALUE=275
0.907779
0.764728
0.826716
0.641942
0.793934
0.865459
0.837445
0.945926
0.926852
1.030564
1.039505
1.471639
0.983477
1.324415
1.358986
1.440644
1.695752
1.690984
1.786947
5.397797
21.865964
62.642694
185.479522
346.236825
645.828843
874.467492
1015.741825
1015.741825
1015.741825
1015.741825
1015.741825
864.403844
636.096597
360.556841
209.338665
88.074803
55.038929
60.791969
79.602599
107.057691
129.507780
148.993731
155.582428
146.553516
132.244825
105.861425
85.416436
56.724548
40.555000
23.831725
15.943646
8.985996
7.511973
6.578565
6.104708
6.729960
6.379485
6.857514
6.792545
6.775856
7.213950
7.379651
7.577538
7.370710
7.181764
8.272529
8.186698
8.356571
9.748936
9.946823
10.653734
11.535883
12.725592
13.992786
13.409853
13.188720
13.865829
13.296604
13.962984
13.897419
13.931990
13.165474
13.536811
13.417602
13.700724
13.002753
14.168620
13.676882
13.702512
14.267564
14.120936
14.299750
14.126897
13.977885
14.168620
14.052987
##ZVALUE=280
0.632405
0.578761
0.566840
0.807643
0.725985
0.847578
0.729561
0.890493
0.855923
0.992417
0.954866
0.834465
0.970960
1.222491
1.216531
1.307726
1.382828
1.515746
1.182556
1.635551
1.923442
2.827644
10.675788
51.045418
123.615861
294.093490
467.963815
753.777027
977.140665
1015.750766
1015.750766
1015.750766
1015.750766
838.439465
614.553690
348.417759
203.981996
88.325739
50.339699
42.001605
55.859685
81.515908
104.082823
130.591989
143.328905
150.208473
145.983696
128.019452
108.201504
80.391765
60.154796
36.957860
24.904609
13.843775
9.831786
7.279515
6.368756
6.464720
6.477833
6.629825
6.425977
7.007718
6.958842
7.339716
7.191896
7.708669
8.554459
8.646846
8.888841
9.683967
10.762811
11.075735
11.257529
12.005568
12.538433
12.569427
12.339950
12.948513
12.681484
12.988448
12.750626
12.514591
12.740493
12.457967
12.702942
12.926459
12.433529
13.388991
12.957454
12.601614
13.049841
13.299584
12.962818
13.542771
12.381673
13.652444
##ZVALUE=285
0.647902
0.724792
0.665784
0.531673
0.613928
0.683665
0.618696
0.653863
0.810623
0.879765
0.773668
0.910759
0.823736
0.784993
0.816584
1.066923
0.931621
1.147985
1.010895
1.287460
1.372695
1.699924
1.597404
2.244711
6.128550
21.519661
77.862740
166.966915
366.300941
565.701723
799.375772
1015.750766
1015.750766
1015.750766
1015.750766
993.235707
775.409937
482.269526
297.333002
135.752559
69.058537
34.966469
35.821795
53.935647
74.673891
102.764964
121.134520
139.374733
146.384835
142.867565
128.791928
106.392503
85.376501
58.250427
39.945841
23.688674
15.557408
9.986758
7.907748
6.841421
6.427765
6.724596
7.339716
7.409453
7.924438
7.981658
8.153915
8.817911
8.938909
9.795427
10.268688
10.958910
11.249781
11.943579
12.017488
12.482405
12.544990
12.419820
13.029575
13.277531
12.644529
12.875795
12.494922
12.958646
12.656450
12.362599
12.252927
13.015866
12.963414
13.208985
13.278723
12.251735
12.114644
12.426972
12.364984
12.768507
##ZVALUE=290
0.672936
0.575781
0.629425
0.613928
0.554919
0.578761
0.731945
0.543594
0.842810
0.622869
0.727773
0.675917
0.857711
0.829697
0.810623
0.958443
0.695586
1.028776
0.918508
1.061559
0.995994
1.194477
1.234412
1.375675
1.535416
1.887679
2.693534
8.758903
41.074753
100.369453
207.268000
443.335772
681.311488
999.709964
1015.750766
1015.750766
1015.750766
1015.750766
937.212706
619.187951
407.349467
203.148723
105.424523
42.005777
27.333498
34.967661
48.377514
70.877671
92.511773
117.631555
131.960511
141.368508
139.087439
125.235915
106.727481
78.371763
59.821606
37.772655
25.481582
15.456676
11.304617
8.365512
7.807612
7.320642
8.121729
8.068681
8.469820
8.771420
9.201765
9.594560
10.251999
10.771751
11.372566
11.768937
12.449622
12.169480
12.098551
12.339950
11.957884
12.483597
12.446642
12.881756
12.632608
12.876987
12.998581
12.479424
12.751818
12.690425
12.673736
12.817979
12.851954
12.573600
12.360811
12.550950
12.600422
11.934638
##ZVALUE=295
0.540614
0.549555
0.524521
0.684857
0.492930
0.413656
0.637770
0.487566
0.561476
0.749826
0.664592
0.539422
0.733733
0.723600
0.814795
0.669956
1.042485
0.846982
0.730753
0.808835
0.929832
0.955462
1.167655
1.372695
1.429915
1.400709
1.459718
1.867414
2.050996
4.324913
22.055507
62.570572
181.033015
335.792899
633.311868
884.789824
1015.750766
1015.750766
1015.750766
1015.750766
1012.526751
805.830956
488.254428
300.021768
134.399533
64.680576
26.255846
21.777749
31.465888
45.096874
68.763494
88.925958
114.781857
127.508640
136.801004
134.156942
118.581653
102.526546
78.170896
59.624910
38.203001
26.390553
15.787482
12.432933
9.153485
8.407831
8.347631
9.121895
9.481907
9.951591
10.159612
11.179447
11.804700
11.889935
12.592673
12.327433
12.314916
12.702942
12.305975
12.305975
13.092756
13.057590
12.596846
12.804866
13.284683
12.471676
12.605786
12.533665
12.803674
12.493730
12.331605
12.255907
12.274981
12.364984
12.049675
12.579560
##ZVALUE=300
0.541806
0.448823
0.460744
0.299811
0.610948
0.600815
0.719428
0.633597
0.531673
0.544786
0.642538
0.649691
0.674725
0.772476
0.809431
0.784993
0.715852
0.893474
0.631809
0.907779
0.864863
1.050830
0.970960
1.266599
1.261830
1.162887
1.330972
1.332760
1.571774
1.813769
1.975894
2.437830
10.114908
36.659837
134.517550
272.858739
564.626455
851.721764
1015.750766
1015.750766
1015.750766
1015.750766
1015.750766
1007.228494
671.378970
426.772833
206.193924
107.460618
39.665699
19.307733
19.230843
26.867986
43.182969
58.909655
84.353685
102.657676
121.373534
129.800439
128.528476
119.380951
98.794699
81.110597
58.397651
42.215586
26.838779
19.197464
12.904406
10.601878
10.248423
10.118484
10.695457
11.316538
12.057424
12.078881
12.116432
12.535453
12.818575
13.257861
12.388825
12.967587
12.740493
12.757778
12.560487
12.703538
12.904406
12.750626
13.178587
13.010502
12.920499
12.792945
12.529492
12.406707
12.492537
12.424588
12.563467
12.540817
##ZVALUE=305
0.460744
0.511408
0.463724
0.387430
0.441670
0.576973
0.608563
0.636578
0.694990
0.710487
0.570416
0.671744
0.598431
0.767708
0.552535
0.770688
0.689626
0.646710
0.527501
0.824928
0.791550
0.753999
1.004934
0.969768
1.064539
1.154542
1.094937
1.277924
1.097918
1.432896
1.505613
1.764894
1.933575
2.405643
4.218817
25.199652
72.684884
222.372413
413.240790
769.410729
1015.750766
1015.750766
1015.750766
1015.750766
1015.750766
1015.750766
928.633809
556.455851
339.825749
147.942901
69.186687
23.758411
15.351772
18.441677
25.290847
42.033792
58.172941
81.462860
96.699595
115.387440
123.106837
122.769475
110.961795
93.875527
78.330636
55.397749
39.818883
25.317669
19.196868
14.308691
12.325644
11.910796
12.028813
11.945963
12.432933
12.356639
12.499690
12.831688
12.432933
12.278557
12.572408
12.804866
12.834668
12.907982
12.978911
13.178587
13.138652
13.565421
13.430715
12.839437
13.115406
12.858510
12.463927
11.972785
12.143850
12.311935
##ZVALUE=310
0.578761
0.535846
0.664592
0.664592
0.562668
0.696778
0.680685
0.647902
0.739694
0.668764
0.755787
0.709891
0.709891
0.779629
0.668764
0.752807
0.837445
0.742674
0.834465
0.915527
0.897646
0.901818
1.113415
1.127720
1.203418
1.184940
1.141429
1.214743
1.205802
1.376867
1.599789
1.361966
1.684427
1.681447
1.838803
2.319813
2.535582
10.839701
35.655499
121.994615
248.374939
530.553460
814.504623
1015.901566
1015.901566
1015.901566
1015.901566
1015.901566
1015.901566
845.645070
550.897717
270.023942
137.346983
42.567849
17.569661
12.975931
16.107559
24.428964
34.492612
54.047704
70.304871
91.703534
106.119514
116.240978
117.533803
107.386708
94.460845
75.678825
59.399605
39.536953
29.461980
20.705462
16.338825
13.952851
13.240576
12.456775
13.311505
12.816787
12.836456
13.351440
13.033748
13.297796
13.341904
13.085604
13.471842
13.157725
13.175607
13.502836
13.552904
13.353825
13.365746
12.782812
13.231635
12.697577
13.277531
12.287498
##ZVALUE=315
0.362992
0.445843
0.362992
0.573993
0.342727
0.522733
0.484586
0.492930
0.398755
0.475645
0.596642
0.544786
0.566840
0.392795
0.445843
0.484586
0.472665
0.718832
0.706911
0.805855
0.793934
0.658631
0.638962
0.694990
0.945926
0.858903
0.853539
1.018643
1.107454
1.022816
1.064539
1.173615
1.245737
1.269579
1.269579
1.779795
1.940727
1.822710
2.015829
5.362630
19.511580
80.657601
179.702044
422.430634
712.059736
1015.750766
1015.750766
1015.750766
1015.750766
1015.750766
1015.750766
978.059769
690.850019
362.440944
195.330977
69.823861
27.724504
11.879802
11.377931
15.522838
21.569729
34.279823
47.508478
67.434907
82.771778
101.339817
109.666586
111.462474
104.672909
88.751912
74.753761
55.952668
42.328835
28.419495
21.613836
15.619993
14.019608
12.982488
12.686849
12.800694
13.013482
13.071895
13.033748
13.109446
13.034940
13.383627
13.580918
13.292432
13.426542
13.853908
13.585687
13.036728
13.016462
12.787580
12.537837
12.708902
##ZVALUE=320
0.394583
0.292659
0.457764
0.424981
0.483990
0.484586
0.233650
0.358820
0.405908
0.495911
0.419617
0.474453
0.409484
0.351667
0.472665
0.338554
0.642538
0.664592
0.527501
0.639558
0.579953
0.613928
0.633597
0.651479
0.585914
0.671744
0.642538
0.813603
0.861883
0.871420
0.941753
0.946522
1.001954
1.183748
0.997782
1.374483
1.385808
1.461506
1.669526
1.750588
1.868606
2.838969
8.913875
49.159527
127.623677
342.069864
573.451519
955.177546
1015.750766
1015.750766
1015.750766
1015.750766
1015.750766
1015.750766
846.182704
484.356880
281.157494
117.394924
48.806667
15.483499
10.488629
11.363626
13.687611
20.230412
28.825998
45.430660
60.846806
79.798698
93.840957
105.064511
106.895566
101.441741
89.802742
70.846677
56.962967
39.373636
28.999448
20.824671
16.915798
14.326572
12.566447
13.370514
13.353825
13.044477
13.437867
13.169646
13.578534
13.589859
13.513565
13.089776
13.522506
12.737513
13.344884
12.907982
12.830496
12.860894
##ZVALUE=325
0.344515
0.441670
0.370741
0.433922
0.379682
0.389814
0.461936
0.376701
0.387430
0.582933
0.510812
0.427961
0.315905
0.555515
0.572801
0.538826
0.529885
0.464916
0.532866
0.524521
0.446439
0.520945
0.394583
0.669956
0.617504
0.725985
0.656843
0.830889
0.725985
0.833869
0.741482
0.807643
0.768900
0.864863
1.068711
0.970960
1.123548
1.366735
1.219511
1.578927
1.599789
1.766682
1.917481
2.378821
4.934669
34.317970
94.065666
253.018737
462.548733
879.182816
1015.744805
1015.744805
1015.744805
1015.744805
1015.744805
1015.744805
912.825465
537.725687
317.750573
135.140419
63.514709
19.813776
10.785460
9.891987
10.563731
14.244914
19.460917
30.818582
42.709708
62.206984
76.665878
91.133714
98.980665
100.382566
93.405843
80.727935
67.818761
50.456524
39.027929
27.071834
20.947456
16.297698
14.823675
13.394952
13.754964
13.582706
13.271570
13.198853
13.137460
12.647510
13.157725
13.285875
12.984872
12.996793
12.502670
12.934804
##ZVALUE=330
0.279546
0.389814
0.347495
0.343919
0.418425
0.318885
0.429749
0.399947
0.543594
0.467896
0.364780
0.278950
0.435710
0.492930
0.292659
0.497699
0.457764
0.481606
0.598431
0.552535
0.637770
0.634789
0.575781
0.611544
0.765920
0.595450
0.550747
0.710487
0.850558
0.619888
0.761747
0.638962
0.811815
0.845790
0.983477
1.080632
0.859499
1.043677
1.152754
1.127720
1.400709
1.300573
1.427531
1.739860
1.914501
2.026558
2.821684
13.548732
45.365691
152.954459
301.804543
637.499690
966.158509
1015.750766
1015.750766
1015.750766
1015.750766
1015.750766
1015.750766
740.052462
459.564924
199.686885
96.332431
32.199621
14.376640
9.977818
9.985566
11.197925
13.642907
20.409822
28.862953
42.918921
57.153702
75.839758
86.507797
94.376802
95.065832
88.821650
78.903437
61.212778
48.951507
34.765601
26.966929
20.634532
16.807914
15.110970
14.089942
13.365746
13.138652
13.151765
12.907982
12.905598
12.892485
13.035536
12.642741
12.740493
##ZVALUE=335
0.295639
0.408888
0.254512
0.286698
0.425577
0.308752
0.364780
0.397563
0.388622
0.288486
0.465512
0.457764
0.320673
0.270605
0.245571
0.322461
0.528693
0.419617
0.438690
0.462532
0.498891
0.491738
0.476837
0.524521
0.421405
0.630617
0.564456
0.613928
0.670552
0.571609
0.579953
0.549555
0.679493
0.772476
0.860691
0.823736
0.976920
0.947714
0.845790
0.747442
0.975728
1.031756
1.050830
1.300573
1.418591
1.586676
1.627803
1.884699
2.320409
6.232858
23.102760
94.289780
203.431845
451.490879
730.977654
1015.740633
1015.740633
1015.740633
1015.740633
1015.740633
1015.740633
947.431922
629.775524
310.880542
161.188841
53.886771
20.406842
10.481477
9.719729
10.141730
11.050701
14.500618
19.008517
29.178858
39.862990
56.142807
68.640709
81.686974
88.363886
89.196563
83.907843
72.156787
62.470436
47.307611
37.382841
27.490854
21.670461
16.942620
14.915466
13.622642
12.901425
12.313724
12.966990
12.525916
12.285709
12.229681
##ZVALUE=340
0.361800
0.403523
0.263453
0.408888
0.232458
0.347495
0.416636
0.218749
0.368953
0.281930
0.325441
0.282526
0.495911
0.425577
0.492930
0.347495
0.517964
0.438690
0.549555
0.447631
0.417829
0.445843
0.427961
0.566840
0.458956
0.707507
0.496507
0.406504
0.458956
0.606775
0.464916
0.587702
0.566840
0.661612
0.569820
0.714660
0.772476
0.748634
0.815988
0.833869
0.880957
0.911951
1.024604
1.122952
1.028776
1.173615
1.278520
1.319647
1.396537
1.717806
1.748800
2.965927
10.840893
57.178736
143.980980
357.292891
602.620840
975.251794
1015.771627
1015.771627
1015.771627
1015.771627
1015.771627
985.181928
710.842013
379.527807
210.256577
86.984634
35.011768
11.699796
9.922981
9.988546
10.008812
11.758804
14.004707
19.854903
26.761889
39.626956
50.940514
66.124797
75.966716
84.015727
84.455609
77.647567
70.834756
57.749748
47.521591
34.884810
27.891994
20.562410
16.810894
14.221668
13.079643
12.211800
11.793971
11.887550
##ZVALUE=345
0.374913
0.311732
0.427961
0.410676
0.511408
0.320673
0.289679
0.400543
0.470877
0.325441
0.231862
0.297427
0.306964
0.361800
0.260472
0.468493
0.397563
0.338554
0.465512
0.531673
0.535846
0.534654
0.302792
0.493526
0.451803
0.494719
0.382662
0.512600
0.546575
0.534654
0.601411
0.552535
0.599623
0.443459
0.571609
0.607967
0.704527
0.586510
0.614524
0.776649
0.750422
0.625849
0.728965
0.832677
0.851750
0.924468
0.968575
0.948906
1.212955
1.269579
1.347661
1.621842
1.556873
2.362728
4.780889
33.214688
93.715787
247.981548
442.631841
792.343020
1015.750766
1015.750766
1015.750766
1015.750766
1015.750766
1015.750766
830.729604
478.200912
264.271498
98.632574
44.477582
15.716553
10.583997
9.915829
9.436607
10.295510
10.679960
13.139844
17.159581
25.934577
35.084486
49.380660
59.253573
70.092678
74.825883
77.984929
75.507760
67.611933
57.889819
45.722723
35.723448
26.181936
20.128489
16.070604
13.538599
12.670755
##ZVALUE=350
0.237823
0.313520
0.334978
0.447631
0.403523
0.382662
0.302792
0.401735
0.276566
0.390410
0.434518
0.278950
0.286698
0.317693
0.475645
0.357628
0.345707
0.368953
0.432730
0.576973
0.395775
0.578761
0.558496
0.391603
0.493526
0.529885
0.292659
0.515580
0.402927
0.352859
0.496507
0.453591
0.528693
0.543594
0.586510
0.665784
0.669956
0.516772
0.519753
0.693798
0.463724
0.764728
0.659823
0.782609
0.832677
0.874996
0.767708
0.899434
0.986457
0.993609
1.073480
1.313686
1.378655
1.511574
1.705885
1.981854
2.849698
17.594695
57.267547
175.874829
329.685807
639.258623
921.550989
1015.750766
1015.750766
1015.750766
1015.750766
1015.750766
987.872481
618.169904
378.318429
167.295933
72.871447
19.254684
10.754466
9.437799
9.346604
8.839965
9.401441
10.238886
12.384653
17.401576
22.570491
32.378435
40.960908
54.001808
61.842799
69.590807
71.447492
69.380999
63.766837
52.882433
44.281483
34.101605
26.712418
19.770861
##ZVALUE=355
0.402927
0.296831
0.353456
0.325441
0.386834
0.404716
0.307560
0.454783
0.314713
0.258684
0.251532
0.436902
0.366569
0.424981
0.503659
0.486970
0.451803
0.281930
0.380874
0.355840
0.452995
0.749826
0.290871
0.549555
0.364780
0.462532
0.626445
0.371933
0.699759
0.596642
0.545979
0.483990
0.745654
0.730753
0.406504
0.370741
0.457764
0.471473
0.535846
0.543594
0.558496
0.668764
0.667572
0.771880
0.763535
0.666976
0.972748
0.828505
1.039505
0.956655
1.205802
1.048446
1.056790
1.260638
1.443624
1.467466
1.615882
1.868606
2.410412
5.408525
38.585663
109.912753
288.823843
495.212674
859.915614
1015.750766
1015.750766
1015.750766
1015.750766
1015.750766
952.278972
706.468821
402.033925
223.550797
85.320473
34.695864
11.819601
8.739829
8.405447
8.473992
8.572936
8.659959
9.692907
11.071563
14.887452
19.576550
27.913451
36.083460
47.477484
55.073500
62.097907
65.043569
63.391924
58.157444
49.132705
42.435527
##ZVALUE=360
0.448823
0.348687
0.281930
0.294447
0.074506
0.384450
0.538826
0.462532
0.219941
0.361800
0.402927
0.493526
0.218749
0.324845
0.376701
0.365973
0.349879
0.301600
0.306964
0.352859
0.354648
0.439882
0.489950
0.495911
0.532866
0.573993
0.501871
0.562668
0.528693
0.512600
0.452995
0.577569
0.591874
0.588894
0.486970
0.566840
0.615716
0.534654
0.523925
0.474453
0.708699
0.600815
0.659823
0.830889
0.795722
0.716448
0.750422
1.000762
0.895858
0.690818
0.792742
0.976920
1.098514
1.163483
1.260638
1.116991
1.429915
1.513958
1.725554
1.922846
2.151728
3.554821
11.534691
59.343576
148.946047
362.247825
590.230823
946.331620
1015.750766
1015.750766
1015.750766
1015.750766
1015.750766
774.526596
524.175763
265.113711
142.920613
50.778985
18.580556
8.279681
8.100867
7.994771
7.823706
8.067489
8.143783
8.327961
9.611845
12.772679
16.228557
22.863746
29.974580
40.597916
47.183633
55.636764
58.091879
58.860779
##ZVALUE=365
0.322461
0.388622
0.482798
0.399947
0.295639
0.319481
0.401735
0.343919
0.426769
0.531673
0.429749
0.460744
0.359416
0.423789
0.323653
0.410676
0.400543
0.456572
0.335574
0.542998
0.279546
0.286698
0.499487
0.342727
0.423789
0.455976
0.294447
0.386834
0.489950
0.634789
0.566840
0.427961
0.509620
0.294447
0.468493
0.523925
0.483990
0.494719
0.498891
0.579953
0.655651
0.617504
0.672936
0.789762
0.592470
0.736713
0.676513
0.737906
0.821948
0.866652
0.692606
0.874996
0.849962
1.037717
1.001954
1.030564
1.072884
1.197457
1.406670
1.395941
1.715422
1.840591
1.987815
2.356768
5.556941
34.369826
92.773438
241.545439
439.179540
796.360970
1015.750766
1015.750766
1015.750766
1015.750766
1015.750766
1001.260877
740.262866
386.722684
201.522708
66.470504
24.749637
8.960962
7.824898
7.644892
7.572770
7.339716
7.415414
7.524490
7.661581
8.772612
10.714531
14.373660
19.742846
26.812553
34.192801
43.178797
##ZVALUE=370
0.302792
0.319481
0.306964
0.465512
0.382662
0.294447
0.244975
0.418425
0.329614
0.150800
0.274777
0.374913
0.403523
0.352859
0.391603
0.424981
0.300407
0.560880
0.184774
0.197887
0.357628
0.393987
0.331998
0.421405
0.326633
0.362992
0.519753
0.609756
0.461936
0.358820
0.529885
0.518560
0.488758
0.457764
0.558496
0.556707
0.273585
0.539422
0.438690
0.509620
0.354648
0.534654
0.504851
0.542998
0.634789
0.637770
0.585914
0.626445
0.545979
0.742674
0.827909
0.601411
0.694990
0.600815
0.707507
0.911951
0.968575
0.861883
1.049638
1.005530
1.125932
1.307726
1.516938
1.586676
1.843572
2.067685
2.907515
17.394423
59.618950
194.057822
354.751945
634.727478
902.833939
1015.750766
1015.750766
1015.750766
1015.750766
983.180404
713.624954
384.428501
208.951831
79.793930
36.439896
13.037920
7.992983
6.685853
6.394982
6.574988
6.727576
6.727576
6.874800
7.076859
7.921457
10.173917
12.489557
17.810464
##ZVALUE=375
0.400543
0.271797
0.238419
0.407696
0.275970
0.389814
0.150800
0.367761
0.325441
0.380874
0.372529
0.375509
0.400543
0.276566
0.276566
0.376701
0.366569
0.411868
0.384450
0.263453
0.358820
0.332594
0.378489
0.387430
0.514984
0.446439
0.301600
0.463724
0.554919
0.357628
0.336766
0.348687
0.517964
0.436902
0.396967
0.377893
0.503659
0.453591
0.461936
0.448823
0.520945
0.577569
0.502467
0.395775
0.452995
0.393987
0.574589
0.470877
0.523925
0.650883
0.557899
0.593662
0.623465
0.679493
0.651479
0.719428
0.685453
0.816584
0.763535
0.789762
0.859499
0.924468
1.111627
1.129508
1.234412
1.456738
1.661777
1.908541
2.292991
8.849502
32.480955
119.044781
252.844691
555.590987
839.991570
1015.750766
1015.750766
1015.750766
1015.750766
1015.750766
836.861730
486.766696
296.269655
140.507817
67.370534
21.431446
10.039806
6.497502
6.513000
6.469488
6.343722
6.436706
6.471872
6.601810
6.925464
7.755756
##ZVALUE=380
0.385642
0.285506
0.339746
0.056624
0.294447
0.518560
0.327826
0.345707
0.243783
0.351667
0.194907
0.332594
0.429749
0.223517
0.229478
0.373721
0.252724
0.279546
0.437498
0.312924
0.240803
0.056624
0.346899
0.366569
0.147820
0.255704
0.147820
0.339746
0.441670
0.390410
0.339746
0.368953
0.344515
0.429749
0.379682
0.351667
0.320673
0.303984
0.300407
0.278950
0.251532
0.468493
0.528693
0.372529
0.432730
0.593662
0.641942
0.544786
0.407696
0.390410
0.396967
0.486970
0.620484
0.635982
0.562668
0.598431
0.588894
0.790954
0.627637
0.710487
0.716448
0.721812
0.780821
0.970960
0.876784
0.879765
1.125932
1.471639
1.492500
1.845956
2.179742
3.772974
21.740794
71.288943
216.702819
387.919545
706.394911
982.379913
1015.750766
1015.750766
1015.750766
1015.750766
999.445915
776.682496
451.272726
261.679888
106.966496
46.219826
12.681484
7.249713
6.383657
6.424785
6.515980
6.710887
6.923676
7.387996
##ZVALUE=385
0.377893
0.279546
0.229478
0.310540
0.264645
0.096560
0.225902
0.259876
0.235438
0.218749
0.262856
0.271797
0.220537
0.438690
0.387430
0.343919
0.371933
0.204444
0.320673
0.503659
0.181794
0.224710
0.231862
0.299811
0.325441
0.233650
0.340939
0.397563
0.247955
0.374913
0.426769
0.412464
0.390410
0.275970
0.329614
0.285506
0.325441
0.411868
0.451803
0.419617
0.517964
0.676513
0.437498
0.513792
0.359416
0.382662
0.363588
0.361800
0.479817
0.511408
0.429749
0.493526
0.527501
0.512600
0.535846
0.615716
0.622869
0.797510
0.654459
0.792742
0.781417
0.732541
0.752807
0.905991
0.882745
1.042485
0.928640
1.307726
1.425743
1.613498
1.637936
2.080798
2.143979
2.777576
8.637905
51.135421
133.573413
331.359506
572.277904
974.451900
1015.750766
1015.750766
1015.750766
1015.750766
1015.750766
909.934044
635.916591
338.369012
188.007951
74.431896
29.024482
9.201765
7.159710
7.185936
7.778406
7.897615
##ZVALUE=390
0.252724
0.180602
0.260472
0.290871
0.258684
0.234842
0.263453
0.273585
0.068545
0.274777
0.178814
0.213981
0.170469
0.291467
0.279546
0.315905
0.204444
0.194907
0.238419
0.280738
0.289679
0.314713
0.354648
0.369549
0.344515
0.338554
0.282526
0.267625
0.323653
0.314713
0.467896
0.317693
0.548959
0.354648
0.339746
0.467896
0.459552
0.397563
0.333786
0.345707
0.404716
0.343919
0.287890
0.410676
0.453591
0.479817
0.437498
0.306964
0.573993
0.606775
0.505447
0.386834
0.513792
0.510812
0.615716
0.570416
0.598431
0.699759
0.707507
0.626445
0.735521
0.750422
0.767708
0.787973
0.870824
0.963807
1.084805
1.052618
1.282692
1.431704
1.401901
1.763701
1.877546
1.882911
1.865625
2.321601
4.380941
32.121539
100.755692
293.333530
530.220866
945.726633
1015.750766
1015.750766
1015.750766
1015.750766
1015.750766
1015.750766
839.903951
492.642522
281.058550
114.295483
50.214529
14.100671
8.082986
7.476807
##ZVALUE=395
0.154972
0.215769
0.326633
0.334978
0.249743
0.408888
0.245571
0.121593
0.360608
0.283718
0.364780
0.216961
0.300407
0.106692
0.332594
0.311732
0.213981
0.332594
0.398755
0.275970
0.283718
0.255704
0.371933
0.365973
0.236630
0.331998
0.400543
0.230670
0.392795
0.251532
0.395775
0.435710
0.346899
0.438690
0.459552
0.328422
0.412464
0.192523
0.386834
0.258684
0.380874
0.416636
0.353456
0.430942
0.240803
0.566840
0.427961
0.556707
0.584722
0.552535
0.495911
0.499487
0.545979
0.527501
0.639558
0.606775
0.465512
0.510812
0.641942
0.656843
0.716448
0.694990
0.573993
0.726581
0.913739
0.855923
1.013875
1.163483
1.179576
1.212955
1.379848
1.454949
1.529455
1.575947
1.555681
1.554489
1.927614
2.114773
2.695918
15.357733
59.609413
209.683776
407.701731
776.450634
1015.757918
1015.757918
1015.757918
1015.757918
1015.757918
1015.757918
1003.227830
622.082949
384.767652
172.878504
80.281496
25.520921
##ZVALUE=400
0.206828
0.296831
0.249743
0.300407
0.218749
0.114441
0.286698
0.305772
0.273585
0.232458
0.209808
0.338554
0.298619
0.145435
0.287890
0.279546
0.175834
0.273585
0.278950
0.244975
0.390410
0.223517
0.145435
0.156760
0.368953
0.318885
0.272989
0.330806
0.245571
0.248551
0.356436
0.436902
0.254512
0.321865
0.361800
0.404716
0.379682
0.367761
0.449419
0.330806
0.398755
0.217557
0.473857
0.340939
0.379682
0.420809
0.347495
0.400543
0.623465
0.474453
0.453591
0.606775
0.605583
0.431538
0.437498
0.447631
0.557899
0.665784
0.614524
0.684857
0.720620
0.715852
0.702739
0.820756
0.844598
0.940561
1.054406
0.970960
1.160502
1.331568
1.374483
1.418591
1.450777
1.395941
1.361966
1.448989
1.422763
1.801848
1.891851
1.859665
2.347827
7.986426
32.191873
124.465823
272.602439
614.058971
955.936909
1015.746593
1015.746593
1015.746593
1015.746593
1015.746593
1015.746593
771.932006
492.466688
239.295959
##END
