##TITLE=QP00651
##FORMAT=SPECTACLE-ASCII V-1.2
##DATA TYPE=ULTRAVIOLET SPECTRUM
##SECOND TYPE=ULTRAVIOLET SPECTRUM
##DATE=03/01/18
##TIME=13:18:33
##SPECTROMETER/DATA SYSTEM=SPECTACLE
##XUNITS=NM EM
##YUNITS=ENERGY
##YFACTOR=1
##FIRSTX=220
##LASTX=410
##NPOINTS=96
##3DDATA=Equidistant
##ZUNITS=NM EX
##FIRSTZ=210
##LASTZ=400
##ZPOINTS=39
##XYDATA=(Y..Y)
##ZVALUE=210
1.940727
1.793504
2.277493
1.939535
2.477765
1.916885
2.356768
2.306700
2.571940
2.538562
2.521873
2.072453
2.321601
2.105832
1.899600
2.173781
1.778603
2.232790
2.717972
3.252625
2.510548
3.248453
2.962947
2.711415
2.868772
2.764463
3.475547
3.236532
3.400445
3.602505
3.957748
3.729463
4.007816
4.346967
4.333854
3.721714
4.121661
3.763437
3.833771
4.091859
4.950762
3.394485
4.204512
3.893971
4.070997
4.593730
4.280806
4.763603
3.991723
5.017519
5.215406
5.468726
4.208684
4.273653
4.944801
5.302429
4.469752
4.304647
5.156994
5.488992
5.153418
4.502535
5.552769
5.315542
5.944967
5.544424
6.008744
6.541610
7.244945
9.441972
9.589791
12.234449
13.159513
13.648868
16.229749
16.866922
17.958879
16.254783
17.685890
17.103553
15.013814
14.671683
13.122559
10.275841
8.520484
6.875992
6.966591
5.664825
4.990697
5.453825
4.912615
4.722476
5.259514
5.057454
5.674958
5.498528
##ZVALUE=215
5.173683
5.296469
4.914999
4.748702
4.104972
4.346967
4.279613
4.783869
4.966855
4.716516
5.001426
4.093647
3.705621
3.228784
2.558827
2.592802
2.109408
2.357960
2.856851
2.807975
2.198815
2.764463
3.203750
3.031492
3.490448
3.305674
3.080964
2.654791
3.508925
3.283620
3.335476
3.924966
4.024506
4.855990
4.717708
4.722476
4.372597
4.752874
4.130602
4.797578
3.885627
4.935861
4.451871
4.805923
4.801750
5.081892
4.640818
4.528761
4.530549
4.824996
4.897714
5.027652
4.821420
5.282760
4.864931
6.212592
5.240440
5.205870
4.929900
5.522966
5.742908
6.049871
4.980564
5.342960
5.871654
5.081892
5.943775
6.531477
7.343888
8.268952
9.939671
11.215806
11.160970
13.240576
14.598966
14.111996
15.125871
15.067458
13.292432
11.634827
13.079643
10.602474
9.661913
8.968711
7.202625
6.773472
5.878806
6.379485
6.602407
5.155802
5.817413
5.311966
4.981756
4.484653
5.183816
5.020499
##ZVALUE=220
16.564727
16.358495
19.106865
19.696951
17.996430
14.279485
12.932420
10.394454
10.664463
11.635423
11.905432
12.451410
11.879802
11.040568
8.366704
6.771684
5.625486
4.308820
3.242493
3.202558
3.612638
3.341436
4.110932
3.131628
3.720522
3.176928
3.281832
3.823638
3.643632
4.751682
3.825426
4.151464
4.491806
4.570484
4.462600
4.476905
4.393458
5.016923
4.844666
4.638433
4.314780
4.912615
4.701614
4.789829
4.389882
5.303621
5.404949
4.761815
5.120635
5.881786
5.374551
5.183816
5.156994
4.992485
4.850626
5.129576
4.868507
6.657839
5.112886
4.714727
5.786419
5.753636
5.727410
5.790591
5.263686
5.349517
6.444454
6.319880
7.756948
7.464886
8.664727
10.720491
10.093451
11.971593
13.836622
14.500618
13.203621
11.282563
12.435913
10.373592
11.528730
10.928512
9.566545
8.041859
7.275939
7.442832
6.520748
5.772710
5.916953
5.398989
6.040931
5.544424
6.179810
5.304813
6.039739
5.507469
##ZVALUE=225
27.462840
29.810667
38.670897
52.337646
56.174994
56.293607
53.762794
44.004917
33.846498
29.273629
21.181703
20.818710
25.860667
24.918914
25.163889
23.845434
21.816492
16.464591
10.890961
7.982850
5.769730
4.144907
3.639460
3.432631
3.306866
4.082918
3.611445
4.130602
3.577471
4.120469
4.197955
4.459620
4.413724
3.607869
5.093813
4.014969
4.395843
4.683733
4.982948
5.119443
4.405975
4.562736
4.364848
4.889965
5.170703
5.189776
5.755424
5.304813
5.467534
6.102920
6.020665
5.315542
5.579591
5.184412
5.467534
5.931854
6.007552
6.597638
6.048679
5.416870
5.221963
5.390644
5.481839
5.902648
6.921887
6.362796
6.924868
7.843971
8.287430
8.652806
9.605885
10.718703
11.734962
11.334419
12.980700
13.133883
12.273788
13.504624
13.234615
12.386441
11.462569
11.043549
9.839535
10.496974
9.679794
8.072853
8.476973
7.121563
8.039474
7.660985
7.483959
7.033944
7.283688
8.252859
6.733537
7.211566
##ZVALUE=230
24.696589
27.902722
44.469833
74.382424
100.360513
122.308731
140.828490
142.749548
128.417611
111.616850
80.796480
58.879852
45.264959
42.293668
43.837428
47.353506
46.870708
47.068596
41.924715
34.906864
26.030540
15.766621
12.294650
7.848740
5.747676
4.473925
4.447699
4.313588
4.360676
3.933907
5.295873
4.376769
4.786849
4.933476
5.055666
5.025864
4.434586
5.328655
6.105900
5.251765
5.464554
5.188584
5.977750
5.855560
5.178452
5.257726
5.988479
5.141497
5.725622
6.469488
6.190538
5.916953
6.659627
6.314516
5.877614
6.838441
7.649660
7.309914
6.423593
7.357597
7.377863
7.719994
7.763505
8.490682
8.619428
9.072423
7.445812
8.031726
9.860992
10.977983
12.043715
12.899637
13.855696
16.202927
17.387867
16.162992
15.857816
16.178489
16.063452
14.697909
13.685822
12.365580
13.336539
12.879968
12.448430
11.754632
11.149645
10.446906
10.453463
10.542870
11.290908
9.942651
10.875463
10.522604
10.153651
10.087490
##ZVALUE=235
10.785460
11.845827
23.447871
52.144527
89.554787
144.711733
194.512606
254.374743
278.067589
279.024839
260.963440
200.127959
154.163837
103.820562
80.952644
68.683624
69.133639
72.650909
81.794858
81.900954
76.235533
65.497756
50.630569
36.326647
22.963881
12.520552
9.316802
6.649494
4.375577
5.810857
5.549788
5.425811
4.516840
6.485581
5.248785
6.423593
5.856752
5.703568
5.187988
5.338788
5.462766
4.918575
5.650520
5.910993
6.792545
6.355643
6.626844
6.547570
6.062984
5.827546
6.547570
6.641746
6.773472
7.077456
6.982684
7.551908
7.228851
8.343458
7.800460
9.177923
8.160472
7.998943
8.814931
10.015965
9.687543
10.754466
11.716485
12.657642
12.846589
14.737844
15.121698
17.696619
19.967556
18.495917
20.271540
21.341443
20.708442
19.025803
19.208789
20.167828
19.233823
18.095970
17.437935
16.469955
16.598701
16.440749
15.848875
14.321804
15.734434
15.198588
15.037656
14.987588
15.988946
14.913678
15.799999
15.042424
##ZVALUE=240
1.365542
1.757741
4.063845
16.448498
34.426451
73.522925
127.968788
220.691562
295.758843
360.924006
430.342555
435.132980
388.924479
330.175757
246.853828
180.239677
116.474628
92.657804
91.165900
99.206567
107.533932
118.571520
116.231441
98.825693
82.951784
59.768558
43.400526
27.529597
18.423796
9.431839
7.583499
6.518960
5.776882
5.693436
5.267859
5.835891
6.055832
5.309582
6.219745
5.837679
6.036758
5.804896
6.093979
5.243421
5.681515
6.349683
5.992651
6.121993
5.948544
6.556511
7.232428
7.008910
6.187558
8.357763
7.768869
6.627440
8.086562
7.608533
7.587671
8.970499
9.537935
9.099841
8.873940
11.025667
11.554956
11.696815
12.571812
13.432503
14.672875
14.304519
18.872619
19.078851
18.248558
19.762516
21.938682
21.487474
22.583604
21.095872
22.957921
21.741986
22.962689
20.719767
21.076798
22.068620
21.113753
19.318461
18.848777
19.743443
19.634962
18.460751
19.535422
18.415451
17.506480
18.208623
19.675493
19.893646
##ZVALUE=245
1.393557
1.604557
2.180934
1.941919
2.865791
11.847615
27.020574
72.083473
130.507946
237.412453
323.811769
446.699858
506.717563
537.274480
512.483716
429.799557
347.574949
238.860846
169.731975
111.695528
94.873905
91.433525
112.504959
126.944780
129.427910
122.252703
111.356974
90.747476
65.945983
52.178502
31.672716
19.140840
12.292862
6.797910
6.005764
5.048513
5.858541
5.841851
5.620718
5.681515
6.174445
5.179644
5.560517
5.380511
5.793571
6.300807
5.226731
5.191565
5.130768
5.901456
5.650520
5.790591
5.796552
6.939769
6.420612
6.291866
6.379485
7.205606
8.503795
7.688999
7.775426
8.783937
8.778572
9.363890
9.806752
10.622740
11.140704
12.486577
13.088584
14.803410
15.496612
16.597509
19.360781
20.722747
21.416545
21.849871
22.161603
20.827651
22.663474
21.533966
21.939874
21.896958
19.344687
20.001531
20.816922
20.836592
21.193624
19.258857
19.546747
19.616485
19.638538
20.117760
19.391775
19.220710
21.358728
20.378828
##ZVALUE=250
1.150966
1.387596
1.307726
1.271963
1.614690
1.271963
1.954436
6.272793
25.939941
53.372979
130.130649
211.056471
320.057869
467.735529
562.074780
637.973547
641.767979
564.222932
479.820967
335.861444
229.655504
155.506730
97.647905
89.701414
106.271505
116.486549
131.637454
133.219957
131.867528
117.962956
102.254748
77.054501
56.860447
32.195449
21.517873
11.130571
7.786751
5.953908
5.691648
5.689859
5.200505
5.401969
5.276799
5.097985
5.110502
5.274415
5.069971
5.576611
5.689859
4.771948
5.877614
5.371571
5.214810
5.603433
5.326867
5.551577
5.518794
6.020665
6.391406
6.513596
7.053614
7.142425
7.774830
8.216500
8.016825
7.964969
10.374784
10.654926
11.174679
11.951923
14.140606
14.697909
15.963912
17.817616
17.681718
18.703938
19.356608
18.746853
20.133853
19.756556
19.359589
17.773509
19.258857
17.989874
18.325448
18.473864
18.329620
17.721653
18.105507
18.107891
19.339919
19.099712
18.356442
18.068552
19.281507
18.641949
##ZVALUE=255
0.949502
0.880957
1.058578
1.200438
1.414418
1.355410
1.411438
1.267791
2.102852
3.585815
16.868711
39.983988
84.521770
186.580420
282.651782
446.062684
565.275550
678.752661
712.077618
678.687692
584.434867
465.538502
290.257931
190.108418
110.455751
86.326003
87.166429
101.077557
126.744509
140.484571
144.599676
140.925646
127.762556
101.374984
78.819990
53.611994
35.860538
19.547939
12.718439
6.985664
5.862713
5.514622
5.175471
4.842877
5.128980
4.771948
5.569458
6.251931
5.076528
4.821420
5.269647
4.922748
5.451441
4.725456
5.102754
5.023479
5.329847
5.527735
5.843639
6.203651
5.343556
6.242990
6.770492
6.467700
7.473826
7.393956
8.602738
8.593798
9.697676
10.953546
12.736917
12.480617
13.993979
15.047789
15.426874
16.539693
16.763806
15.539527
16.532540
16.833544
16.573668
16.098619
17.105937
16.459823
16.392469
17.640591
17.122626
16.001463
16.322732
17.238855
17.570853
17.977953
17.101765
17.382503
16.887784
16.785860
##ZVALUE=260
0.999570
1.024604
1.022816
1.048446
1.067519
1.299977
1.080632
1.137853
1.505613
1.350641
1.702905
2.448559
6.338954
26.498437
60.198903
147.629976
244.954824
408.648849
546.863675
714.218020
789.572001
801.178813
711.873770
579.342842
387.079716
264.740586
156.627893
102.475882
77.077746
83.309412
98.033547
128.519535
142.596960
149.790645
146.862864
129.332542
110.698938
79.654455
57.016611
33.825636
23.113489
12.004972
7.567406
5.084872
5.361438
5.318522
4.541874
5.171895
4.662871
5.237460
4.907846
5.348921
5.222559
5.332828
4.842877
5.137920
5.145669
5.504489
5.254745
5.176663
5.725622
5.973577
6.094575
6.970763
6.834865
7.265806
7.867813
8.295774
9.098649
9.494424
9.834766
11.975765
12.009740
13.145804
13.644695
14.127493
13.540983
14.388561
14.184713
15.126467
14.978647
15.350580
15.090704
16.446710
15.341640
15.383959
15.945435
14.655590
15.974641
15.670657
15.544891
15.339851
15.516877
15.916824
17.160773
16.961694
##ZVALUE=265
0.650883
0.718832
0.918508
0.886917
1.122952
0.852942
1.040697
0.907779
1.061559
1.017451
0.962615
1.384616
0.965595
1.432896
4.022717
14.964938
56.824684
112.434626
163.958669
364.738703
525.434613
720.436573
823.342800
875.637531
818.566680
660.393834
525.510907
338.776708
223.758817
121.368766
79.847574
68.509579
82.339644
110.784769
129.573941
149.497986
154.395700
145.130754
131.820440
104.168653
80.808997
54.736733
36.542416
19.912720
12.728572
7.887483
5.653501
4.843473
4.506707
4.819632
4.450679
4.722476
5.106926
4.719496
5.162954
5.184412
4.699826
5.376935
4.994869
5.786419
5.492568
5.913973
5.997419
6.139874
6.372929
6.565452
6.977916
7.523894
8.839965
8.920431
9.812713
10.207891
10.437965
12.086630
11.758804
13.375878
13.599992
12.793541
13.189912
13.237596
13.634562
14.280677
14.574528
14.180541
13.755560
14.701486
14.024973
14.578700
14.373660
14.895797
14.830828
15.340447
15.701652
14.806986
15.282631
15.561581
##ZVALUE=270
0.894666
0.671744
0.639558
0.798702
0.668764
0.517964
0.754595
0.936985
0.813603
1.100898
1.133680
1.123548
1.157522
1.135468
1.425743
1.453757
1.799464
8.805990
27.396679
89.117885
171.245933
288.711786
507.536530
681.334734
871.815681
942.839980
924.744010
835.994482
655.426979
492.058992
302.751660
184.185505
106.880665
60.229897
61.247945
85.532665
106.774569
134.403706
147.789717
153.536797
149.876475
131.743550
107.431412
78.036785
57.174563
33.536553
22.601485
12.529492
8.402467
5.581975
5.087852
4.949570
5.064607
4.999638
5.059838
5.238652
4.998446
5.648732
5.521774
5.534887
5.505681
5.311966
5.514622
6.479621
6.798506
6.528497
7.028580
7.746816
7.684827
8.657575
8.992553
9.993911
10.823607
11.449456
11.501908
12.723804
11.796951
12.712479
12.623668
12.934804
13.008714
12.654662
13.032556
12.676716
13.083816
13.438463
13.923645
13.659596
13.722777
13.588667
13.607740
14.588833
14.273524
13.704896
13.498664
13.830662
##ZVALUE=275
0.702739
0.723600
0.814795
0.529885
0.793934
0.720620
0.570416
0.798702
0.762939
0.748634
0.970960
0.734925
1.020432
1.030564
1.145601
1.115799
1.287460
1.478791
1.844764
4.952550
18.954873
49.496889
141.066909
260.614753
485.186577
660.854578
865.454674
980.311036
1015.750766
986.005664
870.879889
652.267933
467.093587
253.111720
149.745941
68.580508
51.050782
59.730411
78.283548
107.498765
127.806664
146.778822
151.987672
144.834518
130.797625
104.675889
82.268715
56.970716
39.265752
22.452474
13.952851
8.427501
6.772876
5.557537
5.231500
5.300641
5.248785
5.387664
5.789995
5.690455
5.961657
6.197691
6.396770
6.255507
7.107854
6.654859
7.276535
7.876754
8.312464
8.527637
9.297729
10.962486
11.153817
11.417866
12.261868
11.758804
12.536645
12.540817
12.633801
13.326406
12.827516
12.550950
13.144612
12.387633
12.566447
12.564659
12.391806
12.762547
13.813972
12.829900
13.727546
12.570620
13.251901
13.103485
13.453960
14.014840
##ZVALUE=280
0.702739
0.578761
0.718832
0.635982
0.789762
0.772476
0.818968
0.647902
0.984669
0.894666
0.859499
0.855923
1.046658
0.897646
0.822544
1.095533
1.136661
1.199841
1.186728
1.348853
1.729727
2.122521
12.532473
43.366551
128.449798
229.756832
425.439477
618.985891
876.141787
1015.756726
1015.756726
1015.756726
1015.756726
932.579637
689.859986
393.563509
236.199498
103.270411
53.835511
41.937828
55.059791
81.344843
102.984905
129.438639
143.535733
150.597692
145.909786
126.875639
108.361840
78.910589
57.120919
36.596656
24.090409
13.540983
9.192824
6.450415
6.072521
5.914569
5.882978
6.313920
6.404519
6.494522
6.584525
7.005930
6.969571
7.300973
7.592440
7.702708
8.728504
9.117723
9.534955
10.697842
10.851622
11.316538
12.261868
12.620687
12.895465
13.023615
12.754798
12.825727
12.420416
12.375712
12.855530
12.483597
13.085604
12.301803
12.460947
13.101697
12.532473
12.662411
12.358427
12.419820
12.290478
13.109446
12.572408
12.806654
##ZVALUE=285
0.583529
0.700951
0.580549
0.536442
0.735521
0.568628
0.664592
0.691414
0.689626
0.609756
0.696778
0.925660
0.794530
0.810623
0.844598
0.946522
0.852942
0.995994
0.809431
1.159906
1.274943
1.441836
1.519918
1.702905
5.385876
17.688870
63.340664
134.493709
289.059877
460.066795
651.184916
908.643603
1015.750766
1015.750766
1015.750766
989.650488
817.036033
544.266701
352.533460
174.125433
93.050003
38.782954
35.370588
52.298903
72.699785
102.533698
122.617483
137.811899
145.003796
142.353773
129.253864
103.473663
83.500743
56.652427
40.070415
23.298860
14.705658
9.221435
7.535815
6.245971
6.241798
6.646514
6.341934
7.146597
7.053614
7.326603
7.394552
8.300543
8.734465
9.302497
9.638667
9.917617
10.511875
10.889769
10.903478
11.506677
12.016892
11.698604
11.647940
12.133718
11.550784
11.964440
12.159944
12.152791
11.973977
12.165904
12.032986
12.273788
12.239814
12.108684
11.876822
11.801720
12.043715
11.327863
12.438893
11.938810
##ZVALUE=290
0.662804
0.675917
0.526905
0.539422
0.668764
0.672936
0.533462
0.521541
0.881553
0.579953
0.618696
0.659823
0.903606
0.719428
0.693798
0.669956
0.847578
0.781417
0.959635
0.953674
0.987649
1.042485
1.204610
1.247525
1.333952
1.490712
2.552867
9.184480
41.200519
94.207525
180.955529
373.213887
569.775701
844.754577
1006.425619
1015.763879
1015.763879
996.699929
825.188756
553.827882
366.443992
181.085467
92.299581
36.757588
25.832653
34.835935
47.954917
71.623921
91.356635
117.680430
132.804513
142.700672
139.076710
124.585629
105.648637
77.135563
58.735609
36.137700
25.066733
14.488697
10.343790
7.989407
6.896853
7.196665
7.044673
7.382631
7.444620
7.988811
8.869767
9.719729
9.960532
10.470748
10.577440
10.828972
11.262894
11.670589
11.476874
11.273623
11.606812
11.779666
12.223721
11.688471
11.693835
12.633801
12.144446
12.258887
12.281537
12.224913
12.098551
11.883974
11.921525
11.749864
11.868477
11.913776
11.855960
11.853576
##ZVALUE=295
0.545979
0.683665
0.646710
0.534654
0.594854
0.601411
0.533462
0.480413
0.731945
0.508428
0.576973
0.691414
0.599623
0.491738
0.569820
0.607967
0.709891
0.890493
0.736713
0.812411
0.970960
1.023412
1.075864
1.048446
1.155734
1.117587
1.489520
1.530647
1.841784
4.672408
19.687414
83.307624
170.779824
368.142724
555.784702
836.756825
998.750925
1015.749574
1015.749574
1015.749574
960.549712
700.030923
491.501689
268.930793
143.395662
51.708817
26.093721
21.853447
28.539896
47.368407
65.516829
90.087652
108.207464
127.868652
134.130716
130.802989
120.341778
97.531676
79.467893
54.920912
39.210916
24.224520
16.331673
10.647774
9.400845
8.023977
7.762909
8.509755
8.621812
9.327531
10.317564
10.135770
10.972619
11.448860
10.953546
11.769533
11.848807
12.075901
11.820793
11.786819
12.010932
11.930466
12.260675
12.384653
12.177825
12.332797
12.250543
11.961460
12.467504
12.087822
11.869669
11.371970
11.413693
11.385679
11.166930
12.382865
##ZVALUE=300
0.548959
0.553727
0.441670
0.440478
0.404716
0.412464
0.367761
0.643730
0.511408
0.538826
0.537634
0.519753
0.718832
0.559688
0.521541
0.560880
0.729561
0.617504
0.904799
0.783801
0.610948
0.783801
0.895858
0.897646
1.052618
1.240969
1.173615
1.122952
1.362562
1.421571
1.979470
2.023578
11.753440
47.411919
162.104964
300.319791
564.755797
796.965957
1015.750766
1015.750766
1015.750766
1015.750766
1015.750766
888.596773
593.818426
384.104848
196.111798
106.483698
38.597584
18.659830
18.799901
25.983453
42.116642
57.905912
83.082914
101.327896
121.828914
128.463507
127.066970
117.892623
97.566843
79.939961
57.079792
42.142868
25.415421
18.325448
11.872649
10.080934
9.833574
9.482503
10.145903
10.356903
10.693669
10.665655
11.338592
11.998415
11.807680
11.911988
11.647940
12.059808
12.262464
12.335777
12.001991
12.174845
12.657642
12.464523
12.100935
12.044907
12.331605
11.997819
12.124777
11.950731
11.935830
11.276603
11.679530
11.840463
##ZVALUE=305
0.502467
0.389814
0.410676
0.537634
0.309944
0.405908
0.518560
0.511408
0.529885
0.541806
0.465512
0.539422
0.603795
0.576973
0.553727
0.388622
0.545979
0.546575
0.516772
0.739694
0.661612
0.625849
0.768900
0.857711
0.864863
0.849962
0.935793
0.887513
1.011491
1.249909
1.256466
1.201630
1.542568
1.946688
3.657937
23.107529
70.485473
208.136439
367.138982
645.288825
871.053934
1015.750766
1015.750766
1015.750766
1015.750766
926.798582
726.000667
456.209779
281.613469
127.092600
59.994459
20.457506
13.696551
17.082691
24.817586
40.381551
56.510568
79.189539
96.499920
115.028620
121.304989
121.897459
111.954808
94.577670
77.043772
55.370927
39.750934
25.671721
17.981529
13.445616
11.476874
11.070967
11.163950
11.622906
11.275411
11.311769
11.592507
11.758804
11.468530
12.269616
12.154579
12.459755
12.652874
11.970997
12.325644
12.637973
12.178421
11.934638
12.369752
12.170672
12.061000
11.612773
11.897683
11.525750
11.804700
11.751652
##ZVALUE=310
0.484586
0.462532
0.425577
0.499487
0.307560
0.378489
0.342727
0.341535
0.438690
0.479817
0.490546
0.590682
0.514984
0.394583
0.277758
0.459552
0.462532
0.684857
0.518560
0.536442
0.527501
0.550747
0.757575
0.786781
0.642538
0.922680
0.892878
0.824928
0.953674
1.000762
1.063943
1.005530
1.100898
1.367927
1.432896
1.668930
1.930594
8.679628
31.853914
115.054846
226.239562
453.856587
666.126609
944.920778
1015.746593
1015.746593
1015.746593
1015.746593
892.406702
615.685582
418.015718
212.599635
114.800930
39.365888
16.519427
11.296868
14.929771
23.804903
33.959746
52.320957
69.100857
91.365576
103.603601
114.493966
114.555955
105.942488
94.175935
74.044466
56.982636
38.886666
28.411746
19.739866
15.397668
12.428761
11.416674
11.387467
11.502504
11.636615
11.892915
11.909604
12.371540
12.152791
12.311935
12.293458
12.541413
12.444854
12.842417
12.683868
12.485981
12.555718
12.516975
12.146831
11.776686
12.061000
11.618733
11.861920
##ZVALUE=315
0.452995
0.446439
0.426769
0.506639
0.429749
0.372529
0.377893
0.392795
0.370741
0.325441
0.437498
0.543594
0.426769
0.439882
0.474453
0.424981
0.449419
0.581741
0.456572
0.360608
0.685453
0.521541
0.594854
0.659823
0.761747
0.507832
0.586510
0.544786
0.894666
0.767708
0.691414
0.724792
0.953674
1.198649
1.128912
1.129508
1.267791
1.322627
1.578927
3.548861
14.662743
65.294504
147.845745
342.052579
553.288460
866.743922
1015.746593
1015.746593
1015.746593
1015.746593
937.204957
674.713850
476.048589
254.030824
139.632821
54.051876
23.478866
10.489821
10.465980
14.165640
20.417571
32.464862
46.615601
65.842867
81.487894
100.148916
108.145475
109.673738
102.994442
87.032914
73.483586
54.234862
40.852427
26.652813
20.345449
15.463829
13.002753
12.521744
11.864901
12.262464
11.881590
11.711717
11.795759
12.459755
12.347698
12.649894
12.692809
12.593865
12.365580
12.158751
12.463927
12.069941
12.834668
12.299418
12.116432
11.904836
##ZVALUE=320
0.433922
0.483990
0.437498
0.547767
0.557899
0.559688
0.515580
0.564456
0.523925
0.576973
0.441670
0.500679
0.549555
0.590682
0.520945
0.555515
0.552535
0.550747
0.563860
0.727773
0.791550
0.998974
0.891685
0.704527
0.624657
0.748634
0.830889
0.730753
0.773668
0.806451
0.864863
0.883937
1.120567
1.144409
1.096725
1.159906
1.242757
1.295805
1.309514
1.553893
1.722574
2.338886
7.463694
42.866468
104.144812
263.515711
432.151556
715.819597
929.507017
1015.877724
1015.877724
1015.877724
1015.877724
816.780925
598.661900
331.164002
183.257461
73.550940
33.032894
12.248755
9.319782
10.191798
12.798905
19.754767
28.215647
45.610666
60.139894
80.340505
93.121529
104.587674
105.403662
99.074841
88.221431
68.729520
54.807663
37.602782
28.536916
20.407438
16.369820
13.773441
12.814999
12.933612
12.347698
12.510419
12.540817
12.812614
12.674928
12.590885
12.586713
12.071729
12.544990
12.447834
12.295842
12.106895
12.258887
12.242794
##ZVALUE=325
0.486970
0.633597
0.619888
0.420809
0.651479
0.516772
0.535846
0.580549
0.545979
0.600815
0.555515
0.718832
0.693798
0.586510
0.560880
0.545979
0.506639
0.669956
0.666976
0.649691
0.636578
0.592470
0.654459
0.678897
0.751615
0.631809
0.653863
0.613928
0.650883
0.895858
0.811815
0.864863
0.955462
0.998974
0.950694
1.022816
1.049638
1.030564
1.001954
1.210570
1.300573
1.554489
1.603961
2.024770
4.399419
30.316710
78.522563
197.301507
344.464779
612.449646
828.692913
1015.947461
1015.947461
1015.947461
1015.947461
860.705972
646.189451
389.887691
229.625702
100.116730
47.354698
16.049743
9.753704
9.040833
10.152459
13.770461
19.297600
29.477477
41.892529
61.832666
76.598525
90.706944
98.366737
99.428892
93.620420
79.682469
65.926909
49.952865
38.818717
25.969744
20.713806
15.607476
14.084578
12.971759
12.907982
12.722611
12.592673
12.635589
12.532473
12.548566
12.615919
12.682676
12.497902
12.231469
12.097955
11.879802
##ZVALUE=330
0.508428
0.587702
0.586510
0.483990
0.560880
0.480413
0.430942
0.621676
0.575781
0.551939
0.593662
0.647902
0.542998
0.620484
0.587702
0.475645
0.483990
0.535846
0.586510
0.575781
0.722408
0.563860
0.538826
0.599623
0.710487
0.761747
0.625849
0.688434
0.660419
0.749826
0.698566
0.753999
0.728965
0.944734
0.879765
1.002550
1.056790
1.028776
1.023412
0.945926
1.254678
1.314878
1.326799
1.255870
1.435876
1.933575
2.234578
10.036826
34.157634
114.286542
224.493742
442.386866
640.854836
909.788013
1015.968919
1015.968919
1015.968919
944.176912
747.075677
480.718017
307.543874
143.361688
72.131753
25.847554
12.221932
8.749962
8.803606
10.629892
12.796521
19.953847
27.864575
41.621923
55.254698
73.508620
84.345937
94.188452
95.155835
88.275671
77.298880
61.067939
48.642755
34.486651
26.874542
20.197630
16.931891
13.979673
13.196468
13.014674
12.715459
12.296438
12.637973
12.241602
12.261868
12.035966
11.637807
12.036562
##ZVALUE=335
0.399947
0.351667
0.335574
0.295639
0.436902
0.414848
0.454783
0.464916
0.420809
0.435710
0.491738
0.459552
0.506639
0.452995
0.349879
0.567436
0.366569
0.485778
0.416636
0.662804
0.557899
0.584722
0.293851
0.597835
0.609756
0.642538
0.670552
0.742674
0.462532
0.664592
0.547767
0.641942
0.490546
0.584722
0.692606
0.808835
0.844598
0.741482
0.906587
0.841618
0.982881
0.972748
1.004934
1.115799
1.178980
1.227856
1.401901
1.297593
1.604557
3.536940
20.611882
57.156682
158.901811
283.134580
520.043969
729.872584
983.128548
1015.878916
1015.878916
1015.878916
850.009918
649.600029
390.604734
235.061646
99.024773
46.134591
16.080737
9.620786
8.600950
9.055734
10.684729
13.069510
19.169450
26.689768
40.347576
52.914619
68.425536
79.917908
87.967515
88.426471
81.660748
72.274804
60.334802
49.010515
36.261678
27.692914
20.297766
16.650558
13.836622
12.821555
12.348890
11.840463
11.667609
11.539459
11.930466
11.556745
##ZVALUE=340
0.313520
0.293851
0.298619
0.337958
0.408888
0.431538
0.414848
0.368953
0.430942
0.464916
0.314713
0.390410
0.387430
0.477433
0.399947
0.596642
0.418425
0.321865
0.578761
0.509620
0.549555
0.359416
0.413656
0.435710
0.378489
0.410676
0.634789
0.459552
0.638962
0.483990
0.631809
0.684857
0.501871
0.566840
0.649691
0.737906
0.703931
0.728965
0.731945
0.744462
0.623465
0.634789
0.602603
0.945926
0.935793
1.115799
1.069903
1.159906
1.156926
1.358986
1.502633
2.569556
9.141564
46.122670
111.762881
273.864865
452.605486
727.110505
922.793746
1015.843749
1015.843749
1015.843749
927.324891
681.203604
475.559831
251.120925
138.470531
55.670738
23.452640
10.140538
9.089708
8.930564
9.046793
10.724664
13.203621
19.100904
26.190877
38.465858
49.814582
66.046715
75.716972
82.686543
82.602501
77.134967
70.480704
57.295561
46.769977
35.018921
27.406812
19.864440
16.015768
12.985468
12.470484
11.842847
11.046529
11.149645
##ZVALUE=345
0.213981
0.289679
0.232458
0.312924
0.358820
0.348687
0.275970
0.180602
0.337958
0.245571
0.184774
0.378489
0.330806
0.305772
0.305772
0.124574
0.213981
0.390410
0.285506
0.361800
0.333786
0.304580
0.371933
0.256896
0.466704
0.332594
0.412464
0.401735
0.363588
0.281930
0.261664
0.342727
0.513792
0.558496
0.525713
0.490546
0.525713
0.439882
0.468493
0.448823
0.639558
0.462532
0.521541
0.758767
0.713468
0.704527
0.685453
0.725985
0.993609
0.941753
1.057982
1.167655
1.361966
1.539588
4.541874
20.413995
85.783005
174.063444
362.880826
548.948646
811.147690
974.293947
1015.750766
1015.750766
939.387679
777.938962
526.230931
350.346565
166.474581
82.808733
27.010441
13.065934
9.099841
8.705854
8.553863
8.714795
9.645820
11.997819
17.400980
23.984909
35.526752
46.103001
59.172511
68.148971
75.765848
76.797605
73.977709
67.708492
55.196881
45.506954
34.134984
25.720596
18.820763
15.319586
12.427568
11.564493
##ZVALUE=350
0.443459
0.356436
0.248551
0.416636
0.498891
0.290871
0.336766
0.364780
0.307560
0.428557
0.379682
0.503659
0.482798
0.365973
0.391603
0.463724
0.447631
0.403523
0.504851
0.357628
0.495911
0.295639
0.566840
0.540614
0.709891
0.381470
0.445843
0.616908
0.441670
0.592470
0.464916
0.347495
0.604987
0.664592
0.491738
0.518560
0.527501
0.547767
0.521541
0.659823
0.596642
0.583529
0.729561
0.643730
0.862479
0.961423
0.728965
0.845790
0.775456
0.916719
0.736713
0.979900
1.100898
1.215935
1.416802
1.426935
2.961755
10.903478
51.931739
120.050907
287.438631
467.769504
746.269822
938.413739
1015.842557
1015.842557
1015.842557
897.227526
616.616011
416.343808
216.195583
120.572448
49.435496
20.388961
9.429455
8.637905
8.561611
8.315444
8.592606
9.533763
12.402534
15.777946
22.985935
29.662848
42.139888
50.787926
62.313676
67.776442
70.514679
68.022609
61.234832
53.752661
42.253733
33.003688
24.450421
19.399524
##ZVALUE=355
0.351667
0.398755
0.251532
0.382662
0.282526
0.346899
0.328422
0.303984
0.476837
0.236630
0.359416
0.420809
0.301600
0.399947
0.408888
0.395775
0.359416
0.448823
0.421405
0.457764
0.430942
0.287890
0.383854
0.485778
0.571609
0.349879
0.471473
0.406504
0.537634
0.553727
0.653863
0.502467
0.421405
0.581741
0.549555
0.381470
0.388622
0.505447
0.421405
0.731945
0.684857
0.639558
0.469685
0.659823
0.717640
0.679493
0.662804
0.705719
0.841618
0.912547
0.901818
0.938773
1.081824
1.137853
1.101494
1.268983
1.313686
1.520514
1.746416
6.806850
26.858449
106.403828
213.573575
438.079834
668.261647
984.127522
1015.779972
1015.779972
1015.779972
983.873606
779.834986
509.845018
320.501924
143.802762
70.609450
23.248792
10.598898
8.070469
8.011460
7.858872
7.830858
8.345842
8.951426
11.211634
13.659596
20.005703
26.638508
36.958456
45.419931
55.458546
60.849786
64.164996
62.656999
56.625605
49.686432
40.232539
##ZVALUE=360
0.224710
0.270605
0.198483
0.251532
0.354648
0.373721
0.297427
0.201464
0.424981
0.401735
0.289679
0.327826
0.399947
0.410676
0.307560
0.304580
0.284910
0.272989
0.354648
0.277758
0.370741
0.352859
0.415444
0.330806
0.437498
0.398755
0.583529
0.522733
0.399947
0.447631
0.343919
0.346899
0.458956
0.426769
0.422597
0.567436
0.558496
0.479817
0.624657
0.625849
0.485778
0.696778
0.664592
0.731945
0.713468
0.681877
0.583529
0.657439
0.849962
0.763535
0.734925
0.923872
0.845790
0.868440
0.924468
1.206994
1.305938
1.274943
1.364946
1.577735
1.743436
3.352761
12.301803
58.904886
143.723488
338.628888
536.726713
825.683475
1009.944677
1015.750766
1015.750766
1015.750766
876.685977
575.841665
372.402668
174.795985
91.367960
34.217834
14.660954
7.893443
7.354617
7.438660
7.136464
7.180572
7.504821
7.901788
9.081960
12.377501
15.706420
22.410750
29.325485
39.762855
47.394633
54.178834
57.303905
57.351589
##ZVALUE=365
0.223517
0.296831
0.386834
0.302792
0.328422
0.328422
0.325441
0.142455
0.408888
0.302792
0.252724
0.314713
0.183582
0.364780
0.200868
0.276566
0.369549
0.362992
0.214577
0.316501
0.278950
0.331998
0.309944
0.298619
0.227690
0.581741
0.388622
0.464916
0.262856
0.516772
0.402927
0.506639
0.429749
0.465512
0.327826
0.458956
0.451803
0.611544
0.449419
0.723600
0.653863
0.575781
0.474453
0.562668
0.652671
0.509620
0.544786
0.739694
0.747442
0.695586
0.649691
0.642538
0.710487
0.837445
0.872612
0.828505
0.759959
1.098514
1.135468
1.074672
1.166463
1.273751
1.523495
1.904964
4.965663
31.632781
84.072948
215.623975
385.009646
681.222677
889.827013
1015.750766
1015.750766
1015.750766
911.766887
636.126995
433.662534
227.863789
120.561719
44.045448
18.696785
7.980466
7.019639
7.021427
6.818771
6.861687
6.908774
6.654859
7.032752
8.193851
9.859800
13.942719
18.132925
26.073456
33.117533
41.836500
##ZVALUE=370
0.296831
0.326633
0.272989
0.332594
0.384450
0.418425
0.378489
0.395775
0.297427
0.255704
0.352859
0.273585
0.268817
0.291467
0.316501
0.304580
0.380874
0.320673
0.436902
0.429749
0.339746
0.317693
0.159740
0.469685
0.238419
0.369549
0.399947
0.438690
0.560880
0.388622
0.407696
0.428557
0.507832
0.428557
0.352859
0.435710
0.426769
0.467896
0.405908
0.530481
0.482798
0.381470
0.558496
0.666976
0.507832
0.606775
0.385642
0.506639
0.361800
0.499487
0.489950
0.704527
0.634789
0.810623
0.775456
0.613928
0.932813
0.802875
0.752807
0.807643
0.870824
1.051426
1.240969
1.464486
1.457930
1.756549
2.925992
16.166568
54.090619
168.508887
309.787989
572.654605
811.640620
1015.750766
1015.750766
1015.750766
1015.750766
775.160789
549.668670
291.774869
158.077478
59.217811
27.000904
10.373592
7.015467
6.349683
6.328821
6.138682
6.127954
6.285906
6.264448
6.453991
6.903410
9.144545
11.635423
16.666651
##ZVALUE=375
0.301600
0.284910
0.335574
0.280738
0.390410
0.339746
0.286698
0.349879
0.273585
0.446439
0.330806
0.304580
0.546575
0.396967
0.249743
0.259876
0.305772
0.134706
0.150800
0.355840
0.349879
0.248551
0.281930
0.248551
0.294447
0.410676
0.231862
0.266433
0.335574
0.322461
0.317693
0.567436
0.461936
0.280738
0.513792
0.431538
0.298619
0.492930
0.498891
0.284910
0.365973
0.461936
0.488758
0.275970
0.424981
0.405908
0.421405
0.502467
0.402927
0.503659
0.640750
0.547767
0.609756
0.683665
0.563860
0.557899
0.696778
0.616908
0.616908
0.790954
0.750422
0.715852
0.814795
1.018643
1.028776
1.220703
1.223683
1.627803
1.878738
7.744431
28.090477
104.192495
218.333006
465.656519
693.877935
984.459519
1015.750766
1015.750766
1015.750766
896.949768
677.004457
397.136807
247.498751
117.722750
56.291819
18.003583
8.415580
6.003976
5.538464
5.725622
5.541444
5.630851
5.368590
5.721450
5.789995
6.545782
##ZVALUE=380
0.270605
0.237823
0.374913
0.244975
0.354648
0.119805
0.282526
0.313520
0.234842
0.355840
0.315905
0.266433
0.341535
0.225902
0.113845
0.262856
0.279546
0.262856
0.171661
0.197887
0.261664
0.153780
0.203848
0.238419
0.134706
0.238419
0.257492
0.449419
0.306964
0.380874
0.154972
0.395775
0.381470
0.282526
0.373721
0.201464
0.394583
0.350475
0.302792
0.251532
0.395775
0.470877
0.521541
0.377893
0.446439
0.456572
0.479817
0.376701
0.423789
0.617504
0.504851
0.541806
0.458956
0.376701
0.504851
0.651479
0.461936
0.461936
0.545979
0.650883
0.452995
0.722408
0.653863
0.814795
0.872612
0.892878
1.178980
1.262426
1.312494
1.660585
1.909733
3.737807
14.618635
71.416497
169.770718
402.776599
634.940863
959.891677
1015.750766
1015.750766
1015.750766
1004.799604
820.581913
553.888679
361.742973
171.862841
86.697936
28.836727
11.863708
6.255507
5.585551
5.551577
5.378723
5.420446
5.092621
5.304813
##ZVALUE=385
-0.014901
-0.029802
0.085831
0.012517
0.057817
0.141859
0.007749
0.065565
0.029802
0.106692
0.046492
0.151992
0.230670
0.161529
0.046492
0.088811
-0.083447
0.129938
0.054836
0.267625
0.051856
-0.008941
0.145435
0.183582
0.096560
0.026822
0.007749
-0.000596
0.147820
0.270605
0.185966
0.062585
0.054836
0.147820
0.031590
0.209808
0.148416
0.068545
0.129938
0.276566
0.141859
0.170469
0.273585
0.173450
0.206828
0.054836
0.188947
0.251532
0.220537
0.189543
0.267625
0.259876
0.272989
0.281930
0.271797
0.451803
0.431538
0.399947
0.480413
0.444651
0.438690
0.562668
0.499487
0.413656
0.553727
0.610948
0.563860
0.840425
0.987649
1.040697
1.223683
1.555681
1.504421
1.900792
6.330609
41.447878
105.724931
265.128613
464.334488
793.707967
1005.247831
1015.585661
1015.585661
1015.585661
1015.585661
764.578581
528.541803
282.067657
149.492621
57.230592
22.675991
6.856918
5.004406
4.959702
4.664660
4.867911
##ZVALUE=390
0.210404
0.234842
0.198483
0.273585
0.221729
0.207424
0.285506
0.214577
0.258684
0.175834
0.244975
0.274777
0.261664
0.293851
0.289679
0.383854
0.188947
0.043511
0.281930
0.188947
0.208616
0.333786
0.178814
0.274777
0.286698
0.124574
0.171661
0.125766
0.126958
0.302792
0.286698
0.332594
0.225902
0.341535
0.408888
0.232458
0.243783
0.381470
0.341535
0.273585
0.319481
0.339746
0.382662
0.306964
0.338554
0.388622
0.359416
0.329614
0.279546
0.481606
0.433922
0.407696
0.358820
0.387430
0.494719
0.544786
0.384450
0.479817
0.632405
0.438690
0.406504
0.535846
0.565648
0.596642
0.614524
0.733733
0.792742
0.733733
0.931621
1.108646
0.936985
1.174808
1.183748
1.313686
1.445413
1.604557
2.848506
18.018484
60.744882
192.754865
355.565548
647.704601
862.077475
1015.751958
1015.751958
1015.751958
1015.751958
861.548781
659.468770
399.102569
227.193832
87.884665
37.751794
10.132790
5.490780
4.687905
##ZVALUE=395
0.244975
0.180602
0.195503
0.227690
0.263453
0.191927
0.296831
0.340939
0.243783
0.300407
0.199676
0.090599
0.351667
0.300407
0.214577
0.237823
0.174642
0.196695
0.248551
0.266433
0.221729
0.339746
0.210404
0.238419
0.055432
0.164509
0.443459
0.232458
0.200868
0.292659
0.350475
0.329614
0.288486
0.307560
0.405908
0.369549
0.381470
0.280738
0.334978
0.362992
0.365973
0.169873
0.381470
0.378489
0.441670
0.450611
0.390410
0.432730
0.367761
0.467896
0.302792
0.464916
0.424981
0.369549
0.462532
0.543594
0.504851
0.342727
0.502467
0.391603
0.442863
0.484586
0.429749
0.615716
0.685453
0.811815
0.646710
0.760555
0.904799
0.897646
0.887513
0.923872
1.024604
0.915527
1.024604
1.185536
1.282692
1.231432
1.664758
9.537935
36.084652
126.320720
243.674517
463.092923
680.807829
970.871449
1015.750766
1015.750766
1015.750766
940.144658
725.357533
442.912579
275.027752
119.689703
56.644678
18.052459
##ZVALUE=400
0.206828
0.245571
0.134706
0.208616
0.199676
0.254512
0.220537
0.277758
0.344515
0.280738
0.357628
0.253916
0.230670
0.223517
0.323653
0.205636
0.152588
0.246763
0.269413
0.254512
0.214577
0.218749
0.213981
0.242591
0.215769
0.339746
0.190735
0.379682
0.264645
0.381470
0.328422
0.270605
0.220537
0.378489
0.239611
0.381470
0.338554
0.207424
0.197887
0.419617
0.404716
0.288486
0.334978
0.304580
0.383854
0.292659
0.395775
0.313520
0.370741
0.398755
0.357628
0.422597
0.383854
0.577569
0.369549
0.194907
0.506639
0.448823
0.474453
0.308752
0.524521
0.541806
0.604987
0.553727
0.503659
0.555515
0.747442
0.786781
0.821948
0.904799
0.940561
0.885725
0.971556
0.865459
0.862479
0.829697
1.100898
1.114607
1.411438
1.447797
1.459718
4.861951
20.320415
80.294609
169.479847
368.657708
575.472713
879.501700
1015.750766
1015.750766
1015.750766
967.208743
774.213672
505.024791
325.611830
161.547661
##END
