##TITLE=QP00601
##FORMAT=SPECTACLE-ASCII V-1.2
##DATA TYPE=ULTRAVIOLET SPECTRUM
##SECOND TYPE=ULTRAVIOLET SPECTRUM
##DATE=03/01/18
##TIME=13:38:59
##SPECTROMETER/DATA SYSTEM=SPECTACLE
##XUNITS=NM EM
##YUNITS=ENERGY
##YFACTOR=1
##FIRSTX=220
##LASTX=410
##NPOINTS=96
##3DDATA=Equidistant
##ZUNITS=NM EX
##FIRSTZ=210
##LASTZ=400
##ZPOINTS=39
##XYDATA=(Y..Y)
##ZVALUE=210
1.962781
2.485514
1.872778
2.490878
2.297759
2.224445
2.717972
2.035499
2.862811
2.297759
2.487898
2.125502
1.972914
2.254844
2.351999
2.578497
2.128482
2.639890
2.747774
2.918839
2.541542
3.038645
3.456473
3.071427
3.507733
3.049970
3.887415
4.371405
3.987551
4.147887
3.442764
4.277825
4.292727
5.040765
4.768968
4.740953
5.181432
4.208684
3.887415
5.010962
4.548430
5.381703
4.693866
5.045533
5.135536
5.244613
5.332828
5.497932
5.300641
6.276965
5.792975
5.670786
5.832911
5.001426
5.721450
5.851984
6.197691
5.726814
6.109476
6.086826
5.834699
6.359816
6.033778
6.179810
5.880594
5.780458
6.786585
7.101893
8.059740
10.129809
10.687709
13.816953
14.703870
17.325878
18.560886
20.932555
20.147562
20.208955
18.672943
17.769933
16.761422
14.920831
12.897849
11.351705
10.240674
8.643866
7.538795
7.082820
7.368922
6.092787
5.782843
6.224513
7.316470
6.034970
7.507801
7.390976
##ZVALUE=215
5.762577
6.968975
6.343722
5.084872
5.796552
5.221963
5.278587
5.443692
4.922748
5.514622
5.494952
4.761815
3.950000
3.730655
3.168583
3.010631
3.036857
3.478527
3.778934
2.832413
3.384948
2.937913
4.120469
3.828406
4.138947
4.637837
4.043579
4.197955
3.956556
4.072785
4.174709
4.163980
4.186630
4.628897
4.907846
4.944801
5.268455
6.064773
5.108714
4.996657
5.168915
5.692840
5.254745
5.254745
5.130768
5.714893
6.256700
5.933642
6.991625
5.528927
6.216764
5.920529
5.777478
6.228685
6.714463
6.647706
5.985498
5.705953
6.515980
6.561875
6.523728
7.137656
6.832480
7.255673
6.859899
7.783771
7.116795
7.356405
9.815693
10.659695
11.076927
13.299584
14.448762
16.745925
18.800497
19.352436
18.909574
18.340945
17.855763
16.279817
16.157627
14.325976
13.586879
11.591911
10.181665
8.808970
8.722544
8.217692
7.333755
6.970763
8.145571
7.804632
7.189512
6.501675
6.835461
7.455945
##ZVALUE=220
18.896461
19.242764
21.166801
20.346642
20.014644
16.294718
14.397502
11.196733
10.127425
10.056496
10.726452
11.032820
11.207461
10.382533
8.098483
6.523728
5.763769
3.745556
3.826618
3.557801
3.355742
2.824664
4.305840
3.663898
4.043579
3.808737
4.023910
4.060864
4.554987
3.954768
4.050732
4.940629
5.395412
4.874468
5.035996
5.483627
5.051494
5.788803
5.862713
5.602837
5.231500
5.699992
5.280972
5.389452
6.621480
5.956888
5.846620
5.439520
6.376505
6.876588
6.616712
7.092953
6.477833
7.484555
7.022619
6.927848
7.159710
7.406473
6.640553
6.426573
7.323623
6.871819
7.518530
7.004738
7.575750
7.516742
7.759929
7.981658
9.811521
11.519790
11.544824
14.588833
15.419722
17.588735
18.652678
20.299554
19.352436
18.692613
19.634962
17.002821
17.398000
16.130805
13.690591
12.330413
11.869669
10.094643
8.175969
9.410977
7.642508
8.948445
8.695722
8.102655
8.663535
7.753968
8.813739
8.205771
##ZVALUE=225
30.269623
35.161972
43.228865
57.271719
65.097809
60.712695
55.402517
48.406720
39.306879
29.630661
21.520853
22.898912
24.441481
23.696423
23.946762
24.186969
18.936992
16.657710
13.703704
9.417534
6.223917
3.999472
4.473925
4.084706
3.724694
3.633499
4.808903
4.127622
5.091429
5.214810
4.643798
4.252791
4.793406
5.405545
5.188584
5.418658
6.422997
5.598664
6.036758
6.011724
6.544590
6.467700
6.439686
6.056428
6.511807
6.288886
6.070733
6.776452
6.750822
6.755590
6.732941
7.844567
7.583499
7.390976
7.005930
7.161498
7.837415
7.918477
7.128716
6.988645
8.002520
8.250475
8.585453
8.248687
9.127855
9.885430
8.692741
10.177493
10.379553
11.228919
13.555884
15.606880
16.047955
18.053651
18.877983
18.867850
19.884706
19.531846
16.663671
17.851591
16.692877
15.462637
15.896559
15.243888
14.267564
12.787580
12.360811
12.061596
11.521578
12.435913
12.291670
11.795759
11.256933
12.546778
12.499690
11.325479
##ZVALUE=230
28.356910
31.900406
51.580667
88.331699
112.734437
145.989656
157.741904
158.153772
143.501759
112.812519
86.254478
59.783459
46.681762
41.611791
45.746565
45.700669
51.229596
48.181415
42.222738
36.079884
27.228594
18.752813
11.412501
8.344650
5.421638
6.186962
5.170703
5.439520
5.118847
5.330443
4.641414
5.244613
5.309582
6.006956
6.458759
6.397963
6.196499
7.149577
6.449819
7.000566
7.035732
6.605983
6.780624
7.672906
7.989407
7.898808
7.728934
8.180737
7.176995
7.134676
8.156896
7.479787
7.175803
7.513762
8.886456
8.865595
8.678436
9.126663
8.287430
9.074807
9.657741
10.099411
10.834932
10.105968
11.778474
11.355877
12.085438
14.109612
13.965964
14.470816
16.461611
18.167496
18.795729
22.358894
24.464726
23.846626
23.596883
24.583936
23.100972
21.516681
21.431446
23.739934
18.789768
18.272996
20.050406
18.147826
18.404722
18.996596
17.656684
16.762614
18.288493
17.362833
17.368793
16.112924
16.560555
15.373826
##ZVALUE=235
10.921955
11.981726
25.198460
60.249567
100.523829
168.745518
218.939781
288.503766
316.399932
312.348604
284.237862
228.535533
164.050460
118.438601
84.373951
70.809722
70.898533
74.850917
83.126426
84.985495
81.737638
61.553717
51.178932
35.387874
23.663640
13.410449
9.960532
7.432699
6.261468
6.196499
5.393624
5.272627
5.577803
5.685687
5.884767
6.968975
6.631613
6.810427
6.480813
7.612705
7.132888
6.943941
6.870627
7.345676
8.469820
8.599758
6.434917
7.712841
7.538795
7.411838
8.405447
8.687973
8.718967
9.770989
9.145737
9.209514
10.057688
9.239912
11.162758
11.371970
10.162592
11.574626
11.321902
11.964440
13.511777
12.796521
15.883446
16.713738
16.281605
18.454790
21.123886
23.774505
23.357868
27.139783
27.657747
28.627515
29.363632
28.460622
27.472973
27.668476
26.552677
26.640892
25.947690
26.294589
26.516914
25.030971
25.192499
22.728443
24.259686
22.958517
24.515986
23.142695
23.229718
24.769902
24.829507
23.797750
##ZVALUE=240
1.560450
2.031922
5.328655
13.240576
42.158961
76.568723
152.581930
234.547853
357.919931
443.799496
512.943864
513.405800
490.121841
386.731625
296.090841
202.071667
143.361688
106.053948
94.830990
100.267529
106.487870
113.204718
112.468600
102.093816
78.084469
62.920451
44.940710
29.817820
18.682480
12.197495
8.033514
6.436706
6.698966
6.330609
5.961657
6.396770
5.883574
7.286668
6.619692
5.908608
6.025434
6.400943
6.219745
8.053780
7.239580
6.591678
6.055832
7.196665
6.434917
7.604957
7.578731
8.025765
8.049607
8.345842
8.157492
9.447932
10.044575
9.176731
10.407567
10.551810
10.747910
12.484789
12.632608
12.911558
15.560985
15.629530
16.058683
16.517639
18.096566
21.173954
22.280812
24.513602
25.845766
29.449463
30.401945
31.566620
31.800866
30.509830
30.456781
30.252934
32.905936
30.874610
30.889511
30.686855
29.735565
29.342771
30.243993
29.819608
28.942823
29.643774
29.581785
28.260946
29.335618
30.557513
29.547811
32.013655
##ZVALUE=245
1.567602
1.612902
1.790524
1.573563
3.818870
11.014938
36.837459
76.579452
172.885656
258.820653
408.949852
511.479974
596.732497
633.915663
600.583553
516.159534
421.948433
291.246772
206.188560
132.058859
104.398727
97.087622
113.041997
125.731826
127.903819
124.780536
113.230944
96.008778
68.779588
48.571825
34.886599
21.664500
12.559891
8.285642
7.299781
6.167889
6.935596
6.509423
5.890727
6.597638
6.598830
7.427931
6.643534
6.205440
6.820560
6.671548
6.935596
6.727576
7.791519
7.368922
7.593632
7.078648
8.149743
7.502437
7.874966
8.250475
9.276867
9.616613
9.525418
9.952784
10.635853
10.583997
11.472702
12.619495
14.316440
13.004541
15.562773
16.338825
18.056631
19.098520
21.033883
24.483800
25.453568
26.028752
30.454993
29.855967
29.813647
31.694770
29.361844
31.882524
29.558539
30.603409
28.861761
30.025840
29.535890
30.613542
29.507875
30.994415
30.698776
29.076934
29.459000
31.118989
30.467510
29.759407
29.622912
30.937791
##ZVALUE=250
1.690984
1.621842
1.571774
1.537800
1.576543
1.479983
2.089739
8.211732
23.747683
69.565773
132.534504
262.042880
386.826992
557.808876
654.816628
727.146864
733.022690
649.954677
553.466678
382.485986
275.453925
190.167427
117.684603
97.188950
105.132461
120.388865
134.774446
137.957931
129.927993
123.186707
100.512505
75.143576
56.046844
34.195781
22.227764
11.277795
9.066463
6.862879
6.225705
6.027818
6.297827
6.091595
6.082654
6.228685
6.407499
7.061958
7.212758
6.085634
6.299615
6.024837
6.254911
6.342530
6.832480
7.069707
6.982684
7.361770
8.452535
8.333921
8.237958
9.536743
8.552670
9.044409
10.182858
10.047555
11.624694
12.253523
12.255907
14.304519
16.109943
17.427802
19.024611
21.003485
22.411942
24.208426
24.922490
25.725961
26.642680
27.181506
30.092001
26.926994
27.304888
26.908517
28.859973
27.467608
28.534532
27.551651
28.313994
27.670860
28.438568
27.677417
28.864741
27.683973
27.389526
28.179884
27.494431
29.260516
##ZVALUE=255
1.261830
1.284480
1.150966
0.941753
0.996590
1.482964
1.232624
1.368523
2.147555
4.554987
20.013452
49.533844
102.485418
217.386484
343.087912
528.907776
664.835572
798.836946
844.617486
790.498853
692.538023
547.896624
351.004004
223.212838
126.836896
95.537901
88.118911
101.196766
124.920607
138.471723
145.707726
143.239498
130.448937
105.192661
80.502629
54.313540
35.206676
20.924807
13.498664
8.000731
6.786585
6.299615
6.192923
5.669594
6.152987
6.083846
5.709529
5.958676
6.080866
5.707741
6.120801
6.365776
7.100701
6.120801
6.027818
6.618500
7.207990
7.201433
7.312894
7.455945
8.116961
8.568764
8.741617
9.337664
9.872913
10.515451
11.407733
12.817979
13.542771
13.824701
16.081929
16.984940
19.403696
20.616651
21.813512
22.644997
21.939874
24.879575
24.312735
23.943782
24.617910
24.448633
25.336742
24.325848
24.262667
27.194619
25.995970
26.079416
25.429726
26.540756
26.174784
26.547909
26.887655
27.443767
27.068853
27.998686
##ZVALUE=260
0.992417
1.015663
1.465678
1.002550
1.073480
1.126528
1.229644
1.453757
1.598597
1.444817
1.796484
2.214909
7.724762
33.465624
74.636936
183.087587
303.255916
504.270792
665.625930
867.687464
951.473713
957.966447
828.377604
672.210455
444.077849
298.821926
175.060630
109.125972
80.375671
84.049702
101.479888
128.224492
143.975616
152.466893
149.149895
131.165981
111.946464
79.864860
58.622956
35.722852
23.539662
13.187528
8.977652
6.464720
6.500483
6.466508
6.139874
6.510615
6.146431
6.631613
6.446838
6.088614
6.314516
6.564856
6.121993
6.376505
6.105900
6.978512
6.850958
7.388592
8.030534
8.247495
8.543730
8.986592
9.343624
10.478497
10.792613
11.400580
12.520552
14.711618
14.948845
16.995668
17.277598
18.612742
19.624829
20.957589
20.142794
20.283461
21.763444
22.062659
22.432804
21.222830
22.965670
22.904873
22.919774
22.751689
23.118854
24.141669
24.276972
24.364591
24.811625
26.108623
24.936795
25.243759
25.358796
26.551485
##ZVALUE=265
0.954866
1.024604
1.004934
1.076460
1.118779
1.151562
1.191497
1.008511
1.209974
1.159906
1.301765
1.456738
1.566410
1.846552
4.499555
22.521615
57.036877
145.794749
252.713561
471.088886
654.652715
827.361941
1001.214981
1015.750766
943.742990
814.436674
601.706505
428.737998
244.905949
145.555735
93.188882
70.038438
80.956817
111.251473
133.722425
150.997639
155.311823
148.931742
133.844614
107.779503
84.589720
57.264566
37.756562
22.062659
14.336705
8.337498
7.615685
6.366968
6.464720
6.194711
5.943775
6.371737
6.634593
6.665587
6.433725
6.637573
6.820560
6.729960
6.720424
6.886721
7.334948
7.192492
7.669926
8.178949
8.911490
9.000897
9.742975
10.651946
11.488795
12.984872
13.950467
15.078783
15.649796
16.959906
17.349720
18.231869
19.042492
19.136667
19.718409
20.456910
19.712448
21.023750
20.748973
20.517707
21.351576
21.433830
21.711588
21.911860
22.958517
22.995472
23.388863
22.627711
23.762584
23.281574
23.146868
23.662448
##ZVALUE=270
0.899434
0.998974
0.917912
0.817776
0.850558
0.980496
0.992417
1.111627
1.103878
1.138449
1.228452
1.340508
1.052618
1.467466
1.301765
1.382828
2.149940
9.794831
30.577779
102.320910
207.668543
358.727574
623.661876
837.007761
1015.758514
1015.758514
1015.758514
997.366905
776.214600
579.359531
398.498774
207.907557
120.506883
65.116882
62.448978
83.651543
109.539628
134.554505
152.350664
158.554912
152.038932
132.913589
114.659667
82.045794
60.387850
36.604404
23.996830
14.351606
10.384917
7.776618
7.133484
6.638765
6.946921
6.912947
7.042885
6.900430
7.159710
6.913543
7.673502
7.631779
7.754564
7.797480
8.217692
9.163618
9.032488
9.524822
10.104775
10.570884
12.099743
12.728572
13.340712
14.444590
15.551448
16.317964
17.952919
17.936826
18.453598
18.988848
18.826723
18.955469
19.617677
19.898415
19.693971
20.896792
20.240545
20.436645
21.599531
21.631718
21.281838
23.119450
21.512508
21.941662
23.007989
21.751523
22.488832
22.831559
##ZVALUE=275
0.804663
0.768900
0.900626
0.817776
0.841618
0.973940
0.927448
0.920892
0.944734
1.216531
0.997782
1.149774
1.067519
1.099706
1.303554
1.564622
1.608729
1.669526
1.938939
3.659725
19.631982
61.149597
175.732970
322.874784
590.444803
806.347728
1015.750766
1015.750766
1015.750766
1015.750766
1026.023626
755.898952
529.232621
277.347565
160.202980
75.371861
53.861737
62.615871
82.196593
111.243725
131.864548
152.779818
156.353712
150.154829
138.777494
106.406808
86.704493
57.917833
42.222738
24.356842
16.115904
10.604858
8.385777
7.431507
7.392764
6.968975
7.145405
8.023977
7.792711
7.768869
8.480549
8.611679
8.886456
8.632541
9.343624
9.615421
9.836555
11.085868
11.210442
12.820959
13.310909
14.612675
15.887618
16.721487
16.560555
17.952919
18.386841
18.198490
19.199848
18.906593
19.063950
19.053817
19.724965
19.812584
19.749999
19.926429
20.483732
20.812750
21.060705
20.629764
20.258427
20.944476
21.360517
21.579862
21.691918
20.864606
##ZVALUE=280
0.792742
0.954866
0.645518
0.854731
0.907779
0.810623
0.821948
1.040697
0.909567
0.745654
0.915527
0.852942
1.121759
1.002550
1.061559
1.172423
1.452565
1.395941
1.371503
1.423955
1.713634
2.312660
12.442470
40.749907
133.060813
244.004726
464.553833
687.331557
978.433490
1015.750766
1015.750766
1015.750766
1015.750766
856.176615
632.746816
361.573696
218.535662
99.370480
57.100654
43.744445
57.348609
83.905458
106.968880
134.332776
147.225857
154.483914
148.453712
131.849647
111.297965
81.415772
61.954856
38.708448
25.658607
15.819669
11.400580
8.502603
7.590652
8.091927
8.158684
8.396506
8.230805
8.357763
8.896589
9.369850
9.538531
10.252595
10.451674
11.442900
12.093782
13.571978
13.475418
14.572740
15.283823
16.280413
16.978979
17.691851
17.365813
17.789602
18.737912
18.702745
18.734932
19.373894
18.866658
19.164681
19.668937
19.658804
19.556880
20.095706
20.013452
19.847751
20.442605
20.195842
21.138787
20.859838
20.699501
21.608472
##ZVALUE=285
0.668764
0.635982
0.603795
0.758767
0.753999
0.902414
0.841618
0.699759
0.980496
0.952482
0.898838
0.801682
0.783801
1.042485
0.858903
1.003742
1.084805
1.156926
1.288652
1.257658
1.462698
1.305938
1.815557
1.923442
6.184578
21.591783
79.371929
171.609521
374.313593
574.440956
798.290968
1015.750766
1015.750766
1015.750766
1015.750766
995.744467
792.803764
491.975546
306.939483
143.303871
72.437525
37.200451
36.212802
55.672526
75.581670
106.002688
123.633742
142.100453
151.209831
143.305659
131.493807
106.234550
87.813735
58.470964
42.085648
24.970770
17.123818
11.496544
9.272695
8.681417
8.793473
8.622408
9.825826
9.754896
10.443926
10.608435
11.028647
11.343956
12.471676
13.523698
14.459491
15.869737
15.791655
17.073750
17.408729
18.295646
18.177629
18.653870
18.361807
19.264817
19.817948
18.785000
19.065738
19.276738
19.730926
19.641519
20.373464
20.367503
20.354986
20.128489
19.986629
20.061731
20.473599
20.377636
20.438433
19.859672
##ZVALUE=290
0.577569
0.654459
0.876784
0.750422
0.687838
0.707507
0.743866
0.597835
0.780821
0.777841
0.805855
0.787973
0.964999
0.729561
0.805855
1.060963
0.935793
1.016855
1.195669
1.133680
1.257658
1.202822
1.371503
1.688600
2.011657
1.994967
2.979636
9.447932
46.112537
111.776590
228.353739
498.802662
777.916908
1015.749574
1015.749574
1015.749574
1015.749574
1015.749574
998.860002
679.747462
449.696779
225.485563
116.788745
46.101809
28.921962
35.492778
49.080849
74.874759
93.827844
121.271610
135.881901
144.977570
143.169761
128.363967
109.855533
81.083775
60.911775
39.297938
27.418733
16.956925
13.006926
10.917783
10.241866
10.569692
10.721684
10.989904
11.701584
12.257695
13.608932
13.880730
14.474988
16.024709
16.379952
17.471910
17.489791
18.128753
18.019676
18.656850
18.879771
19.152761
18.445849
19.358993
19.294620
20.070672
19.821525
19.960999
20.458698
20.646453
20.405650
20.791888
21.002889
20.254850
20.307899
20.246506
20.010471
20.706654
##ZVALUE=295
0.701547
0.547767
0.510812
0.806451
0.777841
0.607967
0.540614
0.701547
0.533462
0.745654
0.724792
0.717640
0.714660
0.626445
0.856519
0.785589
0.835657
0.915527
0.823736
0.981688
1.149774
1.201630
1.297593
1.149774
1.213551
1.644492
1.537800
1.830459
2.242923
3.996491
23.603439
65.873861
190.205574
345.544815
645.825863
889.573693
1015.750766
1015.750766
1015.750766
1015.750766
1015.750766
851.042867
522.023439
325.253606
145.529509
70.866942
27.936697
21.803975
31.808615
46.359897
69.309473
89.450479
114.188790
129.004717
136.818886
135.848522
120.022893
104.512572
80.077648
61.510801
40.964484
28.440952
18.624663
14.755726
11.735559
11.672974
11.582971
11.998415
13.015866
14.318824
14.497638
15.570521
16.298890
17.237663
17.734766
18.065572
18.335581
18.647909
19.244552
20.128489
19.415617
19.898415
20.162463
20.197630
19.918680
20.167828
20.582676
20.116568
20.406842
20.754933
20.353794
20.641685
20.056963
20.571947
20.576715
19.921660
##ZVALUE=300
0.518560
0.488758
0.633597
0.618696
0.581741
0.606775
0.642538
0.517964
0.604987
0.697970
0.611544
0.717640
0.727773
0.718832
0.607967
0.833869
0.814795
0.829697
0.982881
0.884533
0.887513
0.830889
1.065731
1.241565
1.099706
1.302958
1.430511
1.344681
1.400709
1.658797
1.859665
2.524853
6.841421
42.707920
113.606453
294.686556
503.939390
860.546827
1015.750766
1015.750766
1015.750766
1015.750766
1015.750766
990.056992
744.090676
418.728590
251.435637
108.557940
50.284863
19.731522
19.098520
28.006434
40.286779
61.999559
82.389712
106.356740
122.102499
132.547617
130.236745
118.652582
103.648901
78.602433
62.539577
41.732788
30.433536
20.421743
16.916990
14.273524
13.698936
14.385581
14.895797
15.624762
16.596913
17.432570
17.638803
18.409491
18.568635
19.149780
20.128489
19.102693
20.388961
20.044446
20.520687
20.641685
20.903945
20.823479
21.506548
20.542741
21.168590
21.304488
20.943880
21.339655
21.157861
20.877719
21.090508
20.684600
##ZVALUE=305
0.371933
0.265837
0.299811
0.393987
0.320673
0.296831
0.417829
0.325441
0.490546
0.530481
0.347495
0.424981
0.170469
0.410676
0.355840
0.675917
0.527501
0.475645
0.568628
0.489950
0.485778
0.760555
0.552535
0.775456
0.922680
0.674725
0.759959
0.839829
1.094937
1.142621
1.287460
1.211762
1.433492
1.872778
3.647804
26.703477
76.531768
220.146775
401.141644
752.391815
1010.929942
1015.504599
1015.504599
1015.504599
1015.504599
1015.504599
919.575691
580.506921
359.205604
160.600543
75.596571
25.134683
15.162826
18.366575
25.560856
42.081475
58.046579
81.463456
99.286437
117.059946
124.552846
124.435425
115.365982
96.666813
81.022978
56.663752
43.837428
29.916763
23.444891
17.874837
16.845465
16.448498
16.931891
17.419457
17.290711
18.158555
18.180609
18.765926
19.463897
19.830465
20.045638
20.748973
20.619631
21.407604
21.514893
21.476746
21.751523
21.246672
21.958947
21.515489
21.499991
21.056533
21.107793
20.709634
20.598769
20.454526
##ZVALUE=310
0.640750
0.381470
0.567436
0.690818
0.414848
0.703931
0.630617
0.726581
0.550747
0.537634
0.665784
0.720620
0.576973
0.563860
0.609756
0.650883
0.657439
0.571609
0.604987
0.673532
0.775456
0.771880
0.819564
1.045465
0.912547
0.897646
1.009703
1.206994
1.005530
1.099706
1.148582
1.379848
1.109838
1.441836
1.761913
1.897812
2.532005
11.987686
43.413639
148.072839
289.281607
585.829616
867.875814
1015.750766
1015.750766
1015.750766
1015.750766
1015.750766
1015.750766
749.539733
494.131446
243.781805
126.428008
42.504668
18.162727
13.005733
15.767813
25.390983
35.799742
53.433776
71.958899
94.771981
109.309554
119.532943
120.377541
111.901760
99.102855
79.339743
62.110424
43.494701
33.996701
25.261641
21.549463
19.555688
18.928647
18.998981
19.082427
19.408464
19.927621
20.264983
21.335483
21.252632
21.287799
21.694899
22.214651
22.206903
22.159815
22.680759
22.446513
22.273660
21.911860
22.171736
21.293759
21.613836
22.396445
21.468997
##ZVALUE=315
0.596642
0.459552
0.435710
0.620484
0.634789
0.459552
0.493526
0.594854
0.479817
0.730753
0.555515
0.550747
0.586510
0.725985
0.563860
0.640750
0.701547
0.605583
0.763535
0.741482
0.801682
0.791550
0.920892
0.771880
0.842810
0.955462
1.006722
0.956655
0.908971
1.125932
0.900626
0.907779
1.375675
1.352429
1.478791
1.283884
1.746416
1.788735
2.073646
3.992915
26.200414
79.440475
236.403942
427.866578
785.844922
1015.750766
1015.750766
1015.750766
1015.750766
1015.750766
1015.750766
914.933085
562.391877
347.348452
159.983635
72.305799
21.665692
12.364984
11.949539
15.380979
23.779869
33.297539
51.355958
65.996647
87.957978
103.458762
113.801956
115.976930
106.905699
95.098615
74.414611
61.233640
45.273900
35.076737
26.680827
23.107529
20.905733
20.370483
19.931793
20.728707
20.982623
21.437407
21.610856
21.540523
21.776557
22.632480
22.379756
22.591949
22.598505
22.094846
21.996498
22.268891
21.950603
22.610426
21.723509
22.280812
##ZVALUE=320
0.508428
0.502467
0.425577
0.524521
0.666976
0.453591
0.496507
0.574589
0.591874
0.734925
0.544786
0.818968
0.600815
0.616908
0.696778
0.676513
0.657439
0.597835
0.655651
0.576973
0.745654
0.694990
0.758767
0.807643
0.982881
0.805855
0.853539
0.787973
0.776649
0.905991
1.049638
0.958443
1.174808
1.132488
1.200438
1.517534
1.459718
1.536608
1.431704
1.765490
1.945496
2.728701
8.578897
48.841834
128.283501
345.618725
575.909019
943.017602
1015.817523
1015.817523
1015.817523
1015.817523
1015.817523
1005.180478
752.543807
410.955548
232.181549
97.008944
42.932630
14.668703
11.191964
12.250543
14.975667
22.423863
32.099485
49.113631
63.541532
82.908869
97.345710
109.700561
112.011433
104.628801
94.698668
76.552629
61.336756
45.400858
35.394430
28.355718
24.357438
22.092462
21.050572
22.383928
21.763444
21.786690
22.385716
22.540689
23.147464
22.542477
22.220612
22.711754
22.589564
22.016764
22.450686
22.004843
22.099614
22.098422
##ZVALUE=325
0.482798
0.558496
0.735521
0.583529
0.563860
0.734925
0.671744
0.659823
0.501871
0.441670
0.390410
0.607967
0.483990
0.483990
0.502467
0.678897
0.678897
0.652671
0.756979
0.709891
0.810623
0.637770
0.882745
0.689626
0.674725
0.898838
0.940561
0.837445
0.894666
0.978708
0.887513
0.974536
0.996590
1.199841
1.184940
1.025796
1.055598
1.224875
1.448989
1.614690
1.419783
1.774430
2.103448
2.304912
5.000830
32.129884
87.805390
230.807066
417.121053
766.359568
1015.842557
1015.842557
1015.842557
1015.842557
1015.842557
1015.842557
890.786052
518.984795
313.165784
136.763453
62.499642
20.185709
11.866689
11.234879
12.352467
16.300678
21.557808
33.443570
45.877695
65.992475
80.741644
96.560717
104.697943
106.428862
101.010799
87.180734
74.971914
58.088899
46.303868
34.391880
28.455853
24.206638
22.825599
22.142529
22.331476
21.861792
21.814704
22.142529
22.484660
22.096634
22.222996
22.137761
22.398829
21.888614
21.538734
22.044778
##ZVALUE=330
0.559688
0.584722
0.517964
0.465512
0.668764
0.555515
0.373721
0.741482
0.551939
0.663996
0.638962
0.560880
0.460744
0.550747
0.492930
0.608563
0.595450
0.687838
0.578761
0.706911
0.682473
0.806451
0.762939
0.783801
0.723600
0.937581
0.652671
0.705719
0.743866
0.843406
0.855923
0.840425
0.959635
0.980496
1.034737
1.122952
1.179576
1.164675
1.203418
1.360774
1.406670
1.632571
1.567602
1.794696
2.115965
2.315640
3.440976
13.302565
68.625808
167.383552
395.635962
644.655824
1005.474925
1015.878916
1015.878916
1015.878916
1015.878916
1015.878916
1014.013886
756.154060
399.402976
219.195485
85.119605
37.724972
14.390945
11.336803
11.837482
13.236403
17.056465
22.886992
34.799576
45.827627
63.420534
77.250600
91.894865
99.215508
101.234913
96.043944
83.546638
71.322918
55.086613
45.338869
35.164952
29.688478
25.269985
23.773909
22.145510
21.921992
21.217465
22.060871
21.695495
22.037625
21.712780
21.578670
21.598935
21.430850
##ZVALUE=335
0.404716
0.350475
0.378489
0.345707
0.365973
0.499487
0.407696
0.401735
0.325441
0.435710
0.347495
0.456572
0.517964
0.508428
0.473857
0.457764
0.576973
0.469685
0.614524
0.617504
0.368953
0.567436
0.441670
0.598431
0.569820
0.610948
0.622869
0.671744
0.711679
0.727773
0.765920
0.766516
0.748634
0.845790
0.822544
0.803471
0.765920
0.791550
0.908971
1.067519
0.783801
1.150966
1.142621
1.320839
1.375675
1.563430
1.759529
1.974702
2.102852
6.264448
24.012923
99.592805
208.779573
467.875004
750.699639
1015.750766
1015.750766
1015.750766
1015.750766
1015.750766
1015.750766
853.267908
573.312640
296.631455
154.150724
52.164793
21.090508
11.558533
11.366606
12.530684
13.766885
17.980933
22.219419
33.724904
44.093728
60.808659
73.533654
86.795688
93.979836
95.395446
90.666413
79.358816
68.879724
54.799914
45.289993
35.051703
30.422807
25.109649
23.360848
22.007823
21.424890
21.057725
20.592809
20.766854
20.379424
20.833611
##ZVALUE=340
0.330806
0.337958
0.460744
0.323653
0.532866
0.448823
0.444651
0.491738
0.382662
0.353456
0.262856
0.376701
0.332594
0.458956
0.424981
0.407696
0.617504
0.391603
0.505447
0.520945
0.570416
0.393987
0.501871
0.421405
0.645518
0.637770
0.457764
0.481606
0.635982
0.658631
0.635982
0.749826
0.821948
0.618696
0.629425
0.710487
0.772476
0.774860
0.861883
0.885725
0.960827
0.909567
0.998974
1.045465
1.093745
1.002550
1.317859
1.383424
1.433492
1.705885
2.212524
3.552437
12.187958
62.726736
154.606700
378.354788
622.604489
984.794497
1015.759706
1015.759706
1015.759706
1015.759706
1015.759706
995.575786
738.091469
390.291810
216.823816
83.093643
31.419992
12.897849
11.950731
12.356639
13.149977
14.766455
17.017722
23.830533
31.483769
43.859482
56.218505
72.797537
83.034635
90.018511
90.245605
85.703731
79.081655
65.644979
56.041479
42.710900
36.111474
28.720498
24.590492
21.411777
20.797849
20.089746
20.049810
19.815564
##ZVALUE=345
0.285506
0.346899
0.287890
0.395775
0.336766
0.307560
0.426769
0.522733
0.474453
0.528693
0.541806
0.510812
0.506639
0.458956
0.492930
0.425577
0.460744
0.387430
0.363588
0.561476
0.406504
0.465512
0.419617
0.481606
0.480413
0.551939
0.458956
0.533462
0.386834
0.621676
0.481606
0.540614
0.668764
0.737906
0.658631
0.725985
0.683665
0.712872
0.698566
0.766516
0.815988
0.971556
0.854731
0.867844
1.023412
1.123548
1.147985
1.174808
1.206994
1.183748
1.402497
1.577735
1.796484
2.294779
5.555749
39.154887
110.409856
287.646651
507.906675
888.572931
1015.750766
1015.750766
1015.750766
1015.750766
1015.750766
1015.750766
864.758492
504.298806
281.177759
105.509758
46.215653
17.020702
12.932420
12.561679
12.691617
13.254881
14.043450
17.140508
21.378994
30.273795
39.690733
54.564476
64.810514
75.048804
81.207752
84.584951
82.509518
72.766542
64.930916
52.354932
43.259859
33.030510
27.430654
22.733808
20.812750
19.135475
##ZVALUE=350
0.447631
0.401735
0.452995
0.614524
0.494719
0.331998
0.343919
0.409484
0.330806
0.398755
0.559688
0.539422
0.546575
0.484586
0.430942
0.213981
0.458956
0.480413
0.405908
0.318885
0.509620
0.620484
0.395775
0.627637
0.661612
0.546575
0.593662
0.651479
0.481606
0.559688
0.565648
0.769496
0.660419
0.535846
0.544786
0.696778
0.784993
0.706911
0.849962
0.684857
0.763535
0.803471
0.794530
0.815988
0.762939
0.820756
0.947714
1.114607
1.091957
1.043677
1.133680
1.363754
1.479983
1.692772
1.708865
1.962781
3.023744
16.984940
57.804585
187.991858
359.995961
720.469952
1001.862884
1015.750766
1015.750766
1015.750766
1015.750766
1015.750766
944.991708
547.563434
327.879786
147.036910
67.296624
20.391941
13.008714
11.767745
11.733770
12.072921
12.235641
14.020801
16.326904
21.695495
27.405620
36.615729
46.042800
58.562756
67.482591
75.454712
78.126788
74.928999
69.487691
59.540868
50.777793
39.052963
32.233000
25.938749
##ZVALUE=355
0.449419
0.387430
0.449419
0.333786
0.511408
0.480413
0.563860
0.480413
0.354648
0.460744
0.364780
0.390410
0.310540
0.364780
0.427961
0.296831
0.504851
0.440478
0.562668
0.373721
0.707507
0.451803
0.483990
0.642538
0.562668
0.559688
0.622869
0.578761
0.421405
0.659823
0.529885
0.553727
0.569820
0.660419
0.695586
0.595450
0.533462
0.532866
0.778437
0.763535
0.697970
0.838637
0.849962
0.758767
0.898838
0.854731
1.076460
0.785589
1.094937
1.088977
1.284480
1.250505
1.422763
1.437664
1.445413
1.539588
1.719594
1.973510
2.216697
7.607937
28.714538
114.255548
240.311623
514.777899
820.815563
1015.750766
1015.750766
1015.750766
1015.750766
1015.750766
1015.750766
694.598556
426.186919
179.461837
83.901882
26.483536
13.630986
11.098981
10.981560
11.220574
11.277795
12.447834
12.708902
15.563965
18.646717
25.069714
30.993819
42.707920
50.697923
61.271787
67.293644
70.695877
69.155693
64.177513
57.718754
47.124624
##ZVALUE=360
0.442863
0.507832
0.479817
0.205636
0.527501
0.569820
0.445843
0.407696
0.410676
0.594854
0.543594
0.479817
0.501871
0.514984
0.444651
0.333786
0.452995
0.478625
0.402927
0.467896
0.505447
0.602603
0.508428
0.442863
0.569820
0.534654
0.522733
0.645518
0.654459
0.645518
0.679493
0.638962
0.585914
0.668764
0.687838
0.655651
0.623465
0.675917
0.739694
0.769496
0.841618
0.646710
0.777841
0.856519
0.951886
0.829697
0.817776
0.590682
1.027584
1.095533
0.792742
1.136661
1.194477
1.316667
1.379848
1.289845
1.353621
1.438856
1.725554
1.924634
2.253652
3.659725
12.768507
61.185956
146.054626
357.562900
618.677735
996.802449
1015.750766
1015.750766
1015.750766
1015.750766
1015.750766
867.059827
576.362014
281.781554
145.341754
52.854419
21.576881
11.039972
10.547638
10.487437
10.778904
10.977983
11.207461
12.011528
13.340712
16.406775
20.061731
27.041435
34.241676
44.595599
52.347779
59.445500
63.132644
63.401461
##ZVALUE=365
0.481606
0.395775
0.387430
0.484586
0.445843
0.300407
0.341535
0.557899
0.349879
0.507832
0.339746
0.324845
0.484586
0.530481
0.488758
0.478625
0.524521
0.499487
0.555515
0.382662
0.590682
0.494719
0.745654
0.433922
0.599623
0.570416
0.510812
0.473857
0.426769
0.519753
0.615716
0.627637
0.563860
0.670552
0.453591
0.721812
0.527501
0.721812
0.819564
0.578761
0.693798
0.700951
0.661612
0.839829
0.713468
0.759959
0.759959
0.837445
0.776649
0.914931
0.907779
0.966787
1.025796
1.215935
1.154542
1.222491
1.316667
1.311898
1.411438
1.522899
1.753569
1.910925
2.178550
2.783537
5.813837
34.704804
96.017718
259.637833
487.339497
898.890495
1015.750766
1015.750766
1015.750766
1015.750766
1015.750766
1015.750766
764.457583
419.530869
225.074887
77.024698
29.815435
11.462569
9.769797
9.627938
9.789467
9.597540
9.743571
10.017753
10.709763
11.527538
13.720989
17.793775
22.535920
31.187534
38.169622
47.040582
##ZVALUE=370
0.472665
0.296831
0.358820
0.373721
0.514984
0.546575
0.319481
0.372529
0.354648
0.335574
0.390410
0.528693
0.281930
0.529885
0.414848
0.344515
0.413656
0.566840
0.522733
0.289679
0.453591
0.311732
0.457764
0.434518
0.467896
0.482798
0.494719
0.630617
0.689626
0.530481
0.514984
0.418425
0.430942
0.624657
0.736713
0.502467
0.614524
0.759959
0.521541
0.494719
0.546575
0.540614
0.456572
0.610948
0.589490
0.648499
0.670552
0.719428
0.808835
0.698566
0.759959
0.751615
0.880957
0.809431
0.954866
0.821948
1.069903
0.955462
1.176596
1.122952
1.151562
1.542568
1.615882
1.629591
1.927614
2.061725
2.992749
16.663671
55.774450
179.452896
357.890725
693.472028
984.346867
1015.750766
1015.750766
1015.750766
1015.750766
1015.750766
821.013451
461.006761
260.095000
102.115870
44.469833
14.188886
9.378791
8.851886
8.882880
8.672476
8.763671
8.825660
8.991957
9.505749
10.364652
12.442470
15.026927
19.862652
##ZVALUE=375
0.382662
0.258684
0.356436
0.421405
0.369549
0.359416
0.365973
0.389814
0.395775
0.306964
0.403523
0.279546
0.372529
0.297427
0.327826
0.421405
0.353456
0.513792
0.301600
0.357628
0.348687
0.463724
0.345707
0.501871
0.472665
0.420809
0.454783
0.609756
0.437498
0.463724
0.432730
0.642538
0.613928
0.474453
0.478625
0.577569
0.399947
0.511408
0.616908
0.480413
0.466704
0.504851
0.510812
0.464916
0.600815
0.574589
0.492930
0.549555
0.576973
0.621676
0.529885
0.542998
0.689626
0.658631
0.813603
0.806451
0.708699
0.898838
0.838637
0.968575
1.022816
1.121759
1.097918
1.185536
1.297593
1.382828
1.523495
1.799464
2.622604
6.368756
37.787557
96.419454
262.810588
483.276844
885.406733
1015.750766
1015.750766
1015.750766
1015.750766
1015.750766
956.302881
664.260983
366.695523
204.902887
75.395703
29.966831
10.560751
8.323789
8.104444
7.916689
8.190870
8.198619
8.464456
8.310676
8.902550
9.588599
##ZVALUE=380
0.267625
0.281930
0.238419
0.278950
0.342727
0.344515
0.365973
0.325441
0.240803
0.248551
0.265837
0.415444
0.347495
0.326633
0.363588
0.431538
0.402927
0.378489
0.343919
0.417829
0.248551
0.313520
0.391603
0.282526
0.150800
0.440478
0.284910
0.227690
0.476837
0.500679
0.506639
0.434518
0.272989
0.424981
0.337958
0.465512
0.434518
0.367761
0.478625
0.375509
0.444651
0.588894
0.442863
0.568628
0.390410
0.474453
0.602603
0.579953
0.530481
0.468493
0.446439
0.666976
0.737906
0.697970
0.682473
0.751615
0.818968
0.843406
1.051426
0.881553
0.980496
0.894666
0.974536
1.051426
1.077652
1.111627
1.344681
1.548529
1.792908
2.043843
2.559423
4.603863
16.529560
77.669621
178.699493
425.495505
704.911947
1015.745997
1015.745997
1015.745997
1015.745997
1015.745997
1015.745997
782.426000
510.442853
244.411826
121.341944
40.161610
16.232729
8.363724
7.680655
7.240772
7.382631
7.399917
7.695556
7.773638
##ZVALUE=385
0.557899
0.556707
0.435710
0.655651
0.609756
0.471473
0.577569
0.587702
0.479817
0.471473
0.533462
0.473857
0.566840
0.697970
0.448823
0.471473
0.540614
0.553727
0.483990
0.573993
0.558496
0.660419
0.448823
0.608563
0.534654
0.636578
0.607967
0.616908
0.586510
0.565648
0.281930
0.537634
0.571609
0.623465
0.530481
0.598431
0.727773
0.471473
0.666976
0.652671
0.685453
0.682473
0.612736
0.699759
0.745654
0.814795
0.697970
0.750422
0.722408
0.703931
0.702739
0.782609
0.798702
0.681877
0.945926
0.733733
0.863671
0.849962
0.838637
0.926852
0.965595
0.987649
1.121759
0.956655
1.167655
1.195669
1.332760
1.409650
1.551509
1.775622
1.977682
1.965761
2.202988
2.635717
7.548928
46.610832
118.587613
297.990441
522.775650
907.744765
1015.977859
1015.977859
1015.977859
1015.977859
1015.977859
948.365927
668.053031
355.528593
196.055770
75.787902
29.327869
9.443760
7.225871
7.168651
6.803870
7.146597
##ZVALUE=390
0.279546
0.240803
0.259876
0.342727
0.323653
0.390410
0.312924
0.163913
0.313520
0.268817
0.300407
0.412464
0.305772
0.205636
0.264645
0.174642
0.335574
0.360608
0.134706
0.364780
0.227690
0.332594
0.430942
0.507832
0.487566
0.391603
0.322461
0.399947
0.408888
0.315905
0.374913
0.413656
0.414848
0.377893
0.411868
0.373721
0.467896
0.328422
0.292659
0.399947
0.389814
0.207424
0.250936
0.395775
0.371933
0.224710
0.493526
0.385642
0.479817
0.468493
0.466704
0.663996
0.561476
0.413656
0.480413
0.524521
0.652671
0.497699
0.709891
0.639558
0.583529
0.667572
0.795722
0.835657
0.876784
0.893474
0.963807
1.057982
1.243949
1.510978
1.669526
1.647472
1.693964
1.736879
1.750588
2.186894
3.608465
24.021864
78.911781
242.613554
452.448726
822.948813
1015.746593
1015.746593
1015.746593
1015.746593
1015.746593
1015.746593
795.595646
471.088886
269.529819
105.576515
48.083663
14.661551
7.479787
6.531477
##ZVALUE=395
0.271797
0.241995
0.454783
0.435710
0.289679
0.250936
0.222921
0.397563
0.354648
0.166893
0.402927
0.295639
0.299811
0.326633
0.390410
0.175834
0.295639
0.217557
0.386834
0.316501
0.244975
0.273585
0.354648
0.414848
0.445843
0.373721
0.352859
0.341535
0.362992
0.315905
0.402927
0.474453
0.394583
0.394583
0.299811
0.320673
0.376701
0.309944
0.333786
0.536442
0.382662
0.530481
0.619888
0.514984
0.464916
0.534654
0.444651
0.400543
0.441670
0.350475
0.576973
0.486970
0.600815
0.570416
0.537634
0.483990
0.667572
0.637770
0.650883
0.574589
0.722408
0.798702
0.851750
0.883937
0.885725
0.909567
1.100898
1.134872
1.219511
1.293421
1.428723
1.631975
1.429915
1.594424
1.603961
1.521707
1.871586
1.926422
2.622604
12.034774
48.182607
176.317692
340.376496
656.107664
966.828465
1015.765667
1015.765667
1015.765667
1015.765667
1015.765667
986.403823
613.436699
370.855927
157.055855
74.431896
23.643970
##ZVALUE=400
0.105500
0.059605
0.159740
0.166893
0.162721
0.074506
0.231862
0.188947
0.022650
0.106692
0.053644
0.217557
-0.039935
0.090599
0.113845
0.132918
0.177622
0.116825
0.168681
0.119805
0.277758
0.330806
0.206828
0.061989
0.192523
0.133514
0.164509
0.251532
0.137687
0.122786
0.138879
0.170469
0.175834
0.163913
0.345707
0.268817
0.376701
0.351667
0.411868
0.298619
0.244975
0.330806
0.135899
0.392795
0.217557
0.193715
0.295639
0.343919
0.408888
0.399947
0.442863
0.308752
0.225902
0.356436
0.270605
0.358820
0.494719
0.527501
0.517964
0.547767
0.466704
0.469685
0.515580
0.534654
0.697970
0.438690
0.572801
0.880957
0.822544
1.083612
1.084805
1.069903
1.132488
0.916719
1.110435
1.324415
1.248717
1.335740
1.383424
1.748800
2.072453
6.184578
23.335814
87.643862
196.129680
455.010533
734.826922
1015.576720
1015.576720
1015.576720
1015.576720
1015.576720
1015.576720
713.630915
455.215573
219.690800
##END
