##TITLE=DW1
##FORMAT=SPECTACLE-ASCII V-1.2
##DATA TYPE=ULTRAVIOLET SPECTRUM
##SECOND TYPE=ULTRAVIOLET SPECTRUM
##DATE=11/14/17
##TIME=15:09:15
##SPECTROMETER/DATA SYSTEM=SPECTACLE
##XUNITS=NM EM
##YUNITS=ENERGY
##YFACTOR=1
##FIRSTX=220
##LASTX=410
##NPOINTS=96
##3DDATA=Equidistant
##ZUNITS=NM EX
##FIRSTZ=210
##LASTZ=400
##ZPOINTS=39
##XYDATA=(Y..Y)
##ZVALUE=210
14.483929
12.504458
11.723638
9.434819
8.710623
8.853674
7.603765
7.936954
6.335974
5.692840
3.888607
3.905892
3.076792
3.025532
2.897978
2.935529
2.645850
3.347993
2.969503
3.306866
3.411770
3.681779
3.156662
3.932714
3.980994
4.663467
4.287958
5.712509
5.896688
5.479455
5.968809
6.384850
6.810427
8.288622
7.535815
8.516908
9.010434
7.864833
8.472800
8.034706
8.931756
7.369518
7.151961
8.631945
6.917715
6.633997
7.092953
7.985830
7.665753
7.449985
8.054972
7.824898
6.979704
7.696748
6.943941
7.139444
7.331967
6.941557
7.707477
7.513762
7.046461
6.999969
7.371902
8.314848
7.289648
7.870793
7.946491
8.741617
10.117888
10.018945
12.425780
14.016628
14.961958
16.787648
16.931891
17.561913
16.706586
16.771555
16.373992
16.528964
13.655424
12.241602
11.365414
10.296702
8.034706
8.716583
6.657839
6.948709
6.811619
7.793903
8.384585
10.400414
13.704896
15.978813
20.038486
25.876760
##ZVALUE=215
37.374496
37.618876
31.292439
24.927855
20.885468
14.979839
13.739467
13.842583
14.007688
11.793971
9.760857
8.238554
7.081628
5.596876
4.108548
3.974438
3.317595
2.912879
2.621412
3.945827
3.335476
4.150867
5.010962
3.882647
4.990697
4.535913
4.383922
5.916953
5.337596
5.997419
7.274747
6.609559
8.321404
8.429885
9.102821
7.998943
9.214878
8.426905
8.422732
8.460879
8.641481
8.449554
7.801652
7.655621
9.315610
8.032918
8.890629
8.305907
9.026527
7.964969
8.001924
8.111000
8.822680
8.008480
8.272529
7.782578
7.333755
8.187890
8.321404
8.308887
7.563829
8.265972
8.284450
7.785559
9.672642
7.808805
8.790493
9.398460
10.799766
10.985732
11.763573
13.282895
13.266802
15.385747
16.103983
17.284751
15.223622
14.805794
15.680790
12.464523
11.617541
11.731982
10.421872
8.712411
9.054542
8.534789
7.487535
6.453991
5.938411
6.353855
6.119609
6.504655
6.010532
7.172823
7.736683
9.716749
##ZVALUE=220
71.139932
76.871514
80.035925
72.797537
59.254766
46.487451
33.986568
23.625493
21.110773
19.744635
20.017624
20.607710
19.550920
17.615557
13.638735
11.956692
7.508993
5.976558
4.594922
4.080534
3.652573
3.791451
4.288554
4.487634
4.452467
4.820824
4.661679
5.351901
6.064773
6.503463
6.841421
6.601810
7.729530
7.915497
9.057522
9.498000
8.891821
9.311438
10.066628
8.322597
8.347631
9.679794
8.438826
9.208918
9.813905
9.209514
8.725524
8.594990
8.612871
8.513927
8.255839
9.242892
9.397864
8.111596
8.604527
8.908510
8.024573
8.778572
8.277893
10.264516
8.741617
9.089708
8.953810
9.211898
9.431839
8.409619
10.342598
11.132956
11.152625
10.739565
12.410879
14.506578
15.059710
16.000867
16.013980
17.237663
16.675591
15.533566
15.679598
13.606548
15.292764
12.603998
11.295676
10.198951
9.604692
8.859634
8.269548
7.912517
7.500648
7.022619
7.102489
6.357431
7.212758
6.945729
5.921721
6.490946
##ZVALUE=225
84.888935
89.332461
111.305714
134.073496
141.665936
134.164691
109.551549
86.355805
60.429573
46.392679
32.086968
30.398965
31.094551
32.988787
32.224655
31.355619
25.088787
19.338727
14.462471
10.366440
6.852746
5.819798
5.054474
5.173683
5.153418
5.461574
5.413890
6.116629
5.692840
6.884933
6.790757
7.543564
8.294582
9.485483
9.317994
10.113716
9.425879
8.714795
9.782910
9.578466
10.609627
9.976625
10.869503
10.005832
10.209680
10.536909
9.869933
9.700656
9.094477
9.397864
9.858608
9.680986
9.570718
9.818673
10.242462
9.655952
10.866523
10.493994
11.273623
10.963678
10.597706
10.964870
10.428429
10.995865
11.203885
11.585951
11.333823
12.939572
11.977553
12.878776
14.664531
15.014410
15.717745
16.291738
16.214848
18.214583
15.533566
16.367435
16.331673
14.924407
15.071630
13.578534
10.924935
12.208819
10.996461
11.095405
10.522604
9.761453
9.163618
9.026527
9.700656
8.342862
7.868409
9.034872
8.005500
8.967519
##ZVALUE=230
46.225786
55.754781
85.156560
138.088465
182.868838
220.742822
239.808559
231.578946
204.364657
167.251825
114.983916
75.040460
52.882433
44.208765
44.728518
48.298836
49.020648
48.559904
43.426752
36.870837
29.302835
19.765496
12.758970
8.343458
7.401705
6.209612
6.238818
6.372929
6.600618
8.149743
9.069443
9.735823
11.126995
10.691881
10.558963
12.142658
11.338592
11.694431
12.233853
11.322498
12.852550
12.268424
10.384917
10.636449
10.988712
11.022687
10.861754
10.505915
9.886622
11.265874
9.647608
11.908412
11.545420
10.820627
12.943745
11.291504
11.535883
11.926889
11.433959
13.014674
12.757778
12.503862
13.140440
12.804866
13.354421
13.887882
14.462471
14.622808
14.836788
17.231703
18.166900
19.738674
19.895434
21.477938
19.941926
20.843744
21.259785
20.237565
20.345449
19.409657
17.732978
16.570687
17.552972
16.421676
15.959740
15.168786
13.785958
13.546944
13.605952
13.050437
12.603998
12.279749
11.266470
11.171699
10.679960
11.631846
##ZVALUE=235
11.028647
14.450550
26.520491
72.116852
122.409463
202.421546
273.194909
357.398987
394.354463
396.281481
338.829756
275.439620
189.881921
133.468509
86.407661
65.093637
63.446760
69.629550
72.382689
75.930953
74.866414
63.664913
51.671863
38.893819
28.627515
17.825961
14.715791
12.004972
11.494756
11.882782
11.668801
11.850595
11.485815
12.298822
14.260411
13.287663
13.567805
13.291836
13.372898
12.955666
12.942553
12.009740
13.608932
12.153983
12.189746
11.784434
11.970997
11.052489
11.285543
11.445880
12.435913
11.384487
12.976527
12.879968
12.801886
12.667775
13.389587
13.881922
15.007854
14.836788
15.955567
13.584495
15.054941
14.892817
17.217994
18.380880
18.232465
17.124414
19.464493
21.715760
21.337867
23.262501
22.833943
26.132464
26.051998
27.959943
27.561784
26.419759
25.708675
26.631951
26.345849
23.231506
22.973418
22.564530
20.802617
21.247864
19.878745
20.894408
20.396709
18.463731
19.146800
16.119480
16.657710
16.994476
16.472936
17.245412
##ZVALUE=240
2.463460
1.860857
4.996657
12.103915
32.925606
69.166422
150.188804
247.596502
382.624865
481.214523
557.135940
564.638972
518.372655
402.655602
303.592682
190.286636
133.066773
88.327527
74.669719
83.526969
89.491606
98.620653
104.691982
95.496774
83.818436
67.693591
52.621961
39.064884
28.983951
23.600459
18.585920
16.618967
16.590953
16.084909
16.238689
15.397668
15.125871
14.694929
14.782548
14.512539
13.515949
13.564825
12.800694
12.391806
11.543632
11.681914
11.300445
11.082888
11.846423
11.450648
11.628866
11.073947
11.478662
13.704896
13.521910
14.088750
13.614893
14.581680
14.462471
13.882518
15.666485
17.151833
15.247464
16.508698
17.494559
17.500520
20.987988
21.312833
19.856691
21.618605
24.120808
26.314855
26.285648
28.171539
30.254722
33.599734
30.118823
31.422973
29.946566
30.095577
29.737949
29.080510
28.147697
27.736425
28.008819
26.111603
26.903749
26.108623
25.590658
24.430752
23.703575
21.768808
20.410419
20.062923
20.284653
19.689798
##ZVALUE=245
1.829863
1.567602
1.709461
1.813769
2.735853
9.385943
21.830797
111.673474
133.920908
378.736854
418.703556
538.855791
656.189919
650.244951
635.423660
473.189950
393.531919
188.251734
177.268982
86.552501
84.075928
80.721974
91.163516
108.765960
114.213824
113.839507
98.619461
94.988942
70.272684
60.556531
48.188567
36.191940
24.270415
21.107793
18.114448
18.320680
15.827417
16.316772
14.096498
13.537407
12.790561
11.843443
12.456775
12.135506
12.258887
9.933710
10.073781
10.095835
9.677410
9.575486
10.079741
10.639429
10.858774
12.048483
12.735724
13.094544
13.747811
12.932420
12.968779
14.100671
14.193654
15.367866
15.490651
16.245842
16.596913
16.655922
16.262531
17.889738
18.630624
20.716786
22.366643
22.972822
25.785565
26.018620
25.883913
27.210712
29.039979
27.204752
29.466748
28.990507
29.626489
26.566982
27.326941
26.410818
26.843548
26.111603
24.773479
24.107695
22.544861
22.456646
21.893978
19.281507
20.807981
20.662546
20.693541
18.983483
##ZVALUE=250
1.087785
1.556873
1.682639
1.633763
1.812577
1.671910
1.823902
5.970001
17.012954
55.564642
116.850734
251.893997
386.767983
585.365891
688.706636
776.409507
766.212940
669.804811
556.421876
361.339450
243.426561
141.079426
94.594955
80.136657
88.555813
102.443695
118.133426
128.791928
125.728846
117.084980
102.359653
84.088445
61.434507
47.095418
33.209920
26.307702
18.944740
15.597939
13.868809
13.073683
13.222694
13.457537
11.374950
10.907650
9.715557
10.326505
9.273887
9.126663
9.281635
8.926988
9.876490
9.576678
9.644628
9.612441
10.183454
10.785460
10.562539
11.184812
11.983514
11.594892
11.682510
11.733770
11.175871
13.864636
12.543797
13.294816
13.203621
13.998747
14.625788
16.658902
17.320514
18.133521
19.144416
21.787882
20.734668
21.463633
21.914840
21.794438
21.160841
21.812916
21.392703
21.153688
21.266937
19.588470
19.550920
19.581914
19.113421
18.877983
18.046498
17.766953
18.259883
17.848611
15.930533
15.220642
14.322996
15.735626
##ZVALUE=255
1.352429
1.334548
1.285672
1.365542
1.365542
1.415610
1.468658
1.502633
2.131462
2.665520
13.915896
37.143826
88.765621
209.848881
341.560841
565.348864
704.831481
843.742490
884.878635
811.680555
687.882900
536.313653
327.939987
206.446648
108.462572
80.439448
73.843598
84.245801
103.058815
119.975805
125.066638
127.123594
118.204951
98.307729
81.633925
57.002902
43.287873
27.336478
19.716620
14.542937
12.039542
11.691451
10.239482
9.969473
9.710789
8.773804
9.248853
8.279681
9.015799
8.201599
9.057522
8.891821
9.142756
9.080768
9.057522
8.771420
9.531975
9.105802
9.418726
10.046959
9.951591
9.932518
9.930730
9.956956
10.272861
11.262894
11.205673
11.475682
12.056828
12.328625
12.168884
13.616681
14.111996
14.544725
15.728474
15.453696
14.976859
15.291572
15.084743
15.149713
14.346838
14.287829
14.053583
12.851954
14.627576
13.197660
13.533831
12.432933
13.573766
13.281703
11.533499
12.345910
11.117458
10.113716
10.682940
10.348558
##ZVALUE=260
1.505613
1.367927
1.142621
1.357794
1.628995
1.350641
1.741648
1.450777
1.805425
1.676679
1.974702
2.346635
5.341768
24.530888
61.285496
174.785852
291.273594
507.098436
693.077445
904.348493
989.259481
980.539918
836.435556
666.749477
430.765748
289.163589
162.250996
98.956823
64.856410
63.237548
77.445507
97.745657
113.065839
123.187900
123.706460
115.208626
98.111629
77.941418
58.803558
38.027763
26.265979
17.047524
11.996627
10.428429
9.147525
9.156466
8.935928
9.034872
8.261800
9.000897
8.514524
8.975863
9.077787
8.824468
8.303523
9.387732
9.822845
9.553432
8.817911
9.265542
9.010434
8.921623
8.747578
9.544492
9.486675
9.239912
9.151697
9.513497
10.313988
10.864735
10.296702
10.914803
11.777878
11.227727
11.458993
12.343526
11.373758
11.293888
10.796785
11.087656
9.970665
10.888577
10.145903
9.885430
9.453893
9.387732
8.709431
9.199977
9.441972
9.412766
8.682609
8.805990
8.363724
8.088946
8.459687
7.953644
##ZVALUE=265
1.255870
1.331568
1.138449
1.324415
1.348853
1.189709
1.436472
1.317859
1.608729
1.470447
1.640916
1.533628
1.540780
1.972914
3.157854
17.018914
46.949983
132.861733
251.435637
488.168001
696.981549
883.368850
1015.966535
1015.966535
943.785906
797.819495
572.732687
398.932695
220.605731
130.214691
76.574683
54.120421
57.374835
80.459714
98.613501
115.972757
123.462677
122.396946
111.477971
95.211864
76.171756
53.007603
38.377643
23.649931
17.133951
10.967851
9.737611
8.918643
8.420944
8.333921
8.804798
8.453727
8.763671
8.885860
9.582639
9.944439
9.452701
9.501576
9.103417
9.045601
9.069443
9.014606
8.857846
8.936524
9.082556
8.478761
9.504557
9.261966
9.807944
10.102987
9.761453
10.090470
10.260940
10.317564
10.251999
9.767413
9.441972
9.334683
9.221435
8.845925
8.140802
7.818937
8.004904
7.154942
7.076859
7.209778
6.910563
7.032752
7.014871
6.735921
6.510615
6.747842
6.558895
6.442666
6.310940
6.806850
##ZVALUE=270
0.705719
0.756979
0.967979
0.874996
1.119971
1.014471
1.050830
0.912547
0.987649
1.022816
1.221895
1.055598
1.076460
1.237988
1.581907
1.728535
1.975894
7.402897
25.707483
96.081495
207.549930
376.882553
669.831634
893.862844
1015.774012
1015.774012
1015.774012
953.855515
711.704493
516.007543
359.823704
186.641812
103.890896
52.011609
45.398474
60.075521
76.132417
100.760460
114.778876
122.603774
124.173760
111.513734
95.932484
74.597001
55.235624
35.136938
24.706721
16.707778
12.091994
9.614825
9.132624
8.620620
8.908510
9.315610
9.331703
8.979440
9.012818
9.480715
9.435415
9.454489
9.247661
9.749532
9.057522
9.173751
8.773804
9.418726
8.845925
9.066463
8.561611
9.611845
9.475946
9.705424
10.285974
9.208918
10.107756
8.660555
9.235740
8.458495
8.262992
8.008480
7.003546
7.482767
6.583929
6.611943
6.404519
6.430745
5.933642
6.028414
5.718470
6.142855
5.694628
5.409718
5.453825
5.479455
5.319715
5.863905
##ZVALUE=275
0.766516
0.688434
0.806451
0.913739
1.136661
0.866652
0.759959
0.842810
0.907779
1.033545
1.105666
1.011491
1.222491
1.097918
1.188517
1.154542
1.395941
1.398921
1.735687
2.998710
18.589497
57.237744
184.723735
341.844559
617.039800
834.985971
1015.774012
1015.774012
1015.774012
1015.774012
865.780711
657.078624
454.871655
237.299800
135.103464
60.607791
38.615465
42.337775
56.055784
77.320933
95.786452
112.938881
120.094419
118.223429
109.033585
89.488626
74.308515
53.581595
38.951635
24.154782
17.505884
11.932850
10.649562
9.686947
9.086728
9.707808
9.930730
10.166764
9.908676
10.051727
10.304451
9.298921
9.639859
9.570718
9.553432
9.710789
9.526610
9.519458
9.524822
9.806752
9.871721
9.660721
10.031462
9.628534
8.986592
9.284616
9.142756
8.621812
8.181930
7.471442
7.558465
7.135868
7.445812
6.298423
6.454587
6.235838
5.633831
5.540848
5.668998
5.685687
5.505681
5.762577
5.348921
5.323887
5.378723
5.498528
##ZVALUE=280
0.687838
0.688434
0.760555
0.571609
0.962615
0.778437
0.860691
0.786781
1.006722
0.770688
1.010895
0.709891
1.012683
0.884533
1.059771
1.339912
1.191497
1.242757
1.241565
1.608729
1.715422
2.255440
11.160970
41.247606
145.475864
270.826817
506.628752
730.157495
996.252894
1015.774012
1015.774012
1015.774012
999.863744
732.083917
529.636741
295.444727
175.361633
77.343583
41.772723
30.706525
38.404465
56.816936
72.931647
95.748901
107.680559
115.477443
115.548968
105.989575
92.790723
70.592761
55.585504
36.739707
25.885701
17.077923
12.880564
10.785460
10.289550
10.176897
10.298491
10.422468
10.424852
10.741949
10.158420
9.868741
10.101795
9.789467
10.037422
10.275841
10.092854
9.403825
10.053515
9.958744
9.875894
9.343624
9.806752
9.106994
8.836985
8.377433
8.270741
8.144975
7.884502
6.929636
6.643534
6.069541
6.056428
6.135702
5.880594
5.487800
5.982518
5.866885
5.205870
5.490780
5.814433
5.349517
5.068779
5.221963
##ZVALUE=285
0.603795
0.526905
0.616908
0.578761
0.707507
0.708699
0.760555
0.610948
0.666976
0.677705
0.618696
0.733733
0.769496
0.860691
0.833869
0.893474
1.150966
1.189709
1.155734
1.417994
1.446605
1.590848
1.647472
1.808405
5.272627
21.355748
83.662868
186.115503
401.321650
612.020493
900.774002
1015.774012
1015.774012
1015.774012
1015.774012
863.039494
654.980540
396.727920
247.414708
115.699768
59.877634
27.881861
25.362968
37.607551
51.491857
71.391463
87.534785
103.727579
110.281706
111.096501
104.154944
89.685917
74.873567
54.503679
39.878488
26.514530
19.082427
13.903975
12.592673
10.967851
11.012554
11.041760
11.010766
10.807514
10.550618
10.780692
10.493994
10.334849
10.562539
10.349751
9.713769
10.103583
9.961724
9.695888
9.985566
9.297729
9.092689
8.543730
7.827878
7.591844
7.388592
7.094741
6.786585
6.609559
6.352663
6.281734
6.045699
6.006956
5.951524
5.687475
5.447865
5.507469
5.240440
4.859567
5.530715
5.085468
##ZVALUE=290
0.511408
0.564456
0.715852
0.600815
0.706911
0.614524
0.595450
0.754595
0.706911
0.732541
0.716448
0.702739
0.793934
0.811815
0.808835
0.872612
0.750422
0.957847
0.955462
0.965595
1.139641
1.285672
1.498461
1.487732
1.746416
1.861453
2.561808
8.802414
50.720572
123.346448
221.753716
493.290424
738.089681
1015.774608
1015.774608
1015.774608
1015.774608
975.214839
774.120688
505.669713
328.194499
164.379478
83.772540
32.052994
20.013452
23.771524
32.569766
48.850775
63.544512
84.153414
98.445415
108.056664
108.430982
101.976991
89.578629
70.051551
54.896474
38.587451
29.318929
18.915534
15.261769
13.135672
11.739731
11.743903
11.238456
11.124611
11.350513
11.315942
10.816455
11.143684
10.882616
10.697842
10.339618
10.170937
9.494424
8.948445
9.050965
8.345842
8.218884
7.850528
7.371902
6.916523
6.696582
6.496906
6.553531
6.484985
6.045699
5.768538
5.844831
5.335808
5.429983
5.484819
5.188584
5.151629
5.242825
5.010962
##ZVALUE=295
0.473857
0.503659
0.500679
0.623465
0.450611
0.551939
0.591874
0.596642
0.450611
0.530481
0.703931
0.697970
0.699759
0.758767
0.758767
0.634789
0.677705
0.882745
0.828505
0.719428
0.789762
0.788569
0.734925
1.155734
1.454949
1.393557
1.566410
1.800656
2.009869
4.001856
16.523004
79.597831
183.468461
422.450900
651.267767
969.834924
1015.774012
1015.774012
1015.774012
1015.774012
875.990987
606.783628
416.319966
220.481753
121.773481
46.062469
23.258924
16.074777
20.421743
32.380819
45.267940
65.248609
78.191757
95.101595
103.450418
105.279684
98.318458
83.472729
71.843863
51.847696
40.501952
26.758909
21.077991
14.887452
13.402700
11.717677
11.980534
11.262894
11.133552
11.049509
10.601878
10.710955
9.973645
10.174513
9.676814
8.844733
8.939505
8.416772
7.647872
7.689595
7.128716
6.971955
6.938577
6.215572
6.357431
6.348491
6.111860
5.781651
5.878806
5.548596
5.584955
5.636811
5.230904
5.099773
5.166531
4.939437
##ZVALUE=300
0.414848
0.706911
0.383854
0.519753
0.230670
0.393987
0.360608
0.512600
0.317693
0.650883
0.578761
0.584722
0.579953
0.650883
0.642538
0.769496
0.737906
0.726581
0.652671
0.611544
0.782609
1.037717
0.961423
0.857711
0.986457
1.210570
1.180768
1.303554
1.283884
1.530647
1.633763
2.133846
10.388494
41.943789
150.511861
289.548635
565.622449
813.049674
1015.774012
1015.774012
1015.774012
1015.774012
958.445668
757.731795
486.134887
314.793587
160.231590
86.506009
33.938885
16.860962
16.216636
20.413995
31.088591
42.538643
60.718656
75.440407
90.510845
98.273754
99.563599
96.307993
83.183646
69.901943
51.567554
40.807724
27.061701
20.120740
14.918447
13.071895
11.743903
11.148453
10.941625
10.280609
10.309815
9.984970
9.511709
9.056926
8.752942
8.402467
8.112788
7.413626
7.232428
6.854534
6.626844
6.568432
6.445646
5.889535
6.115437
5.376935
6.186962
5.435944
5.384684
5.132556
4.830956
5.128980
5.072951
4.805923
##ZVALUE=305
0.421405
0.603795
0.442863
0.491738
0.447631
0.414848
0.377893
0.613928
0.490546
0.454783
0.551939
0.500679
0.548959
0.559688
0.454783
0.589490
0.736713
0.597835
0.563860
0.766516
0.814795
0.758767
0.769496
0.753999
0.914931
0.947714
1.141429
1.257658
1.220703
1.380444
1.316667
1.440644
1.788735
1.980662
4.023910
29.670596
88.515878
244.249701
427.840948
737.560987
962.459445
1015.774012
1015.774012
1015.774012
1015.774012
792.648792
599.822998
366.247892
227.816701
106.518865
53.904653
21.306872
13.842583
15.600920
20.017624
31.511784
42.058825
57.534575
71.350932
86.523890
93.275905
94.689727
90.576410
78.217983
66.357851
47.797561
37.349463
26.116967
18.724799
13.390779
11.418462
10.396838
9.900928
9.244680
8.704662
7.917881
8.357763
7.669926
7.143617
6.855726
6.650686
6.504655
6.250739
5.796552
5.868673
5.819798
5.474687
5.279779
5.071759
5.099773
4.921556
4.746914
4.843473
4.504919
4.598498
4.360676
##ZVALUE=310
0.385642
0.467896
0.370741
0.348687
0.471473
0.394583
0.471473
0.517964
0.404716
0.495911
0.410676
0.680685
0.545979
0.441670
0.501871
0.501871
0.568628
0.455976
0.615716
0.636578
0.736713
0.678897
0.649691
0.549555
0.658631
0.759959
0.790954
1.025796
1.003742
1.092553
1.128912
1.113415
1.387596
1.674891
1.499653
1.926422
2.153516
12.219548
46.911836
159.794688
306.189656
589.160919
830.293894
1015.774608
1015.774608
1015.774608
1015.774608
939.239860
750.055909
494.596958
324.266553
163.264871
89.174509
34.133792
17.307997
12.694001
14.656782
19.740462
25.717616
38.661957
49.403906
64.790845
76.012611
85.135698
86.541772
81.847906
74.606538
61.649680
48.550963
32.759905
24.488568
16.336441
12.239814
9.371638
8.415580
7.385612
7.277727
6.692410
6.414652
6.208420
5.927682
5.578995
5.908608
5.334616
5.264878
5.295873
5.174875
4.954934
4.911423
4.820824
4.706979
4.695654
4.547834
4.319549
4.404783
4.431605
##ZVALUE=315
0.500679
0.325441
0.319481
0.335574
0.475645
0.359416
0.409484
0.475645
0.499487
0.472665
0.542998
0.610948
0.407696
0.514984
0.411868
0.462532
0.627637
0.539422
0.508428
0.583529
0.641942
0.619888
0.718832
0.753999
0.759959
0.786781
0.618696
0.835657
0.820756
0.889897
0.953674
1.095533
1.142621
0.926852
1.094937
1.316667
1.559854
1.525879
1.816750
5.541444
24.757981
106.902719
228.073597
475.527644
719.273686
1003.606915
1015.774012
1015.774012
1015.774012
1006.351709
844.509006
585.214496
407.443643
212.444663
115.032792
43.628812
20.514727
11.597872
11.643767
13.318658
16.522408
24.582744
32.345653
46.448708
56.856871
70.237517
77.460408
80.367923
77.234507
66.052675
56.684613
42.076707
31.730533
20.293593
14.580488
9.801984
7.484555
6.298423
6.020665
5.454421
5.468726
5.253553
4.822612
5.067587
4.771948
4.690886
4.554987
4.501939
4.381537
4.501939
4.305840
4.005432
4.281998
4.159808
3.904700
3.848672
##ZVALUE=320
0.225902
0.437498
0.379682
0.365973
0.261664
0.335574
0.377893
0.402927
0.411868
0.421405
0.359416
0.533462
0.500679
0.455976
0.457764
0.388622
0.453591
0.567436
0.289679
0.384450
0.419617
0.419617
0.461936
0.616908
0.519753
0.585914
0.649691
0.565648
0.698566
0.749826
0.881553
0.727773
0.803471
0.995994
1.010895
1.045465
1.250505
1.275539
1.368523
1.670718
1.744628
2.614856
10.092854
61.822534
154.832006
376.203656
583.810806
876.614451
1015.737653
1015.737653
1015.737653
1015.737653
951.426029
694.880486
500.642657
270.173550
154.564977
66.311955
31.246543
12.048483
8.778572
9.014606
10.443926
13.792515
18.765926
29.137731
38.586855
52.278638
62.192678
71.615577
73.494911
69.663525
63.602924
50.046444
39.584637
26.708841
18.341541
12.119412
8.284450
5.975962
5.059838
4.626513
4.581809
4.203916
4.208684
4.201531
4.117489
3.784895
3.876686
3.994703
3.867745
3.769994
3.768802
3.865957
3.791451
4.044771
##ZVALUE=325
0.444651
0.400543
0.448823
0.475645
0.501871
0.439882
0.445843
0.522733
0.302792
0.533462
0.388622
0.568628
0.443459
0.526905
0.507832
0.605583
0.585914
0.628829
0.561476
0.780821
0.541806
0.589490
0.547767
0.740886
0.555515
0.713468
0.611544
0.655651
0.694990
0.687838
0.848770
0.916719
0.920892
0.941753
0.921488
0.945926
1.028776
1.215935
1.359582
1.444817
1.431704
1.454949
1.769662
2.188683
5.473495
41.157603
108.254552
268.444419
452.953577
768.365860
978.270769
1015.857458
1015.857458
1015.857458
996.117592
750.339031
557.935834
335.016847
200.967789
87.529421
41.966438
14.573932
7.949471
6.809831
6.974936
8.772612
11.511445
17.563701
24.791956
37.117600
47.254562
58.495998
64.503551
67.358613
63.843727
55.376887
46.192408
33.699870
25.042892
15.793443
10.603666
6.615520
5.153418
4.087687
3.981590
3.903508
3.653765
3.707409
3.738999
3.735423
3.710985
3.771782
3.831983
3.730655
3.657937
3.767610
##ZVALUE=330
0.472665
0.603795
0.556707
0.474453
0.591874
0.630617
0.566840
0.552535
0.456572
0.490546
0.594854
0.668764
0.742674
0.682473
0.586510
0.646710
0.625849
0.676513
0.630617
0.752807
0.565648
0.653863
0.642538
0.749826
0.785589
0.800490
0.754595
0.757575
0.928640
0.805855
0.810623
0.799894
0.786781
0.952482
0.962615
0.974536
0.996590
1.081824
1.226664
1.269579
1.323819
1.554489
1.458526
1.617670
1.682639
2.004504
2.727509
17.683506
59.273839
190.898776
348.868966
630.149841
851.804614
1015.969515
1015.969515
1015.969515
1015.327573
827.921033
644.115806
405.968428
257.492661
120.160580
60.987473
21.094680
9.956956
6.003976
5.873442
6.165504
7.116795
11.265874
15.435815
23.841858
32.690763
44.726729
52.734613
60.052872
62.210560
58.141947
51.625967
41.402578
31.736493
21.582842
15.287995
9.929538
7.169843
5.286932
4.406571
3.760457
3.826618
3.472567
3.731847
3.507733
3.621578
3.467798
3.643632
3.659725
##ZVALUE=335
0.346899
0.296831
0.403523
0.335574
0.368953
0.165701
0.290871
0.326633
0.460744
0.419617
0.385642
0.409484
0.453591
0.308752
0.375509
0.506639
0.407696
0.363588
0.393987
0.498891
0.394583
0.407696
0.351667
0.674725
0.464916
0.516772
0.530481
0.489950
0.445843
0.493526
0.611544
0.691414
0.689626
0.690818
0.797510
0.801682
0.560880
0.798702
0.773668
0.862479
0.969768
0.982881
0.981688
1.044869
1.305938
1.387596
1.361966
1.545548
1.878738
5.244613
40.879846
109.241605
275.888443
464.432836
758.249760
959.009528
1015.774012
1015.774012
1015.774012
922.968984
692.032576
512.479544
299.970508
179.510713
74.983835
34.780502
11.667609
6.478429
5.233884
5.392432
5.987883
7.022619
9.749532
14.219880
22.231936
29.988885
41.203499
48.702955
55.123568
56.207776
53.457618
47.346950
39.069653
31.262636
21.848679
15.702844
9.931922
7.281899
4.747510
3.935695
3.405809
3.170967
3.161430
3.224611
3.090501
3.086925
##ZVALUE=340
0.417829
0.346899
0.224710
0.358820
0.348687
0.369549
0.403523
0.441670
0.448823
0.471473
0.189543
0.379682
0.413656
0.449419
0.429749
0.258684
0.310540
0.384450
0.319481
0.441670
0.364780
0.433922
0.542998
0.580549
0.459552
0.577569
0.551939
0.497699
0.445843
0.522733
0.671744
0.671744
0.769496
0.684857
0.795722
0.848770
0.813603
0.787973
1.018643
0.791550
0.736713
0.815988
0.794530
1.026988
0.994802
1.223683
1.089573
1.165867
1.445413
1.634955
1.661777
3.502965
14.932752
77.119470
182.370543
407.277942
622.803569
883.182883
1015.149951
1015.833020
1015.833020
926.419497
768.262744
544.205904
375.840664
195.249915
107.654929
43.741465
18.112659
6.827712
5.433559
5.188584
5.102754
5.508661
6.587505
9.676814
13.523698
20.798445
27.659535
38.363934
45.232773
50.784945
52.287579
49.999952
45.358539
36.538839
29.699802
20.690560
15.092492
10.091662
6.970763
4.722476
3.831983
3.548861
3.240705
3.360510
##ZVALUE=345
0.194907
0.316501
0.363588
0.440478
0.372529
0.326633
0.365973
0.263453
0.246763
0.341535
0.329614
0.279546
0.368953
0.377893
0.381470
0.311732
0.395775
0.384450
0.402927
0.401735
0.224710
0.457764
0.388622
0.343919
0.256896
0.466704
0.370741
0.531673
0.420809
0.533462
0.403523
0.428557
0.475645
0.560880
0.476837
0.702739
0.686646
0.656843
0.687838
0.772476
0.633597
0.690818
0.883937
0.698566
0.787973
0.757575
0.852942
0.970960
0.938773
1.210570
1.187921
1.534820
1.813769
2.025962
6.052852
45.577884
122.333765
294.720531
484.554768
763.316751
941.620469
1015.774608
1015.774608
980.788469
838.122964
608.862638
443.722606
259.769559
147.556663
58.939457
26.298761
8.880496
5.598664
5.005598
4.648566
4.397631
4.745722
5.785823
7.752776
12.342930
17.875433
27.402639
32.786727
40.847659
45.249462
47.674775
46.051741
41.409731
36.136508
28.367639
21.582842
14.309883
10.262728
6.371737
4.702806
3.872514
##ZVALUE=350
0.237823
0.288486
0.186563
0.235438
0.388622
0.357628
0.274777
0.346899
0.379682
0.214577
0.414848
0.493526
0.191927
0.161529
0.229478
0.264645
0.398755
0.336766
0.436902
0.433922
0.218749
0.410676
0.543594
0.259876
0.426769
0.586510
0.443459
0.572801
0.470877
0.587702
0.554919
0.423789
0.527501
0.472665
0.604987
0.524521
0.441670
0.557899
0.802875
0.607967
0.553727
0.667572
0.680685
0.778437
0.684857
0.831485
0.834465
0.766516
1.003742
0.956655
1.054406
1.149774
1.262426
1.363754
1.346469
1.650453
3.063679
22.313595
72.463751
212.284923
374.175906
648.451447
842.279792
1009.162664
1015.774012
997.996926
878.903866
687.075853
513.389707
302.485824
182.288885
82.516670
38.633943
11.412501
5.820990
4.584789
4.316568
3.869534
3.849864
4.109740
4.894733
7.608533
10.810494
16.445518
21.718740
30.621886
35.059452
40.986538
43.026805
42.719841
39.553642
33.063889
27.492642
19.673705
14.835596
9.875894
##ZVALUE=355
0.391603
0.309944
0.270605
0.512600
0.408888
0.321865
0.256896
0.367761
0.257492
0.338554
0.483990
0.417829
0.432730
0.378489
0.374913
0.399947
0.420809
0.331998
0.409484
0.550747
0.411868
0.251532
0.536442
0.377893
0.414848
0.505447
0.324845
0.475645
0.478625
0.564456
0.438690
0.477433
0.592470
0.573993
0.764728
0.592470
0.516772
0.562668
0.702739
0.736713
0.587702
0.439882
0.828505
0.822544
0.695586
0.742674
0.988841
0.830889
0.711679
0.779629
0.979900
1.013875
1.133680
1.148582
1.336932
1.326799
1.489520
1.717806
2.108812
10.223985
40.987730
145.083666
277.501941
519.398451
725.513697
945.932865
1015.778780
1010.642648
919.624567
722.984672
563.058853
362.233520
229.155421
102.270842
49.485564
15.328526
6.844997
4.544854
4.149675
3.640652
3.457665
3.516674
3.731847
4.440546
5.912781
9.424686
13.335943
19.596815
25.078654
31.756759
36.390424
39.543509
39.265752
35.716891
31.631589
24.790764
##ZVALUE=360
0.337958
0.321865
0.492930
0.457764
0.316501
0.209808
0.239611
0.292659
0.212789
0.385642
0.323653
0.193715
0.391603
0.401735
0.383854
0.483990
0.341535
0.415444
0.332594
0.320673
0.474453
0.419617
0.400543
0.437498
0.413656
0.356436
0.305772
0.393987
0.456572
0.579953
0.476837
0.532866
0.291467
0.532866
0.617504
0.522733
0.597835
0.631809
0.643730
0.596642
0.564456
0.628829
0.711679
0.508428
0.762939
0.844598
0.707507
0.757575
0.928640
0.825524
0.816584
0.898838
0.874996
1.012683
0.991821
1.372695
1.255870
1.293421
1.480579
1.712441
1.983643
4.240870
17.568469
81.726909
182.404518
403.036475
599.557757
829.484463
959.876776
1004.942656
952.357650
796.377659
645.456910
424.976945
280.006528
136.079788
70.800781
25.710464
10.463595
4.422665
3.814697
3.425479
3.624558
3.219843
3.058910
3.246665
3.801584
4.951954
7.026792
11.046529
15.341640
22.060871
26.836991
32.337904
34.699440
35.857558
##ZVALUE=365
0.370741
0.366569
0.378489
0.369549
0.284910
0.238419
0.254512
0.248551
0.312924
0.461936
0.492930
0.571609
0.338554
0.481606
0.416636
0.438690
0.354648
0.323653
0.347495
0.338554
0.327826
0.528693
0.365973
0.297427
0.515580
0.280738
0.407696
0.457764
0.299811
0.535846
0.458956
0.303984
0.420809
0.648499
0.404716
0.542998
0.599623
0.614524
0.609756
0.584722
0.643730
0.587702
0.575781
0.585914
0.683665
0.582933
0.583529
0.727773
0.688434
0.777841
0.619888
0.830889
1.010895
0.726581
0.942945
0.921488
0.954866
0.938773
1.163483
1.488924
1.571774
1.738667
1.835823
2.319813
7.089972
48.326850
121.186972
285.786986
476.027727
742.514729
888.038874
978.564024
960.951447
836.094022
692.301989
484.581590
339.338779
185.067654
100.718737
35.978556
14.132857
4.942417
3.835559
3.281832
3.295541
2.920628
3.044605
2.612472
2.694726
3.055930
3.932714
6.187558
8.808970
13.556480
17.923713
23.535490
##ZVALUE=370
0.309944
0.207424
0.277758
0.272989
0.224710
0.159740
0.372529
0.348687
0.363588
0.324845
0.259876
0.311732
0.392795
0.192523
0.131726
0.338554
0.337958
0.137687
0.216961
0.300407
0.372529
0.219941
0.343919
0.299811
0.372529
0.256896
0.359416
0.503659
0.466704
0.189543
0.352859
0.370741
0.412464
0.562668
0.404716
0.316501
0.384450
0.444651
0.551939
0.573993
0.590682
0.473857
0.426769
0.443459
0.542998
0.494719
0.485778
0.647902
0.424981
0.584722
0.757575
0.490546
0.627637
0.493526
0.646710
0.749826
0.624657
0.653863
0.909567
1.018643
1.095533
1.187921
1.238585
1.367927
1.418591
1.857877
3.299713
23.947954
79.232454
225.662589
388.797522
641.844869
817.451477
957.867503
970.384479
873.546600
744.344592
553.462505
400.373936
221.529007
125.095844
48.923492
21.909475
7.628798
4.039407
3.236532
2.987981
2.871752
2.676845
2.658963
2.492666
2.380610
2.967715
3.637671
5.148649
7.617474
##ZVALUE=375
0.291467
0.351667
0.327826
0.289679
0.399947
0.297427
0.240803
0.233650
0.216961
0.328422
0.191927
0.322461
0.341535
0.269413
0.213981
0.468493
0.242591
0.298619
0.240803
0.123978
0.282526
0.409484
0.254512
0.407696
0.311732
0.296831
0.305772
0.431538
0.308752
0.426769
0.336766
0.494719
0.403523
0.392795
0.368953
0.422597
0.407696
0.364780
0.436902
0.477433
0.384450
0.334978
0.567436
0.571609
0.478625
0.331998
0.594854
0.451803
0.689626
0.623465
0.641942
0.683665
0.539422
0.581741
0.601411
0.505447
0.619888
0.810623
0.693798
0.766516
0.750422
0.954866
0.763535
1.001954
0.963807
1.204610
1.352429
1.470447
1.919866
12.063980
45.884848
146.980882
286.441445
545.789003
739.287734
918.210745
968.271494
927.575827
820.903778
624.987483
466.073751
279.116631
173.617005
85.161924
42.658448
13.474822
5.655885
3.343821
3.062487
2.919436
2.602935
2.453923
2.334714
2.182722
2.199411
2.461672
##ZVALUE=380
0.234842
0.244975
0.308752
0.211596
0.331998
0.215769
0.176430
0.320673
0.208616
0.241995
0.193715
0.202656
0.301600
0.268817
0.052452
0.211596
0.359416
0.301600
0.220537
0.230670
0.336766
0.309944
0.168681
0.244975
0.294447
0.325441
0.215769
0.309944
0.160933
0.470877
0.366569
0.333786
0.357628
0.477433
0.397563
0.439882
0.363588
0.371933
0.436902
0.409484
0.549555
0.549555
0.451803
0.354648
0.490546
0.607967
0.482798
0.494719
0.570416
0.495911
0.414848
0.621676
0.599623
0.399947
0.601411
0.592470
0.607967
0.567436
0.649691
0.553727
0.901818
0.772476
0.755787
0.787973
0.875592
1.037717
1.064539
1.206994
1.414418
1.588464
1.806617
5.770922
28.346777
116.554499
232.255459
448.201895
640.698671
860.923529
952.183008
947.853923
859.491825
677.627921
539.508462
366.823673
245.984793
120.346546
61.071515
21.168590
8.821487
3.633499
2.895594
2.451539
2.566576
2.413988
2.234578
2.189875
##ZVALUE=385
0.109673
0.118613
0.090599
0.193715
0.190735
0.367761
0.268817
0.325441
0.389814
0.290871
0.251532
0.220537
0.228882
0.182986
0.344515
0.243783
0.247955
0.270605
0.205636
0.258684
0.372529
0.273585
0.340939
0.359416
0.247955
0.376701
0.258684
0.385642
0.199676
0.205636
0.369549
0.369549
0.348687
0.420809
0.337958
0.483990
0.421405
0.501871
0.364780
0.423789
0.395775
0.529885
0.508428
0.376701
0.427961
0.400543
0.455976
0.498891
0.375509
0.366569
0.466704
0.557899
0.316501
0.537634
0.597835
0.591874
0.526905
0.473857
0.581741
0.504851
0.653863
0.596642
0.723600
0.800490
0.730753
0.830889
0.872612
1.105666
1.198649
1.348853
1.235604
1.382828
1.738667
2.514720
11.355877
67.677498
156.068802
345.147848
540.919900
786.598921
912.963748
958.923697
913.968682
786.916018
654.988885
459.670424
319.228768
172.623992
96.920729
39.564967
15.978813
4.710555
3.095865
2.574921
2.398491
2.536774
##ZVALUE=390
0.133514
0.252724
0.200868
0.119805
0.104904
0.211596
0.217557
0.073910
0.025630
0.167489
0.179410
0.247955
0.252724
0.219941
0.233650
0.294447
0.293851
0.281930
0.236630
0.058413
0.067949
0.151992
0.224710
0.328422
0.270605
0.240803
0.287890
0.389814
0.411868
0.240803
0.331998
0.331998
0.375509
0.344515
0.270605
0.440478
0.419617
0.419617
0.404716
0.469685
0.447631
0.503659
0.496507
0.452995
0.298619
0.380874
0.426769
0.394583
0.460744
0.339746
0.483990
0.602603
0.502467
0.553727
0.472665
0.547767
0.443459
0.524521
0.377893
0.523925
0.613928
0.504851
0.543594
0.609756
0.653863
0.739694
0.769496
0.784993
0.979900
1.155734
1.177788
1.340508
1.271963
1.434684
1.448989
1.720786
4.776716
38.309693
108.722448
282.952785
469.176769
727.732778
871.667862
966.961980
972.796679
874.360800
748.446584
556.299686
412.890911
247.050524
143.581629
57.644844
25.240779
7.192492
3.521442
2.603531
##ZVALUE=395
0.283718
0.398755
0.253916
0.234842
0.271797
0.075698
0.128746
0.178814
0.042915
0.292659
0.264645
0.298619
0.159740
0.192523
0.333786
0.276566
0.295639
0.452995
0.334978
0.165701
0.211596
0.324845
0.325441
0.163913
0.334978
0.143647
0.358820
0.368953
0.392795
0.249743
0.303984
0.388622
0.378489
0.538826
0.443459
0.389814
0.291467
0.396967
0.464916
0.444651
0.661612
0.413656
0.445843
0.452995
0.543594
0.418425
0.432730
0.452995
0.559688
0.465512
0.467896
0.560880
0.395775
0.310540
0.375509
0.648499
0.474453
0.706911
0.502467
0.678897
0.555515
0.656843
0.630617
0.699759
0.733733
0.766516
0.820756
0.847578
0.954866
1.070499
1.108646
0.940561
1.219511
1.008511
1.345873
1.391768
1.368523
1.474619
2.559423
22.720695
77.210665
221.948028
374.862552
607.311726
789.229870
959.844589
1009.343863
961.129665
857.436657
673.007965
506.691933
304.766893
187.894702
81.643462
38.774610
12.264848
##ZVALUE=400
0.344515
0.410676
0.366569
0.236630
0.340939
0.246763
0.299811
0.240803
0.314713
0.235438
0.344515
0.242591
0.230670
0.293851
0.252724
0.277758
0.273585
0.367761
0.182986
0.400543
0.255704
0.188947
0.436902
0.313520
0.356436
0.284910
0.274777
0.335574
0.342727
0.240803
0.303984
0.408888
0.167489
0.389814
0.420809
0.444651
0.581741
0.451803
0.384450
0.489950
0.512600
0.412464
0.577569
0.470877
0.455976
0.584722
0.571609
0.528693
0.530481
0.496507
0.625849
0.543594
0.576973
0.396967
0.612736
0.530481
0.669956
0.696778
0.606775
0.621676
0.579953
0.600815
0.696778
0.655651
0.690818
0.899434
0.892878
1.048446
1.103878
1.079440
1.099706
1.184940
1.180768
1.119971
1.001954
1.169443
1.100898
1.149774
1.289845
1.397729
1.957417
11.902452
45.837760
139.416456
265.941620
505.625010
698.230863
893.200636
971.672535
968.814492
887.567997
709.930658
558.268428
355.510712
232.378840
114.571452
##END
