##TITLE=DW2
##FORMAT=SPECTACLE-ASCII V-1.2
##DATA TYPE=ULTRAVIOLET SPECTRUM
##SECOND TYPE=ULTRAVIOLET SPECTRUM
##DATE=11/14/17
##TIME=15:13:51
##SPECTROMETER/DATA SYSTEM=SPECTACLE
##XUNITS=NM EM
##YUNITS=ENERGY
##YFACTOR=1
##FIRSTX=220
##LASTX=410
##NPOINTS=96
##3DDATA=Equidistant
##ZUNITS=NM EX
##FIRSTZ=210
##LASTZ=400
##ZPOINTS=39
##XYDATA=(Y..Y)
##ZVALUE=210
11.375546
13.775826
11.298656
8.437634
8.751750
8.421540
8.680820
6.746650
6.543994
5.497932
3.971457
2.866983
2.557635
2.980828
2.524853
2.784729
2.990961
3.121495
3.067851
2.758503
3.257990
3.467798
3.125668
3.469586
3.934503
5.088449
3.647804
4.606843
4.566908
5.202889
4.711747
6.809831
5.826950
5.969405
5.522966
5.380511
6.290674
5.404949
5.829930
5.821586
6.124973
6.135702
6.019473
6.319880
5.442500
5.480647
6.196499
5.490780
6.466508
6.573796
6.681681
5.676746
6.011724
6.460547
5.741715
6.089807
5.364418
6.573796
7.210970
6.526709
6.040931
6.543994
6.649494
6.153584
6.044507
5.984902
6.281734
7.928610
7.682443
8.825660
9.819865
10.591745
11.601448
11.491776
12.792945
12.114644
12.528896
14.008880
12.892485
12.046695
10.237694
8.294582
9.561777
8.139610
6.362796
6.876588
5.735755
5.625486
5.903840
5.779862
8.647442
9.263754
13.093948
16.174912
18.498898
24.422407
##ZVALUE=215
34.591556
35.141706
27.528405
23.631454
18.296838
14.466643
12.230873
13.939738
12.298822
11.215806
10.022521
8.434653
5.792975
5.063415
3.793836
2.948642
2.537966
2.431870
2.330542
3.079772
3.250837
2.526641
3.565550
3.308654
3.788471
3.958941
4.268885
4.465580
5.150437
4.777908
5.389452
5.794764
5.364418
5.596876
6.240606
5.495548
6.135702
6.487966
6.549954
6.787777
6.690621
6.131530
6.125569
5.985498
6.130934
6.209612
6.016493
5.586743
6.064773
6.268620
5.619526
6.496906
6.359816
6.794930
7.258654
7.033944
6.719828
7.548928
7.668734
6.117821
6.532669
6.970763
6.801486
6.891489
7.228851
7.578731
7.334948
7.180572
7.532835
9.071827
9.771585
10.616779
11.508465
13.103485
12.527704
13.234615
13.693571
12.494922
10.394454
11.743903
10.225773
9.582639
9.045601
8.890629
6.505847
6.138682
6.594658
5.788803
5.353689
4.836917
5.334616
5.461574
4.221797
6.467700
6.449819
8.201599
##ZVALUE=220
72.216988
70.969462
75.103641
64.008832
55.875778
43.156743
33.878684
26.082993
20.475984
21.319985
20.110607
19.160509
18.171668
16.217828
13.436675
10.347962
7.275939
5.525947
4.921556
3.445745
3.469586
4.141927
3.904700
3.449917
4.499555
3.650784
5.028844
4.711747
5.652905
5.334616
5.670786
5.676746
7.048845
6.127954
6.257892
6.516576
6.078482
7.410645
7.355809
6.242990
7.136464
6.856918
6.585717
7.172823
6.589890
7.515550
7.233620
7.279515
7.499456
6.585717
6.371737
6.235838
7.857680
7.117987
7.758737
7.621646
7.687807
8.387566
7.346869
8.060932
8.032918
7.046461
7.678866
8.227825
7.291436
8.067489
8.596778
8.914471
9.867549
10.808706
10.755658
11.331439
12.477636
13.120770
12.789965
13.550520
13.709664
12.439489
13.775826
11.263490
11.225939
11.042953
9.253621
8.715987
8.616447
7.305741
7.397532
5.745888
6.185770
6.174445
5.432963
5.635619
6.291866
5.925894
5.186796
6.311536
##ZVALUE=225
80.536604
87.030530
107.032657
129.006505
132.995844
126.797557
109.066963
82.163811
60.835481
44.398904
33.305883
30.294657
31.263828
32.847524
31.069517
29.714704
23.856759
19.682646
13.271570
8.574724
6.741881
4.981756
3.988743
4.383922
4.056692
4.462600
3.747940
5.184412
6.059408
6.766915
5.756617
6.619692
6.350875
6.412864
7.050633
7.321835
6.934404
7.247925
7.573962
7.617474
7.968545
7.375479
7.437468
7.310510
7.198453
7.184744
8.146763
7.460713
7.511973
7.255673
8.533597
7.776618
8.292794
6.992817
9.611845
8.529425
8.411407
8.989573
8.175969
8.659959
10.048747
8.568764
9.482503
9.548664
9.665489
10.900497
9.957552
11.747479
10.572672
11.896491
12.443662
12.331605
13.386607
13.428926
13.484955
13.485551
12.913942
14.488697
12.118816
12.396574
10.979772
10.013580
9.356737
8.866787
9.186864
8.522868
7.145405
7.333755
7.699728
8.288622
6.944537
7.044673
6.645918
7.665753
7.536411
6.698966
##ZVALUE=230
47.062635
51.695704
78.034997
136.379600
177.944899
224.383473
234.337449
228.864551
203.372836
165.195465
111.742616
77.085495
52.035451
43.521523
42.861700
48.441887
50.782561
49.753785
46.184659
36.738515
29.279590
20.295978
13.057590
8.464456
6.261468
5.538464
5.004406
5.239844
5.529523
5.023479
5.038977
6.563663
6.116629
6.706715
6.343722
7.181764
7.382631
7.982850
8.958578
6.696582
8.969903
7.741451
7.892847
8.481741
8.270741
8.419752
7.073879
8.103848
8.887649
8.199811
9.167790
9.417534
8.748770
10.013580
9.526610
9.520650
9.784698
11.127591
10.717511
10.894537
10.622740
11.762977
11.147857
10.675788
10.471940
9.855628
11.194944
12.727976
11.793971
13.166666
13.222694
14.556646
15.177727
15.222430
15.583634
15.348792
15.736818
15.320778
15.312433
14.501810
14.642477
12.604594
11.798739
11.003613
11.251569
10.018945
9.692907
10.545850
9.810925
10.026693
10.104775
9.252429
9.406805
8.879900
8.477569
7.905960
##ZVALUE=235
10.205507
12.320876
28.868914
70.153475
120.509863
190.466642
262.331963
343.505740
379.352570
373.908877
338.612795
249.704719
185.010433
116.367936
83.481669
65.502524
61.299801
67.727566
74.803829
75.259805
72.002411
59.360862
49.431920
35.234690
24.007559
17.046928
12.405515
8.730888
7.903576
6.430745
7.217526
8.057952
7.907748
7.906556
7.727742
8.690953
8.003712
7.760525
7.632971
8.491874
7.881522
8.990765
9.203553
7.218719
8.205771
8.677840
9.829998
8.419752
8.795857
8.513927
9.929538
9.813905
9.791851
10.779500
11.181831
11.507869
12.339950
12.594461
12.174845
11.965632
11.997819
12.338758
11.877418
13.071895
12.914538
12.908578
13.621449
13.305545
14.245510
14.031529
16.875863
17.522573
17.837882
18.056631
19.792914
18.214583
19.340515
17.602444
18.883944
15.777946
15.647411
15.158653
14.794469
14.507771
14.981627
12.846589
12.169480
12.673736
12.531877
11.216998
11.288524
12.221932
11.208653
10.447502
10.436773
9.727478
##ZVALUE=240
2.125502
2.048612
3.474951
12.989640
29.577613
73.139668
131.618977
248.616934
343.110561
439.271927
539.587736
547.892451
490.759015
409.506559
295.657516
200.402737
120.681524
92.967749
79.781413
74.968934
87.677836
96.435547
94.957948
90.490580
74.556470
58.666468
45.070648
31.725764
21.043420
14.805794
11.756420
9.579659
9.073615
9.445548
8.212924
8.264780
9.467602
8.997917
8.796453
9.364486
8.541942
8.418560
8.205771
8.286834
8.303523
8.526444
8.346438
8.704662
8.880496
9.594560
9.713769
9.552836
9.865761
10.237694
10.464787
10.453463
13.140440
11.479855
11.915565
14.369488
14.050603
12.920499
13.683438
13.737679
14.106631
15.001893
15.391707
14.660954
14.238954
16.598701
17.188787
19.926429
18.311739
21.009445
20.877719
18.690825
19.164681
19.687414
20.042658
18.742681
16.999841
17.533898
16.954541
16.530752
16.419888
15.126467
15.340447
14.314651
13.417602
14.178753
13.130903
14.357567
13.178587
10.722876
11.522770
11.724830
##ZVALUE=245
1.384616
1.613498
1.877546
1.968741
3.045797
7.493496
23.667812
56.608915
137.797594
232.848525
395.702720
514.140725
610.236526
654.104948
624.181628
514.872670
414.716601
277.079940
186.735988
107.937455
83.034635
73.778629
87.596774
99.049807
108.139515
105.348825
96.252561
86.612701
66.083670
53.710938
41.253567
25.396943
18.506646
11.487603
9.769797
9.842515
10.166764
9.824634
9.431839
9.322762
8.192658
7.933974
7.429719
8.853674
7.681847
8.750558
8.892417
8.325577
7.886887
8.386970
8.413792
9.461641
10.231733
9.616613
9.660721
11.118650
10.397434
11.348724
12.278557
11.598468
11.747479
12.104511
12.097955
12.165904
11.966825
12.881756
12.693405
13.575554
14.521480
14.290810
14.597774
16.314983
17.962456
17.324686
18.165708
16.276836
17.131567
16.704798
16.157627
17.004609
16.994476
16.158819
15.155673
14.525652
14.134645
12.792945
13.450980
13.739467
12.233853
12.651682
11.854768
12.871623
12.041926
10.623932
11.006594
10.975599
##ZVALUE=250
1.409650
1.665950
1.483560
1.594424
1.456738
1.537800
2.439618
5.843639
15.256405
40.369630
112.888813
211.306810
379.891992
512.136817
652.154684
726.521015
729.245543
660.652518
559.649467
391.147733
256.855488
140.132904
92.992783
72.876811
77.575445
93.332529
108.250976
113.910437
116.177797
104.771852
93.665719
69.672465
55.265427
37.423968
26.705861
16.404986
11.930466
9.305477
9.071827
8.063912
7.713437
8.308887
7.765889
7.400513
7.833838
8.013844
7.944703
7.307529
7.478595
8.101463
8.269548
8.090734
8.534789
8.543730
8.683801
8.734465
8.712411
9.570718
9.935498
10.190606
9.701848
9.531975
9.899735
11.073947
10.265708
10.710955
10.538697
11.222959
11.177659
12.583733
13.005733
13.237596
13.034940
13.966560
14.200807
13.237000
13.326406
14.388561
13.074875
12.351871
11.452436
11.356473
11.624694
11.757612
11.207461
10.531545
10.729432
10.556579
10.082722
10.385513
10.633469
9.291768
9.325743
9.265542
8.912683
9.029508
##ZVALUE=255
1.387596
1.216531
1.045465
1.262426
1.339912
1.304746
1.487732
1.544952
1.640916
2.826452
13.008714
34.701824
79.562664
191.229582
315.295458
510.304570
657.339692
797.864795
846.346617
785.836577
673.957467
531.888008
329.209566
208.334923
108.775496
77.524781
66.271424
78.743696
97.796917
111.287832
118.417740
118.594766
112.535954
93.757510
74.715614
53.359866
37.954450
23.406744
15.370846
9.968877
7.743835
7.700920
7.279515
7.038713
7.260442
7.249713
6.742477
7.140636
6.576777
7.164478
6.898642
7.317662
7.362962
7.690787
8.021593
8.159876
8.599758
7.896423
9.299517
8.023977
8.245707
8.109808
7.958412
8.656979
8.507967
9.150505
8.831620
8.319616
9.237528
9.928942
9.155869
10.013580
11.301637
10.445714
10.947585
11.010766
10.851622
11.367798
10.477901
10.070801
9.509921
8.892417
8.370876
8.174777
8.140802
8.783937
8.345842
7.895827
7.223487
7.752776
7.213950
7.430911
7.122755
7.160902
7.030964
6.855726
##ZVALUE=260
1.190901
1.028776
1.111627
1.074672
1.034737
1.278520
1.323819
1.433492
1.154542
1.425743
1.572967
2.004504
5.601645
25.111437
60.595870
157.762766
268.692970
464.709997
637.773871
836.786032
918.173790
925.012827
810.380578
653.253794
427.879691
288.658738
161.282420
97.523928
60.729980
59.935451
78.340769
91.811419
112.735629
123.094916
120.116472
113.238692
91.904998
75.080991
52.039623
36.973953
22.345781
14.827847
9.650588
7.790923
6.848574
7.247925
6.467700
6.968975
7.381439
6.992817
6.879568
7.400513
7.580519
7.445812
7.727742
7.369518
7.339716
8.470416
8.447766
7.990599
8.061528
7.706881
7.986426
7.238984
8.464456
8.248687
8.179545
8.654594
8.527637
8.076429
8.861423
9.588599
8.622408
8.747578
9.342432
9.721518
8.812547
8.627772
8.465648
7.447600
7.773638
7.325411
7.331967
6.943941
6.962419
7.132888
6.869435
6.197691
6.037951
5.901456
5.981922
6.062984
5.974770
6.048679
6.306767
6.169677
##ZVALUE=265
0.984669
1.014471
0.845790
0.981688
0.998974
0.971556
0.906587
0.853539
1.134872
1.042485
1.258850
1.267791
1.574755
1.717806
3.623962
12.699962
50.087571
113.156438
206.403732
412.627459
612.671971
851.457715
973.095894
999.327898
920.321941
736.780763
578.807592
357.808471
231.532454
118.749738
69.726706
51.524639
58.322549
81.497431
98.775625
116.400719
122.168660
122.712851
112.720728
88.385940
73.716640
51.947832
36.275983
20.904541
14.419556
8.905530
7.566810
6.930828
6.439686
6.910563
6.959438
6.970763
7.628798
7.560849
7.316470
8.103848
7.991791
7.512569
7.831454
8.225441
8.396506
7.883906
7.776618
8.574724
8.144975
8.052588
7.499456
7.903576
8.025765
8.681417
8.996725
8.350611
8.698702
8.032918
8.965731
8.625984
8.220673
7.464886
7.472634
7.335544
7.309914
6.412864
6.281734
5.986691
5.934834
6.017685
5.889535
5.827546
5.675554
5.977750
5.436540
5.485415
4.975796
5.691648
5.369782
5.219579
##ZVALUE=270
0.932813
0.901818
0.901818
1.073480
1.013875
0.921488
1.176000
1.212955
1.051426
0.938773
1.067519
1.332760
1.498461
1.500845
1.548529
1.739860
2.044439
7.330775
24.358630
87.698698
185.274482
331.562757
595.929623
795.850754
994.274616
1015.910506
1015.910506
913.865566
703.617930
519.641638
354.880691
183.360577
104.318857
51.765442
45.699477
58.550835
75.686574
100.400448
113.442540
122.515559
123.069882
110.850930
95.528960
71.012974
53.377748
33.674836
23.415685
15.197992
10.651946
9.267926
7.699728
7.128716
8.235574
7.266998
8.114576
8.152723
8.338690
8.475780
7.960796
8.805990
8.315444
8.404851
8.388758
8.458495
8.119941
8.069873
7.967949
7.785559
8.536577
8.892417
8.219481
8.837581
8.706450
8.894801
8.701682
8.372664
7.792711
7.509589
7.487535
6.934404
6.605983
6.606579
6.535649
5.871654
5.954504
5.894899
5.488992
5.431771
5.552769
5.648732
5.668998
5.242825
5.913973
5.400777
5.326867
5.211830
##ZVALUE=275
0.568628
0.639558
0.799894
1.087785
0.793934
0.966787
0.909567
0.965595
0.694990
1.014471
0.982881
0.974536
0.882745
0.943542
0.800490
1.088977
1.333952
1.664758
1.964569
3.367662
13.283491
59.850812
138.450861
312.440991
502.040982
765.684843
934.488773
1015.774012
1015.774012
997.969508
863.628983
616.931915
429.683924
229.067802
133.982897
60.993433
40.365458
41.919947
55.905581
78.770518
96.491575
113.649964
120.999813
118.511915
110.033751
90.112686
72.325468
51.670671
36.749840
23.774505
16.228557
11.950731
9.374619
8.561611
8.170605
7.709861
8.036494
8.285642
8.376837
8.246899
9.105802
8.807778
8.216500
8.797646
8.762479
8.473992
8.482933
8.180737
7.777810
8.438826
8.417964
8.997917
9.093881
8.548498
8.578897
8.204579
7.875562
7.331967
7.368922
7.611513
6.738901
6.885529
6.354451
6.084442
6.361604
5.831718
5.648732
5.339980
5.363822
5.006790
5.688667
4.992485
5.481839
5.150437
5.501509
5.239844
##ZVALUE=280
0.618696
0.564456
0.951886
0.828505
0.752807
0.591874
0.601411
0.686646
0.762939
0.898838
0.871420
0.838637
0.874996
0.768900
0.847578
1.135468
0.920892
0.963807
1.240969
1.352429
1.393557
1.796484
9.270906
34.856796
123.852491
231.498480
434.367657
631.511807
883.659720
1014.279723
1015.774608
1015.774608
965.967774
723.096728
527.719855
298.591852
86.870790
71.873665
40.361881
30.495524
39.132833
56.391954
72.746873
95.149875
106.775761
116.702914
114.077926
104.066730
90.003610
73.048472
52.585602
38.285851
24.102926
17.120838
12.017488
9.499788
8.567572
9.400845
9.114742
9.454489
9.398460
9.519458
9.935498
9.228587
9.136796
9.167790
9.267926
9.370446
8.663535
9.277463
8.772612
8.859634
8.921623
9.163618
9.103417
8.618832
7.922649
8.101463
7.444620
7.089972
6.584525
6.851554
6.258488
6.118417
5.888939
6.118417
5.590916
5.989671
5.443692
5.243421
5.161762
5.171895
5.269647
5.404949
5.272627
5.422831
##ZVALUE=285
0.430942
0.524521
0.604987
0.526905
0.659823
0.641942
0.633597
0.684857
0.788569
0.820756
0.773668
0.832677
0.684857
0.643730
0.728965
0.832677
0.899434
0.992417
1.071692
1.086593
1.280904
1.164675
1.618862
1.504421
4.731417
19.595623
72.644949
154.054761
329.594612
514.620543
716.506839
952.433944
1015.769839
1015.769839
1015.699506
829.584599
642.138720
390.623808
242.215991
111.377835
57.937503
26.599765
24.369955
36.933422
50.749779
73.465705
87.900758
102.669597
110.862851
112.070441
105.683804
89.000463
73.658824
52.705407
38.571954
24.590492
17.343760
13.145804
11.212826
10.264516
10.453463
10.172725
10.349751
9.912848
9.908676
9.558797
9.619594
9.734631
10.312796
9.646416
9.478927
9.301901
9.213686
9.204745
8.797646
8.230805
8.143783
8.086562
7.579923
7.080436
7.080436
6.812811
6.549954
6.398559
6.049871
5.947948
5.645752
5.310774
5.685687
5.477667
5.483627
5.610585
5.165935
5.182624
5.088449
5.266666
##ZVALUE=290
0.651479
0.482798
0.531673
0.563860
0.583529
0.538826
0.588894
0.715852
0.715852
0.749826
0.816584
0.635982
0.605583
0.549555
0.578761
0.803471
0.795722
0.758767
0.909567
0.774860
0.972748
1.104474
1.216531
1.343489
1.714826
1.849532
2.111793
8.432865
44.036508
103.402734
241.542459
407.485962
611.822009
888.320804
1014.554501
1015.774608
1015.774608
926.909447
749.504566
495.603681
324.817896
158.927441
81.223845
30.524731
18.734932
23.108721
32.194853
49.179792
63.960552
83.731413
97.505450
109.129548
110.363960
102.878809
89.960694
70.208907
53.317547
36.474466
27.347803
18.602610
14.945865
12.094975
11.618733
10.885596
10.724664
10.491610
10.276437
10.118484
10.245442
10.619760
9.972453
10.022521
9.567738
9.724498
9.414554
8.707643
8.826852
8.011460
7.466674
7.492900
6.847978
6.463528
6.678700
6.349683
6.059408
6.163716
5.874634
6.009936
5.620718
5.455613
5.566478
5.539656
5.491972
5.321503
4.931688
5.053878
##ZVALUE=295
0.447631
0.277758
0.500679
0.314713
0.589490
0.456572
0.611544
0.572801
0.385642
0.544786
0.566840
0.587702
0.621676
0.698566
0.596642
0.535846
0.748634
0.878572
0.736713
0.906587
0.817776
0.977516
0.957847
1.103878
0.984669
1.352429
1.245737
1.397729
1.700521
3.494620
20.823479
67.036748
152.891874
347.606540
539.662838
810.802579
968.564749
1015.757918
1015.757918
986.292958
832.265019
591.062903
403.587818
206.264853
112.773776
43.690801
21.482706
15.791655
20.130873
31.767488
44.655800
63.896775
79.520941
95.985532
102.493763
104.264617
98.713636
84.144473
71.404576
52.125454
39.578676
26.043653
20.127892
14.514923
12.430549
11.316538
10.560751
10.501742
10.326505
10.482669
10.127425
10.036826
9.926558
9.279847
9.206533
8.792877
8.733869
8.321404
8.069873
7.266998
7.214546
6.841421
6.419420
6.548762
6.251931
5.889535
5.815625
5.569458
5.278587
5.427599
5.266666
5.095601
4.956722
4.868507
4.974604
4.945993
##ZVALUE=300
0.486970
0.441670
0.459552
0.543594
0.588894
0.548959
0.389814
0.457764
0.500679
0.637770
0.608563
0.527501
0.449419
0.519753
0.469685
0.571609
0.603795
0.747442
0.602603
0.785589
0.716448
0.945926
0.821948
0.892878
1.038909
0.946522
1.104474
1.237988
1.193881
1.412630
1.518726
1.975894
6.470680
42.604804
108.188987
264.848471
430.293679
685.948730
863.991976
1014.202833
1015.774012
1015.774012
911.361575
683.964491
499.826670
277.680755
162.448883
72.222948
35.691857
15.817881
14.596581
20.961761
29.165745
44.530630
58.115721
77.625513
90.329647
99.589825
102.140903
94.501972
83.326697
67.035556
53.200722
38.178563
27.936697
18.529892
14.943480
12.155771
10.943413
10.537505
10.233521
9.480715
9.513497
9.103417
8.672476
8.844733
8.490682
7.647872
7.482767
7.634759
6.860495
6.472468
6.245971
6.248951
6.081462
6.031990
5.804896
5.464554
5.338788
5.237460
5.198717
5.128980
4.960895
4.981756
4.830956
4.874468
##ZVALUE=305
0.425577
0.392795
0.562668
0.388622
0.459552
0.597835
0.533462
0.368953
0.375509
0.598431
0.521541
0.497699
0.408888
0.398755
0.426769
0.610948
0.764728
0.681877
0.608563
0.548959
0.554919
0.515580
0.798702
0.697970
0.752807
0.870824
0.760555
1.012683
0.926852
1.108646
1.274943
1.494884
1.447797
1.903772
3.399849
25.971532
75.528622
202.226639
348.621011
595.005751
779.369473
978.511572
1015.774608
1015.774608
967.009664
759.114623
586.078763
364.243984
226.009488
104.633570
53.485632
21.163821
13.887882
15.284419
20.230412
30.760765
41.534901
59.067607
71.315765
86.047649
92.925429
94.270706
89.363456
77.602863
64.190626
48.202872
35.898685
25.008917
17.994642
12.832880
10.757446
10.116696
9.208918
8.503795
8.386970
7.818937
7.699728
7.421970
7.345676
6.483793
6.785989
6.219745
5.956888
5.695820
5.918741
5.799532
5.382895
5.475879
4.961491
4.970431
4.709959
4.962683
4.701614
4.536510
4.619956
4.602671
##ZVALUE=310
0.545979
0.508428
0.269413
0.370741
0.329614
0.420809
0.358820
0.575781
0.507832
0.462532
0.540614
0.559688
0.484586
0.425577
0.621676
0.533462
0.487566
0.446439
0.533462
0.672936
0.567436
0.518560
0.562668
0.757575
0.710487
0.680685
0.674725
0.790954
0.932813
0.896454
0.993609
0.973940
1.126528
1.443624
1.333952
1.514554
1.856685
11.171699
40.054917
133.147836
250.884891
474.141836
663.718581
889.392495
1008.450985
1015.774012
1015.774012
880.802870
717.179775
472.702980
313.133001
155.459642
81.681609
31.257868
16.127825
12.205839
14.289618
19.265413
25.592446
38.302541
50.380826
66.892505
76.782703
85.715652
87.806582
82.919002
74.372888
59.467554
47.366619
32.760501
23.345947
15.546679
12.061596
8.941889
7.734895
7.144809
6.774664
6.426573
6.198883
5.875826
5.604625
5.660653
5.074739
5.305409
5.115867
4.553795
4.896522
4.990697
4.992485
4.758835
4.602671
4.399419
4.415512
4.377961
4.197955
4.108548
##ZVALUE=315
0.374913
0.375509
0.351667
0.414848
0.256896
0.427961
0.300407
0.435710
0.434518
0.382662
0.475645
0.510812
0.404716
0.429749
0.493526
0.363588
0.593662
0.407696
0.457764
0.523925
0.470877
0.588894
0.576973
0.644922
0.607967
0.645518
0.687838
0.722408
0.794530
0.787973
0.775456
0.948906
0.833869
0.898838
0.998974
1.061559
1.271963
1.392961
1.421571
4.655719
20.547509
87.277889
186.467767
389.492512
578.527451
816.237926
955.571532
1015.774012
1015.774012
940.394998
795.278549
565.183759
396.533608
209.337473
114.587545
43.022633
19.734502
11.148453
10.785460
12.844801
16.088486
24.870634
33.013821
46.515465
56.985617
71.383715
77.584982
78.851581
76.745749
66.362619
55.154562
41.742921
31.812787
20.147562
14.306903
9.505749
7.613897
6.084442
5.442500
5.102754
5.158782
5.163550
4.761815
4.547834
4.393458
4.547834
4.467964
4.415512
4.370809
4.458427
4.243851
3.989935
4.128814
3.900528
4.098415
4.147887
##ZVALUE=320
0.447631
0.367761
0.370741
0.341535
0.303984
0.419617
0.372529
0.336766
0.296831
0.367761
0.212789
0.219941
0.489950
0.503659
0.418425
0.465512
0.441670
0.493526
0.588894
0.521541
0.454783
0.467896
0.504851
0.534654
0.642538
0.522733
0.604987
0.544786
0.689626
0.700951
0.816584
0.718832
0.708699
0.865459
0.952482
0.911951
0.994802
1.020432
1.328588
1.226664
1.400709
2.032518
8.733869
51.961541
128.789544
301.398635
463.333726
690.822005
855.662823
1003.915668
1015.778780
988.646746
880.256891
665.170550
483.677983
267.305970
154.208541
65.296888
30.809641
11.113882
8.793473
8.653998
10.257959
13.656616
18.590689
29.056668
38.426518
52.419901
62.750578
71.193576
73.220730
69.682598
62.705874
50.220490
38.771629
26.264787
18.945932
11.678934
8.105636
5.825758
4.796982
4.468560
4.077554
4.264712
3.965497
4.212856
4.060864
3.852844
3.930926
3.791451
3.764629
3.827810
3.664494
3.668666
3.969669
3.892779
##ZVALUE=325
0.403523
0.261664
0.333786
0.267625
0.205636
0.416636
0.259876
0.288486
0.292659
0.302792
0.459552
0.405908
0.308752
0.421405
0.424981
0.303984
0.351667
0.287890
0.429749
0.400543
0.462532
0.337958
0.407696
0.514984
0.545979
0.516772
0.470877
0.576973
0.608563
0.572801
0.757575
0.673532
0.575781
0.714660
0.544786
0.687838
0.524521
0.880957
0.811815
0.944734
1.202822
1.350641
1.368523
1.857877
4.181862
34.298897
89.432001
215.723515
359.501839
603.143573
774.341822
943.638682
1009.982824
1007.424593
911.013484
712.611675
538.677573
328.933001
196.946859
85.289478
40.754676
13.842583
7.404685
6.358624
6.595850
8.034706
10.723472
17.294884
24.990439
38.055778
47.922730
59.367418
64.842701
67.094564
63.867569
54.075718
45.758486
32.803416
24.502873
15.131831
10.222793
6.500483
4.995465
3.998876
3.688931
3.602505
3.721714
3.765821
3.401637
3.454685
3.498793
3.589988
3.648996
3.644824
3.620982
3.535748
##ZVALUE=330
0.358820
0.189543
0.312924
0.253916
0.294447
0.377893
0.285506
0.323653
0.345707
0.398755
0.485778
0.387430
0.332594
0.452995
0.362992
0.246763
0.168681
0.337958
0.464916
0.437498
0.371933
0.490546
0.476837
0.359416
0.497699
0.429749
0.582933
0.468493
0.417829
0.455976
0.451803
0.522733
0.638962
0.558496
0.647902
0.832677
0.527501
0.711679
0.717640
0.755787
0.774860
0.955462
0.973940
1.135468
1.319647
1.655817
2.137423
15.050769
50.615668
153.031945
274.412632
489.626527
660.010576
858.992934
963.315964
989.053845
928.202868
761.009455
606.010556
394.164920
250.276923
114.551783
58.202744
21.160841
9.032488
5.357862
5.125999
5.680919
6.877780
10.664463
15.170574
24.263859
31.980872
45.055747
53.153634
61.410666
61.718822
58.849454
52.026510
40.407777
31.142831
20.512938
14.608502
10.006428
7.071495
4.952550
4.173517
3.450513
3.312826
3.279448
3.285408
3.353953
3.300905
3.290772
3.241897
3.527999
##ZVALUE=335
0.192523
0.122786
0.250936
0.099540
0.148416
0.278950
0.196695
0.253916
0.333786
0.349879
0.374913
0.301600
0.337958
0.166893
0.325441
0.231862
0.290871
0.258684
0.378489
0.205636
0.276566
0.307560
0.105500
0.269413
0.408888
0.378489
0.291467
0.447631
0.418425
0.313520
0.453591
0.403523
0.407696
0.483990
0.375509
0.499487
0.506639
0.703931
0.657439
0.686646
0.725985
0.778437
0.800490
0.850558
0.930429
0.876784
1.193881
1.353621
1.684427
6.102920
26.720762
101.709962
199.151635
406.570435
603.502989
843.925476
967.542529
1015.697718
988.059640
836.309791
688.297749
468.218923
314.566493
163.454413
84.768534
28.895736
11.796951
5.620718
4.857779
4.669428
5.391836
6.891489
9.175539
15.195608
21.845698
32.284856
40.599704
50.221682
55.423975
55.877566
53.625703
46.308637
38.639903
29.744506
22.453666
14.773607
10.016561
6.680489
5.162954
4.078746
3.974438
3.602505
3.623962
3.912449
3.781915
4.051924
##ZVALUE=340
0.199676
0.215769
0.190735
0.330806
0.178814
0.121593
0.284910
0.183582
0.285506
0.312924
0.218749
0.223517
0.370741
0.232458
0.262856
0.281930
0.393987
0.419617
0.394583
0.461936
0.387430
0.283718
0.220537
0.431538
0.278950
0.367761
0.478625
0.397563
0.437498
0.371933
0.535846
0.397563
0.587702
0.688434
0.563860
0.464916
0.571609
0.590682
0.611544
0.448823
0.689626
0.630617
0.597835
0.885725
0.987649
0.946522
1.010895
1.139641
1.153946
1.212955
1.399517
2.990961
12.268424
64.272881
146.238804
326.462984
518.219471
781.767964
936.184525
1015.774012
1015.774012
931.342840
776.447654
552.996993
381.479859
195.491910
107.364655
43.841600
17.497540
6.438494
5.288720
4.865527
4.785657
5.271435
6.135702
9.465814
13.636947
20.745993
28.109550
38.766861
45.958757
51.071644
52.266717
49.711466
45.740604
37.159920
29.486418
21.019578
15.848875
10.414720
7.537603
5.488992
4.950762
5.054474
5.358458
5.819798
##ZVALUE=345
0.297427
0.206828
0.211596
0.283718
0.273585
0.301600
0.253916
0.395775
0.391603
0.361800
0.341535
0.225902
0.118613
0.220537
0.234842
0.313520
0.287890
0.298619
0.283718
0.272989
0.421405
0.299811
0.394583
0.448823
0.430942
0.433922
0.331998
0.478625
0.485778
0.507832
0.491738
0.444651
0.356436
0.419617
0.579953
0.636578
0.631809
0.642538
0.767708
0.452995
0.747442
0.627637
0.630617
0.550747
0.789762
0.978708
0.945926
0.865459
1.006722
0.969768
1.086593
1.044869
1.310706
1.781583
5.401969
39.054751
100.101829
236.784816
398.499966
672.399998
868.659616
1015.774012
1015.774012
1015.774012
908.401608
649.299026
464.140773
266.056657
147.105455
58.196783
26.389956
8.903742
5.564690
5.012751
4.481673
4.271865
4.516840
5.778670
7.706881
12.420416
17.735958
26.698709
33.116937
41.760802
45.937896
48.491955
47.481656
41.888952
36.939979
29.300451
22.569895
16.491413
13.020635
10.546446
9.931922
9.899735
##ZVALUE=350
0.202656
0.461936
0.307560
0.317693
0.277758
0.296831
0.374913
0.423789
0.252724
0.207424
0.415444
0.355840
0.229478
0.378489
0.407696
0.299811
0.297427
0.526905
0.476837
0.482798
0.258684
0.417829
0.496507
0.379682
0.569820
0.433922
0.462532
0.508428
0.445843
0.584722
0.276566
0.623465
0.639558
0.458956
0.573993
0.779629
0.545979
0.477433
0.508428
0.656843
0.616908
0.605583
0.786781
0.820756
0.871420
0.703931
0.768900
0.813603
0.946522
0.946522
1.012683
1.059771
1.239777
1.278520
1.383424
1.781583
2.819896
19.162893
60.033798
169.531703
296.382904
543.021560
759.938955
1005.294919
1015.851498
1015.851498
1015.851498
825.930834
590.052605
324.160457
189.297795
83.533525
38.983822
11.631846
5.931854
4.692674
4.334450
3.795624
3.826618
4.267693
5.212426
7.850528
11.095405
16.413927
21.747947
30.519962
36.236644
42.476654
44.643879
44.423938
41.926503
36.304593
31.642914
25.296807
21.703839
18.326640
##ZVALUE=355
0.284910
0.411868
0.250936
0.280738
0.360608
0.254512
0.332594
0.316501
0.344515
0.296831
0.164509
0.231862
0.273585
0.254512
0.194907
0.420809
0.390410
0.357628
0.374913
0.360608
0.313520
0.288486
0.373721
0.362992
0.304580
0.381470
0.398755
0.445843
0.448823
0.387430
0.355840
0.423789
0.475645
0.427961
0.357628
0.360608
0.455976
0.507832
0.624657
0.580549
0.417829
0.592470
0.601411
0.514984
0.666976
0.684857
0.665784
0.657439
0.742674
0.711679
0.685453
0.784993
0.795722
0.870824
1.003742
1.263618
1.267791
1.291633
1.723766
8.860826
34.120679
117.346644
216.661692
395.721793
560.508966
772.735476
883.736610
944.371819
910.387635
750.515461
593.079925
379.504561
240.342617
104.904771
49.702525
15.345812
6.602407
4.339814
3.967881
3.713965
3.423691
3.510714
3.625751
4.361868
6.042719
9.463429
13.385415
19.982457
25.325418
32.280684
36.739707
39.853454
40.379763
36.439896
32.887459
26.617646
##ZVALUE=360
0.309944
0.293851
0.174642
0.291467
0.409484
0.308752
0.357628
0.262856
0.286698
0.294447
0.313520
0.355840
0.295639
0.363588
0.413656
0.374913
0.274777
0.409484
0.433922
0.332594
0.266433
0.307560
0.277758
0.512600
0.360608
0.447631
0.419617
0.217557
0.324845
0.411868
0.406504
0.324845
0.500679
0.532866
0.444651
0.419617
0.369549
0.413656
0.502467
0.579953
0.434518
0.336766
0.572801
0.551939
0.677705
0.712872
0.643730
0.496507
0.664592
0.694990
0.662804
0.574589
0.922680
0.768900
0.933409
0.947714
1.023412
1.021624
1.294613
1.488924
1.569986
3.593564
15.167594
65.876842
143.715739
307.203531
454.142690
634.030700
755.693913
839.816928
839.563012
756.863952
636.946559
434.288979
291.591883
141.329765
73.190928
26.162863
10.312796
4.209876
3.739595
3.578663
3.249645
2.877712
2.966523
3.059506
3.374815
5.430579
6.930828
11.324883
15.148520
22.007823
27.227998
32.625794
35.678744
36.118627
##ZVALUE=365
0.125766
0.201464
0.082850
0.032783
0.107884
0.142455
0.213981
0.160933
0.039935
0.023842
0.357628
0.207424
0.169873
0.286698
0.430942
0.112653
0.129938
0.148416
0.157952
0.244975
0.202656
0.202656
0.164509
0.214577
0.222921
0.329614
0.130534
0.160933
0.284910
0.263453
0.379682
0.227690
0.212789
0.348687
0.220537
0.272989
0.290871
0.329614
0.326633
0.390410
0.576973
0.506639
0.322461
0.339746
0.397563
0.441670
0.450611
0.512600
0.381470
0.591874
0.460744
0.436902
0.425577
0.659823
0.692606
0.612736
0.457764
0.635982
0.773668
0.763535
1.223683
1.287460
1.361966
1.864433
5.930662
39.429665
95.754862
218.204856
357.056856
561.446548
688.969493
797.016621
824.695826
772.579908
673.284531
491.392612
352.232456
195.045471
105.654001
36.750436
14.233589
4.542470
3.397465
3.021955
2.948642
2.531409
2.468824
2.490878
2.529621
2.992749
3.861785
6.168485
8.657575
13.306737
17.880797
23.214817
##ZVALUE=370
0.279546
0.261664
0.255704
0.085831
0.313520
0.310540
0.336766
0.324845
0.300407
0.289679
0.274777
0.277758
0.441670
0.197887
0.242591
0.463724
0.272989
0.179410
0.427961
0.186563
0.237823
0.206828
0.420809
0.337958
0.264645
0.268817
0.412464
0.437498
0.368953
0.334978
0.354648
0.354648
0.443459
0.395775
0.334978
0.124574
0.303984
0.271797
0.304580
0.396967
0.506639
0.483990
0.350475
0.387430
0.622869
0.417829
0.512600
0.360608
0.369549
0.485778
0.636578
0.670552
0.434518
0.446439
0.572801
0.623465
0.824928
0.583529
0.838637
0.827909
0.936985
0.881553
0.852942
1.045465
1.308918
1.457930
3.128648
15.854836
76.559782
161.942840
326.444507
464.332700
636.986494
746.150613
815.192461
802.967548
703.569651
577.616692
390.735865
254.619718
118.924975
60.379505
21.450520
8.510947
3.686547
3.151894
2.898574
2.732873
2.609491
2.373457
2.374649
2.376437
2.772808
3.544688
5.276799
7.599592
##ZVALUE=375
0.300407
0.399947
0.241995
0.306964
0.190735
0.276566
0.339746
0.333786
0.297427
0.314713
0.345707
0.205636
0.132918
0.213981
0.073910
0.297427
0.208616
0.216961
0.198483
0.328422
0.360608
0.315905
0.278950
0.430942
0.420809
0.389814
0.463724
0.445843
0.186563
0.354648
0.481606
0.400543
0.233650
0.590682
0.376701
0.427961
0.388622
0.421405
0.371933
0.365973
0.550747
0.429749
0.464916
0.415444
0.504851
0.461936
0.398755
0.407696
0.219941
0.491738
0.420809
0.673532
0.511408
0.419617
0.560880
0.693798
0.595450
0.623465
0.629425
0.680685
0.777841
0.669956
0.812411
0.759959
0.822544
0.978708
1.091957
1.251698
1.472831
9.667873
35.580993
113.649964
212.408900
402.292013
550.458431
710.259676
784.584880
805.164576
753.661990
608.388782
469.763875
285.707712
179.129839
88.998675
43.492913
13.245940
5.374551
2.866983
2.874732
2.754927
2.464652
2.170801
2.091527
2.198815
2.063513
2.449751
##ZVALUE=380
0.192523
0.275970
0.244975
0.221729
0.204444
0.252724
0.142455
0.181794
0.393987
0.320673
0.123978
0.342727
0.265837
0.299811
0.119805
0.319481
0.202656
0.286698
0.188947
0.176430
0.252724
0.240803
0.155568
0.190735
0.281930
0.249743
0.375509
0.302792
0.340939
0.343919
0.308752
0.298619
0.259876
0.205636
0.319481
0.318885
0.351667
0.308752
0.375509
0.292659
0.318885
0.374913
0.209808
0.323653
0.427961
0.518560
0.352859
0.266433
0.285506
0.452995
0.364780
0.431538
0.421405
0.453591
0.471473
0.481606
0.324845
0.527501
0.525713
0.402927
0.531673
0.446439
0.473857
0.655651
0.734925
0.685453
0.608563
0.928640
1.184940
1.151562
1.533628
4.201531
19.398928
82.667470
170.612931
336.028934
477.856994
639.786720
739.450455
795.621872
766.285658
641.895533
525.389910
363.327861
242.020488
117.505789
59.398413
20.889640
8.359551
3.553629
2.841949
2.584457
2.464652
2.194643
2.113581
1.990795
##ZVALUE=385
0.212789
0.164509
0.290871
0.225902
0.247955
0.175834
0.260472
0.311732
0.266433
0.231862
0.254512
0.230670
0.186563
0.237823
0.132918
0.277758
0.236630
0.239611
0.215769
0.306964
0.293851
0.377893
0.145435
0.252724
0.362992
0.289679
0.216961
0.372529
0.378489
0.342727
0.300407
0.405908
0.454783
0.275970
0.403523
0.377893
0.414848
0.285506
0.422597
0.220537
0.425577
0.337958
0.407696
0.358820
0.434518
0.412464
0.523925
0.412464
0.412464
0.445843
0.433922
0.451803
0.424981
0.331998
0.569820
0.531673
0.462532
0.458956
0.436902
0.441670
0.549555
0.523925
0.609756
0.748634
0.681877
0.670552
0.808835
0.809431
1.031756
1.101494
0.957847
1.176000
1.327991
1.991987
8.738637
50.637722
116.615891
247.737765
384.079814
569.003820
681.734681
765.985847
766.911507
705.728531
609.014630
442.444682
311.980844
168.056488
95.599890
38.653612
15.508533
4.629493
2.890825
2.570748
2.293587
2.342463
##ZVALUE=390
0.199676
0.174642
0.326633
0.219941
0.202656
0.236630
0.235438
0.124574
0.172853
0.122786
0.169873
0.307560
0.180602
0.315905
0.276566
0.248551
0.228882
0.223517
0.224710
0.302792
0.204444
0.284910
0.351667
0.365973
0.262856
0.368953
0.238419
0.411868
0.224710
0.431538
0.350475
0.254512
0.283718
0.367761
0.282526
0.270605
0.461936
0.286698
0.376701
0.355840
0.282526
0.293851
0.317693
0.389814
0.426769
0.356436
0.282526
0.300407
0.354648
0.297427
0.401735
0.539422
0.415444
0.400543
0.341535
0.559688
0.386834
0.594854
0.570416
0.440478
0.356436
0.441670
0.583529
0.430942
0.496507
0.829697
0.595450
0.793934
0.765920
1.021624
0.841618
1.173615
1.197457
1.174808
1.231432
1.270771
3.895760
28.166771
79.106688
201.145411
328.027606
514.971018
627.144575
727.598667
769.211650
748.621821
674.362779
527.693629
401.764512
243.226886
139.001608
56.325793
24.914742
6.971955
3.273487
2.539754
##ZVALUE=395
0.219941
0.254512
0.188947
0.139475
0.323653
0.209808
0.313520
0.205636
0.102520
0.164509
0.175834
0.172853
0.107884
0.282526
0.140667
0.140667
0.204444
0.230670
0.125766
0.267625
0.279546
0.254512
0.174642
0.122786
0.211596
0.227690
0.242591
0.345707
0.292659
0.443459
0.462532
0.386834
0.403523
0.268817
0.401735
0.356436
0.284910
0.282526
0.205636
0.405908
0.276566
0.463724
0.541806
0.469685
0.471473
0.310540
0.553727
0.286698
0.408888
0.346899
0.326633
0.326633
0.433922
0.443459
0.417829
0.349879
0.462532
0.487566
0.481606
0.442863
0.591874
0.480413
0.459552
0.669956
0.585914
0.546575
0.635982
0.615716
0.852942
0.814795
0.889897
0.839829
0.840425
0.769496
0.937581
0.990629
0.909567
1.078844
1.836419
16.366839
55.848956
157.859921
262.469649
422.015786
550.718904
694.824457
766.171813
786.062479
740.298629
618.456602
480.647683
296.490788
182.104707
78.738928
37.180781
11.739731
##ZVALUE=400
0.315905
0.217557
0.351667
0.387430
0.132918
0.200868
0.205636
0.201464
0.057817
0.182986
0.224710
0.297427
0.219941
0.198483
0.126958
0.064969
0.218749
0.178814
0.188947
0.207424
0.170469
0.400543
0.235438
0.228882
0.242591
0.315905
0.315905
0.221729
0.317693
0.216961
0.297427
0.287890
0.353456
0.404716
0.325441
0.390410
0.414848
0.395775
0.317693
0.411868
0.486970
0.373721
0.317693
0.274777
0.319481
0.343919
0.353456
0.392795
0.379682
0.521541
0.385642
0.417829
0.446439
0.507832
0.292659
0.404716
0.523925
0.490546
0.431538
0.504851
0.460744
0.588894
0.483990
0.533462
0.579953
0.604987
0.670552
0.667572
0.765920
0.827909
0.759959
0.845790
0.891685
0.842810
0.820756
0.958443
0.901818
0.928640
1.016855
1.258850
1.309514
7.960796
31.957626
105.570555
196.014643
360.519886
491.486788
635.069609
723.885894
777.194500
756.197572
647.562742
530.978441
365.670919
240.269899
119.815469
##END
