##TITLE=FQP00601
##FORMAT=SPECTACLE-ASCII V-1.2
##DATA TYPE=ULTRAVIOLET SPECTRUM
##SECOND TYPE=ULTRAVIOLET SPECTRUM
##DATE=11/14/17
##TIME=15:35:10
##SPECTROMETER/DATA SYSTEM=SPECTACLE
##XUNITS=NM EM
##YUNITS=ENERGY
##YFACTOR=1
##FIRSTX=220
##LASTX=410
##NPOINTS=96
##3DDATA=Equidistant
##ZUNITS=NM EX
##FIRSTZ=210
##LASTZ=400
##ZPOINTS=39
##XYDATA=(Y..Y)
##ZVALUE=210
4.047751
4.076958
3.957748
3.174543
3.717542
4.518628
4.825592
4.178882
3.892779
3.702641
3.361702
2.909899
2.603531
3.018975
2.533793
2.570748
2.986789
3.147721
3.683567
3.538728
4.225969
3.929734
3.815889
4.863739
4.725456
4.993677
6.197691
6.103516
6.014705
6.290674
7.259846
8.125901
7.372499
8.584857
8.255839
8.440614
7.395744
8.554459
7.758737
8.386970
8.915663
8.779764
8.940697
9.318590
8.771420
8.208752
9.240508
9.218454
9.777546
8.799434
9.894967
9.636879
8.676648
10.596514
10.231733
10.420680
9.518862
9.531975
9.215474
9.906888
9.821653
8.944869
10.117888
8.969903
10.268688
10.506511
11.615753
11.394620
14.030933
14.500618
16.856790
21.279454
22.690892
26.012659
27.662516
30.653477
33.242702
31.474829
32.442808
31.355619
26.505589
21.603703
18.809438
17.386675
14.883876
10.534525
9.783506
10.098815
9.282827
8.678436
9.531975
9.341836
9.259582
9.418726
10.757446
9.213686
##ZVALUE=215
10.702610
11.624694
9.151697
10.562539
9.609461
7.320642
6.519556
6.917715
7.246733
7.820725
7.564425
6.785989
5.588531
5.013943
4.350543
3.751516
3.131628
3.997684
3.146529
3.547668
4.048944
4.003644
4.185438
4.782677
4.508495
5.061626
6.733537
6.719828
7.634759
8.240938
7.920861
8.801818
8.779764
9.120703
10.023713
10.110736
9.426475
9.867549
9.503961
8.783937
10.869503
9.571910
8.958578
10.243654
10.119677
10.452867
10.475516
10.336637
11.028647
10.508895
10.637641
11.572838
10.459423
11.267662
10.046959
11.272430
10.363460
11.834502
10.575652
10.749698
12.054443
11.788607
11.148453
9.784698
11.721849
11.894703
11.465549
13.237000
13.918877
15.456676
19.858479
19.480586
24.178624
26.174784
27.503967
28.764606
32.421947
31.118989
29.451847
27.797818
26.138425
24.411678
19.118786
17.420650
14.747977
13.622642
11.555552
11.534691
9.611845
9.899735
9.531975
9.031892
9.798408
9.197593
8.976460
9.453893
##ZVALUE=220
26.998520
31.181574
32.228827
34.211874
30.213594
28.926730
23.075938
16.243458
13.815761
13.584495
15.133619
15.338659
15.766621
14.448762
12.265444
9.414554
6.936789
5.509853
5.000830
3.429651
4.459620
4.290938
4.849434
5.696416
5.556941
6.302595
6.918907
8.057952
7.888675
8.657575
9.394884
10.878444
9.936690
11.501908
10.696650
11.496544
12.564659
11.913776
12.254715
12.074709
12.937784
11.640787
12.647510
11.990666
10.860562
10.844469
12.034774
11.536479
12.592673
11.963844
14.060736
12.997985
12.698770
13.149977
12.429953
13.244748
12.990832
12.746453
12.100935
12.443662
12.640953
13.619661
14.455914
13.596416
14.375448
14.121532
13.423562
16.266704
15.779734
18.715858
19.211769
21.117926
24.220943
30.548573
29.378533
32.718778
34.106970
33.177733
33.404827
30.894876
26.960969
23.021698
20.781755
18.478632
16.706586
14.908910
13.607740
12.206435
11.785626
12.253523
11.688471
12.921691
12.056828
11.316538
11.642575
11.643767
##ZVALUE=225
38.835406
43.596625
58.252811
81.930757
92.290640
99.624991
90.762973
74.043870
56.622624
45.070648
29.921532
25.692582
27.241707
27.299523
27.693510
25.524497
22.060871
18.423796
14.919639
10.739565
7.631779
6.141663
5.196929
6.149411
5.754828
6.738901
6.902814
8.160472
8.697510
9.083748
8.786917
10.648966
11.033416
11.557937
12.716651
13.097525
12.577772
11.430979
11.449456
11.998415
13.528466
14.254451
12.924671
14.432669
12.418628
13.644695
15.725493
15.544891
13.309717
14.417768
16.754866
15.669465
16.179681
15.899539
16.688704
18.395782
16.325712
17.025471
17.647743
18.241405
18.589497
18.734932
17.946959
19.078851
19.342899
18.484592
20.439625
19.412637
21.350980
22.874475
23.765564
25.333762
29.049516
33.438802
31.408668
33.310652
32.816529
33.417940
33.355951
29.632449
28.866529
24.649501
24.762750
23.235679
21.912456
17.751455
18.100739
17.120838
17.775893
16.195774
16.242862
14.912486
15.653968
15.866756
15.461445
15.356541
##ZVALUE=230
31.192899
36.458969
59.887767
106.465816
141.117573
195.213556
225.270987
228.596926
216.140747
170.754790
127.956867
86.933970
56.684613
47.725439
42.918921
46.385527
47.573447
48.081875
44.803619
36.781430
29.276609
20.154715
13.462901
10.555983
8.137822
6.940961
7.657409
7.401705
8.070469
8.304715
8.851886
9.609461
9.685755
10.798573
11.860728
11.193752
10.938644
12.176633
12.715459
12.742877
14.128685
14.318824
14.208555
16.036630
16.182661
18.525720
19.147992
18.343925
19.196868
21.017790
21.371841
22.002459
21.924973
23.986697
24.220943
23.742914
24.513602
26.237965
23.865700
25.053620
24.485588
24.809837
26.844740
28.116703
27.453899
29.081702
29.641986
27.587414
30.387640
32.059550
33.067465
37.055612
36.510825
41.272640
41.012764
43.065548
40.913820
42.505860
40.047765
39.544702
36.392808
34.033656
31.952858
31.313896
27.273893
27.710795
26.320815
25.711656
24.842620
25.416613
23.560524
23.777485
21.989942
22.746921
22.021532
22.260547
##ZVALUE=235
10.379553
13.172626
25.458932
68.205595
116.459727
207.687616
282.112956
389.860868
451.740623
474.702716
423.172712
344.967842
233.549476
165.888667
100.976825
75.003505
60.904622
64.127445
75.155497
76.879859
71.968436
63.318610
51.613450
38.403869
28.778911
18.096566
13.852715
11.507869
10.375977
8.759499
9.612441
11.276603
11.213422
10.333657
11.732578
11.824965
12.330413
13.294816
14.597774
15.949607
17.364621
17.443895
18.163919
20.031929
22.566915
22.935867
25.490522
26.109815
29.866695
31.494498
31.062961
34.305453
34.826994
35.918951
35.888553
35.441518
35.034418
36.482811
38.140416
38.076639
39.710999
38.880706
41.177869
40.932894
40.635467
40.037632
40.929914
43.355823
42.679906
46.993494
48.353672
49.178600
52.093863
53.642988
52.226782
56.302547
53.162575
54.296851
53.382516
48.947930
46.758652
46.138763
43.531656
40.571690
41.113496
37.978888
39.132833
35.348535
33.318996
34.037828
35.199523
33.527613
31.176805
30.384660
29.139519
29.171705
##ZVALUE=240
1.962781
2.268553
4.788637
13.760924
39.778948
85.518956
187.226534
302.908421
496.576428
613.350868
731.600523
745.561719
703.369975
552.604795
421.599746
256.716609
176.951885
107.470751
82.314610
82.771778
91.806650
99.842548
96.673965
93.861818
81.539750
66.861510
47.665834
35.858750
26.281476
21.353960
14.633536
14.915466
13.956428
14.393926
13.415813
14.864802
14.809966
15.814900
17.085671
17.679930
20.422935
23.534894
24.936795
27.296543
29.527545
32.586455
36.265850
37.375689
40.920973
45.646429
45.897961
46.278834
47.701001
51.780939
48.779845
50.640702
52.385926
52.214861
53.049922
52.632689
54.075718
52.441955
53.173900
55.564642
50.774813
53.879619
53.024888
55.318475
56.379437
58.894753
58.342814
59.662461
62.283874
65.011978
64.760447
64.401627
65.589547
61.781406
60.511827
59.795976
56.174994
51.450729
53.509474
45.793653
47.481656
45.738816
44.791698
45.352578
42.908788
40.296912
43.965578
38.694739
39.064884
37.972927
36.842823
38.087964
##ZVALUE=245
1.651645
1.690984
2.260804
1.713634
3.686547
10.094643
36.353469
86.693764
206.286907
345.860720
576.274991
738.835931
880.341530
932.150483
899.159908
742.687583
591.282845
394.020677
262.750983
146.204829
97.080469
83.107948
95.618963
104.052424
117.834806
117.168427
102.680922
92.724562
74.960589
60.234666
47.118664
31.600595
23.362637
19.677877
16.641617
16.172528
15.745759
17.795563
18.539429
22.607446
21.355748
25.979877
27.440786
30.843616
35.096407
38.298965
38.560629
41.629672
46.710968
48.391819
51.321983
54.872632
53.695440
56.370497
59.327483
57.221651
58.523417
58.250427
55.935979
58.481693
59.364438
55.192709
58.184862
55.513978
54.628849
56.733489
54.496527
57.686567
55.379868
56.361556
55.545568
57.596564
59.925914
60.296655
62.835813
59.549809
60.878992
59.556961
57.810545
55.460930
53.378940
48.774481
47.917962
46.106577
45.764446
45.557618
43.544769
40.185452
39.556623
40.414929
40.975809
40.093660
37.437677
36.493540
34.597516
36.284924
##ZVALUE=250
1.606941
1.263618
1.488924
1.419783
2.146959
1.898408
2.674460
6.757975
31.019449
74.480772
197.722912
344.649553
532.044768
799.494982
971.879959
1015.774012
1015.774012
975.263715
813.596845
548.044443
359.609723
227.539539
117.087960
85.453987
86.024404
97.488761
114.423633
123.966932
120.483637
114.389658
102.372766
80.306530
64.103603
43.754578
32.820702
22.398829
20.816922
18.742681
17.740726
21.894574
22.446513
25.865436
28.682947
33.998489
34.532547
37.958622
41.036606
45.307875
45.535564
50.063729
52.601695
53.462982
54.254532
55.558681
54.686666
59.821606
56.733489
57.306886
55.594444
54.042935
54.937601
52.853823
53.369999
52.205920
51.173568
49.258471
48.659444
48.116446
52.067637
48.279762
48.022866
50.775409
51.595569
53.285956
51.074624
49.482584
49.867630
50.222874
46.707988
44.043660
44.110417
42.677522
40.995479
39.651990
38.959980
37.515759
37.541986
38.280487
36.723614
35.301447
35.004616
34.016967
32.866597
32.318830
34.176707
31.083822
##ZVALUE=255
1.390576
1.389980
1.248717
1.524687
1.567602
1.594424
1.780987
1.939535
1.995564
4.412532
21.895766
60.243607
135.519505
315.005779
506.315827
814.699531
1004.878879
1015.774012
1015.774012
1015.774012
1003.102660
798.733830
487.885475
304.025412
147.708654
96.147656
75.506568
81.593990
102.626681
116.623640
126.044750
127.170682
117.356777
103.152990
82.482696
59.050918
47.230721
31.202435
25.081635
21.127462
22.392869
24.364591
27.433634
30.507445
32.032728
36.773682
39.208531
41.824579
43.478608
47.731996
47.810674
50.473809
49.908757
50.394535
49.830675
50.622821
50.639510
49.371719
50.194860
48.104525
48.255920
45.272708
46.689510
45.032501
42.475462
43.790936
40.612817
40.157437
40.574670
39.071441
41.470528
41.138530
41.217804
42.550564
41.889548
41.373968
40.452480
40.461421
40.435791
37.105680
36.611557
34.461617
35.014749
33.395886
32.961965
34.051538
32.986999
31.994581
30.885935
31.534433
30.754805
29.896498
31.456947
30.931830
30.407906
28.993487
##ZVALUE=260
1.192689
1.218915
1.311898
1.167655
1.530647
1.554489
1.373887
1.561642
1.515746
1.800656
2.047420
2.720952
8.418560
39.891601
103.687644
267.531872
450.346470
760.826468
995.810628
1015.775800
1015.775800
1015.775800
1015.775800
988.759995
652.782917
436.603427
238.930583
138.575435
79.087615
69.043636
77.825785
98.591447
116.301775
125.224590
129.958987
117.645860
104.710460
84.000826
64.802766
45.590997
36.076903
27.951598
26.865602
28.350949
28.689504
31.847954
34.048557
35.462976
37.511587
40.114522
39.808750
41.624904
40.668845
42.357445
41.527748
42.100549
42.673945
41.036606
41.783452
38.844943
40.824413
38.391948
37.815571
37.938952
35.319924
35.038590
34.518838
35.055876
34.151673
34.104586
34.440756
34.335852
36.157966
34.993887
35.737753
35.572648
35.932660
34.447908
34.439564
32.421947
31.425953
30.578971
30.903816
28.581619
29.860735
27.598739
28.138757
28.372407
27.299523
28.276443
26.936531
26.903749
26.554465
26.802421
27.220845
25.565624
##ZVALUE=265
1.069903
1.147985
1.201630
1.195669
1.019835
1.347661
1.149774
1.589656
1.359582
1.458526
1.673698
1.825690
1.869798
2.280474
4.985929
28.628707
78.543425
217.045546
399.476886
758.707523
1012.022495
1015.774012
1015.774012
1015.774012
1015.774012
1015.774012
875.270963
607.728958
319.326520
187.219977
92.189908
62.330961
62.852502
84.724426
101.394653
122.867823
129.923820
129.067898
121.333599
102.220774
87.385774
65.708756
51.647425
38.671494
33.204556
30.747652
30.233860
30.795932
31.679869
32.190681
34.489632
35.422444
35.638809
34.267902
34.889579
34.482479
34.425855
33.966899
34.052730
34.042001
32.255650
32.264590
31.624436
32.871962
30.645728
30.736923
29.037595
30.749440
30.967593
30.194521
31.345487
30.171871
31.415820
33.490658
32.925606
31.007528
31.682849
31.084418
30.394793
29.259920
27.398467
27.511716
25.840998
26.054978
25.297999
25.973916
25.975704
26.448965
26.115775
24.575591
23.935437
25.221705
25.250912
23.915768
25.536418
23.608804
##ZVALUE=270
1.076460
0.953674
1.056790
1.153946
1.081824
1.123548
1.260638
1.113415
1.415610
1.277924
1.185536
1.510978
1.846552
1.759529
1.704693
2.068877
2.686977
13.001561
43.204427
166.293979
339.530706
587.682724
991.439819
1015.774012
1015.774012
1015.774012
1015.774012
1015.774012
1015.774012
806.228518
544.875860
280.951858
151.153803
66.633821
52.252412
64.698458
82.545877
105.037689
120.574832
134.747624
131.610632
122.680664
109.337568
85.931420
71.191788
52.406788
42.381883
34.221411
31.823516
30.167699
31.381845
31.234622
30.627847
31.736493
32.422543
30.877590
31.276941
31.315684
31.311512
31.861663
31.282902
30.187964
30.301809
29.187799
30.274987
28.245449
28.597713
28.341413
29.130578
30.237436
29.502511
30.795932
30.216575
30.335784
31.755567
30.586720
30.177832
28.933883
28.858781
27.521849
26.568770
26.159883
25.651455
25.003552
25.214553
24.295449
24.548769
24.090409
24.433732
23.983717
23.685694
23.750663
23.770928
22.859573
23.374557
22.812486
##ZVALUE=275
0.911951
0.776649
0.780821
0.804663
0.911951
0.992417
1.082420
0.890493
1.150966
1.255870
1.269579
1.367927
1.503825
1.556873
1.713634
1.883507
1.733899
1.974702
2.445579
4.680753
31.365752
105.605721
319.869518
568.710566
964.358449
1015.774012
1015.774012
1015.774012
1015.774012
1015.774012
1015.774012
972.617865
681.990981
363.968015
205.467939
86.694956
49.910545
47.780871
62.287450
85.870624
104.166865
123.906732
131.792426
132.202506
124.081969
106.868744
89.165568
71.391463
57.064891
42.934418
37.106872
31.408668
30.857921
29.641986
29.217601
30.282736
29.501915
29.898882
29.833913
30.435920
29.100776
30.416846
30.118823
28.433800
28.778911
28.879642
28.281808
29.313564
29.711723
30.129552
30.005574
30.122995
30.574799
30.057430
30.905604
30.252934
31.130910
29.536486
28.398633
28.280616
28.003454
26.008487
25.714636
25.858879
24.267435
24.513602
23.666620
23.748875
23.918748
24.652481
23.333430
23.118854
23.602843
22.160411
22.459626
21.994710
##ZVALUE=280
0.985861
0.847578
0.890493
0.905991
0.824928
1.011491
1.058578
1.003742
0.993609
0.982881
1.068711
1.105666
0.974536
1.241565
1.252890
1.541972
1.481771
1.709461
1.900792
2.061725
2.294779
2.998710
19.353628
81.257820
268.464684
477.984548
832.847953
1015.774012
1015.774012
1015.774012
1015.774012
1015.774012
1015.774012
1015.773416
841.191411
462.700725
268.923640
115.822554
60.246587
38.326979
44.646859
65.282583
82.308650
106.301904
118.482709
130.397677
128.367543
118.487477
108.280778
87.216496
70.778728
54.085851
44.230819
35.076737
31.909943
29.474497
29.248595
29.160976
29.390454
30.004978
29.386878
29.810667
29.643774
29.899478
30.116439
29.823780
29.812455
30.262470
29.994845
30.358434
30.797720
31.100512
31.049848
31.466484
31.238794
31.277537
29.924512
29.685497
28.888583
28.189421
27.405620
25.931597
25.764704
25.694966
25.293827
24.727583
24.109483
23.624897
23.808479
23.984909
22.606850
22.957921
22.257566
22.100806
22.085905
21.148920
##ZVALUE=285
0.806451
0.899434
0.726581
0.730753
0.652671
0.754595
0.730753
0.701547
0.808835
0.914931
0.938773
1.209974
1.227856
1.082420
1.389980
1.466870
1.329780
1.167655
1.710653
1.420975
1.826882
1.797676
2.347827
2.770424
10.426641
44.833422
174.137950
347.741842
686.993599
987.317562
1015.766859
1015.766859
1015.766859
1015.766859
1015.766859
1015.766859
1011.601686
645.779967
394.604802
179.691911
91.426969
38.048625
32.366514
45.118928
58.768988
82.449913
98.765492
116.179585
125.036836
125.299692
118.772984
104.355812
89.349747
70.535541
56.730509
42.914748
35.756826
32.206774
30.236840
30.092001
31.112432
30.199885
29.964447
30.291677
29.968619
31.159520
30.632615
30.750632
30.271411
31.193495
30.838847
31.550527
30.755997
30.579567
30.840635
30.077696
29.904842
29.050708
28.440952
28.490424
26.972890
26.253462
25.630593
25.753975
24.686456
24.620891
23.684502
23.548603
23.807883
23.898482
23.087859
23.204684
22.359490
21.462440
21.834970
20.749569
##ZVALUE=290
0.849962
0.842810
0.823736
0.881553
0.974536
0.877976
0.829697
0.961423
1.053810
1.103878
0.996590
0.841618
1.176596
1.135468
1.197457
1.188517
1.202822
1.371503
1.210570
1.403689
1.547933
1.706481
2.013445
2.304912
2.309680
2.672672
4.213452
17.609596
105.786920
253.064632
470.426679
868.958831
1015.861034
1015.861034
1015.861034
1015.861034
1015.861034
1015.861034
1015.860438
835.023522
545.040965
268.037915
138.477683
51.566958
29.003620
30.092597
39.194822
56.350827
73.450804
95.488429
110.296607
121.650696
125.308633
116.347671
105.125904
86.408854
71.604848
54.200888
46.195984
37.175417
33.751726
31.694770
30.345917
30.297637
30.744672
30.326843
31.563640
31.344891
31.750798
31.748414
31.689405
32.002926
32.184720
30.568838
31.140447
30.671954
29.412508
29.057860
28.460622
27.944446
26.473999
25.927424
26.379824
25.801659
24.934411
24.227500
24.772882
23.482442
23.874640
23.505688
23.148656
22.942424
22.221804
21.935701
21.793842
21.920800
##ZVALUE=295
0.772476
0.637770
0.598431
0.708699
0.854731
0.645518
0.832677
0.842810
0.750422
0.788569
0.703931
0.807643
1.102686
0.907779
0.887513
1.043677
1.239777
1.189709
1.372695
1.139641
1.543760
1.391768
1.505613
1.968741
1.920462
2.176762
2.271533
2.550483
3.062487
7.480979
59.389472
180.588961
389.645696
785.728693
1015.783548
1015.783548
1015.783548
1015.783548
1015.783548
1015.783548
1015.783548
989.357829
692.142844
350.808501
192.394853
71.508884
33.854842
22.274852
27.608871
40.051937
53.879619
74.313879
90.660453
109.551549
116.894841
117.395520
111.824870
99.777579
86.725950
68.560839
57.561994
44.766665
38.999915
33.469796
30.534863
29.894710
29.332638
30.182600
30.120611
30.273795
30.810833
30.712485
30.824542
30.587912
30.401945
29.665828
29.321909
29.073954
27.827621
27.631521
26.779771
26.128888
25.681853
25.128722
24.468899
24.488568
24.896860
24.134517
23.728609
23.903847
23.243427
23.091435
22.095442
21.462440
20.953417
20.945668
##ZVALUE=300
0.701547
0.627637
0.667572
0.665784
0.778437
0.731945
0.885725
0.742674
0.731945
0.866652
0.737906
0.872612
0.972748
0.892878
0.789762
0.892878
1.053810
0.967979
1.051426
1.159906
1.013875
1.191497
1.168847
1.463890
1.473427
1.619458
1.649857
1.810789
2.357960
2.465844
2.774000
3.566742
16.271472
128.535628
303.988457
649.410486
971.204638
1015.774608
1015.774608
1015.774608
1015.774608
1015.774608
1015.774608
1015.774608
873.088837
488.266945
286.430717
123.679638
59.517622
25.042892
22.233725
29.113889
38.010478
53.846836
69.361925
88.712573
102.397799
113.061666
115.903616
109.896660
100.240707
84.004998
69.655776
54.527521
46.005845
36.951900
32.906532
31.072497
29.530525
29.824972
30.481815
29.640794
29.435754
29.398799
29.706955
29.881001
28.497577
28.479695
27.778745
27.715564
27.137995
26.290417
26.664734
26.073456
25.449991
25.389791
24.749637
24.476647
24.071932
23.650527
23.965836
22.787452
21.824837
21.887422
22.285581
21.605492
##ZVALUE=305
0.598431
0.627637
0.596642
0.728965
0.683665
0.674725
0.759959
0.835657
0.543594
0.516772
0.864863
0.855923
0.820756
0.847578
0.838637
0.864863
0.879765
1.033545
0.848770
1.105666
0.928640
1.027584
1.054406
1.232624
1.420975
1.377463
1.566410
1.537800
1.604557
1.870990
2.171993
2.225637
2.766848
3.104806
8.184910
83.617568
230.051875
541.179776
852.046609
1015.774012
1015.774012
1015.774012
1015.774012
1015.774012
1015.774012
1015.774012
1003.716588
639.601946
398.333669
183.839798
93.525648
36.128759
23.912787
24.303794
29.460788
40.555596
53.435564
70.858598
84.420443
99.565983
107.134581
109.631419
105.596781
93.588829
81.025958
64.327717
54.076910
43.054819
36.568642
31.275749
30.660629
28.800964
29.037595
29.233694
28.883815
28.471947
28.148890
28.189421
27.248859
27.463436
26.905537
26.686788
26.295781
26.190877
25.851727
26.356578
25.852919
24.785995
25.391579
24.707913
24.062991
23.328662
23.356676
22.714734
21.967888
21.699667
##ZVALUE=310
0.698566
0.520945
0.740886
0.716448
0.753999
0.684857
0.820756
0.755787
0.864863
0.757575
0.737906
0.796914
0.804663
0.732541
0.702739
0.864863
0.861883
0.690818
0.849962
0.849962
1.085997
1.218915
1.096725
1.076460
1.288652
1.364946
1.314878
1.536608
1.524687
1.582503
1.811981
1.850724
2.110600
2.504587
2.626777
2.723932
4.727840
26.708841
166.499615
360.775590
733.226538
1014.409661
1015.836000
1015.836000
1015.836000
1015.836000
1015.836000
1015.836000
1015.836000
923.136473
523.298979
313.738585
139.520764
67.529678
27.950406
21.597743
24.329424
28.132796
37.734509
46.795607
64.582825
76.963902
90.508461
98.382831
102.669001
100.351572
89.655519
79.121590
62.242746
51.267743
41.156411
35.843849
30.544996
28.622746
27.371645
26.944876
26.430488
27.071834
26.394725
26.965737
26.772618
26.603937
26.878715
26.045442
26.334524
26.105642
26.321411
25.464892
25.194883
25.636554
23.862720
24.660826
23.669600
23.153424
23.203492
22.934675
##ZVALUE=315
0.971556
0.969768
0.845790
0.765920
0.856519
0.936985
0.831485
0.826716
0.943542
0.828505
1.018643
1.037717
1.079440
0.894666
1.031756
1.095533
1.161695
1.079440
1.020432
0.967979
1.020432
1.422763
1.122952
1.143813
1.303554
1.436472
1.311898
1.553893
1.470447
1.635551
1.579523
1.681447
1.961589
1.956820
2.181530
2.343655
2.749562
2.949834
3.281832
13.588667
73.827505
294.826031
553.575754
976.775885
1016.040444
1016.040444
1016.040444
1016.040444
1016.040444
1016.040444
1016.040444
1013.426781
752.691627
399.171710
221.718550
84.749460
38.835406
20.657778
20.183921
22.763610
26.803613
34.764409
42.555928
57.485700
69.541931
83.887577
91.575980
93.897581
92.262626
82.495809
72.427988
59.541464
49.549937
39.502978
33.640862
29.019713
27.316809
26.577711
26.358962
26.155710
25.929809
25.970936
26.272535
25.976896
26.414990
26.786923
26.511550
26.010871
26.340485
26.000738
25.306940
25.106668
24.441481
24.363995
23.529530
23.624897
##ZVALUE=320
0.714660
0.577569
0.541806
0.714660
0.503659
0.646710
0.721812
0.805855
0.711679
0.675917
0.614524
0.774860
0.758767
0.700951
0.890493
0.755787
0.905991
0.784993
0.816584
0.963807
1.006722
1.035929
0.872612
1.028776
1.140833
1.090765
1.245737
1.149774
1.334548
1.120567
1.188517
1.357794
1.444817
1.527667
1.813769
1.941919
2.022982
2.209544
2.565980
2.653599
3.102422
5.045533
30.878782
190.765858
424.751043
858.772993
1015.913486
1015.913486
1015.913486
1015.913486
1015.913486
1015.913486
1015.913486
1015.913486
935.093760
519.020557
301.412940
132.538676
61.301589
22.732615
16.261935
16.760826
18.372536
22.563934
27.716756
39.504766
49.394965
63.953996
74.107647
84.337592
87.832808
86.243749
80.152750
67.076683
57.766438
44.319630
36.729574
30.236840
27.683973
25.609732
25.340915
24.986863
25.180578
25.875568
25.471449
25.294423
25.188923
25.639534
25.261641
25.069714
25.237799
25.044680
24.321675
24.264455
23.934841
23.498535
##ZVALUE=325
0.522733
0.481606
0.418425
0.613928
0.535846
0.502467
0.579953
0.572801
0.640750
0.741482
0.707507
0.596642
0.442863
0.477433
0.593662
0.641942
0.523925
0.774860
0.779629
0.820756
0.795722
0.798702
0.851750
0.729561
0.785589
0.803471
0.862479
0.938773
0.956655
1.018643
1.163483
1.086593
1.032948
1.282692
1.422763
1.529455
1.712441
1.603961
1.921654
2.107620
2.244711
2.463460
2.859831
3.653765
13.322830
134.179592
328.974724
688.278675
995.785594
1015.774012
1015.774012
1015.774012
1015.774012
1015.774012
1015.774012
1015.774012
1004.884839
643.174648
391.572714
173.163414
83.045959
28.373599
14.867783
12.990832
13.432503
15.859604
19.497871
25.968552
34.633875
47.877431
59.086680
71.497560
79.460740
81.771612
78.786612
70.545673
62.351823
51.602721
42.550564
33.509731
29.490590
26.578903
25.150776
24.418831
24.449825
24.818778
24.030805
24.449825
24.452806
24.342537
24.184585
23.964643
24.161935
23.376942
23.553967
23.417473
##ZVALUE=330
0.541806
0.550747
0.487566
0.421405
0.550747
0.498891
0.320673
0.403523
0.466704
0.620484
0.495911
0.715852
0.607967
0.504851
0.704527
0.678897
0.591874
0.653863
0.644922
0.833869
0.637770
0.596642
0.760555
0.815988
0.668764
0.834465
0.730753
0.952482
0.858903
0.825524
0.939965
1.111627
1.066923
1.005530
1.188517
1.402497
1.461506
1.417994
1.522899
1.648664
1.604557
1.913905
2.236962
2.405643
2.672672
3.047585
5.465746
58.317780
196.082592
534.123778
860.185623
1015.774012
1015.774012
1015.774012
1015.774012
1015.774012
1015.774012
1015.774012
1015.774012
797.652602
510.642529
238.211751
121.182799
44.604540
18.924475
11.803508
11.970997
13.249516
15.100837
20.391941
25.498867
35.312772
44.353604
58.085918
67.023635
74.360967
76.415539
73.280931
68.529844
58.164001
48.847795
38.761497
33.987761
28.601885
25.804639
24.260879
24.194717
23.460984
23.703575
23.383498
23.079515
23.486614
22.743940
22.966862
22.678971
22.539496
##ZVALUE=335
0.422597
0.567436
0.466704
0.500679
0.650883
0.525713
0.555515
0.666976
0.518560
0.560880
0.434518
0.368953
0.514984
0.615716
0.512600
0.666976
0.663996
0.530481
0.703931
0.516772
0.697970
0.527501
0.605583
0.934601
0.694990
0.783801
0.689626
0.803471
0.928640
0.957847
0.867844
0.953674
1.000762
1.163483
0.981688
1.069903
1.238585
1.286864
1.327991
1.344681
1.535416
1.673698
1.648664
1.892447
1.893640
2.278686
2.537966
2.927780
3.498793
21.834970
108.254552
379.430652
668.452978
1015.774012
1015.774012
1015.774012
1015.774012
1015.774012
1015.774012
1015.774012
1015.774012
945.911407
646.919608
335.886478
179.451704
62.503815
27.114749
13.226867
11.956692
13.229847
13.784766
16.564727
19.196868
26.373863
32.938719
44.052601
52.919984
63.266754
69.606900
72.252750
69.440603
63.343644
56.140423
47.680736
40.145516
32.970905
28.668642
25.217533
23.848414
22.593737
22.456646
21.766424
21.940470
21.581650
21.719933
21.568537
##ZVALUE=340
0.555515
0.472665
0.522733
0.543594
0.479817
0.427961
0.462532
0.566840
0.370741
0.461936
0.664592
0.505447
0.428557
0.550747
0.580549
0.533462
0.630617
0.615716
0.513792
0.546575
0.459552
0.586510
0.787973
0.532866
0.710487
0.809431
0.669956
0.636578
0.765920
0.682473
0.689626
0.855923
0.878572
1.038909
0.797510
1.104474
0.914931
1.138449
1.229644
1.344681
1.105666
1.220703
1.414418
1.482964
1.481771
1.728535
1.966953
2.017617
2.477765
2.912879
3.317595
7.911921
49.127936
256.055593
533.349514
980.429649
1015.774012
1015.774012
1015.774012
1015.774012
1015.774012
1015.774012
1015.774012
1015.774012
784.184933
411.174893
230.042934
95.314980
40.035844
14.961958
12.493730
13.080835
13.444424
14.117956
15.643835
19.661784
24.119616
32.631755
40.382743
52.103996
59.427619
65.934658
67.565441
65.432787
61.577559
52.857995
46.148896
37.548542
32.889843
27.219653
24.458766
22.346973
21.573901
20.789504
20.659566
20.394921
##ZVALUE=345
0.466704
0.531673
0.375509
0.627637
0.398755
0.411868
0.481606
0.540614
0.559688
0.515580
0.654459
0.640750
0.584722
0.461936
0.572801
0.566840
0.544786
0.552535
0.556707
0.581741
0.579953
0.718832
0.609756
0.619888
0.650883
0.617504
0.769496
0.870824
0.733733
0.652671
0.628829
0.780821
0.792742
0.810623
0.909567
0.927448
0.977516
0.986457
1.022816
1.067519
1.043677
1.120567
1.152754
1.287460
1.329780
1.680851
1.557469
1.776814
1.903772
2.146959
2.178550
2.532601
2.733469
3.649592
17.868876
156.370997
385.405421
794.060826
1015.774012
1015.774012
1015.774012
1015.774012
1015.774012
1015.774012
1015.774012
1015.774012
936.268568
559.154749
321.702957
132.154822
60.555935
21.194816
13.291836
12.410879
12.224913
12.789965
13.392568
15.264750
17.525554
23.588538
29.261708
39.555430
45.913458
54.205656
59.234500
63.190460
61.494708
56.975484
51.801801
43.473840
36.798716
29.754639
26.166439
23.037791
20.947456
19.423962
##ZVALUE=350
0.633597
0.536442
0.596642
0.592470
0.616908
0.598431
0.643730
0.620484
0.598431
0.475645
0.809431
0.639558
0.694990
0.687838
0.656843
0.487566
0.865459
0.654459
0.564456
0.664592
0.607967
0.654459
0.702739
0.573993
0.637770
0.698566
0.784993
0.665784
0.850558
0.782609
0.692606
0.905991
0.853539
0.773668
0.963807
0.858903
1.066923
0.992417
0.943542
1.027584
1.213551
1.153946
1.176596
1.403689
1.288652
1.516938
1.455545
1.476407
1.638532
1.661777
1.791716
1.938939
2.265573
2.500415
2.874732
3.338456
7.213950
75.898767
238.621831
608.674884
955.528617
1015.818715
1015.818715
1015.818715
1015.818715
1015.818715
1015.818715
1015.818715
1015.818715
652.266741
403.497815
185.864568
88.503957
27.284622
13.679862
11.271834
11.206865
11.446476
11.661649
12.727976
14.349818
17.307997
21.370649
26.905537
32.813549
41.633844
48.016906
54.403543
56.445599
56.643486
53.144693
46.803951
41.227937
33.661723
28.904676
23.896694
##ZVALUE=355
0.598431
0.583529
0.597835
0.575781
0.387430
0.457764
0.494719
0.574589
0.661612
0.761747
0.543594
0.613928
0.581741
0.530481
0.719428
0.624657
0.592470
0.733733
0.717640
0.670552
0.900626
0.640750
0.707507
0.727773
0.767708
0.728965
0.707507
0.801682
0.850558
0.856519
0.788569
0.902414
0.716448
0.832677
0.969768
0.954866
0.905991
0.915527
1.023412
0.961423
1.064539
1.201630
1.040697
1.135468
1.046658
1.339912
1.350641
1.387596
1.529455
1.480579
1.546741
1.749992
1.809597
2.192855
2.158880
2.662539
2.742410
3.253818
4.159808
31.738877
135.856867
446.266532
757.736564
1015.774012
1015.774012
1015.774012
1015.774012
1015.774012
1015.774012
1015.774012
1015.774012
796.774030
516.386032
235.208869
114.539862
36.181808
15.677810
10.405779
10.500550
10.435581
10.996461
11.229515
11.868477
13.298988
15.103817
19.275546
23.654699
30.287504
36.342740
43.522716
48.488975
52.055717
51.720738
48.839450
44.557452
37.910938
##ZVALUE=360
0.540614
0.500679
0.623465
0.632405
0.643730
0.575781
0.616908
0.649691
0.701547
0.538826
0.676513
0.739694
0.811815
0.741482
0.747442
0.735521
0.820756
0.739694
0.671744
0.782609
0.787973
0.739694
0.768900
0.732541
0.708699
0.716448
0.849962
0.766516
0.686646
0.875592
1.019835
0.852942
1.021624
0.951886
0.888705
0.996590
0.924468
1.093745
1.008511
1.088977
1.130700
1.079440
1.151562
1.094937
1.160502
1.168847
1.469851
1.312494
1.469851
1.517534
1.570582
1.593828
1.749992
1.654625
1.911521
2.289414
2.152920
2.361536
3.212690
3.643632
4.135966
10.578632
58.067441
260.802507
533.522964
981.302857
1015.774012
1015.774012
1015.774012
1015.774012
1015.774012
1015.774012
1015.774012
932.784677
625.898838
311.906934
164.250731
61.870813
25.056601
10.870695
9.541512
9.791851
9.739995
10.055900
10.432601
10.948777
11.849999
13.360977
15.975833
20.292997
24.685860
31.861663
36.859512
42.305589
45.667887
46.394467
##ZVALUE=365
0.427961
0.650883
0.697970
0.620484
0.424981
0.646710
0.524521
0.496507
0.536442
0.574589
0.602603
0.565648
0.646710
0.678897
0.603795
0.706911
0.513792
0.729561
0.761747
0.741482
0.661612
0.735521
0.680685
0.528693
0.650883
0.685453
0.795722
0.641942
0.816584
0.782609
0.776649
0.868440
0.725985
0.931621
0.802875
0.916719
0.968575
0.830889
0.832677
0.949502
0.928640
0.970960
1.114607
1.009703
1.278520
1.082420
1.199841
1.201630
1.357794
1.336932
1.468658
1.350641
1.532435
1.605749
1.626611
1.697540
2.029538
2.032518
2.637506
2.803802
3.355742
3.451705
3.878474
4.642606
27.453899
120.549798
389.855504
702.193975
1015.774012
1015.774012
1015.774012
1015.774012
1015.774012
1015.774012
1015.774012
1015.774012
733.017921
459.161997
206.655860
98.435879
30.160546
12.940764
9.136796
8.789897
8.857846
8.987784
9.357929
9.457469
9.959936
10.585785
11.711717
13.503432
17.709732
21.598935
28.214455
32.225847
##ZVALUE=370
0.452995
0.298619
0.488758
0.600815
0.355840
0.514984
0.476837
0.544786
0.633597
0.651479
0.447631
0.513792
0.638962
0.542998
0.558496
0.650883
0.644922
0.687838
0.541806
0.593662
0.609756
0.523925
0.525713
0.637770
0.766516
0.666976
0.620484
0.717640
0.441670
0.773668
0.772476
0.687838
0.608563
0.693798
0.764728
0.890493
0.771880
0.758767
0.725985
0.830889
0.790954
0.820756
0.900626
0.936985
0.806451
0.817776
0.988841
0.896454
1.055598
1.004934
0.982881
1.195669
1.221895
1.340508
1.225471
1.537800
1.417994
1.563430
1.571774
1.809597
1.982450
2.237558
2.406836
2.548695
3.067851
3.365874
9.914637
60.389638
295.993686
595.922470
1012.479663
1015.774012
1015.774012
1015.774012
1015.774012
1015.774012
1015.774012
1015.774012
840.815902
552.530885
261.262655
135.665536
51.612854
21.035671
9.107590
8.055568
8.292794
8.084774
8.260608
8.333921
8.573532
8.877516
9.554625
10.690689
12.600422
15.130639
##ZVALUE=375
0.455976
0.343919
0.580549
0.517964
0.557899
0.559688
0.544786
0.595450
0.624657
0.414848
0.507832
0.410676
0.578761
0.556707
0.501871
0.457764
0.378489
0.514984
0.479817
0.539422
0.496507
0.589490
0.647902
0.465512
0.725985
0.540614
0.711679
0.605583
0.565648
0.702739
0.535846
0.733733
0.551939
0.649691
0.705719
0.584722
0.652671
0.665784
0.643730
0.772476
0.539422
0.773668
0.906587
0.735521
0.745654
0.923872
0.798702
0.864863
0.997782
1.001954
0.898838
1.062751
0.968575
0.942945
1.140833
1.182556
1.326799
1.201630
1.276731
1.444817
1.499653
1.705885
1.713634
1.951456
2.098680
2.261996
2.665520
3.255606
4.335642
35.480857
142.965913
433.724523
755.593777
1015.811563
1015.811563
1015.811563
1015.811563
1015.811563
1015.811563
1015.811563
1007.573009
645.732880
414.551497
209.641457
107.151866
33.757687
13.940930
8.049607
7.442832
7.576942
7.705688
7.650852
7.782578
7.980466
8.174777
8.862615
##ZVALUE=380
0.484586
0.278950
0.510812
0.489950
0.366569
0.386834
0.574589
0.343919
0.405908
0.419617
0.338554
0.468493
0.348687
0.379682
0.328422
0.389814
0.442863
0.526905
0.403523
0.435710
0.541806
0.550747
0.443459
0.442863
0.527501
0.415444
0.553727
0.368953
0.552535
0.556707
0.484586
0.618696
0.691414
0.495911
0.535846
0.692606
0.716448
0.737906
0.802875
0.642538
0.592470
0.713468
0.741482
0.816584
0.844598
0.863671
0.750422
0.724792
0.907779
0.704527
0.965595
0.918508
0.975728
1.134872
1.021624
1.037717
1.035929
1.156926
1.032948
1.100898
1.090765
1.327991
1.371503
1.518726
1.631975
2.031922
2.146959
2.433658
2.874732
3.326535
3.766418
13.397932
73.712468
321.784616
618.807673
1015.774012
1015.774012
1015.774012
1015.774012
1015.774012
1015.774012
1015.774012
1015.774012
843.535066
574.268699
289.184451
150.953531
53.016543
21.506548
8.558631
7.168651
6.770492
6.983876
6.984472
7.068515
7.146597
##ZVALUE=385
0.337958
0.322461
0.432730
0.377893
0.493526
0.340939
0.523925
0.255704
0.356436
0.340939
0.449419
0.354648
0.409484
0.455976
0.456572
0.482798
0.510812
0.436902
0.564456
0.538826
0.467896
0.383854
0.310540
0.366569
0.513792
0.551939
0.442863
0.509620
0.574589
0.587702
0.539422
0.630617
0.571609
0.729561
0.527501
0.616908
0.685453
0.548959
0.641942
0.739694
0.581741
0.658631
0.702739
0.745654
0.780821
0.780821
0.579953
0.807643
0.824928
0.811815
0.708699
0.771880
0.771880
0.967979
0.917912
0.870824
0.876784
0.905991
0.978708
0.803471
1.100898
1.117587
1.012683
1.310706
1.297593
1.363754
1.587868
1.893640
2.091527
2.447963
2.968907
2.986789
3.262758
4.567504
41.172504
152.145624
463.571548
801.285505
1015.765667
1015.765667
1015.765667
1015.765667
1015.765667
1015.765667
1015.765667
1015.765667
694.832802
449.999571
207.271576
104.869604
35.312772
13.335943
6.501675
6.328821
6.063581
6.168485
##ZVALUE=390
0.459552
0.389814
0.307560
0.451803
0.389814
0.266433
0.461936
0.442863
0.437498
0.304580
0.364780
0.404716
0.243783
0.308752
0.370741
0.350475
0.461936
0.496507
0.412464
0.300407
0.395775
0.333786
0.375509
0.294447
0.436902
0.402927
0.628829
0.567436
0.618696
0.577569
0.772476
0.665784
0.713468
0.654459
0.550747
0.588894
0.688434
0.549555
0.710487
0.514984
0.677705
0.710487
0.675917
0.686646
0.648499
0.749826
0.750422
0.770688
0.854731
0.743866
0.729561
0.940561
0.747442
0.705719
0.806451
0.914931
1.013875
1.029968
0.981688
1.046658
1.174808
1.218915
1.212955
1.191497
1.345873
1.424551
1.540780
1.824498
2.005696
2.215505
2.321601
2.367496
2.488494
2.547503
2.965927
3.724694
13.073683
110.087395
300.980806
698.519945
1012.982726
1015.774012
1015.774012
1015.774012
1015.774012
1015.774012
1015.774012
1015.774012
960.556865
568.166971
332.629681
140.432715
66.586733
20.860434
8.483529
5.903840
##ZVALUE=395
0.518560
0.275970
0.391603
0.316501
0.408888
0.512600
0.173450
0.497699
0.429749
0.412464
0.546575
0.418425
0.562668
0.389814
0.401735
0.588894
0.318885
0.323653
0.423789
0.364780
0.405908
0.317693
0.529885
0.459552
0.481606
0.557899
0.582933
0.539422
0.638962
0.540614
0.523925
0.576973
0.706911
0.664592
0.536442
0.768900
0.681877
0.674725
0.749826
0.780821
0.578761
0.666976
0.691414
0.712872
0.727773
0.790954
0.773668
0.648499
0.670552
0.931621
0.938773
0.753999
0.907779
0.779629
0.931621
0.888705
0.962615
1.001954
1.056790
0.955462
0.992417
1.133680
1.126528
1.051426
1.148582
1.416802
1.391768
1.715422
1.842976
1.953840
2.255440
2.167821
2.071857
2.248883
2.261996
2.516508
2.750754
3.207922
5.743504
61.917901
215.390921
582.458973
912.625790
1015.774608
1015.774608
1015.774608
1015.774608
1015.774608
1015.774608
1015.774608
1015.774608
710.431933
449.596643
200.953484
98.344684
32.535791
##ZVALUE=400
0.299811
0.349879
0.394583
0.320673
0.333786
0.410676
0.423789
0.353456
0.360608
0.481606
0.316501
0.423789
0.405908
0.297427
0.285506
0.453591
0.338554
0.347495
0.282526
0.383854
0.417829
0.359416
0.552535
0.401735
0.578761
0.574589
0.530481
0.574589
0.655651
0.582933
0.560880
0.690818
0.456572
0.722408
0.728965
0.683665
0.768900
0.754595
0.699759
0.543594
0.585914
0.701547
0.475645
0.626445
0.658631
0.782609
0.826716
0.729561
0.676513
0.707507
0.732541
0.870824
0.779629
0.824928
0.906587
0.839829
0.998974
0.953674
1.141429
0.937581
1.321435
1.109838
1.192689
1.255870
1.068711
1.380444
1.410842
1.594424
2.019405
1.849532
1.983643
2.049804
2.099872
2.046824
2.164841
2.108812
2.294779
2.405643
2.587438
3.023744
3.675818
27.286410
121.151805
401.477814
711.240768
1015.768647
1015.768647
1015.768647
1015.768647
1015.768647
1015.768647
1015.768647
1015.768647
866.783857
584.048629
302.807689
##END
