##TITLE=FQP00301
##FORMAT=SPECTACLE-ASCII V-1.2
##DATA TYPE=ULTRAVIOLET SPECTRUM
##SECOND TYPE=ULTRAVIOLET SPECTRUM
##DATE=11/14/17
##TIME=15:54:31
##SPECTROMETER/DATA SYSTEM=SPECTACLE
##XUNITS=NM EM
##YUNITS=ENERGY
##YFACTOR=1
##FIRSTX=220
##LASTX=410
##NPOINTS=96
##3DDATA=Equidistant
##ZUNITS=NM EX
##FIRSTZ=210
##LASTZ=400
##ZPOINTS=39
##XYDATA=(Y..Y)
##ZVALUE=210
7.386804
7.773638
6.294847
5.678535
4.069805
4.439950
5.179644
4.688501
5.874634
5.653501
4.512668
4.983544
5.906820
5.590916
7.424951
6.955862
6.799698
8.072853
9.161830
10.875463
10.090470
10.138750
11.541843
11.669993
13.233423
13.673902
15.797615
14.705658
14.775991
16.510487
16.951561
17.111897
18.475652
18.199682
19.279718
20.651817
21.267533
22.116899
22.126436
21.480918
22.040606
22.313595
21.719933
23.671985
22.416711
24.289489
23.004413
23.293495
25.292635
25.355816
25.869608
26.174784
25.558472
26.320815
28.116703
27.356744
27.780533
28.104782
27.595758
26.391745
26.334524
28.221607
29.457808
28.438568
28.865933
29.219985
29.690862
35.766959
41.306615
46.443939
53.436756
63.825846
73.501468
90.050697
100.950599
110.030770
119.953752
126.842856
129.078627
125.930905
121.569633
111.752748
98.636746
81.553459
70.353746
52.380562
42.918921
35.850406
28.541684
25.704503
24.094582
25.136471
25.100708
25.323629
25.257468
27.833581
##ZVALUE=215
21.446943
20.134449
19.074678
18.516779
13.651848
10.595918
9.476542
7.823706
8.153915
8.198619
8.674860
8.507967
6.932616
5.995631
5.589724
5.184412
5.386472
4.687905
5.669594
5.590916
6.625652
7.109642
7.922649
8.073449
9.013414
9.997487
9.767413
11.772513
11.891723
11.218786
12.539625
12.912750
14.637709
15.354753
15.018582
15.807748
16.476512
15.486479
14.372468
15.755892
16.176701
14.436841
14.815927
16.942620
17.501712
16.700625
17.739534
15.803576
17.082691
16.516447
18.678904
17.817616
16.008615
17.844439
18.237829
15.676618
16.765594
17.337799
16.584992
17.080903
16.969442
17.497540
17.179847
18.034577
18.415451
21.342635
18.939972
20.042658
22.924542
26.894808
29.863715
37.089586
42.750835
48.471689
51.093698
56.682825
59.182644
60.225725
60.880780
61.658621
58.461428
52.586794
49.151778
41.929483
36.998987
28.054714
23.290515
21.105409
17.876625
16.484857
16.198754
16.856790
15.901923
15.302896
15.675426
14.618635
##ZVALUE=220
38.524866
39.320588
44.660568
47.229528
45.139790
37.039518
30.076504
20.805597
17.514825
14.064908
14.486909
14.557838
15.885830
14.588833
10.319948
10.263920
8.284450
6.433725
5.746484
5.238652
4.000664
5.349517
5.408525
5.832911
6.284714
7.317662
8.478761
8.108616
8.663535
9.333491
10.903478
11.058450
12.681484
12.163520
12.289882
13.102889
13.530850
12.479424
13.711452
13.461709
14.910698
14.023781
12.926459
13.442636
14.652610
14.775991
13.786554
13.790727
13.925433
13.620853
14.668703
12.825727
14.114976
13.439655
15.631914
14.380813
13.829470
15.664697
14.809966
14.023781
14.696717
13.994575
15.078783
14.434457
14.396906
15.200973
16.805530
17.559528
19.378662
20.062923
21.462440
25.761724
26.600957
32.446980
34.117699
36.562681
40.779710
39.824843
40.202737
36.871433
35.449862
34.819841
32.451749
27.862787
25.760531
21.036863
18.848777
16.573668
15.823841
12.877584
12.459755
12.973547
13.664961
12.776852
12.837648
12.370944
##ZVALUE=225
45.728683
49.606562
70.048571
93.790889
106.081963
106.593966
103.729963
80.415606
63.727498
46.401620
31.297803
23.546815
24.541616
24.739504
27.358532
26.157498
21.594763
18.286705
15.268922
10.401607
7.380843
6.120801
5.395412
5.650520
6.168485
5.748868
8.216500
6.958842
7.865429
8.583665
8.924603
10.536909
11.824965
10.783672
11.101961
11.535883
12.537837
12.610555
12.694597
12.676716
14.586449
12.324452
13.822913
12.668967
13.427734
14.492869
14.833808
13.904572
14.685988
14.423728
14.498830
14.145970
14.107823
15.205741
14.694929
16.449690
14.466643
14.459491
13.791919
16.542673
15.566945
15.598536
16.003847
15.633702
15.586615
16.142726
16.899705
16.693473
19.409657
19.665956
21.762848
23.895502
25.290847
27.469993
29.909611
30.072927
28.905869
30.733943
27.700663
28.454661
26.733875
27.349591
24.352670
21.512508
20.721555
18.336773
16.162992
16.733408
15.438795
15.896559
14.670491
16.330481
14.442801
14.925599
15.206933
12.746453
##ZVALUE=230
31.724572
33.467412
57.377815
105.670691
150.312781
204.271674
230.439901
241.905451
226.270556
188.521743
131.678581
86.443424
58.352947
43.141842
38.371682
41.869879
43.797493
48.414469
40.461421
35.555959
28.796792
18.680692
13.045669
9.625554
7.324815
5.988479
6.869435
5.930662
7.531643
7.543564
7.826686
9.450912
9.336472
9.856820
9.089708
11.025667
12.610555
12.040734
11.311769
13.001561
13.546944
13.539791
13.791919
15.187860
16.155839
16.755462
15.848875
18.089414
17.132759
17.547607
17.983913
17.844439
19.386411
19.209981
19.335747
20.432472
20.003915
21.441579
19.360781
18.879771
19.689798
19.969940
21.034479
21.354556
20.699501
21.799803
23.810863
21.757483
23.929477
26.449561
27.227998
29.196739
29.832721
30.538440
30.787587
34.918785
34.263730
33.751726
31.700730
30.064583
28.871894
26.461482
26.580691
23.588538
24.083853
23.849607
21.160841
21.008849
21.631718
21.062493
21.752715
22.652745
19.119978
19.681454
18.681884
18.272996
##ZVALUE=235
7.918477
9.297729
27.449727
54.165721
113.197565
169.024467
271.434784
359.486938
422.268510
428.367853
378.300548
305.760503
235.938430
144.209862
98.544955
67.051649
59.091449
61.875582
68.855882
71.070790
68.838000
61.793923
47.379732
40.587783
25.452971
17.357469
12.164712
9.059906
7.802844
7.829666
8.358955
9.433627
7.926822
9.513497
9.917617
10.428429
10.557771
11.381507
10.832548
12.857914
12.854934
15.530586
16.804934
17.777681
19.903779
20.766854
22.540689
23.250580
24.473667
24.241805
25.000572
25.980473
26.511550
28.089881
28.560758
28.353930
27.740598
28.513670
27.488470
28.749704
30.159950
30.500889
31.085610
27.851462
29.230714
30.021667
32.933950
32.610893
33.668876
36.734939
39.502978
39.070845
40.784478
40.567517
42.822957
42.305589
43.325424
38.555861
43.559670
39.577484
37.589669
35.479665
35.616755
32.067895
33.837557
31.839609
30.237436
30.590892
31.370521
28.984547
28.284788
27.949810
28.913617
28.776526
28.206706
26.574731
##ZVALUE=240
1.880527
1.576543
4.099607
10.336637
35.063624
71.455836
163.329840
259.470940
435.526967
544.209480
663.414598
673.738718
639.410019
500.590801
380.420685
237.743855
153.885484
96.038580
79.847574
79.637766
88.500977
98.560452
98.953843
89.147687
76.135993
62.947869
45.721531
34.050941
20.531416
15.155673
11.415482
9.685755
11.742711
10.309815
11.890531
10.607839
11.665821
12.320876
12.885928
15.936494
16.573668
19.081831
20.687580
23.836493
27.292967
27.532578
29.123425
30.276775
34.023523
37.259459
35.420656
34.237504
37.353635
39.612651
37.062764
38.865805
37.768483
38.752556
39.865971
38.744807
36.348701
39.797425
40.721893
40.832758
40.955544
41.064620
42.681694
40.973425
43.295622
45.329928
44.834614
48.025846
50.639510
50.793886
52.125454
50.264001
49.640536
46.704412
48.329830
45.124888
46.302676
45.196414
44.197440
41.553974
39.451718
39.663911
39.104819
36.397576
38.687587
36.138892
35.855770
37.499666
34.804940
34.368634
35.138726
33.975840
##ZVALUE=245
1.418591
1.503825
1.533628
1.800656
2.886653
8.638501
29.986501
67.449808
170.080662
284.669995
501.171947
655.170679
772.003531
845.334530
808.490515
673.390031
535.428524
347.316861
232.818723
130.054951
89.350939
74.343681
85.917711
99.631548
105.748773
109.386444
100.001693
88.657737
67.663789
53.134561
40.470958
27.347803
18.103719
13.506413
12.161732
12.766719
12.899637
13.622642
15.418530
17.419457
18.233657
20.608902
22.626519
24.582744
28.088689
30.409694
33.572912
35.437942
36.937594
38.700700
39.260983
43.476820
44.628978
43.909550
44.664741
42.834878
43.706894
43.017864
43.181777
42.615533
43.787956
43.120980
41.858554
42.348504
42.579770
43.016672
42.921901
41.450858
41.771531
41.894913
43.667555
47.190785
45.314431
46.440959
48.071742
46.807528
46.946406
43.551922
43.377876
43.713450
42.898655
40.620565
43.373704
38.820505
37.894845
40.037632
37.112832
39.213896
36.791563
35.517812
35.454631
33.087730
35.475492
33.144951
32.511950
32.313466
##ZVALUE=250
1.346469
1.697540
1.473427
1.438856
1.520514
1.940727
1.855493
4.848838
22.248626
54.818988
158.352852
281.925797
447.231531
679.802895
843.745470
971.908569
969.649553
856.433511
718.282461
487.873554
319.716930
196.389556
103.268623
75.822473
80.826879
91.953874
106.470585
112.266541
114.242435
103.409886
96.130967
75.134635
57.013631
37.394762
28.256774
19.276738
14.764667
13.713837
14.552474
17.504692
19.235611
19.917488
24.389625
25.880933
27.864575
31.456947
32.207966
35.105944
37.255883
39.915442
41.715503
41.852593
44.432878
44.064522
43.427944
44.520497
44.324994
44.366717
41.925907
41.611791
42.086840
40.656924
40.440559
41.622519
38.882494
37.413836
38.505793
37.842989
37.062764
39.476752
39.383769
39.536953
40.632486
40.496588
40.636659
39.043427
38.613677
40.042996
39.539933
36.768913
35.391450
35.592914
34.527779
33.893585
33.482909
33.060908
32.298565
31.561852
31.456947
32.226443
31.700730
32.792687
31.084418
29.416680
30.117631
29.972792
##ZVALUE=255
1.093745
1.016855
1.305938
1.065731
1.417994
1.468658
1.509786
1.337528
1.569986
3.050566
15.340447
43.952465
97.252727
239.833593
402.642488
679.056644
860.511661
1015.684009
1015.684009
1015.684009
887.182951
690.983534
418.121815
253.478885
129.459500
82.771778
68.344474
78.113675
96.313953
108.780861
117.130876
122.207999
112.453699
94.501972
75.248480
54.984689
40.975809
26.833415
20.873547
17.715693
18.500686
18.632412
22.266507
23.956895
26.745796
29.578805
30.966997
32.912493
34.996867
37.191510
38.750768
37.916899
38.553476
39.974451
39.235950
37.607551
38.923621
38.160682
37.006736
36.338568
36.943555
35.725832
34.519434
34.393668
33.524632
32.827854
32.294989
30.861497
30.382872
30.990839
33.455491
32.692552
35.090446
32.978654
33.060908
34.171939
32.507777
33.501983
32.223463
30.358434
31.934977
29.692650
30.382872
29.367805
30.220747
29.376745
28.367639
30.108690
28.853416
28.092861
29.675961
27.921796
26.659966
27.263761
27.151704
26.870966
##ZVALUE=260
1.425743
1.151562
0.979900
1.305938
1.111627
1.253486
1.088977
1.380444
1.627803
1.754761
1.951456
1.976490
6.201863
30.528903
73.675513
153.551698
349.795818
561.145544
875.526667
1015.774012
1015.774012
1015.774012
1015.774012
846.135020
605.376959
345.827937
206.971765
100.864768
67.837834
63.331723
76.217651
97.645521
112.655759
125.459433
123.104453
113.521814
100.803971
77.393651
60.811639
43.436885
34.093857
25.595427
22.991896
21.548867
23.548603
25.772452
26.656985
27.856827
29.300451
31.094551
30.575991
31.333566
31.588674
31.617880
30.910969
32.205582
29.312968
31.609535
30.113459
30.096769
28.822422
28.241873
28.100610
27.951598
26.308894
26.847720
26.314855
26.779771
26.747584
27.312636
27.985573
28.517842
28.109550
28.293729
28.076768
28.168559
27.982593
27.957559
27.966499
26.968718
26.956797
26.300550
26.108623
26.020408
26.520491
25.342703
26.976466
24.861693
25.469661
25.587678
24.758577
25.381446
26.067495
25.036931
25.461912
24.815798
##ZVALUE=265
0.991821
1.062751
0.954866
1.071692
1.275539
1.372695
1.152754
1.359582
1.289845
1.410842
1.523495
1.436472
1.740456
2.092719
3.507733
18.538833
50.514936
143.602490
279.639959
570.400953
840.082765
1015.774012
1015.774012
1015.774012
1015.774012
1005.897522
736.492872
499.112010
266.684890
153.468847
86.857677
54.883957
60.017705
81.324577
98.989606
116.195679
124.283433
123.734474
118.457675
100.120902
83.262920
61.400533
47.114491
34.056902
27.039647
24.564862
23.921728
24.175644
24.458766
27.263761
26.492476
26.718974
26.724935
27.056932
25.702715
26.073456
25.534630
25.122762
24.996996
24.981499
24.656653
23.079515
23.250580
23.142695
23.684502
23.503900
22.788644
22.797585
23.630857
22.797585
23.937821
24.700761
24.174452
25.365949
24.685860
25.161505
25.173426
24.517775
24.808645
24.236441
24.503469
23.318529
23.418665
22.832751
23.976564
23.221970
24.390817
24.535656
23.714900
23.654699
23.632646
22.971630
23.282766
23.309588
22.592545
22.941828
##ZVALUE=270
0.754595
0.953674
0.908971
0.942945
1.268983
1.019835
0.978708
1.196861
0.964999
1.161695
1.290441
1.495481
1.407862
1.267791
1.876950
1.836419
2.358556
8.152723
25.422573
100.849867
220.954418
423.355699
790.984631
1015.791893
1015.791893
1015.791893
1015.791893
1015.791893
937.916636
677.295923
445.492864
215.729475
117.633939
55.304766
46.610832
62.388778
81.051588
104.106665
117.478967
129.317641
128.887892
119.336843
106.076598
84.867477
65.792799
47.633648
37.266612
29.429793
26.439428
23.619533
23.351908
23.204684
22.605658
23.315549
23.458600
23.152828
22.610426
22.348762
21.934509
21.997690
22.396445
20.801425
21.218657
20.063519
20.679832
20.780563
21.345615
21.217465
21.653771
22.183657
22.381544
23.335814
24.012923
24.005771
24.607778
23.419857
23.869872
22.926927
23.626685
22.961497
23.556948
23.024678
23.442507
22.305846
21.766424
21.805763
21.716952
21.754503
22.470951
22.300482
21.936893
21.983981
21.582842
21.041632
22.113919
21.595955
##ZVALUE=275
0.875592
0.632405
0.785589
0.826716
0.698566
0.783801
0.813603
0.841618
0.925660
0.871420
1.056790
0.985861
1.172423
1.125932
1.315475
1.419783
1.520514
1.943707
2.053976
4.128814
15.001893
50.495863
172.708631
352.082849
709.370971
984.607935
1015.774012
1015.774012
1015.774012
1015.774012
1015.774012
861.938596
588.365793
289.884806
157.438517
69.822669
43.823719
44.924617
59.805512
83.443522
100.986958
119.642615
128.839612
128.036737
121.200681
100.117922
84.751844
65.693855
50.432682
36.528707
30.232668
24.503469
22.621751
21.805763
21.717548
21.606684
20.781755
20.775795
20.162463
20.383000
20.591617
20.623803
20.746589
20.804405
20.626783
20.835996
20.564795
21.279454
20.922422
21.835566
22.004843
22.808909
23.568869
22.674799
24.034977
23.954511
24.330616
23.737550
23.726821
23.066998
22.801757
22.155643
21.191835
22.417903
21.459460
21.658540
21.962523
21.107793
21.706820
20.608902
20.819902
20.503998
20.806789
20.868778
20.202994
19.938946
##ZVALUE=280
0.479817
0.385642
0.531673
0.535846
0.539422
0.453591
0.556707
0.648499
0.467896
0.698566
0.533462
0.802875
0.857711
0.806451
0.958443
0.898838
0.928640
1.106858
1.188517
1.337528
1.390576
2.434850
10.007620
39.327741
144.595504
285.768509
557.518601
853.911638
1015.535593
1015.535593
1015.535593
1015.535593
1015.535593
965.130925
681.421757
367.125869
211.194754
92.015862
49.547553
35.684705
42.601824
63.724518
80.370903
103.609562
117.211938
125.386715
124.971867
113.570690
101.634860
81.097484
65.185428
46.936870
36.760569
26.923418
22.896528
20.189881
19.725561
19.154549
18.752813
18.743873
18.877983
19.533634
19.207597
19.771457
19.158721
20.097494
20.832419
19.570589
20.169616
21.115541
22.090673
22.391677
22.730827
22.972822
23.468733
23.177862
23.163557
22.816658
22.501945
21.958947
22.158623
21.254420
21.632910
20.745993
21.686554
21.538734
20.437837
21.165609
20.785928
21.162629
20.415783
20.574927
20.259619
20.183921
20.100474
20.036697
##ZVALUE=285
0.544786
0.594854
0.715852
0.652671
0.759959
0.706911
0.756979
0.716448
0.727773
0.952482
0.887513
1.108646
1.034737
1.063943
0.724792
1.008511
1.111627
1.221895
1.019835
1.460910
1.297593
1.617670
1.775622
1.970530
5.212426
19.507408
79.041719
177.196860
412.191749
665.974021
963.954926
1015.774012
1015.774012
1015.774012
1015.774012
1015.774012
845.263004
501.086712
300.881863
136.435628
69.749951
32.472610
29.708743
40.768981
55.910945
80.421567
93.906522
111.127496
119.271874
119.838715
112.623572
96.843839
84.166527
59.765577
47.033429
33.118725
25.110841
20.700693
18.445849
17.476678
18.053651
18.143654
18.177629
18.417835
18.580556
19.075871
19.652843
19.683838
20.155907
20.490885
21.477938
21.571517
22.732615
22.080541
23.120642
22.061467
21.739602
21.795630
22.469759
22.064447
21.806955
21.941662
20.774603
21.666884
20.956993
20.862818
21.997690
21.659732
20.900965
20.717978
20.501614
20.333529
20.540953
20.311475
20.092726
19.257665
##ZVALUE=290
0.587702
0.556707
0.784993
0.661612
0.515580
0.571609
0.624657
0.628829
0.713468
0.706911
0.856519
0.887513
0.703931
0.963807
0.893474
0.944734
0.920892
0.973940
1.177788
1.068711
1.261830
1.354814
1.401901
1.678467
1.831651
2.071857
2.723932
8.391738
45.437813
115.418434
226.853490
525.183678
830.708742
1015.774608
1015.774608
1015.774608
1015.774608
1015.774608
997.112989
653.262734
414.341688
195.739865
100.213885
37.970543
23.972988
28.355718
36.202669
52.754879
68.809986
89.530945
103.115439
114.134550
113.618970
107.026696
95.158815
74.252486
60.108900
41.248798
32.415986
23.412704
19.583702
17.008781
16.314983
16.241670
17.188787
17.816424
17.726421
18.285513
18.881559
19.480586
19.314885
20.434856
20.907521
21.330714
21.073818
20.991564
21.083951
20.948648
21.450520
21.298528
21.808743
21.154881
21.181703
21.366477
21.002889
20.852685
21.147728
20.311475
20.078421
20.996928
20.572543
20.186901
20.084977
19.813776
19.644499
18.898845
##ZVALUE=295
0.620484
0.629425
0.732541
0.731945
0.586510
0.695586
0.611544
0.705719
0.740886
0.831485
0.811815
0.844598
0.907779
0.879765
0.895858
0.947714
0.878572
1.153946
0.957847
1.041889
1.016855
1.286864
1.256466
1.523495
1.519918
1.537800
1.941919
1.898408
2.248883
3.703833
14.271736
73.867440
182.415843
444.601774
731.348991
1015.828848
1015.828848
1015.828848
1015.828848
1015.828848
1015.828848
795.837641
537.034869
275.079012
145.275593
52.110553
25.832653
18.752813
23.256540
34.916997
47.434568
66.278577
81.026554
98.125935
106.152892
106.201768
99.477768
86.034536
73.448420
54.023862
41.359663
30.092001
23.508668
17.813444
16.575456
15.581846
15.925765
15.976429
16.690493
17.899871
18.032789
18.703938
18.588901
19.328594
19.776821
20.030737
20.095706
20.481944
20.084977
20.579696
20.492673
20.624995
21.498799
20.290613
20.545721
20.454526
20.002723
20.273924
20.124912
20.967722
19.636750
20.224452
20.207763
19.318461
19.573569
19.399524
##ZVALUE=300
0.475645
0.521541
0.576973
0.476837
0.410676
0.387430
0.465512
0.609756
0.574589
0.733733
0.516772
0.550747
0.577569
0.828505
0.601411
0.730753
0.742674
0.823736
0.662804
0.831485
0.892878
0.932813
0.972748
0.928640
1.056790
1.140833
1.300573
1.478791
1.606941
1.863837
1.927614
2.526641
9.769797
40.560961
154.047012
305.760503
627.034903
933.401585
1015.774012
1015.774012
1015.774012
1015.774012
1015.774012
993.992686
644.419789
403.366685
196.448565
103.011727
35.957694
18.071532
15.726686
20.433664
31.080842
41.940808
59.789419
75.372458
91.034770
97.438693
100.248456
96.020699
83.521605
70.877671
52.643418
42.153001
29.017925
22.994876
18.432736
16.766787
16.017556
16.762614
17.474890
17.354488
18.058419
19.060969
18.666983
19.558668
19.871593
19.757748
20.589828
20.436645
20.488501
20.200610
19.963980
20.614862
21.043420
21.396875
21.222830
21.268725
20.762682
20.653605
20.526648
20.437837
19.999743
19.816756
20.185709
19.842982
##ZVALUE=305
0.414848
0.383854
0.413656
0.337958
0.491738
0.349879
0.493526
0.395775
0.515580
0.587702
0.610948
0.436902
0.468493
0.509620
0.683665
0.489950
0.578761
0.489950
0.557899
0.651479
0.787973
0.806451
0.848770
0.755787
0.789762
0.891685
1.120567
1.203418
1.149774
1.232624
1.485944
1.663566
1.727939
2.192855
3.659725
29.443502
92.335939
264.804959
472.403765
857.011676
1015.645862
1015.645862
1015.645862
1015.645862
1015.645862
1015.645862
812.257528
482.585430
292.908549
131.680965
63.088536
22.887588
13.301969
14.620423
18.870831
29.519796
40.702820
57.427883
70.335865
84.874630
91.948509
95.705986
90.483427
77.954531
68.187714
50.158501
40.024519
29.322505
24.108887
19.109845
18.144846
18.271804
18.330812
18.610954
18.802881
19.096732
19.915700
21.042824
20.682812
21.148920
20.746589
21.423697
21.866560
21.883845
21.835566
22.170544
21.704435
22.017956
21.621585
21.937490
21.567941
21.588802
20.972490
21.085739
20.475984
20.706654
##ZVALUE=310
0.525713
0.422597
0.393987
0.494719
0.522733
0.415444
0.540614
0.569820
0.654459
0.595450
0.594854
0.604987
0.547767
0.536442
0.604987
0.521541
0.573993
0.567436
0.805855
0.785589
0.756979
0.614524
0.844598
0.926852
1.015663
0.946522
0.957847
0.887513
1.206994
1.030564
1.240969
1.443624
1.510978
1.624823
1.785755
1.878738
2.510548
12.634993
51.839948
179.291964
346.084833
685.647726
981.845856
1015.774012
1015.774012
1015.774012
1015.774012
1015.774012
998.058915
645.343661
417.414904
201.511979
105.289817
37.587881
16.470551
11.528730
13.107657
18.090606
24.598837
38.111806
49.769878
66.927671
77.927709
86.791515
89.577436
86.666942
79.273582
64.011812
53.443909
40.583611
32.394528
25.659800
22.132993
20.688772
20.138621
20.456910
21.083951
20.990968
21.079779
21.416545
22.314787
22.477508
22.269487
23.096800
22.809505
23.105741
22.984743
23.164749
23.574829
23.096800
22.380948
22.099614
22.347569
21.656752
21.639466
21.620989
##ZVALUE=315
0.445843
0.476837
0.425577
0.586510
0.420809
0.447631
0.591874
0.555515
0.569820
0.508428
0.664592
0.433922
0.621676
0.510812
0.706911
0.699759
0.552535
0.633597
0.588894
0.644922
0.685453
0.791550
0.794530
0.729561
0.847578
0.759959
0.966787
0.921488
1.025796
0.994802
1.006722
1.091957
1.293421
1.406670
1.447797
1.583695
1.806617
1.832843
2.280474
5.467534
27.157664
127.771497
270.055532
570.619702
880.411863
1015.776992
1015.776992
1015.776992
1015.776992
1015.776992
1015.776992
803.483725
544.824600
275.251865
145.182610
53.192973
22.562742
11.369586
10.979772
13.459921
17.598867
25.148988
33.748746
48.181415
60.866475
75.553656
83.268881
86.593628
84.163547
75.411797
66.480637
52.126646
42.726994
32.569766
26.999712
22.980571
22.091866
21.793842
21.869540
21.973848
22.286773
23.175478
23.258924
23.581982
23.609996
23.719668
23.840666
23.459792
24.159551
23.780465
23.910999
23.046732
23.426414
22.931695
22.133589
22.532940
##ZVALUE=320
0.460744
0.415444
0.445843
0.482798
0.359416
0.283718
0.540614
0.361800
0.397563
0.535846
0.448823
0.401735
0.534654
0.494719
0.487566
0.806451
0.595450
0.614524
0.583529
0.727773
0.626445
0.907779
0.585914
0.773668
0.640750
0.476837
0.634789
0.839829
0.723600
0.789762
0.882745
1.017451
0.973940
1.081824
1.213551
1.246929
1.441836
1.468658
1.726747
1.947880
1.932979
2.887845
11.809468
81.974864
200.061798
471.176505
730.829835
1015.774012
1015.774012
1015.774012
1015.774012
1015.774012
1015.774012
974.555016
695.139766
367.621779
205.412507
87.189674
39.103627
14.167428
10.120869
10.935664
12.199879
17.569661
22.638440
35.117865
44.416785
58.959723
70.540905
79.953671
82.908869
81.432462
75.586438
62.162876
53.848624
41.378736
34.243464
28.519630
25.466681
23.738742
23.095608
23.172498
23.454428
23.568869
24.071932
24.214983
24.076700
23.805499
23.849607
24.402738
23.871660
23.893714
23.761988
23.082495
23.145676
22.657514
##ZVALUE=325
0.355840
0.381470
0.441670
0.292659
0.402927
0.352859
0.332594
0.376701
0.354648
0.569820
0.576973
0.477433
0.525713
0.505447
0.558496
0.720620
0.581741
0.677705
0.616908
0.579953
0.647902
0.659823
0.486970
0.723600
0.478625
0.505447
0.726581
0.817776
1.003742
0.713468
0.908971
0.877976
1.046658
0.938773
1.124740
1.035929
1.210570
1.335740
1.305938
1.279712
1.466870
1.832843
2.036691
2.364516
6.010532
60.061812
156.605840
361.195803
599.943995
985.204577
1015.774608
1015.774608
1015.774608
1015.774608
1015.774608
1015.774608
822.078586
488.810539
291.291475
123.378634
57.146549
19.493699
11.496544
10.560751
11.496544
13.623834
17.024875
24.253726
32.576919
46.268702
56.822896
71.035624
76.529980
80.493689
77.514648
69.097877
60.763955
49.473643
41.935444
32.514930
28.720498
25.692582
24.488568
23.736954
23.708940
23.510456
23.413897
24.500489
24.079680
23.593903
23.926497
23.877621
23.555756
23.115873
23.400784
23.282766
##ZVALUE=330
0.437498
0.356436
0.308752
0.446439
0.434518
0.419617
0.437498
0.500679
0.296831
0.367761
0.529885
0.499487
0.536442
0.368953
0.229478
0.488758
0.393987
0.465512
0.328422
0.532866
0.479817
0.544786
0.614524
0.633597
0.610948
0.502467
0.764728
0.722408
0.652671
0.720620
0.797510
0.749826
0.729561
0.750422
0.972748
0.945926
0.967979
0.904799
1.048446
1.137853
1.202822
1.459718
1.488924
1.629591
1.951456
2.270937
3.094673
26.241541
95.253587
284.024477
491.920710
864.217877
1015.774012
1015.774012
1015.774012
1015.774012
1015.774012
1015.774012
937.773585
568.957925
354.717970
161.649585
80.132484
29.103756
14.621615
10.473728
10.989904
12.002587
14.025569
18.716455
24.667978
34.205914
43.737888
55.973530
65.459609
74.097514
75.864792
73.873997
67.560673
57.479739
48.997998
39.488673
33.801794
28.780699
25.730729
24.302602
23.421645
23.332834
23.102760
23.429990
23.269653
22.640824
22.873878
22.677779
22.997856
22.394657
##ZVALUE=335
0.457764
0.372529
0.463724
0.393987
0.321865
0.356436
0.416636
0.410676
0.330806
0.296831
0.373721
0.307560
0.452995
0.286698
0.454783
0.427961
0.557899
0.446439
0.440478
0.429749
0.550747
0.366569
0.458956
0.526905
0.404716
0.488758
0.625849
0.589490
0.569820
0.649691
0.608563
0.615716
0.627637
0.612736
0.751615
0.681877
0.891685
0.832677
0.992417
1.108646
0.941753
1.124740
1.406670
1.256466
1.421571
1.640916
1.725554
2.067685
2.401471
10.367632
53.871870
204.221010
379.783511
723.526478
996.400714
1015.764475
1015.764475
1015.764475
1015.764475
1015.764475
1015.765071
686.732531
448.187590
223.718882
118.518472
42.775869
19.631982
11.351705
11.083484
11.865497
12.659431
15.457869
18.415451
25.133491
32.540560
44.081807
52.971840
63.692927
69.627762
71.770549
69.491863
63.367486
57.184696
46.687722
40.019751
32.259822
28.370619
24.776459
23.625493
22.725463
22.489429
22.057891
21.863580
21.529794
21.721721
21.692514
##ZVALUE=340
0.400543
0.303984
0.405908
0.451803
0.342727
0.451803
0.409484
0.294447
0.407696
0.369549
0.244975
0.266433
0.335574
0.347495
0.450611
0.577569
0.497699
0.359416
0.346899
0.670552
0.392795
0.457764
0.525713
0.614524
0.250936
0.589490
0.488758
0.488758
0.470877
0.572801
0.612736
0.713468
0.744462
0.564456
0.673532
0.774860
0.689626
0.629425
0.746846
0.891685
0.899434
1.064539
1.074672
1.244545
1.008511
1.365542
1.300573
1.484752
1.788735
1.915693
2.111793
3.312826
35.807490
123.050809
329.995751
566.813946
973.057747
1015.774012
1015.774012
1015.774012
1015.774012
1015.774012
1015.774012
863.835812
512.265563
309.505463
142.065883
68.971515
22.163987
12.511611
11.188984
11.624694
12.393594
13.295412
15.073419
18.147826
24.474859
30.703545
41.313767
50.527453
60.849786
64.427853
67.075491
66.359639
60.508847
53.606629
44.610500
39.076805
31.250715
27.305484
23.634434
21.933913
20.759702
20.791888
20.265579
20.046830
##ZVALUE=345
0.465512
0.392795
0.442863
0.500679
0.592470
0.476837
0.448823
0.412464
0.361800
0.381470
0.446439
0.632405
0.417829
0.344515
0.396967
0.454783
0.552535
0.478625
0.420809
0.432730
0.554919
0.395775
0.347495
0.543594
0.602603
0.576973
0.481606
0.483990
0.705719
0.640750
0.706911
0.628829
0.685453
0.615716
0.715852
0.567436
0.723600
0.725985
0.550747
0.872612
0.873804
0.824928
1.022816
0.902414
1.056790
0.937581
1.347661
1.231432
1.294613
1.431704
1.513958
1.897812
2.138615
2.416968
12.978911
69.877505
258.113742
451.686978
786.760449
1015.802622
1015.802622
1015.802622
1015.802622
1015.802622
1015.802622
985.037684
645.156503
408.110619
181.016922
88.876486
30.610561
15.475750
11.031628
11.094809
11.317730
11.623502
12.610555
14.386773
17.969608
22.183657
30.313730
37.764907
46.702623
53.897500
60.081482
61.605573
60.874820
57.968497
50.226450
44.170618
36.036968
30.732751
25.043488
22.451878
20.422935
19.737482
##ZVALUE=350
0.401735
0.311732
0.332594
0.443459
0.372529
0.259876
0.488758
0.443459
0.507832
0.505447
0.365973
0.490546
0.382662
0.391603
0.621676
0.388622
0.518560
0.399947
0.533462
0.587702
0.510812
0.345707
0.475645
0.457764
0.531673
0.524521
0.716448
0.566840
0.673532
0.585914
0.565648
0.597835
0.525713
0.553727
0.602603
0.735521
0.675917
0.655651
0.626445
0.620484
0.795722
0.759959
0.858903
0.851750
0.797510
0.991821
0.811815
0.982881
1.149774
1.317859
1.388788
1.422763
1.486540
1.641512
1.940727
2.386570
4.413724
50.027966
153.676867
374.521613
610.675812
983.674526
1015.774012
1015.774012
1015.774012
1015.774012
1015.774012
1015.774012
785.990953
447.479486
265.448689
118.196607
55.938959
18.550754
11.484623
10.445714
10.258555
10.521412
11.081696
12.267828
13.513565
17.310977
20.616651
26.773810
32.821894
41.339993
47.736764
53.880811
56.480765
56.447983
53.226948
46.475530
41.186810
33.252835
28.669834
23.578405
##ZVALUE=355
0.434518
0.567436
0.504851
0.430942
0.442863
0.311732
0.337958
0.404716
0.390410
0.467896
0.510812
0.433922
0.533462
0.426769
0.491738
0.483990
0.505447
0.458956
0.496507
0.444651
0.519753
0.578761
0.646710
0.640750
0.591874
0.449419
0.614524
0.556707
0.606775
0.712872
0.631809
0.715852
0.643730
0.501871
0.530481
0.815988
0.743866
0.803471
0.664592
0.834465
0.964999
0.772476
0.866652
0.833869
0.811815
0.873804
0.887513
1.140833
1.151562
1.049638
1.084805
1.211762
1.348853
1.303554
1.591444
1.591444
1.743436
2.236962
2.630949
19.082427
87.659955
285.905600
493.718982
847.877860
1015.774012
1015.774012
1015.774012
1015.774012
1015.774012
1015.774012
879.811645
547.764897
337.497592
146.231651
70.624948
23.890734
11.965632
9.398460
9.772778
10.003448
10.351539
10.879636
11.325479
12.815595
14.563799
18.571615
22.987723
29.873848
35.526752
43.183565
47.855973
51.780939
51.448941
49.536824
44.288635
37.514567
##ZVALUE=360
0.372529
0.314713
0.369549
0.448823
0.482798
0.533462
0.451803
0.529885
0.526905
0.425577
0.388622
0.616908
0.404716
0.416636
0.508428
0.437498
0.513792
0.531673
0.476837
0.569820
0.484586
0.519753
0.474453
0.613928
0.686646
0.633597
0.500679
0.645518
0.600815
0.614524
0.587702
0.704527
0.656843
0.713468
0.733733
0.713468
0.742674
0.732541
0.807643
0.732541
0.799894
0.818968
0.818968
0.927448
0.934601
1.053810
1.040697
0.952482
1.133680
1.255870
1.174808
1.318455
1.311898
1.282692
1.248717
1.416802
1.550913
1.763701
1.817942
2.337694
2.683401
6.327629
37.512779
177.129507
351.861715
677.959919
968.052745
1015.774608
1015.774608
1015.774608
1015.774608
1015.774608
994.851589
654.512644
420.437455
200.886726
102.962852
38.196445
16.614795
9.030700
8.991957
8.958578
9.175539
9.332895
10.019541
10.495782
11.465549
13.320446
15.876889
20.148754
24.635792
32.077432
36.909580
42.534471
45.092702
46.792626
##ZVALUE=365
0.484586
0.404716
0.428557
0.443459
0.425577
0.514984
0.483990
0.409484
0.471473
0.562668
0.402927
0.259876
0.453591
0.503659
0.601411
0.495911
0.658631
0.414848
0.601411
0.538826
0.384450
0.463724
0.488758
0.479817
0.570416
0.506639
0.489950
0.577569
0.539422
0.636578
0.586510
0.584722
0.658631
0.635982
0.800490
0.703931
0.632405
0.721812
0.772476
0.659823
0.846982
0.604987
0.775456
0.901818
0.604987
0.741482
0.809431
0.830889
0.919700
0.892878
0.837445
1.045465
1.106858
1.157522
1.143813
1.123548
1.297593
1.422763
1.546741
1.951456
2.025962
2.534986
2.628565
3.465414
13.250709
111.822486
259.061456
530.032516
813.199878
1015.772820
1015.772820
1015.772820
1015.772820
1015.772820
1015.772820
769.332051
525.123477
280.338526
148.893595
52.064657
21.849871
9.362698
8.190870
7.969737
8.001924
8.633733
8.642673
9.104609
9.207726
10.028481
11.251569
14.169812
16.624928
21.338463
27.702451
31.919479
##ZVALUE=370
0.327826
0.447631
0.403523
0.240803
0.252724
0.400543
0.471473
0.258684
0.398755
0.289679
0.248551
0.319481
0.455976
0.381470
0.499487
0.457764
0.625849
0.412464
0.415444
0.480413
0.398755
0.446439
0.488758
0.511408
0.463724
0.529885
0.515580
0.568628
0.539422
0.508428
0.503659
0.532866
0.625849
0.479817
0.702739
0.621676
0.723600
0.493526
0.619888
0.567436
0.656843
0.711679
0.810623
0.506639
0.589490
0.726581
0.871420
0.625849
0.575781
0.812411
0.816584
0.778437
0.835657
0.863671
0.931621
0.894666
1.088977
1.106858
1.227856
1.144409
1.566410
1.529455
1.655817
1.763701
2.062917
2.446771
5.130768
55.937767
181.241632
446.229577
703.637004
1014.786959
1015.754938
1015.754938
1015.754938
1015.754938
1015.754938
895.907879
637.044907
336.522460
186.386704
71.940422
32.433867
12.584925
7.807612
7.401705
7.291436
7.551908
7.604957
8.044839
8.254647
8.779764
9.198785
10.664463
12.298822
15.350580
##ZVALUE=375
0.386834
0.452995
0.487566
0.396967
0.456572
0.304580
0.408888
0.418425
0.408888
0.466704
0.509620
0.304580
0.396967
0.262856
0.403523
0.361800
0.394583
0.260472
0.511408
0.295639
0.388622
0.335574
0.435710
0.333786
0.436902
0.390410
0.278950
0.542998
0.430942
0.394583
0.578761
0.470877
0.534654
0.492930
0.461936
0.425577
0.566840
0.331998
0.432730
0.433922
0.546575
0.451803
0.547767
0.679493
0.555515
0.667572
0.623465
0.672936
0.652671
0.868440
0.782609
0.714660
0.794530
0.722408
0.690818
0.842810
0.694990
0.791550
0.923872
0.854731
1.081824
1.105666
1.235604
1.354814
1.546741
1.757741
1.786947
2.354980
3.236532
25.376678
109.230876
319.980979
553.861856
944.961905
1015.774608
1015.774608
1015.774608
1015.774608
1015.774608
998.070836
757.562518
436.890721
270.803571
132.041574
64.579844
20.606518
9.587407
6.942749
6.768703
7.042885
6.834865
7.138848
7.541776
7.697940
7.789731
8.217692
##ZVALUE=380
0.401735
0.335574
0.401735
0.372529
0.213981
0.297427
0.234842
0.412464
0.537634
0.291467
0.276566
0.229478
0.410676
0.524521
0.470877
0.439882
0.432730
0.357628
0.368953
0.247955
0.268817
0.458956
0.358820
0.455976
0.382662
0.262856
0.604987
0.336766
0.429749
0.566840
0.455976
0.569820
0.410676
0.506639
0.466704
0.416636
0.432730
0.617504
0.591874
0.405908
0.721812
0.434518
0.466704
0.586510
0.652671
0.654459
0.664592
0.740886
0.712872
0.728965
0.693798
0.811815
0.683665
0.590682
0.630617
0.619888
0.725985
0.817776
0.881553
0.867844
0.911951
0.869632
0.978708
1.011491
1.311898
1.343489
1.555681
1.643896
2.078414
2.493858
2.864599
9.206533
59.904456
251.475573
467.565656
840.830803
1015.774012
1015.774012
1015.774012
1015.774012
1015.774012
1015.774012
882.241726
589.314699
382.596850
182.816982
92.072487
31.708479
13.287663
7.019639
6.389618
6.202459
6.508827
6.511807
6.598830
6.867647
##ZVALUE=385
0.383854
0.297427
0.368953
0.246763
0.233650
0.255704
0.264645
0.176430
0.236630
0.312924
0.346899
0.291467
0.458956
0.289679
0.267625
0.407696
0.301600
0.340939
0.418425
0.415444
0.253916
0.366569
0.363588
0.404716
0.509620
0.370741
0.500679
0.298619
0.358820
0.442863
0.422597
0.465512
0.503659
0.455976
0.407696
0.545979
0.463724
0.552535
0.469685
0.517964
0.474453
0.530481
0.455976
0.521541
0.558496
0.500679
0.573993
0.713468
0.751615
0.552535
0.614524
0.631809
0.669956
0.624657
0.534654
0.658631
0.712872
0.802875
0.752807
0.758767
0.792742
0.899434
0.849962
0.913739
0.905991
1.128912
1.261830
1.434684
1.515746
1.799464
1.924634
2.211928
2.529621
4.007816
26.165843
155.375004
334.186554
672.289729
966.112614
1015.774012
1015.774012
1015.774012
1015.774012
1015.774012
1015.774012
737.198591
499.827862
262.002945
143.967867
57.852864
23.677945
7.911921
6.143451
5.691648
5.647540
5.957484
##ZVALUE=390
0.363588
0.184774
0.288486
0.326633
0.256896
0.420809
0.364780
0.127554
0.307560
0.261664
0.242591
0.227690
0.300407
0.262856
0.401735
0.247955
0.379682
0.268817
0.351667
0.396967
0.334978
0.378489
0.349879
0.331998
0.424981
0.355840
0.279546
0.471473
0.503659
0.403523
0.519753
0.458956
0.399947
0.502467
0.420809
0.531673
0.569820
0.580549
0.406504
0.661612
0.640750
0.587702
0.438690
0.597835
0.623465
0.629425
0.637770
0.663996
0.657439
0.599623
0.607967
0.656843
0.643730
0.562668
0.526905
0.644922
0.681877
0.618696
0.774860
0.697970
0.782609
0.788569
0.846982
0.852942
0.924468
1.187921
0.953674
1.275539
1.433492
1.555681
1.587868
1.715422
2.049804
1.965761
2.215505
2.620816
8.981824
92.512965
247.873664
560.050607
856.939554
1015.774012
1015.774012
1015.774012
1015.774012
1015.774012
1015.774012
873.236656
635.057688
366.719961
206.399560
81.867576
36.777854
11.051893
6.134510
5.539656
##ZVALUE=395
0.278950
0.359416
0.343919
0.305772
0.286698
0.369549
0.233650
0.329614
0.290871
0.370741
0.322461
0.287890
0.338554
0.444651
0.315905
0.328422
0.478625
0.264645
0.343919
0.333786
0.216961
0.321865
0.192523
0.381470
0.263453
0.256896
0.470877
0.517964
0.541806
0.597835
0.447631
0.318885
0.596642
0.496507
0.349879
0.361800
0.662804
0.585914
0.496507
0.558496
0.511408
0.529885
0.537634
0.442863
0.540614
0.572801
0.654459
0.542998
0.622869
0.573993
0.666976
0.645518
0.694990
0.715852
0.511408
0.732541
0.666976
0.765920
0.719428
0.757575
0.839829
0.877976
0.925660
0.861883
0.991821
0.926852
1.137853
1.188517
1.293421
1.527667
1.655817
1.559854
1.597404
1.703501
1.764894
1.974702
1.867414
2.227426
4.019737
54.938793
188.950896
469.413996
723.657012
1015.768647
1015.768647
1015.768647
1015.768647
1015.768647
1015.768647
1013.099551
787.034035
457.582474
275.712013
116.286874
54.212809
17.484426
##ZVALUE=400
0.300407
0.338554
0.301600
0.248551
0.169873
0.299811
0.372529
0.271797
0.405908
0.322461
0.454783
0.324845
0.292659
0.290871
0.296831
0.465512
0.270605
0.456572
0.365973
0.377893
0.350475
0.376701
0.373721
0.380874
0.300407
0.540614
0.469685
0.379682
0.440478
0.387430
0.510812
0.516772
0.553727
0.689626
0.467896
0.491738
0.638962
0.423789
0.710487
0.536442
0.489950
0.668764
0.637770
0.673532
0.482798
0.697970
0.517964
0.495911
0.585914
0.652671
0.714660
0.585914
0.700951
0.722408
0.529885
0.868440
0.568628
0.752807
0.861883
0.838637
0.851750
1.027584
0.891685
0.878572
0.855923
1.010895
1.064539
1.245737
1.243949
1.502633
1.504421
1.438856
1.400709
1.435876
1.666546
1.486540
1.565814
1.684427
2.119541
2.155900
2.855659
22.742748
109.182596
333.449841
563.823581
942.975879
1015.774012
1015.774012
1015.774012
1015.774012
1015.774012
1015.774012
871.851444
564.069748
360.950828
175.699592
##END
