##TITLE=FQP00651
##FORMAT=SPECTACLE-ASCII V-1.2
##DATA TYPE=ULTRAVIOLET SPECTRUM
##SECOND TYPE=ULTRAVIOLET SPECTRUM
##DATE=11/14/17
##TIME=16:16:11
##SPECTROMETER/DATA SYSTEM=SPECTACLE
##XUNITS=NM EM
##YUNITS=ENERGY
##YFACTOR=1
##FIRSTX=220
##LASTX=410
##NPOINTS=96
##3DDATA=Equidistant
##ZUNITS=NM EX
##FIRSTZ=210
##LASTZ=400
##ZPOINTS=39
##XYDATA=(Y..Y)
##ZVALUE=210
3.079772
3.140569
4.135966
3.599524
3.817677
3.571510
3.657937
4.566908
4.180670
3.574491
2.912879
2.302527
2.417564
2.178550
2.295971
2.629757
2.118945
2.774596
3.094673
2.945662
3.102422
2.706647
3.449917
3.324747
4.054904
3.927946
3.759861
4.739761
4.131794
5.560517
5.232692
5.073547
5.549788
4.803538
6.226897
5.464554
6.028414
6.342530
6.130934
6.262660
5.290508
6.179810
5.900860
6.012917
6.034970
5.573630
5.944967
6.315708
6.568432
5.774498
6.399751
6.067753
5.938411
6.144643
6.446838
5.467534
6.674528
6.647706
5.229712
6.629825
6.497502
6.502867
6.170869
6.287694
6.415844
6.214976
7.621646
6.527901
7.752776
8.350611
10.834932
11.384487
13.420582
13.761520
17.274618
15.846491
17.227530
16.805530
17.787814
15.759468
15.087724
13.206601
11.860728
10.246634
8.633733
7.541776
7.048845
6.642938
5.352497
5.331635
5.508661
6.339550
5.218983
6.978512
6.289482
7.345676
##ZVALUE=215
11.082888
10.639429
9.322762
7.612705
7.860661
7.065535
6.513596
7.269979
6.668568
8.079410
6.266832
6.354451
5.892515
4.267693
2.874732
3.447533
2.219677
2.756715
2.622604
2.812743
3.080964
3.824830
2.920628
4.085898
4.557967
4.360676
5.028844
4.890561
6.310940
6.707907
6.464720
7.053614
6.434917
7.414818
6.837845
6.799698
7.804632
7.641912
7.512569
7.606745
7.768869
7.985830
7.722974
7.652640
6.730556
6.646514
6.761551
6.542802
6.254911
7.788539
8.307695
7.457733
7.122755
6.741881
6.631613
6.983876
6.814599
7.151961
6.579757
6.993413
7.091761
6.557703
6.298423
7.134676
7.612705
6.834865
7.327795
7.906556
8.346438
10.922551
10.860562
12.229681
12.405515
14.487505
14.426708
16.440749
16.003847
15.669465
15.793443
13.870597
15.044808
12.674928
12.014508
10.179877
10.005832
8.145571
7.152557
6.461740
5.892515
5.917549
6.525517
5.588531
5.292892
5.799532
5.416870
5.548596
##ZVALUE=220
24.866462
27.729869
29.808879
32.427907
27.122498
24.145842
20.649433
16.188622
13.534427
12.929440
12.675524
14.243722
13.091564
12.133718
10.985732
8.686781
7.036924
5.177855
3.959537
3.377795
4.107952
4.064441
3.694892
4.924536
4.502535
4.768968
5.545616
6.174445
6.907582
8.240938
7.925630
7.073879
7.922649
8.904934
10.403991
9.935498
10.121465
9.167790
8.692741
9.155869
8.217692
8.860826
8.274913
9.449720
9.561777
9.424686
8.964539
8.693933
8.281469
8.193851
8.324981
8.374453
10.363460
8.558631
8.279681
8.179545
8.099675
9.356737
8.616447
7.635951
9.153485
9.767413
8.632541
8.529425
7.991791
9.698868
8.390546
9.751916
9.309649
9.082556
12.420416
12.119412
13.794899
16.360879
15.988946
18.599629
17.495751
18.596649
17.172694
15.996695
15.171766
14.337897
12.853742
12.072921
11.548996
8.881688
9.239912
8.818507
8.057952
7.043481
7.830858
7.411838
7.665753
6.353855
7.021427
6.492734
##ZVALUE=225
35.089850
39.809942
53.880811
73.697567
81.022978
81.512928
80.816746
65.054893
50.211549
34.599900
28.127432
23.864508
24.446845
23.126602
24.953485
24.163723
22.214651
19.350648
13.627410
9.600520
6.204844
5.161762
3.816485
4.805923
4.836917
4.918575
5.511642
5.858541
6.375909
7.084608
7.882714
8.180737
8.284450
8.575916
9.227991
10.233521
10.026693
9.803772
10.455847
10.637641
10.360479
9.526610
11.627674
10.052919
9.395480
9.635687
11.085868
10.355711
10.525584
10.683537
10.597706
10.738969
10.276437
9.932518
10.511875
10.293722
10.328889
10.344982
10.338426
11.090636
9.522438
9.888411
11.631846
9.797812
10.434985
10.796785
11.213422
12.051463
11.628866
13.266802
13.485551
14.873743
16.839504
16.703606
16.707778
17.108917
18.441677
19.664764
17.030835
16.206503
15.614629
13.472438
13.642907
12.898445
12.943745
11.240840
9.734631
10.780692
9.932518
8.576512
8.421540
7.931590
8.967519
8.618832
7.929802
8.898973
##ZVALUE=230
24.807453
26.801825
45.914650
83.286762
115.372539
151.165724
174.327493
180.751681
169.802904
144.004822
99.723935
72.061419
47.074556
39.762855
38.240552
43.289661
45.691729
44.053793
39.753914
32.963753
27.772784
16.709566
12.341738
8.269548
5.895495
5.023479
4.275441
4.830956
6.272793
5.616546
6.591678
7.148981
6.518960
8.449554
8.634925
8.233786
9.329915
9.328723
10.172725
9.470582
10.112524
10.735989
10.725856
10.484457
11.657476
11.810660
12.371540
12.509823
12.394786
13.048649
11.779666
14.244914
13.052821
13.661981
15.485883
13.918877
13.378859
13.342500
14.127493
14.503598
12.652874
15.123487
15.905499
13.758540
15.003681
13.915896
14.886856
14.506578
14.421940
17.614961
17.566681
18.088818
18.119812
20.532608
20.524859
19.756556
20.416975
20.108819
18.351674
18.271804
18.663406
17.026663
15.947819
13.721585
13.812780
13.462901
12.922883
12.693405
12.876987
11.692643
11.332631
11.343956
11.303425
12.744665
9.835958
10.377765
##ZVALUE=235
7.486939
7.736683
23.907423
44.438839
88.615417
139.510632
211.091638
265.242457
319.618583
332.855582
302.904844
244.321823
186.760426
119.741559
84.186792
59.569478
58.120489
63.494444
69.052577
70.738792
70.200562
58.404803
46.091676
34.362674
23.607612
16.830564
10.570884
7.567406
7.152557
6.876588
7.541776
6.678700
6.833673
8.625984
8.525848
9.192824
10.257959
8.860826
11.034608
11.987686
11.276603
12.509823
13.808608
13.756752
13.666749
15.050769
17.176867
16.979575
17.787814
16.889572
19.304752
18.673539
19.773841
19.476414
19.962788
19.667745
20.475984
18.646717
19.551516
22.488832
19.394755
21.212697
20.381808
18.350482
20.150542
22.337437
21.207929
20.949841
22.914410
24.763942
23.977757
22.830963
26.842952
26.433468
27.789474
26.106834
27.213693
26.469827
24.198890
24.519563
24.582744
22.681952
21.144748
20.629764
21.178722
18.273592
19.276738
17.120838
17.380714
17.906427
17.201900
15.867949
15.097857
17.414689
15.777946
15.301704
##ZVALUE=240
1.705885
2.391934
3.085732
10.219812
26.436448
63.502789
113.063455
214.074850
303.872824
394.183993
492.275953
502.087474
468.370914
399.218798
296.221972
209.726691
127.712488
90.802908
74.356794
77.612996
82.798600
90.533495
95.847845
87.000728
77.877641
53.755641
45.087934
28.906465
21.633506
13.402700
11.203885
9.335876
10.280609
9.537935
10.615587
9.908676
10.574460
11.952519
12.625456
13.259649
13.599992
15.432835
16.667843
17.627478
18.652678
20.047426
20.386577
22.456646
24.863482
24.674535
24.802685
24.483800
26.888847
25.004745
27.401447
28.708577
26.935935
28.235912
26.532412
26.896596
26.364923
28.279424
26.011467
25.621653
27.748942
26.288629
27.834773
28.138757
27.868748
28.809905
30.465722
30.006766
29.770732
31.496882
33.486485
31.725764
31.807423
30.981898
29.774904
29.176474
27.965903
27.693510
25.909543
26.306510
23.740530
23.014545
24.347901
20.905733
20.527840
22.070408
21.510720
19.972920
19.311905
18.224716
17.302632
19.561648
##ZVALUE=245
1.492500
2.054572
1.420975
1.832843
3.001690
6.634593
22.562742
51.620007
135.287642
217.420459
364.655852
471.888781
571.475625
624.362826
603.036880
507.295728
403.314829
273.081660
186.671615
108.767748
81.596971
75.121522
86.011887
98.782778
108.939409
104.846954
95.870495
86.315870
66.825747
51.831603
39.334893
23.395419
17.497540
13.162494
11.173487
12.494922
11.924505
11.552572
12.915730
14.330745
14.258623
16.086698
18.038750
18.135905
18.037558
22.439957
22.844672
25.127530
24.428964
28.246641
27.573705
26.877522
28.238893
27.698874
29.306412
30.666590
28.817654
28.610826
29.684901
29.009581
28.274655
29.138923
27.530789
28.402805
27.207732
27.117729
27.444959
27.849674
26.167631
28.014779
27.829409
27.129650
29.134750
29.265881
29.313564
28.982759
28.603673
28.671622
28.162599
26.847720
25.188923
24.825931
24.821758
23.461580
24.719834
22.846460
21.038651
20.664930
21.256804
21.388531
20.326972
20.012856
19.272566
19.329786
18.329620
17.896891
##ZVALUE=250
1.682639
1.348853
1.415610
1.613498
1.414418
1.299977
2.411604
4.654527
20.508766
46.672821
119.864941
205.772519
327.043533
488.425493
611.441731
706.095695
715.076923
645.706654
541.226864
371.104479
248.358846
161.058903
91.149807
73.941946
80.516934
93.094707
107.643604
114.368796
111.033916
105.558634
95.897913
71.533918
55.421591
37.487745
27.727485
17.509460
14.367700
12.718439
12.461543
13.830662
15.376806
15.919805
16.823411
19.620657
19.586682
23.578405
23.260713
25.166869
25.981665
26.189685
27.234554
28.179884
27.893782
27.548671
29.039979
29.441714
27.664900
28.713942
28.453469
27.744770
26.963949
27.232766
25.655627
25.820732
25.697947
24.315715
24.001598
24.153590
24.917722
24.319887
23.870468
25.620461
25.847554
25.041699
25.360584
25.035739
25.266409
22.883415
25.535822
24.440885
23.118854
21.661520
21.873713
21.453500
21.530986
20.149946
21.358728
20.211935
19.061565
18.757582
19.687414
17.189980
17.660856
17.117858
17.572641
16.993880
##ZVALUE=255
1.062751
1.307726
1.123548
1.197457
1.339912
1.286864
1.624823
1.442432
1.286864
2.407432
10.622740
32.252669
92.810988
170.145631
309.998989
455.587506
652.295947
753.980875
815.261602
790.972710
693.363547
500.688553
352.296829
196.906924
122.044683
73.234439
66.394806
77.810884
93.087554
110.215545
118.763447
117.770433
110.633969
90.865493
76.826811
54.268837
39.747953
24.454594
19.421577
15.080571
14.186502
15.287995
15.967488
16.612411
18.928647
19.898415
21.345615
21.947622
23.270845
24.166703
24.908781
23.879409
24.915934
24.487972
24.216771
24.132729
23.757815
24.828911
24.304986
23.542643
22.425652
22.797585
23.177862
22.201538
20.971894
20.621419
20.310879
19.931793
19.897819
19.781590
19.360781
20.395517
19.713640
20.766854
20.579696
20.350814
21.279454
20.030737
18.807650
18.924475
18.656850
19.062757
18.863678
16.898513
17.167926
16.675591
15.599728
15.713573
16.741753
16.098619
15.960932
16.162992
15.892982
15.720725
15.379786
14.518499
##ZVALUE=260
1.136661
1.243949
1.095533
1.288652
0.947714
1.152754
1.375675
1.111627
1.378655
1.638532
1.595616
1.863837
5.302429
22.919774
54.904819
146.552920
250.556469
439.070463
604.552627
813.422799
913.388729
942.900777
829.077959
689.017773
454.397798
313.137770
175.137520
105.511546
65.696836
59.612989
77.570677
93.742609
108.342767
124.762654
121.079683
111.438632
96.045732
76.373816
58.968663
38.734674
28.497577
20.441413
16.834736
15.128851
16.525984
16.766787
18.202662
18.986464
19.541979
20.279884
20.777583
20.999908
20.220876
20.811558
21.183491
19.368529
20.457506
18.637776
18.687844
17.613769
19.086599
17.716885
17.538667
18.297434
16.373992
16.662478
17.162561
16.436577
16.451478
16.552806
15.974641
17.068982
17.675757
17.171502
17.647743
16.881824
16.890764
16.736984
16.863942
16.827583
15.264750
15.795827
15.170574
15.572906
14.705658
13.962984
13.686419
14.474988
14.020801
14.393926
13.802648
13.745427
14.969707
14.016628
13.834834
13.019443
##ZVALUE=265
0.949502
1.097918
0.713468
1.020432
0.949502
1.076460
1.088977
0.885725
1.256466
1.194477
1.070499
1.320839
1.335740
1.567602
3.616810
11.641979
47.680736
102.455616
167.124867
404.860973
604.902506
865.924954
1005.022526
1015.774012
978.392959
781.666636
610.513687
375.528932
243.129730
123.845935
72.603822
52.600503
60.096979
79.948902
99.404454
118.752718
124.303699
120.993853
113.650560
93.431473
76.059699
54.706931
41.157603
28.134584
20.399690
16.687512
15.608668
15.387535
14.947653
16.070604
16.618967
17.120838
16.859770
16.529560
17.087460
17.021894
15.745759
15.433431
15.789866
15.722513
14.894605
15.629530
14.778972
14.392734
14.062524
14.474988
14.461875
14.034510
14.341474
14.222860
14.559627
14.752746
15.702844
14.709830
14.642477
15.912652
15.153885
15.324950
14.554858
14.052987
13.225675
14.204979
13.714433
13.270974
12.689829
12.614727
12.147427
13.274550
13.184547
13.028979
12.349486
12.616515
12.115836
12.484789
12.179613
12.701750
##ZVALUE=270
0.842810
0.865459
0.991821
0.747442
0.891685
0.917912
0.775456
0.759959
0.926852
1.088977
0.884533
1.247525
1.187921
1.412630
1.659989
1.468658
1.887679
6.961823
22.028685
76.006651
162.908435
304.019451
565.574765
781.048536
1002.615690
1015.774012
1015.774012
965.965986
734.999776
549.248457
380.390882
192.540884
106.239915
52.202940
44.411421
60.476661
77.866912
99.350810
114.182830
122.835636
122.989416
112.967491
98.178983
75.382590
58.273673
38.459897
29.469728
21.113753
17.546415
14.792681
14.106631
14.597774
14.473796
14.898777
15.387535
14.826655
15.334487
14.767647
14.505982
14.095902
14.090538
13.550520
13.740659
12.499690
13.312697
13.020635
13.507605
12.940764
12.559891
12.716651
13.200641
13.377666
13.771653
14.414787
13.986826
13.598800
13.689995
13.492703
12.858510
13.333559
13.093948
11.642575
12.079477
12.663603
11.635423
11.630654
12.589693
11.512637
11.217594
11.993647
11.587739
11.194944
12.070537
10.948777
10.974407
10.553598
##ZVALUE=275
0.867844
0.837445
0.746846
0.714660
0.713468
0.700951
0.632405
0.771880
0.872612
0.870824
0.916719
0.883937
1.064539
0.932813
1.294613
1.140833
1.113415
1.498461
1.195669
3.184676
12.859702
39.654970
127.389431
249.688029
487.073660
681.104660
919.090509
1015.774012
1015.774012
1015.774012
914.661884
662.147999
466.264486
245.109797
137.300491
60.174465
39.668679
44.085979
57.493448
79.058409
95.683932
114.820600
121.400952
120.215416
112.959743
94.290972
76.923966
55.861473
43.224692
28.338432
21.373630
16.437769
15.012622
14.049411
14.107823
14.226437
13.881922
13.130903
13.305545
13.564825
13.404489
13.268590
13.398528
12.905598
12.945533
13.190508
12.881756
12.366772
12.559891
12.937784
12.715459
12.466908
13.608932
13.828874
13.555884
13.571978
12.796521
13.537407
12.780428
12.792945
12.334585
12.361407
11.606812
11.069775
11.870861
11.454821
11.047721
10.976791
11.237860
10.357499
10.909438
10.697842
10.686517
10.030866
10.080934
10.287762
##ZVALUE=280
0.736713
0.937581
0.549555
0.727773
0.721812
0.852942
0.666976
0.750422
0.811815
0.763535
0.984669
1.030564
1.063943
1.069903
1.050830
1.212955
1.004934
1.137853
1.253486
1.362562
1.538992
1.605749
8.460879
29.057860
101.907849
194.623470
378.691554
571.004748
837.106705
997.272730
1015.822887
1015.822887
984.956622
737.913847
541.251898
305.805802
181.994438
82.136989
44.283867
31.849742
39.963722
59.197545
75.153708
98.158717
110.808611
120.151639
118.438601
106.946826
94.191432
73.322654
56.783557
39.680600
29.984713
21.022558
16.350746
13.344884
13.016462
13.001561
12.727976
13.102889
12.969971
13.237596
12.426972
12.758970
13.162494
12.497902
12.474656
12.831688
12.571812
13.119578
12.955666
13.200641
12.988448
13.542771
13.397932
13.201833
13.186932
12.794733
12.299418
12.598634
12.081861
11.341572
11.782646
11.219978
12.030602
10.998845
11.107922
10.603666
10.852814
11.726618
10.575652
10.848641
10.389686
10.296702
9.911656
10.071993
##ZVALUE=285
0.609756
0.618696
0.540614
0.576973
0.412464
0.655651
0.511408
0.547767
0.709891
0.774860
0.832677
0.526905
0.638962
0.873804
0.965595
0.974536
0.848770
1.061559
1.154542
1.116991
1.242757
1.334548
1.389980
1.707673
3.754497
14.289618
53.918958
119.972825
278.065801
455.581546
662.993789
934.796929
1015.776992
1015.776992
1015.776992
873.869658
676.731467
419.804454
259.444714
118.703842
62.415600
29.091835
27.105808
37.464499
51.935911
76.055527
89.912415
105.644464
112.607479
113.540888
107.125640
89.044571
75.845718
54.722428
40.470958
26.635528
20.489693
15.807748
13.221502
12.920499
12.954473
13.077855
12.345910
12.471676
12.719631
12.778640
12.916923
12.542605
12.470484
12.975931
13.234615
13.275743
13.272762
13.475418
13.181567
13.469458
13.113618
12.365580
12.538433
11.949539
12.016892
11.708736
11.688471
10.773540
11.145473
11.113882
10.909438
10.568500
10.992885
10.406971
10.322928
10.480881
10.094643
10.104775
9.990931
9.523630
##ZVALUE=290
0.386834
0.364780
0.339746
0.279546
0.506639
0.505447
0.518560
0.666976
0.685453
0.491738
0.462532
0.595450
0.669956
0.484586
0.544786
0.597835
0.629425
0.839829
0.800490
0.891685
0.926852
0.753999
1.075864
1.119971
1.304746
1.337528
1.757741
5.583763
30.132532
74.399710
153.491497
345.933437
559.436679
875.044465
1015.611887
1015.611887
1015.611887
996.797681
811.963677
539.909005
350.778699
172.400475
91.287494
34.765601
21.145940
24.340749
32.873750
50.548911
66.007972
86.889863
100.577474
110.530853
109.841824
102.670789
90.851784
70.170760
54.250956
38.543940
28.758645
19.507408
16.358495
12.894869
12.129545
11.624694
11.880994
11.867881
12.531877
12.445450
11.892915
12.104511
12.618899
13.127923
12.781620
12.506843
12.265444
12.286901
12.374520
11.955500
12.192726
11.408925
11.435747
11.191964
11.242628
10.744929
10.615587
10.509491
10.328889
10.582805
10.111928
10.165572
10.038614
9.727478
9.243488
9.683967
9.399652
9.230971
##ZVALUE=295
0.621676
0.598431
0.409484
0.390410
0.522733
0.417829
0.502467
0.501871
0.588894
0.742674
0.559688
0.658631
0.644922
0.550747
0.458956
0.744462
0.626445
0.761747
0.683665
0.933409
0.852942
0.873804
1.047850
1.046658
1.135468
1.166463
1.424551
1.427531
1.710653
2.604723
14.076829
44.424534
110.216737
278.072953
462.013483
758.320689
961.522460
1015.774608
1015.774608
1015.774608
921.287537
649.062991
443.360806
226.471424
125.475526
49.906969
23.522973
16.652942
20.133853
32.444596
45.077801
63.414574
78.230500
96.545815
103.839636
104.109645
97.415447
82.685947
69.354773
51.548481
39.156675
26.272535
20.040870
15.401840
13.471842
12.146831
11.997819
11.709929
12.279749
12.069941
12.551546
12.734532
12.515783
12.206435
12.388825
12.645721
11.530519
12.036562
11.586547
11.396408
11.286736
11.274815
11.099577
10.993481
11.002421
10.092854
10.422468
10.368824
10.533929
10.322928
9.864569
9.470582
9.722710
9.703636
9.457469
9.194613
##ZVALUE=300
0.533462
0.445843
0.556707
0.514984
0.514984
0.613928
0.449419
0.468493
0.538826
0.497699
0.551939
0.581741
0.766516
0.495911
0.582933
0.515580
0.601411
0.529885
0.811815
0.675917
0.643730
0.847578
0.806451
0.873804
1.132488
0.830889
1.014471
1.190901
1.196861
1.356602
1.486540
1.704693
4.418492
27.138591
71.764588
195.581913
347.164869
611.860752
822.798610
1015.774012
1015.774012
1015.774012
1000.318527
759.264827
555.559397
314.070582
183.551908
82.478523
39.873719
16.372800
14.473796
20.984411
28.578639
43.292642
57.367682
77.606440
89.461803
98.206997
98.607540
92.927814
83.345771
66.289902
52.525997
37.103891
27.806759
19.010901
15.258789
13.033748
12.378693
11.456609
11.668801
11.545420
12.051463
12.177825
12.143850
11.866689
11.877418
11.903644
11.278987
11.056662
10.854602
10.924935
10.978580
10.641813
10.528564
10.535717
10.335445
10.125637
10.216832
9.957552
9.988546
9.712577
9.715557
9.155869
9.067655
9.164810
##ZVALUE=305
0.377893
0.428557
0.268817
0.409484
0.369549
0.446439
0.347495
0.588894
0.454783
0.391603
0.489950
0.445843
0.474453
0.542998
0.597835
0.572801
0.530481
0.583529
0.737906
0.730753
0.568628
0.756979
0.691414
0.565648
0.606775
0.732541
0.786781
0.920892
0.952482
1.105666
1.158714
1.303554
1.299977
1.598597
2.484918
15.744567
47.772527
144.435763
270.700455
511.140823
717.204809
976.610780
1015.775800
1015.775800
1015.775800
856.655836
670.567751
424.172878
264.855623
119.498968
59.238672
22.291541
13.160706
14.579892
19.915700
30.310750
41.542649
57.769418
70.195794
85.084438
92.024803
93.520880
88.713765
76.772571
64.222813
48.488975
36.789775
25.781989
19.208789
14.578700
13.024807
11.570454
12.003779
11.828542
11.409521
10.963678
11.036992
11.289716
11.174679
10.901690
10.935664
10.917783
10.738969
10.605454
10.514855
10.602474
10.547638
10.350943
10.114908
10.082722
9.779930
9.475946
9.913445
9.598732
9.188652
9.479523
##ZVALUE=310
0.523925
0.478625
0.400543
0.435710
0.358820
0.378489
0.334978
0.393987
0.526905
0.588894
0.467896
0.441670
0.438690
0.429749
0.439882
0.422597
0.419617
0.626445
0.448823
0.574589
0.583529
0.613928
0.710487
0.642538
0.868440
0.596642
0.885725
0.655651
0.825524
0.969768
0.995994
0.955462
1.054406
1.089573
1.170635
1.465678
1.811981
6.380677
23.113489
88.813901
180.538893
384.653807
584.269762
858.556628
1012.864709
1015.769839
1015.769839
990.724564
818.698406
548.847914
367.224813
185.991526
99.309683
37.239790
17.166734
11.070967
13.106465
18.370748
25.425553
37.937760
49.673915
66.410899
76.595545
85.863471
88.464618
84.513426
75.466633
60.565472
48.990846
34.546852
26.482940
18.964410
14.760494
12.295842
11.828542
11.025667
11.225939
10.850430
10.662675
10.901690
10.582805
11.092424
10.923743
10.663867
10.596514
10.364652
10.611415
10.396838
10.435581
10.081530
10.007620
10.064840
10.108948
9.733438
9.189844
9.491444
##ZVALUE=315
0.259876
0.254512
0.219941
0.258684
0.227690
0.239611
0.260472
0.246763
0.522733
0.515580
0.475645
0.433922
0.408888
0.361800
0.486970
0.339746
0.380874
0.316501
0.380874
0.263453
0.514984
0.406504
0.415444
0.522733
0.604987
0.661612
0.699759
0.536442
0.687838
0.749826
0.781417
0.796914
0.736713
0.827909
0.928640
1.063943
1.233816
1.291633
1.397729
2.826452
12.007952
55.313706
128.376484
296.406746
482.680798
772.224665
952.689648
1015.712619
1015.712619
1015.712619
905.499458
654.444695
465.427637
248.587728
138.574839
51.430464
22.901893
11.049509
10.576844
12.850761
16.033649
24.345517
32.927990
46.480894
58.037639
72.505474
78.388453
81.690550
78.690648
68.003535
58.668852
45.427680
34.410954
23.926497
18.260479
13.326406
12.048483
10.916591
10.714531
10.613799
10.497570
10.496974
10.305643
10.224581
10.551810
10.574460
10.165572
10.583997
10.180473
10.155439
10.019541
9.842515
9.915829
9.698868
9.788871
9.558797
##ZVALUE=320
0.214577
0.194907
0.176430
0.277758
0.208616
0.308752
0.313520
0.226498
0.273585
0.101924
0.176430
0.196695
0.255704
0.309944
0.270605
0.361800
0.393987
0.383854
0.372529
0.336766
0.421405
0.393987
0.458956
0.324845
0.509620
0.396967
0.338554
0.648499
0.534654
0.494719
0.575781
0.662804
0.577569
0.727773
0.784993
0.717640
0.867844
0.982881
0.946522
1.155734
1.330972
1.762509
5.166531
31.911731
85.806847
227.092505
373.052955
618.335009
811.091661
1012.459993
1015.637517
1015.637517
992.869735
768.336654
568.487644
319.443941
187.756419
83.572865
37.615895
12.639761
9.142756
9.229779
10.723472
14.681816
20.067692
30.310750
40.493608
53.641796
64.235926
73.945522
76.395869
72.205663
66.497922
53.578615
43.133497
30.565858
23.018718
16.689897
13.410449
11.386871
10.321736
10.327697
9.891987
10.128617
9.791851
10.002851
10.162592
10.131598
9.865761
9.930730
9.599924
9.933710
9.276867
9.617805
9.486675
9.295940
##ZVALUE=325
0.346899
0.265837
0.211596
0.302792
0.359416
0.215769
0.449419
0.530481
0.456572
0.440478
0.355840
0.337958
0.534654
0.340939
0.452995
0.459552
0.296831
0.362992
0.494719
0.433922
0.458956
0.495911
0.432730
0.504851
0.434518
0.567436
0.484586
0.419617
0.474453
0.640750
0.520945
0.690818
0.601411
0.743866
0.753999
0.752807
0.837445
0.827909
1.006722
0.954866
0.988841
1.265407
1.276731
1.458526
3.183484
19.853711
54.781437
155.130625
280.413628
514.656901
712.701678
943.877697
1015.774012
1015.774012
1008.966565
820.649862
627.976656
395.936966
243.700743
109.590888
54.316521
17.711520
9.002686
7.501841
7.855892
10.139942
12.918711
19.860864
27.760863
40.610433
50.632954
62.034726
68.797469
70.889592
68.264604
59.430599
50.667524
39.142966
30.033588
20.417571
15.424490
12.614727
10.679960
10.292530
10.289550
9.838939
9.923577
9.981990
9.698868
9.499788
9.667873
9.883642
9.752512
9.610653
9.472966
9.595752
##ZVALUE=330
0.436902
0.328422
0.258684
0.263453
0.305772
0.350475
0.241995
0.262856
0.325441
0.339746
0.299811
0.392795
0.323653
0.425577
0.424981
0.312924
0.219941
0.460744
0.273585
0.431538
0.491738
0.349879
0.518560
0.428557
0.482798
0.363588
0.493526
0.502467
0.498891
0.488758
0.484586
0.541806
0.576973
0.574589
0.567436
0.637770
0.653863
0.681877
0.799894
0.834465
0.796914
0.917912
1.023412
1.233816
1.403689
1.500845
1.928806
8.635521
29.954910
105.608702
204.597712
408.030748
595.077872
849.247575
999.497771
1015.774012
1015.774012
901.425481
730.581880
476.815701
308.260918
148.516893
77.263713
28.068423
12.183785
7.137656
7.086992
8.017421
9.653568
13.360977
18.324852
27.229786
35.959482
49.042702
57.477951
64.949989
66.500902
63.112974
57.384968
45.714974
37.735701
27.210712
21.376610
15.670657
13.271570
10.762811
10.292530
9.640455
9.774566
9.777546
9.611845
9.644628
9.538531
9.548664
9.707808
9.438992
##ZVALUE=335
0.245571
0.335574
0.285506
0.166893
0.278950
0.326633
0.350475
0.352859
0.313520
0.409484
0.212789
0.270605
0.481606
0.298619
0.412464
0.472665
0.336766
0.416636
0.518560
0.307560
0.399947
0.294447
0.460744
0.489950
0.296831
0.328422
0.580549
0.599623
0.551939
0.477433
0.530481
0.665784
0.427961
0.570416
0.531673
0.584722
0.706911
0.590682
0.616908
0.574589
0.784993
0.693798
0.827909
0.921488
1.065731
1.085997
1.019835
1.371503
1.241565
3.920794
15.482903
65.036416
139.284730
308.782458
491.245985
753.953457
930.457711
1015.774012
1015.774012
956.736803
803.455710
552.018881
376.570821
200.166702
109.377503
39.141774
16.836524
7.651448
6.910563
7.372499
7.859468
9.508729
12.326837
18.461943
25.238991
35.483837
44.395924
54.125786
59.305429
61.131716
58.266521
51.356554
44.309497
35.460591
28.693676
20.858645
16.281605
12.864470
11.009574
10.118484
9.748936
9.253621
8.940697
9.180903
9.036660
9.266734
##ZVALUE=340
0.129938
0.218749
0.294447
0.219941
0.371933
0.247955
0.090599
0.172853
0.277758
0.123978
0.262856
0.160933
0.252724
0.278950
0.263453
0.187755
0.346899
0.194907
0.296831
0.323653
0.418425
0.261664
0.214577
0.171661
0.350475
0.322461
0.230670
0.355840
0.339746
0.242591
0.440478
0.280738
0.534654
0.423789
0.556707
0.455976
0.471473
0.552535
0.447631
0.562668
0.586510
0.355840
0.573993
0.554919
0.617504
0.924468
0.851750
0.890493
1.092553
1.145601
1.384616
1.937747
6.949902
40.388703
100.381970
247.478485
413.530469
667.537451
848.459601
1013.706923
1015.703678
1014.679670
902.400017
674.656630
472.584963
247.501731
139.968991
57.651997
23.969412
8.577704
6.954670
6.965995
7.102489
8.228421
9.063482
12.678504
16.872883
24.383664
32.016635
43.145418
50.488710
56.196451
57.061911
54.601431
50.550699
41.732788
34.878850
26.075840
20.692945
15.797615
12.685657
10.425448
9.664893
9.055734
8.984804
8.762479
##ZVALUE=345
0.341535
0.251532
0.203848
0.376701
0.313520
0.256896
0.369549
0.228882
0.206828
0.314713
0.310540
0.281930
0.190735
0.300407
0.268817
0.256896
0.396967
0.328422
0.420809
0.298619
0.374913
0.434518
0.450611
0.293851
0.339746
0.488758
0.321865
0.293851
0.358820
0.263453
0.353456
0.447631
0.533462
0.463724
0.428557
0.483990
0.421405
0.607967
0.621676
0.636578
0.551939
0.539422
0.586510
0.672936
0.525713
0.688434
0.737906
0.916719
0.701547
0.891685
0.990629
1.090765
1.154542
1.570582
3.422499
24.256706
67.806840
173.276663
302.649736
533.726811
711.711645
921.297669
1012.855768
1015.774012
946.917534
732.964873
552.075505
329.258442
187.457800
75.786710
34.626722
12.273788
7.177591
6.816983
6.965995
6.952882
7.314682
8.710623
11.113882
16.227961
22.394657
31.171441
38.030744
45.748949
49.418807
52.531958
51.525831
46.747923
41.445494
33.159852
26.896596
19.463897
15.467405
11.756420
10.130405
9.061694
##ZVALUE=350
0.222921
0.267625
0.338554
0.293851
0.263453
0.249743
0.162721
0.360608
0.380874
0.256896
0.178814
0.348687
0.207424
0.195503
0.245571
0.253916
0.387430
0.394583
0.165701
0.393987
0.279546
0.215769
0.441670
0.440478
0.441670
0.477433
0.512600
0.402927
0.454783
0.342727
0.499487
0.397563
0.278950
0.608563
0.528693
0.276566
0.412464
0.575781
0.536442
0.442863
0.418425
0.479817
0.539422
0.615716
0.634789
0.523925
0.622869
0.764728
0.781417
0.650883
0.660419
0.727773
1.013875
1.132488
1.013875
1.260638
2.070665
13.543963
41.152835
120.849013
224.141479
427.924991
601.087809
813.797712
944.215655
1005.923748
959.013700
797.757506
618.524551
374.851823
227.218866
100.371838
46.299696
14.489889
7.576942
6.303787
6.119609
6.192923
6.337762
6.944537
8.149743
11.326671
14.159679
19.619465
25.081635
33.907890
39.659739
45.835972
48.308969
47.618747
44.189692
37.523508
31.964779
24.938583
19.029975
14.574528
##ZVALUE=355
0.245571
0.294447
0.402927
0.274777
0.377893
0.334978
0.246763
0.242591
0.404716
0.192523
0.497699
0.473857
0.362992
0.280738
0.312924
0.117421
0.214577
0.315905
0.258684
0.344515
0.371933
0.350475
0.223517
0.331998
0.275970
0.388622
0.489950
0.351667
0.306964
0.493526
0.352859
0.309944
0.354648
0.450611
0.311732
0.262856
0.447631
0.588894
0.405908
0.497699
0.555515
0.492930
0.367761
0.443459
0.432730
0.658631
0.676513
0.629425
0.714660
0.642538
0.607967
0.737906
0.755787
0.866652
0.900626
0.946522
1.150966
1.347661
1.415610
6.414652
23.610592
85.395575
165.987611
331.473947
494.549870
726.690888
868.200660
968.122482
965.435505
837.356448
682.355762
450.896621
289.724469
131.605864
63.925982
20.317435
8.914471
6.035566
5.875826
5.821586
5.692840
5.839467
6.213784
7.555485
9.386539
12.889504
17.163754
23.678541
28.960705
36.136508
41.032434
44.173002
43.203831
39.501786
36.015511
29.691458
##ZVALUE=360
0.236630
0.250936
0.235438
0.209808
0.337958
0.289679
0.461936
0.301600
0.381470
0.307560
0.257492
0.370741
0.306964
0.361800
0.289679
0.279546
0.259876
0.423789
0.260472
0.281930
0.330806
0.390410
0.390410
0.441670
0.439882
0.293851
0.451803
0.396967
0.322461
0.493526
0.520945
0.293851
0.294447
0.516772
0.389814
0.491738
0.423789
0.513792
0.380874
0.567436
0.625849
0.448823
0.424981
0.554919
0.632405
0.512600
0.662804
0.515580
0.560880
0.475645
0.556707
0.782609
0.706911
0.741482
0.767708
0.883937
0.960827
1.066923
1.321435
1.236796
1.650453
2.630949
10.469556
47.412515
106.473565
243.605971
388.018489
611.763000
771.090984
913.778543
952.652693
885.650516
755.105019
525.180697
351.798534
173.892975
92.041492
34.049749
14.049411
6.018877
5.514622
5.326867
5.516410
5.391836
5.435944
5.809665
6.497502
8.291602
10.118484
14.435649
19.083619
25.673509
30.829906
35.950541
38.705468
40.208697
##ZVALUE=365
0.308752
0.341535
0.309944
0.300407
0.324845
0.186563
0.295639
0.539422
0.350475
0.424981
0.488758
0.239611
0.439882
0.275970
0.278950
0.346899
0.379682
0.544786
0.317693
0.392795
0.459552
0.437498
0.411868
0.416636
0.426769
0.509620
0.353456
0.402927
0.441670
0.426769
0.561476
0.390410
0.436902
0.378489
0.424981
0.511408
0.472665
0.568628
0.540614
0.450611
0.451803
0.631809
0.531673
0.638962
0.526905
0.744462
0.593662
0.580549
0.589490
0.752807
0.700951
0.538826
0.745654
0.842810
0.695586
0.852942
0.855923
0.793934
0.903606
1.037717
1.144409
1.294613
1.416802
1.727939
5.041957
29.835701
74.607730
177.481771
305.296779
520.015955
672.909617
841.791034
920.154452
903.095603
801.986456
601.228476
433.158875
241.959691
133.328438
48.557520
19.241571
6.642938
5.135536
5.038977
5.087852
5.112886
5.196929
5.088449
5.251765
6.030798
6.711483
9.039640
11.764765
16.825795
21.571517
27.109981
##ZVALUE=370
0.249743
0.168681
0.262856
0.339746
0.294447
0.260472
0.217557
0.253916
0.329614
0.310540
0.363588
0.341535
0.280738
0.331998
0.385642
0.395775
0.145435
0.244975
0.262856
0.147820
0.321865
0.252724
0.404716
0.282526
0.228882
0.380874
0.218749
0.378489
0.349879
0.370741
0.352859
0.343919
0.273585
0.232458
0.336766
0.328422
0.287890
0.360608
0.424981
0.436902
0.384450
0.256896
0.317693
0.386834
0.603795
0.464916
0.399947
0.330806
0.561476
0.377893
0.412464
0.590682
0.552535
0.574589
0.534654
0.758767
0.660419
0.576973
0.702739
0.611544
0.679493
0.924468
0.861883
0.988841
1.188517
1.425743
2.385974
15.804768
49.664974
140.872002
245.964527
429.666638
586.680770
781.320930
876.260996
898.384452
831.627846
668.916702
503.258705
285.766721
165.140629
65.964460
30.073524
10.526776
5.365610
4.285574
4.757643
4.459620
4.527569
4.577637
4.442930
4.739761
5.309582
6.319880
7.802844
10.937452
##ZVALUE=375
0.209808
0.361800
0.210404
0.317693
0.267625
0.171661
0.297427
0.354648
0.245571
0.356436
0.147820
0.210404
0.215769
0.184774
0.197887
0.231862
0.229478
0.212789
0.253916
0.105500
0.250936
0.228882
0.205636
0.351667
0.321865
0.282526
0.328422
0.289679
0.480413
0.337958
0.254512
0.364780
0.345707
0.290871
0.252724
0.346899
0.381470
0.195503
0.329614
0.328422
0.419617
0.322461
0.394583
0.351667
0.515580
0.409484
0.268817
0.535846
0.432730
0.348687
0.345707
0.258684
0.370741
0.490546
0.675917
0.702739
0.569820
0.519753
0.550747
0.653863
0.669956
0.607967
0.647902
0.804663
0.902414
0.905991
0.962615
1.316667
1.434684
7.561445
28.349757
91.385841
177.707672
357.336998
514.346957
712.388754
828.393698
895.165801
871.146917
734.308958
581.865907
364.373922
231.568813
109.783411
55.035949
17.435551
7.126927
4.591942
4.281998
3.995895
4.292727
4.162788
4.126430
4.167557
4.394650
4.535913
##ZVALUE=380
0.237823
0.236630
0.117421
0.114441
0.223517
0.157952
0.151992
0.353456
0.224710
0.182986
0.355840
0.210404
0.058413
0.246763
0.389814
0.151992
0.155568
0.202656
0.129938
0.237823
0.188947
0.153780
0.223517
0.140667
0.258684
0.250936
0.209808
0.142455
0.293851
0.174642
0.334978
0.324845
0.386834
0.430942
0.236630
0.273585
0.221729
0.162721
0.298619
0.359416
0.326633
0.430942
0.374913
0.422597
0.454783
0.305772
0.286698
0.382662
0.402927
0.466704
0.254512
0.344515
0.337958
0.343919
0.465512
0.452995
0.431538
0.601411
0.570416
0.613928
0.558496
0.526905
0.625849
0.649691
0.717640
0.830889
0.763535
0.956655
1.048446
1.282692
1.295805
3.376603
16.142726
69.333911
145.464540
301.003456
446.064472
639.605522
773.939490
880.412459
876.616836
764.221549
636.355877
457.572937
313.891768
161.379576
86.326003
31.155944
12.373924
4.699826
4.095435
3.737807
3.568530
3.687739
3.931522
3.796816
##ZVALUE=385
0.174642
0.158548
0.072718
0.261664
0.129938
0.071526
-0.035763
0.182986
0.202656
0.176430
0.194907
0.213981
0.146627
0.296831
0.272989
0.059605
0.324845
0.265837
0.162721
0.073910
0.172853
0.154972
0.216961
0.368953
0.324845
0.217557
0.158548
0.205636
0.244975
0.464916
0.480413
0.280738
0.365973
0.254512
0.274777
0.258684
0.246763
0.392795
0.396967
0.275970
0.299811
0.238419
0.478625
0.387430
0.414848
0.275970
0.411868
0.462532
0.299811
0.408888
0.411868
0.461936
0.347495
0.544786
0.343919
0.416636
0.285506
0.522733
0.370741
0.670552
0.577569
0.553727
0.519753
0.573993
0.741482
0.650883
0.763535
0.864863
0.880957
1.003742
1.053810
1.218915
1.331568
1.612902
7.575750
43.954849
102.178454
222.188830
354.178548
553.691983
695.130825
828.843713
865.870714
809.001923
709.082484
525.098443
378.624797
213.467479
124.370456
54.040551
22.034645
6.084442
3.996491
3.573895
3.579855
3.500581
##ZVALUE=390
0.113845
0.217557
0.108480
0.045896
0.068545
0.179410
0.113845
0.111461
0.119805
-0.036955
0.095963
0.296831
0.189543
0.219941
0.155568
0.204444
0.107884
0.223517
0.181794
0.122786
0.171661
0.133514
0.180602
0.243783
0.201464
0.230670
0.221729
0.198483
0.281930
0.395775
0.318885
0.366569
0.491738
0.316501
0.228882
0.501871
0.376701
0.345707
0.357628
0.324845
0.375509
0.402927
0.323653
0.284910
0.312924
0.372529
0.401735
0.273585
0.300407
0.387430
0.251532
0.410676
0.381470
0.325441
0.343919
0.286698
0.439882
0.431538
0.487566
0.453591
0.533462
0.477433
0.438690
0.600815
0.474453
0.625849
0.533462
0.853539
0.748634
0.824928
0.895858
0.998974
1.041889
1.165867
1.138449
1.391768
3.106594
24.164915
68.241954
179.955959
304.653645
502.856970
638.766885
781.767964
853.706598
861.532688
788.412690
624.727011
480.991006
297.333002
178.581476
76.125860
35.089850
9.676814
4.414916
3.373623
##ZVALUE=395
0.246763
0.189543
0.333786
0.298619
0.064969
0.284910
0.222921
0.176430
0.166893
0.152588
0.207424
0.179410
0.184774
0.234842
0.156760
0.214577
0.191927
0.261664
0.240803
0.112653
0.246763
0.161529
0.217557
0.217557
0.292659
0.214577
0.369549
0.406504
0.405908
0.291467
0.317693
0.404716
0.190735
0.295639
0.362992
0.304580
0.353456
0.389814
0.354648
0.403523
0.326633
0.381470
0.375509
0.193715
0.282526
0.381470
0.420809
0.253916
0.443459
0.502467
0.337958
0.383854
0.303984
0.470877
0.451803
0.330806
0.418425
0.502467
0.548959
0.556707
0.483990
0.551939
0.537634
0.679493
0.515580
0.591874
0.649691
0.595450
0.758767
0.732541
0.893474
0.907779
1.041889
0.907779
0.886917
1.083612
1.047850
0.968575
2.442598
12.360811
59.284568
131.915808
275.401473
413.596630
617.660880
749.146938
875.082016
910.241604
853.995681
734.036565
522.141457
367.936492
198.391676
112.683773
47.615767
20.741820
##ZVALUE=400
0.220537
0.300407
0.152588
0.221729
0.200868
0.030994
0.217557
0.104904
0.079870
0.147820
0.219941
0.181794
0.140667
0.185966
0.329614
0.220537
0.328422
0.148416
0.360608
0.243783
0.185966
0.317693
0.311732
0.086427
0.245571
0.262856
0.122786
0.325441
0.310540
0.227690
0.307560
0.189543
0.175834
0.197887
0.286698
0.205636
0.379682
0.384450
0.272989
0.323653
0.395775
0.302792
0.410676
0.423789
0.449419
0.254512
0.433922
0.386834
0.377893
0.419617
0.384450
0.512600
0.395775
0.492930
0.446439
0.326633
0.411868
0.401735
0.278950
0.423789
0.419617
0.451803
0.468493
0.403523
0.459552
0.557899
0.495911
0.739694
0.757575
0.869632
0.850558
0.789762
0.860691
0.997782
1.004934
0.782609
0.789762
0.977516
0.923872
0.992417
1.186728
7.437468
29.384494
92.071891
176.469684
342.857838
494.854450
688.464642
802.701712
883.859992
877.921581
760.988593
624.712706
416.569710
276.424885
140.696764
##END
