##TITLE=FQP00652
##FORMAT=SPECTACLE-ASCII V-1.2
##DATA TYPE=ULTRAVIOLET SPECTRUM
##SECOND TYPE=ULTRAVIOLET SPECTRUM
##DATE=11/14/17
##TIME=16:21:18
##SPECTROMETER/DATA SYSTEM=SPECTACLE
##XUNITS=NM EM
##YUNITS=ENERGY
##YFACTOR=1
##FIRSTX=220
##LASTX=410
##NPOINTS=96
##3DDATA=Equidistant
##ZUNITS=NM EX
##FIRSTZ=210
##LASTZ=400
##ZPOINTS=39
##XYDATA=(Y..Y)
##ZVALUE=210
3.498793
3.516674
2.984405
3.783703
3.435612
3.527999
3.505945
3.709793
3.471971
3.215671
3.090501
2.629757
2.658963
2.076626
2.794862
3.332496
2.572536
3.140569
3.240705
3.234744
2.916455
3.049970
3.442764
3.033876
3.048778
3.616810
3.832579
4.362464
5.296469
5.262494
5.151629
5.496740
4.713535
5.525947
5.191565
5.375743
5.404949
5.234480
5.439520
5.476475
4.414916
4.813671
5.983710
5.794764
6.153584
5.623698
5.911589
6.145835
5.666614
6.622672
5.229712
6.148815
5.761981
5.988479
5.037785
5.752444
4.814863
5.556941
5.974770
5.670786
5.335808
5.865693
6.027818
5.835891
6.553531
6.472468
5.669594
6.521940
7.465482
8.190870
9.234548
10.835528
12.553930
13.610721
13.713837
13.723969
15.300512
15.024543
14.299750
12.647510
12.429953
10.238886
11.340976
10.467768
7.756948
7.783771
7.143617
5.665421
4.542470
4.766583
4.766583
5.842447
5.753636
5.985498
5.699992
6.613731
##ZVALUE=215
10.383725
9.253621
8.944869
8.373857
7.480979
7.168651
6.465912
6.119609
6.132722
7.560849
7.389784
6.272793
4.469752
3.614426
3.683567
3.562570
2.831817
2.791882
3.311634
3.099442
2.787709
3.157854
2.938509
4.042983
3.516674
4.469752
4.321933
4.315972
4.267693
4.359484
5.075932
5.354881
5.920529
5.584955
5.353689
6.174445
6.894469
5.457997
5.861521
6.455779
6.358624
5.836487
6.533861
5.798936
6.111860
5.595684
6.668568
5.861521
5.827546
5.732775
6.239414
5.718470
6.011724
5.593896
6.257892
5.438924
5.730987
6.369948
5.635619
7.095933
5.654693
5.698800
6.233454
6.676912
5.997419
5.660653
6.896853
5.926490
7.617474
9.024739
9.002686
10.068417
11.065602
12.719631
12.725592
13.349652
14.559627
14.145970
13.327599
12.020469
12.048483
10.420680
10.461807
8.880496
8.103848
6.717443
6.470680
5.844831
5.671978
5.854964
5.407929
5.081892
5.077720
5.850792
5.209446
4.915595
##ZVALUE=220
23.742914
24.785995
28.571486
31.349659
28.625727
22.590756
20.785928
15.953779
12.600422
13.854504
13.580918
14.319420
14.918447
13.230443
10.765791
9.904504
7.084608
4.701614
4.659891
3.533959
3.816485
3.466606
4.132986
3.321767
3.944635
4.672408
5.299449
5.851984
4.976988
6.983876
6.430745
6.175637
6.532669
7.349849
6.526709
7.254481
7.807612
6.322861
7.301569
7.159710
6.536841
7.351637
7.669926
7.409453
8.105636
6.873608
6.888509
6.927848
7.230639
7.084608
7.271767
6.432533
6.831884
8.089542
7.251501
7.161498
7.094741
7.330775
7.603765
7.623434
7.639527
7.712841
7.822514
6.711483
6.868839
7.917881
6.837845
7.329583
8.244514
8.410811
10.026693
10.698438
13.331771
14.423728
15.554428
14.136434
14.259815
14.380813
15.094876
14.079809
13.296604
12.078881
11.459589
9.455681
8.898973
8.606911
7.137656
6.931424
6.227493
6.139874
7.004738
5.927682
5.697608
6.911755
4.915595
5.928874
##ZVALUE=225
31.667948
36.322474
48.929453
66.316724
75.705647
78.988671
77.206492
62.488914
47.199726
35.739541
26.549697
24.003983
24.348497
24.382472
25.345683
24.115443
20.947456
18.404722
12.983680
9.905696
7.133484
4.731417
4.497766
4.200935
4.368424
4.164577
4.639626
5.095601
5.351901
6.400943
7.363558
6.543994
7.328987
7.016659
6.899834
8.658767
7.509589
7.371902
8.324981
8.445978
7.679462
8.514524
7.725954
8.318424
7.648468
8.787513
8.482933
8.356571
8.058548
8.442998
9.035468
8.670688
9.299517
7.998943
7.991791
8.701682
9.637475
9.192824
8.767843
9.354949
9.956956
8.827448
8.836985
8.999705
10.080934
9.444952
8.619428
9.890795
10.827780
10.554790
11.373758
12.390614
14.093518
13.520718
14.619827
16.073585
13.759732
15.420914
14.757514
13.760924
12.850761
11.463761
11.919737
10.250807
9.904504
8.929968
9.239912
8.018613
8.297563
7.376671
6.960630
7.934570
7.620454
6.764531
6.078482
7.022619
##ZVALUE=230
22.016764
36.617517
48.483610
80.437660
112.865567
138.249993
182.108879
184.440613
168.301463
146.031976
103.693604
72.212815
48.449636
42.779446
39.938688
42.924881
45.970678
42.296648
41.347742
33.364892
26.863813
17.719865
12.582541
7.737875
5.552769
5.455613
5.681515
5.765557
5.859733
6.232858
6.329417
6.142855
7.678866
7.525682
7.384419
7.092953
7.577538
7.421970
8.818507
8.671880
8.215904
8.568764
9.380579
9.143949
9.424686
8.900762
10.152459
8.657575
9.666681
9.103417
10.596514
10.440946
10.974407
11.216998
10.046959
10.968447
11.370778
12.526512
12.177825
12.301803
11.751652
11.760592
12.041926
12.914538
12.941957
11.953712
11.602640
13.188720
13.361573
13.330579
12.766719
14.494658
15.941858
15.052557
16.505718
17.626882
16.698837
16.932487
17.315745
15.369654
15.880466
13.863444
13.805628
13.466477
12.449622
11.552572
10.144711
11.025667
11.299849
10.390878
9.539723
11.026859
10.384917
9.234548
9.193420
9.812713
##ZVALUE=235
8.241534
8.305907
21.821856
42.870641
79.016685
149.517655
208.172798
283.062458
323.792696
339.185596
314.013958
247.845650
188.410878
119.405985
85.640550
59.752464
55.994987
59.221983
70.760846
68.728924
68.366528
58.268905
44.912696
34.898520
23.349524
15.739799
10.271668
7.993579
6.810427
7.297993
6.904602
7.352829
6.876588
7.794499
8.103848
7.958412
8.082986
8.631945
9.282827
8.940697
9.620786
8.398890
9.855628
9.854436
11.177659
11.357665
11.829734
11.317730
12.226701
12.727976
12.870431
13.793707
14.604926
13.562441
14.386773
14.292598
15.046597
15.859604
15.279651
15.696883
15.417933
15.565753
15.167594
14.332533
15.990734
16.491413
17.385483
17.299652
16.492605
17.251968
19.253492
19.433498
20.526648
22.490621
22.736788
21.224618
21.037459
20.531416
20.017624
20.274520
19.019842
20.400882
18.370748
17.226934
18.176436
15.298724
14.015436
14.286637
15.298724
14.817715
14.057755
13.535619
13.519526
13.212562
13.537407
12.982488
##ZVALUE=240
1.766682
2.243519
3.112555
11.850595
25.682449
63.241720
112.660527
216.585994
314.231515
411.068797
505.246520
485.170484
430.833697
383.268595
286.221504
208.085775
127.352476
76.722503
74.555874
83.260536
85.904598
90.164542
95.178485
85.020661
70.544481
58.533549
46.456456
31.283498
23.066998
13.355613
11.863708
8.396506
8.538961
9.209514
9.263754
9.157658
8.778572
9.222627
10.779500
11.433959
10.852814
11.522770
13.062954
12.378693
14.534593
13.169646
14.213920
15.188456
14.242530
15.857816
16.526580
16.384721
16.085505
16.379952
18.215775
16.809702
18.851757
18.073916
18.255711
18.112659
20.228624
18.563867
18.488765
18.090606
18.998981
19.385815
18.648505
19.310713
21.534562
21.668673
22.850633
23.049712
22.540689
25.657415
24.092793
25.555491
23.574829
25.275946
22.368431
23.049712
21.695495
22.943616
22.005439
19.941926
19.918680
19.011497
18.301606
16.753674
18.956661
17.379522
17.110705
17.053485
15.285611
15.326738
16.698837
15.564561
##ZVALUE=245
1.435876
1.285672
1.737475
1.648664
2.103448
7.482767
18.079877
57.740808
115.131736
232.063532
336.600542
498.276949
595.106483
645.696521
621.182919
559.828877
421.080589
304.472446
181.015730
123.487711
83.937645
75.372458
86.064935
97.982883
106.741786
105.096698
96.823573
85.028410
67.393780
47.934651
37.962794
24.864674
18.633604
11.977553
11.425614
10.449886
11.081696
10.390878
11.216998
10.962486
10.955930
11.114478
11.712909
13.998747
13.605952
15.093684
15.171766
15.854836
16.190410
17.685890
16.644597
17.437935
16.386509
17.495751
18.036962
18.327832
17.864704
18.858910
19.062757
19.673705
19.097924
19.652843
18.448830
19.003749
19.316673
19.129515
18.952489
19.295812
20.020604
21.041632
20.750761
22.502542
21.978617
24.118423
21.220446
23.498535
21.772981
22.525787
21.414757
24.107695
21.955967
21.117926
20.435452
19.553900
18.306971
18.598437
18.728971
17.840862
18.146634
17.422438
17.212629
17.639995
17.361641
16.714931
15.896559
15.310645
##ZVALUE=250
1.350641
1.056790
1.313686
1.378655
1.463890
1.792908
1.744628
3.859997
16.991496
41.098595
111.725926
202.703476
321.184993
498.103499
624.774694
732.956529
740.723610
671.404004
571.870804
389.356017
262.378454
168.217421
95.811486
76.876879
79.323649
91.216564
108.624697
111.219883
111.521482
105.736852
92.300773
73.693991
56.876540
35.379529
25.761724
16.700625
12.593865
9.800792
11.087656
9.933710
11.495948
11.442900
11.687875
12.579560
13.185740
14.718771
13.857484
15.918612
15.108585
15.889406
17.351508
16.479492
18.393993
17.646551
17.434955
17.714500
17.954707
16.076565
17.827749
17.862916
16.822815
18.196702
16.980767
15.465617
16.435981
15.770793
16.955733
16.136765
16.245842
17.153621
18.399954
17.290711
18.836856
18.322468
19.405484
21.342635
19.936562
18.860698
18.571615
18.856525
19.011497
18.000603
17.208457
18.250942
17.585754
16.589761
15.063882
16.969442
16.215444
16.080737
15.244484
14.411807
15.343428
16.361475
15.206933
14.080405
##ZVALUE=255
1.010895
1.266599
1.151562
0.987649
1.327991
1.028776
1.430511
1.633763
1.798868
2.630949
11.944771
30.385852
70.628524
176.555514
291.100740
491.196513
632.730722
791.503787
844.482780
803.695917
700.826645
558.483005
345.710516
220.795870
115.048885
78.482628
66.730976
77.233911
98.176003
110.161901
116.008520
115.634799
111.664534
92.483759
76.339841
51.598549
37.213564
24.694800
16.770959
12.728572
10.987520
11.257529
10.865927
11.656880
11.930466
12.294650
12.673736
13.389587
13.892651
14.713407
14.862418
15.381575
15.167594
14.804602
15.619993
14.462471
14.326572
16.043782
15.158653
15.338659
14.993548
14.347434
14.147758
14.008880
13.314486
14.122725
13.615489
13.490915
13.819933
14.618635
15.044808
16.188622
14.712811
15.002489
14.741421
16.447902
16.220808
16.550422
16.305447
14.763474
15.333891
14.092922
15.160441
14.571548
14.317632
13.868809
14.081597
13.765693
13.986826
13.746619
14.338493
13.420582
13.937950
13.109446
14.134645
13.255477
##ZVALUE=260
1.055598
1.022816
1.190901
1.010895
1.313686
1.248717
1.046658
1.356602
1.239777
1.527667
1.551509
1.939535
4.174709
19.947886
46.284795
133.712888
235.684514
430.352688
595.545769
813.565850
915.133953
946.400762
841.428638
692.828894
457.424521
314.159989
175.296664
105.674863
64.329505
62.443614
72.630644
94.391704
110.900998
123.910904
121.366978
108.851790
94.243884
74.931979
56.498647
37.630796
26.874542
16.687512
12.559891
10.850430
10.913610
10.577440
11.368990
11.550784
11.780858
12.047887
12.963414
12.988448
12.582541
12.053847
12.461543
12.350678
11.680722
11.172891
12.971759
13.173819
12.328625
11.841655
11.675954
11.615753
12.018681
11.137724
12.446642
11.506677
11.475682
12.163520
12.111664
12.610555
12.838840
13.239980
13.019443
13.271570
13.216734
13.628602
13.120770
12.755990
12.648702
12.718439
12.508631
13.135672
12.980700
12.587905
12.184978
12.241602
12.187958
12.078881
11.950731
12.273788
11.378527
11.662841
12.323856
11.443496
##ZVALUE=265
0.826716
0.924468
0.810623
0.743866
0.844598
1.176596
0.883937
0.987649
1.096725
1.064539
1.296997
1.412630
1.303554
1.523495
2.826452
12.461543
34.784675
99.528432
192.732811
393.722653
589.512587
780.381560
982.047915
1015.761495
954.169035
823.209882
610.463619
423.634648
236.310959
140.877962
84.349513
53.815842
57.059526
78.625679
95.940828
113.388896
121.376514
119.595528
112.950802
89.889765
75.025558
52.437782
37.701726
24.099946
16.918778
11.669993
11.073947
10.052919
10.340810
10.650754
11.280775
11.406541
11.426806
11.269450
10.706782
11.017919
10.908842
10.762811
10.328889
11.271834
10.329485
10.660887
9.803772
9.807944
10.013580
10.228753
10.248423
10.399818
10.718703
10.674596
10.757446
11.111498
11.337996
11.346936
11.582971
11.870861
12.241602
12.167692
11.433959
11.400580
10.863543
10.788441
10.544658
10.814667
11.193752
10.242462
10.702610
11.190772
10.192990
10.675788
10.824800
10.788441
10.915995
10.485649
10.283589
10.789633
##ZVALUE=270
0.769496
0.807643
0.996590
0.792742
0.805855
0.928640
0.990629
0.938773
1.112819
1.136661
1.107454
1.307726
1.072884
1.361966
1.425743
1.435876
1.750588
5.480647
18.078685
69.043636
152.219534
285.765529
547.211766
766.481757
998.072624
1015.774012
1015.774012
990.490913
773.198605
570.830703
389.013886
200.749636
112.300515
53.893924
44.386983
58.357716
75.844526
98.198652
112.660527
123.420954
123.212934
109.726787
94.916821
74.116588
55.636764
35.363436
25.711656
17.085671
13.056993
10.359883
9.963512
10.198951
10.472536
9.998679
9.829998
10.556579
10.260940
9.739995
10.052919
9.773970
10.146499
10.206699
9.891987
9.231567
9.279847
10.414720
9.612441
10.338426
9.797812
10.765791
10.387897
10.632873
11.181831
11.397600
11.557937
11.403561
10.974407
11.413693
11.076927
11.362433
11.008978
10.244846
10.305643
10.121465
9.964705
10.307431
10.035634
9.927750
10.172725
10.144711
9.812713
10.416508
9.849668
9.582639
10.359883
9.709597
##ZVALUE=275
0.787973
0.624657
0.757575
0.752807
0.697970
0.780821
0.805855
0.826716
0.884533
0.853539
0.718832
0.993609
0.848770
0.953674
1.015663
1.531839
1.351833
1.510978
1.634955
2.796650
10.548830
34.404993
117.332935
235.985518
475.568771
680.351853
926.075578
1015.774012
1015.774012
1015.774012
958.573818
700.818896
492.068529
261.822939
148.230791
65.535903
41.692853
42.340755
54.300427
77.797771
93.895793
111.639500
120.464563
119.772553
111.367702
89.905858
73.703527
53.602457
39.559603
25.826693
18.503666
12.492537
10.568500
10.350943
9.628534
9.971857
9.502769
9.744763
9.599924
10.120869
10.071993
9.682775
9.836555
9.457469
9.151697
9.820461
9.948611
9.911656
9.886622
10.213852
10.283589
10.778904
11.041760
11.301637
11.247993
11.283755
11.594892
10.289550
10.402799
10.479689
10.192990
9.668469
9.745955
9.803772
9.602904
9.670854
9.836555
9.829998
9.052753
9.730458
9.053946
9.308457
9.415746
9.411573
9.717941
9.248853
##ZVALUE=280
0.274777
0.441670
0.285506
0.426769
0.332594
0.448823
0.365973
0.513792
0.580549
0.416636
0.640750
0.554919
0.929832
0.641942
0.830889
0.775456
1.034737
1.202822
1.110435
1.036525
1.429915
1.709461
6.872416
24.548769
90.095997
182.024837
362.343788
562.050939
840.833783
1008.077860
1015.545726
1015.545726
1010.680795
782.591701
574.582815
324.735641
193.784833
84.879994
43.755770
31.019449
37.539601
57.701468
73.632002
93.617439
108.966827
117.168427
116.186738
106.580853
92.492700
69.757700
53.530931
35.978556
25.520921
17.389655
12.588501
9.958744
9.685755
9.629726
9.660721
9.652972
9.683967
9.724498
9.421706
10.252595
9.704828
10.040998
9.781718
10.060668
9.938478
9.961724
9.980798
10.664463
10.525584
10.932684
9.713769
10.273457
10.400414
10.086894
9.756684
10.295510
9.873509
9.924769
9.330511
9.007454
9.687543
8.720756
8.873940
8.558631
9.129643
8.814931
8.402467
8.354783
8.568764
8.975863
8.830428
8.679628
##ZVALUE=285
0.562668
0.634789
0.700951
0.610948
0.483990
0.705719
0.710487
0.818968
0.866652
0.650883
0.771880
0.905991
0.752807
0.712872
0.691414
0.979900
0.688434
1.043677
0.958443
1.102686
0.900626
1.258850
1.473427
1.624823
3.606677
12.004972
47.395825
111.608505
266.421437
437.129736
704.582930
918.162465
1015.781760
1015.781760
1015.781760
909.592509
712.533593
444.906950
281.178951
131.312609
67.074895
29.146671
24.970770
36.527514
50.633550
73.472857
87.935925
105.014443
112.407804
112.155676
104.085803
88.767409
73.458552
53.227544
39.545894
24.757981
18.272996
13.170838
11.017919
10.331869
10.310411
9.921789
9.969473
10.042787
9.957552
10.583997
10.318756
10.660887
10.174513
10.857582
10.971427
10.354519
11.039972
10.818839
10.611415
10.969639
10.241866
10.551810
10.379553
9.946823
9.939671
9.471774
9.763837
9.596944
9.555817
9.467602
9.258986
9.088516
9.208918
8.693933
8.854866
8.812547
8.740425
8.362532
8.701682
8.410811
##ZVALUE=290
0.639558
0.653863
0.505447
0.476837
0.560880
0.708699
0.479817
0.540614
0.580549
0.605583
0.561476
0.652671
0.673532
0.579953
0.817776
0.694990
0.749826
0.865459
0.695586
1.218915
0.953674
1.045465
0.941753
1.221895
1.189709
1.492500
1.838803
5.009770
25.890470
66.874623
174.507499
311.635733
574.997663
807.012916
1015.744805
1015.744805
1015.744805
1015.744805
796.262026
594.185591
344.826579
203.311443
87.233782
42.019486
20.376444
22.196770
33.141971
46.215653
66.763759
82.479715
99.697709
106.862783
109.680891
102.654696
87.987781
72.999597
51.075816
38.492680
25.968552
19.426942
13.659596
11.417866
10.353923
10.661483
9.955764
9.802580
10.423660
10.536909
10.621548
11.302829
10.639429
10.895729
10.750890
10.949969
10.445714
10.464787
10.750890
10.434985
10.114908
10.262728
9.471774
9.819865
9.358525
9.278655
9.242892
9.124875
8.692741
8.716583
8.923411
8.666515
8.630753
8.231997
8.339882
8.567572
8.321404
8.224845
##ZVALUE=295
0.484586
0.479817
0.468493
0.561476
0.464916
0.597835
0.725985
0.618696
0.588894
0.561476
0.463724
0.452995
0.527501
0.572801
0.628829
0.620484
0.737906
0.916719
0.762939
0.940561
0.899434
1.033545
0.862479
1.021624
1.058578
1.396537
1.127720
1.571774
1.676679
2.446771
7.927418
39.921999
100.443959
260.499716
445.022583
736.439824
943.176746
1015.774012
1015.774012
1015.774012
938.024521
670.203567
464.305878
249.824524
137.761831
50.673485
24.903417
15.574694
20.130873
31.892657
43.810606
63.792467
78.075528
95.146894
101.520419
103.737712
96.113682
82.624555
68.342686
50.809979
38.620830
25.229454
18.815994
13.894439
11.770725
10.601878
10.475516
10.204911
10.060668
10.686517
10.767579
10.572672
10.709763
11.271834
11.321902
11.164546
10.740757
10.609627
9.991527
10.235906
10.082722
9.317994
9.258986
9.525418
9.274483
9.429455
9.311438
9.482503
9.142756
8.717775
8.366704
8.840561
8.452535
8.677840
8.007884
8.160472
##ZVALUE=300
0.491738
0.398755
0.282526
0.451803
0.429749
0.527501
0.485778
0.452995
0.702739
0.659823
0.567436
0.503659
0.630617
0.405908
0.515580
0.454783
0.575781
0.704527
0.533462
0.592470
0.686646
0.801682
0.769496
0.796914
0.731945
0.816584
1.064539
1.189709
1.216531
1.245737
1.732707
1.787543
4.822016
19.688606
77.235699
162.878633
358.762741
569.340587
867.743492
1015.774012
1015.774012
1015.774012
1000.086665
831.306577
547.027588
357.611775
180.326700
95.572472
35.123825
16.907454
14.497638
19.128919
30.038953
40.802956
58.980584
73.327422
91.725588
96.573830
98.248720
94.124675
80.962777
67.589879
50.696731
38.887858
25.402904
19.027591
13.630986
12.319684
10.470748
10.566711
10.626912
10.812879
10.881424
10.662675
10.711551
10.436773
10.952950
10.063648
9.831786
10.305643
9.930730
9.876490
9.371638
9.738803
9.358525
9.406805
9.157658
8.955598
8.976460
8.623600
8.566976
8.644462
8.716583
8.465648
8.196831
8.322597
##ZVALUE=305
0.472665
0.385642
0.261664
0.479817
0.478625
0.373721
0.528693
0.495911
0.508428
0.387430
0.470877
0.503659
0.468493
0.441670
0.478625
0.589490
0.506639
0.563860
0.753999
0.597835
0.766516
0.552535
0.616908
0.671744
0.782609
0.767708
0.943542
0.982881
0.899434
0.870824
1.171827
1.341701
1.209974
1.736879
2.501607
13.797879
42.810440
134.871006
257.455707
502.358675
715.872645
983.690023
1015.774012
1015.774012
1015.774012
869.767666
675.195456
432.870984
271.613598
121.716857
60.449839
21.757483
13.303757
14.060736
18.693805
29.800534
39.756894
56.706667
70.039630
84.614754
91.908574
93.230605
88.717937
75.978637
63.099861
46.728849
35.285950
24.870634
18.147826
13.776422
12.013912
11.084676
10.882616
10.273457
10.388494
10.410547
10.353923
9.883642
9.883642
9.890795
9.337664
9.382963
9.646416
9.619594
9.393692
9.503961
9.423494
9.280443
8.782744
9.074807
9.055734
8.312464
8.600950
8.932948
8.640885
8.439422
##ZVALUE=310
0.368953
0.412464
0.282526
0.407696
0.574589
0.413656
0.539422
0.426769
0.521541
0.395775
0.421405
0.440478
0.443459
0.481606
0.555515
0.493526
0.438690
0.428557
0.467896
0.590682
0.569820
0.544786
0.685453
0.631809
0.601411
0.658631
0.912547
0.797510
0.762939
1.028776
0.971556
1.012683
1.193881
1.280904
1.367927
1.480579
1.732707
5.668402
20.819902
79.713464
168.690681
367.946625
580.429435
871.377587
1015.774012
1015.774012
1015.774012
1002.517939
843.378901
562.315583
373.964906
186.766982
100.260973
37.055612
17.012954
10.654926
12.761950
18.510818
25.673509
36.768913
47.984719
65.209866
75.794458
84.270835
87.218881
81.959963
74.623823
60.491562
48.981905
33.382773
25.513768
17.594695
14.387965
11.011958
10.512471
9.912848
9.771585
9.733438
9.811521
9.468794
9.381771
9.547472
9.537935
9.583831
9.477735
9.580851
9.391904
9.120703
9.228587
9.302497
9.201765
8.942485
8.768439
8.689761
8.385777
8.652806
##ZVALUE=315
0.387430
0.286698
0.286698
0.335574
0.285506
0.452995
0.421405
0.376701
0.352859
0.384450
0.472665
0.353456
0.377893
0.501871
0.442863
0.560880
0.565648
0.714660
0.456572
0.390410
0.530481
0.416636
0.626445
0.420809
0.715852
0.490546
0.478625
0.583529
0.687838
0.974536
0.824928
0.813603
0.905991
0.848770
0.987649
1.059771
1.016855
1.283884
1.600981
2.871752
10.230541
49.539804
118.914843
287.930965
476.634502
765.780807
956.381559
1015.754938
1015.754938
1015.754938
947.228670
686.067939
485.160947
256.647468
141.149759
52.928925
22.432804
10.686517
9.980798
11.961460
15.654564
23.958683
32.909513
45.751929
57.802796
72.145462
79.341531
81.408620
78.565478
68.375468
58.231950
44.400692
34.189820
22.937655
16.974807
12.564659
11.209846
9.675622
9.700656
9.353757
9.080768
8.901954
9.119511
9.237528
9.430647
9.542704
9.124875
9.272695
9.016991
9.227991
9.027719
8.937716
8.854866
8.322597
8.577704
8.187890
##ZVALUE=320
0.181794
0.325441
0.152588
0.332594
0.405908
0.188947
0.467896
0.466704
0.535846
0.424981
0.540614
0.536442
0.201464
0.412464
0.486970
0.364780
0.497699
0.577569
0.541806
0.480413
0.518560
0.445843
0.544786
0.511408
0.666976
0.526905
0.518560
0.695586
0.698566
0.735521
0.688434
0.745654
0.728965
0.770688
0.838637
0.945926
0.950694
1.057982
0.963807
1.054406
1.467466
1.785755
4.915595
27.615428
75.643659
207.124949
358.913541
626.271963
831.502676
1015.774012
1015.774012
1015.774012
1010.371447
795.130730
583.576560
326.168537
186.234713
80.081820
36.062598
12.540817
8.686781
8.738637
10.556579
14.299750
19.534826
29.476881
39.933920
53.941607
64.680576
72.451830
76.272488
72.938800
66.102743
52.851439
41.940808
29.536486
22.634864
15.807748
12.556911
10.219812
9.115934
9.142756
9.310842
9.002686
8.917451
8.913875
9.148717
8.916855
8.981824
8.895993
8.814931
8.909702
9.015799
8.445978
8.760691
8.579493
##ZVALUE=325
0.402927
0.283718
0.285506
0.246763
0.258684
0.238419
0.338554
0.399947
0.515580
0.384450
0.303984
0.370741
0.381470
0.213981
0.468493
0.346899
0.460744
0.391603
0.220537
0.501871
0.316501
0.471473
0.496507
0.327826
0.607967
0.582933
0.537634
0.589490
0.536442
0.742674
0.629425
0.622869
0.631809
0.628829
0.670552
0.798702
0.933409
0.797510
0.913739
0.981688
1.004934
1.076460
1.239777
1.508594
2.646446
17.089844
49.209595
143.077970
264.989734
504.411459
708.736777
960.995555
1015.774012
1015.774012
1015.774012
850.676894
648.610592
397.334695
243.223906
106.008649
50.681829
16.611814
8.531809
7.430911
7.915497
9.814501
12.317896
19.141436
26.588440
40.041804
49.783587
61.054826
67.621469
70.141554
67.357421
58.599710
48.863888
38.006902
28.814673
19.424558
15.268922
11.198521
9.979606
9.153485
9.412766
8.884668
8.632541
8.932948
8.667707
8.818507
8.459687
8.486509
8.580685
9.034872
8.429885
8.690953
##ZVALUE=330
0.404716
0.425577
0.381470
0.353456
0.429749
0.309944
0.383854
0.224710
0.504851
0.237823
0.348687
0.341535
0.305772
0.147820
0.280738
0.301600
0.259876
0.544786
0.334978
0.450611
0.501871
0.491738
0.285506
0.263453
0.387430
0.433922
0.462532
0.488758
0.550747
0.583529
0.262856
0.689626
0.715852
0.928640
0.698566
0.733733
0.788569
0.749826
0.639558
1.047850
0.924468
1.008511
0.874996
1.301765
1.388788
1.555681
1.858473
7.232428
25.410652
95.598698
189.857483
393.112898
585.026741
852.558017
1005.503535
1015.781760
1015.781760
932.655931
750.240684
486.505628
313.117504
147.036910
75.422525
26.860833
11.420846
6.739497
7.002950
7.647872
8.835793
12.773871
17.438531
26.114583
35.431981
48.268437
57.074428
63.573718
64.957738
61.741471
56.150556
44.778585
35.742521
25.669932
20.202994
14.997721
12.068748
10.256767
9.203553
8.674860
8.819699
8.603930
8.308887
8.550882
8.088946
8.450747
8.126497
8.471608
##ZVALUE=335
0.335574
0.239611
0.260472
0.267625
0.345707
0.273585
0.220537
0.214577
0.266433
0.282526
0.281930
0.226498
0.374913
0.315905
0.338554
0.245571
0.357628
0.420809
0.332594
0.362992
0.368953
0.462532
0.436902
0.453591
0.602603
0.430942
0.491738
0.525713
0.371933
0.421405
0.520945
0.340939
0.575781
0.567436
0.552535
0.614524
0.515580
0.637770
0.618696
0.935793
0.737906
0.689626
0.943542
0.977516
1.028776
1.035929
1.063943
1.220703
1.474619
3.459454
12.627840
56.573749
126.751661
290.302634
476.083755
750.002861
928.747654
1015.774012
1015.774012
975.576639
821.820498
573.210716
391.275883
205.009580
109.430552
37.712455
16.090870
7.515550
6.632805
6.834865
7.415414
8.973479
11.413693
17.839670
24.575591
35.753846
43.990612
53.666830
58.375597
61.299801
58.559775
50.364733
43.880939
34.646988
27.784705
19.800663
15.692711
11.739731
10.231733
9.185672
8.530617
8.112788
8.133650
7.959604
8.393526
8.119941
##ZVALUE=340
0.248551
0.235438
0.245571
0.282526
0.314713
0.325441
0.256896
0.289679
0.285506
0.247955
0.428557
0.317693
0.161529
0.275970
0.398755
0.366569
0.382662
0.454783
0.323653
0.454783
0.425577
0.390410
0.378489
0.486970
0.442863
0.444651
0.478625
0.432730
0.387430
0.403523
0.495911
0.306964
0.474453
0.444651
0.408888
0.558496
0.557899
0.729561
0.600815
0.625849
0.626445
0.629425
0.729561
0.646710
0.753999
1.040697
0.970960
1.000762
0.962615
1.134872
1.213551
1.911521
6.262660
34.989715
90.653896
235.244632
396.727920
641.431808
829.837918
1007.443666
1015.774012
1008.087993
888.084769
657.821894
470.691919
257.178545
141.801834
53.132772
22.083521
8.523464
6.890893
6.735921
6.897449
7.588863
8.922815
12.009740
16.501546
23.955703
31.346679
42.322874
48.750639
55.235624
56.619644
53.570867
49.601793
41.554570
34.104586
25.844574
20.322800
14.721751
11.585951
9.389520
8.583665
8.297563
7.935762
8.076429
##ZVALUE=345
0.243783
0.354648
0.149608
0.312924
0.219941
0.335574
0.351667
0.392795
0.262856
0.296831
0.167489
0.238419
0.240803
0.183582
0.282526
0.398755
0.346899
0.273585
0.268817
0.405908
0.259876
0.382662
0.301600
0.313520
0.412464
0.357628
0.395775
0.432730
0.387430
0.324845
0.228882
0.369549
0.494719
0.449419
0.413656
0.396967
0.475645
0.419617
0.584722
0.695586
0.590682
0.613928
0.564456
0.502467
0.717640
0.623465
0.606775
0.826716
0.784993
1.031756
1.067519
1.259446
1.474619
1.416802
2.947450
19.160509
59.086680
164.920688
291.292667
514.854789
701.794624
925.093889
1014.038920
1015.774012
941.738486
736.295581
555.500984
333.674550
191.968679
76.911449
33.657551
10.574460
6.914735
6.370544
6.519556
6.576777
6.642938
8.321404
10.511875
15.565753
21.363497
30.909777
37.430525
44.562817
49.914718
52.644610
51.323771
46.483874
41.160583
32.973886
26.266575
18.655658
14.805794
10.914803
9.258986
8.106828
##ZVALUE=350
0.264645
0.298619
0.254512
0.309944
0.093579
0.164509
0.242591
0.156760
0.382662
0.282526
0.123978
0.273585
0.345707
0.316501
0.326633
0.376701
0.230670
0.449419
0.248551
0.296831
0.355840
0.299811
0.222921
0.327826
0.335574
0.455976
0.397563
0.419617
0.517964
0.545979
0.478625
0.492930
0.444651
0.472665
0.386834
0.447631
0.531673
0.450611
0.508428
0.449419
0.533462
0.587702
0.483990
0.477433
0.649691
0.707507
0.540614
0.594854
0.670552
0.799894
0.777841
0.903606
1.113415
1.159906
1.114607
1.226664
1.706481
9.107590
32.691956
107.704997
207.181573
411.368012
591.710806
815.894008
948.943496
1010.007858
962.276459
793.969035
619.368553
376.547575
230.106711
106.355548
50.292611
14.823675
7.753968
6.188750
5.901456
5.785823
6.022453
6.606579
7.745624
10.345578
13.882518
19.767880
25.079846
33.415556
39.449930
45.661926
47.720671
47.248602
44.426918
37.362576
31.106472
23.636818
18.835664
13.663769
##ZVALUE=355
0.277758
0.117421
0.346899
0.258684
0.257492
0.282526
0.193715
0.107884
0.385642
0.439882
0.407696
0.375509
0.263453
0.230670
0.359416
0.396967
0.204444
0.312924
0.319481
0.328422
0.328422
0.314713
0.330806
0.488758
0.516772
0.323653
0.463724
0.383854
0.372529
0.409484
0.567436
0.529885
0.225902
0.474453
0.497699
0.466704
0.321865
0.435710
0.700951
0.411868
0.326633
0.509620
0.361800
0.536442
0.549555
0.563860
0.608563
0.700951
0.653863
0.656843
0.618696
0.758767
0.894666
0.802875
1.002550
1.099706
1.108646
1.297593
1.520514
4.394650
17.952919
71.264505
149.704814
314.735770
485.681891
724.504590
877.012014
985.226035
973.153710
842.731595
683.161020
457.315445
291.037560
132.082701
64.020753
19.669533
8.456707
5.855560
5.696416
5.374551
5.466938
5.577803
6.127954
7.264614
8.837581
12.596846
16.795993
23.411512
28.359890
35.150647
39.874911
42.968988
43.154955
39.897561
35.989881
29.347539
##ZVALUE=360
0.253916
0.222921
0.361800
0.186563
0.322461
0.151992
0.414848
0.400543
0.262856
0.279546
0.320673
0.315905
0.424981
0.443459
0.349879
0.447631
0.312924
0.403523
0.329614
0.354648
0.346899
0.424981
0.276566
0.437498
0.342727
0.253916
0.400543
0.441670
0.349879
0.320673
0.436902
0.473857
0.515580
0.402927
0.580549
0.438690
0.400543
0.267625
0.487566
0.440478
0.469685
0.528693
0.575781
0.507832
0.654459
0.601411
0.581741
0.615716
0.753999
0.565648
0.729561
0.800490
0.863671
0.792742
0.839829
0.851750
0.992417
0.936985
1.224875
1.281500
1.527667
2.243519
7.424951
37.654638
92.573762
231.171846
381.586552
603.068471
777.396560
941.409469
974.566936
895.012021
762.026906
526.538491
355.205536
173.775554
92.349648
33.912659
13.523698
6.043911
5.044937
5.117655
4.984736
5.248785
5.192757
5.577803
5.994439
7.842779
9.699464
13.897419
18.163919
25.122762
30.458570
36.234856
38.469434
39.177537
##ZVALUE=365
0.287890
0.275970
0.336766
0.322461
0.397563
0.252724
0.325441
0.219941
0.174642
0.529885
0.262856
0.237823
0.165701
0.312924
0.277758
0.376701
0.416636
0.349879
0.287890
0.325441
0.335574
0.375509
0.293851
0.360608
0.244975
0.223517
0.318885
0.268817
0.329614
0.316501
0.324845
0.490546
0.321865
0.389814
0.451803
0.384450
0.470877
0.531673
0.553727
0.507832
0.470877
0.401735
0.376701
0.683665
0.535846
0.542998
0.582933
0.458956
0.425577
0.518560
0.568628
0.525713
0.669956
0.839829
0.704527
0.723600
0.844598
0.841618
0.901818
1.180768
1.122952
1.279712
1.421571
1.793504
3.184676
19.807816
57.755709
161.274672
289.128423
504.136682
674.709678
857.417583
934.940577
910.819769
802.165866
592.097640
423.477888
235.418677
130.190849
48.759580
19.995570
6.486773
5.023479
4.959702
4.654527
4.811883
4.630685
4.649758
4.724860
5.348921
6.290674
8.678436
11.407733
16.013980
20.662546
26.610494
##ZVALUE=370
0.139475
0.272989
0.346899
0.271797
0.412464
0.156760
0.382662
0.325441
0.211596
0.253916
0.257492
0.172853
0.344515
0.290871
0.248551
0.315905
0.195503
0.292659
0.433922
0.255704
0.259876
0.237823
0.286698
0.245571
0.196695
0.379682
0.208616
0.453591
0.270605
0.361800
0.340939
0.403523
0.484586
0.329614
0.364780
0.313520
0.384450
0.412464
0.364780
0.374913
0.541806
0.559688
0.450611
0.405908
0.624657
0.375509
0.367761
0.463724
0.487566
0.455976
0.397563
0.611544
0.733733
0.707507
0.429749
0.615716
0.745654
0.800490
0.738502
0.821948
0.720620
0.993609
0.914931
1.031756
1.151562
1.561642
1.900792
10.049939
36.089420
119.420886
225.055814
429.002643
604.874492
810.040832
902.763605
919.009447
844.697952
655.362606
490.346551
277.196765
157.719851
63.254833
29.470921
10.174513
5.536675
4.516840
4.356503
4.618764
4.249811
4.316568
4.408956
4.168749
4.830956
6.052852
7.335544
10.659695
##ZVALUE=375
0.291467
0.195503
0.095963
0.203848
0.250936
0.289679
0.293851
0.216961
0.292659
0.165701
0.163913
0.189543
0.403523
0.293851
0.275970
0.090599
0.210404
0.282526
0.213981
0.321865
0.425577
0.067949
0.225902
0.059605
0.163913
0.231862
0.248551
0.267625
0.386834
0.328422
0.341535
0.331998
0.316501
0.282526
0.347495
0.250936
0.364780
0.289679
0.451803
0.230670
0.369549
0.422597
0.506639
0.421405
0.590682
0.550747
0.421405
0.423789
0.486970
0.426769
0.448823
0.503659
0.624657
0.451803
0.352859
0.523925
0.519753
0.644922
0.662804
0.676513
0.701547
0.677705
0.766516
0.891685
0.823736
0.858903
1.061559
1.305938
1.483560
5.151629
20.207763
73.831677
154.952407
334.999561
504.960418
725.850463
852.347016
923.236012
886.610746
740.143657
580.311418
361.711979
226.580501
106.155872
53.069592
16.713738
7.074475
4.311800
4.139543
4.054904
4.028678
4.090667
3.956556
4.139543
3.942847
4.669428
##ZVALUE=380
0.257492
0.101924
0.304580
0.178814
0.048876
0.254512
0.328422
0.287890
0.204444
0.193715
0.147820
0.140667
0.275970
0.164509
0.235438
0.304580
0.307560
0.205636
0.169873
0.318885
0.226498
0.111461
0.012517
0.098944
0.320673
0.108480
0.358820
0.210404
0.266433
0.374913
0.222921
0.367761
0.401735
0.315905
0.438690
0.351667
0.277758
0.343919
0.413656
0.427961
0.092983
0.422597
0.246763
0.489950
0.410676
0.370741
0.372529
0.314713
0.418425
0.211596
0.229478
0.290871
0.373721
0.302792
0.300407
0.557899
0.496507
0.523925
0.665784
0.523925
0.578761
0.555515
0.522733
0.548959
0.617504
0.772476
0.822544
1.090765
1.115799
1.319647
1.347661
2.770424
12.088418
56.782961
124.452710
267.913938
425.916910
658.869743
809.426904
925.431848
919.919014
787.925720
650.628805
458.368659
312.171578
156.686902
81.249475
28.219819
11.399984
4.686713
3.830791
3.682971
3.665686
3.470778
3.637671
3.623962
##ZVALUE=385
0.133514
0.115633
0.256896
-0.005960
0.089407
0.109673
0.173450
0.095963
0.188947
0.159740
0.245571
0.074506
0.239611
0.094771
0.000000
0.127554
0.097752
0.050664
0.222921
0.155568
0.107884
0.124574
0.069737
0.179410
0.097752
0.208616
0.313520
0.113845
0.244975
0.222921
0.246763
0.345707
0.322461
0.151992
0.243783
0.285506
0.203848
0.377893
0.138879
0.471473
0.537634
0.193715
0.280738
0.181794
0.283718
0.302792
0.228882
0.309944
0.302792
0.334978
0.233650
0.373721
0.304580
0.396967
0.480413
0.376701
0.650883
0.346899
0.414848
0.521541
0.483990
0.526905
0.538826
0.696778
0.422597
0.612736
0.666976
0.733733
0.813603
0.950694
1.032948
1.232624
1.401901
1.563430
5.013943
31.757951
81.630945
198.349953
339.004993
565.914512
726.387501
873.802900
908.915997
857.961774
752.936602
558.745861
399.515629
220.631957
125.745535
52.586794
21.247864
5.610585
3.623962
3.362894
3.356934
3.304482
##ZVALUE=390
0.183582
0.169873
0.243783
0.168681
0.170469
0.142455
0.330806
0.269413
0.051856
0.129938
0.262856
0.168681
0.268817
0.301600
0.132918
0.142455
0.191927
0.279546
0.182986
0.238419
0.293851
0.347495
0.304580
0.201464
0.219941
0.324845
0.374913
0.151992
0.282526
0.334978
0.115633
0.425577
0.260472
0.300407
0.182986
0.305772
0.376701
0.229478
0.364780
0.328422
0.430942
0.244975
0.439882
0.403523
0.358820
0.499487
0.485778
0.352859
0.364780
0.311732
0.360608
0.490546
0.448823
0.399947
0.445843
0.343919
0.367761
0.347495
0.504851
0.351667
0.536442
0.581741
0.554919
0.561476
0.648499
0.735521
0.559688
0.865459
0.734925
0.990629
0.914931
1.003742
1.156926
1.317859
1.313686
1.173615
2.441406
17.103553
53.195953
156.910419
282.486677
501.529574
660.412908
822.490454
904.647708
918.061733
840.299726
665.564537
508.675575
314.196944
184.970498
76.486468
34.644604
9.103417
4.253983
3.261566
##ZVALUE=395
0.228882
0.251532
0.225902
0.165701
0.325441
0.259876
0.267625
0.255704
0.299811
0.266433
0.264645
0.151992
0.110865
0.175834
0.161529
0.224710
0.034571
0.371933
0.214577
0.135899
0.201464
0.202656
0.181794
0.312924
0.363588
0.276566
0.289679
0.272989
0.321865
0.349879
0.212789
0.201464
0.254512
0.394583
0.360608
0.342727
0.325441
0.428557
0.281930
0.346899
0.252724
0.456572
0.405908
0.282526
0.344515
0.335574
0.337958
0.337958
0.362992
0.406504
0.422597
0.320673
0.460744
0.500679
0.264645
0.375509
0.439882
0.573993
0.476837
0.463724
0.445843
0.516772
0.559688
0.524521
0.635982
0.614524
0.656843
0.668764
0.773668
0.786781
0.939965
1.005530
1.125932
1.029968
0.969768
1.115799
0.973940
1.011491
1.422763
9.358525
35.343766
116.902590
211.449862
379.036665
541.964769
752.050877
869.679451
933.711529
898.431540
758.614540
598.747730
377.299786
236.262679
106.121898
50.910711
16.285777
##ZVALUE=400
0.255704
0.161529
0.215769
0.165701
0.082850
0.234842
0.211596
0.098944
0.078678
0.161529
0.199676
0.151992
0.202656
0.293851
0.267625
0.111461
0.188947
0.214577
0.122786
0.284910
0.348687
0.346899
0.320673
0.138879
0.335574
0.137687
0.238419
0.116825
0.302792
0.233650
0.221729
0.319481
0.275970
0.301600
0.289679
0.315905
0.311732
0.227690
0.304580
0.328422
0.270605
0.313520
0.269413
0.427961
0.315905
0.418425
0.344515
0.444651
0.214577
0.490546
0.356436
0.585914
0.354648
0.496507
0.447631
0.274777
0.357628
0.289679
0.364780
0.549555
0.461936
0.663996
0.444651
0.551939
0.450611
0.556707
0.621676
0.826716
0.685453
0.663996
0.937581
0.930429
1.026988
0.870824
0.825524
0.905991
0.826716
0.812411
1.071692
1.195669
1.363754
4.614592
18.985868
67.462921
139.338970
295.100808
449.789762
657.256842
790.203810
892.194510
892.347693
785.084963
652.576685
455.488563
306.641459
158.597827
##END
