##TITLE=FQP00302
##FORMAT=SPECTACLE-ASCII V-1.2
##DATA TYPE=ULTRAVIOLET SPECTRUM
##SECOND TYPE=ULTRAVIOLET SPECTRUM
##DATE=11/14/17
##TIME=15:58:51
##SPECTROMETER/DATA SYSTEM=SPECTACLE
##XUNITS=NM EM
##YUNITS=ENERGY
##YFACTOR=1
##FIRSTX=220
##LASTX=410
##NPOINTS=96
##3DDATA=Equidistant
##ZUNITS=NM EX
##FIRSTZ=210
##LASTZ=400
##ZPOINTS=39
##XYDATA=(Y..Y)
##ZVALUE=210
3.417730
3.076792
3.803968
3.429651
3.454685
3.793836
4.142523
3.974438
3.991723
3.629923
2.407432
2.493858
2.356768
2.596974
2.724528
2.886653
3.258586
2.967715
4.136562
3.002882
3.732443
4.041791
3.831983
4.866719
4.128814
5.037785
4.272461
5.127788
5.191565
5.629659
5.443692
5.467534
5.965829
6.374717
7.076859
7.326603
6.595850
7.474422
6.576777
8.230805
6.369948
7.451773
7.314682
7.459521
7.560849
7.028580
8.074641
7.855892
8.067489
8.007884
7.482767
8.095503
9.220839
8.406639
8.712411
7.373691
8.528829
8.240938
8.590817
8.844733
8.790493
8.661747
9.084940
8.405447
9.603500
9.410977
9.899735
11.390448
12.058616
15.321970
15.904903
21.504760
26.027560
27.734637
30.397773
33.366680
35.975575
36.931634
35.305619
31.595826
29.676557
25.009513
22.591949
17.610788
17.011762
13.374686
14.672875
11.086464
10.476708
9.231567
9.942651
9.833574
9.339452
10.537505
10.268688
10.120869
##ZVALUE=215
10.908842
12.536645
10.613799
10.393858
9.064674
8.359551
6.599426
6.822944
6.793737
6.264448
7.525682
7.582903
5.846620
5.016923
4.254580
4.508495
3.725886
3.395677
3.562570
4.153848
4.378557
4.735589
4.681945
5.555749
5.597472
5.621910
6.887913
7.033944
6.887913
7.559657
7.360578
8.720756
8.756518
8.911490
8.546710
9.279847
8.865595
9.989738
8.045435
10.108948
11.446476
10.363460
10.886788
9.697676
9.421706
11.531711
9.515882
10.323524
11.069775
10.919571
10.985732
10.095835
11.902452
11.543632
10.832548
9.989738
10.952950
11.833906
12.511611
11.444688
12.293458
11.634827
12.668967
12.763739
12.390614
12.770891
12.656450
15.416741
16.400814
18.553734
23.527741
27.849674
30.228496
35.449862
38.288832
44.369698
43.888688
43.743849
44.935942
42.899847
43.277740
33.920407
31.241775
26.078820
24.286509
19.447803
17.944574
15.047789
12.589693
12.226701
11.352897
13.021827
13.103485
11.180639
11.394620
11.859536
##ZVALUE=220
35.817623
36.890507
42.650700
47.808886
45.749545
38.218498
31.239986
23.344755
17.576814
13.387799
14.108419
16.705990
16.158819
13.931990
12.948513
9.697676
8.058548
6.465912
4.478693
5.063415
5.109906
6.113648
5.243421
6.808639
7.217526
7.972717
7.872581
7.900596
9.067655
9.276867
9.282827
9.397864
10.966659
11.435747
11.753440
11.700988
12.266636
12.475848
13.139844
12.582541
12.650490
13.409853
12.958646
13.148785
13.371706
13.738871
13.154745
12.918711
14.011860
12.706518
13.653636
12.917519
14.249682
13.562441
13.648868
13.805628
14.162660
14.064908
14.814734
14.538765
15.318990
15.549660
15.080571
15.030503
15.864968
14.416575
17.609000
17.637610
18.081665
22.247434
26.181936
29.840469
35.239458
40.199757
44.969916
51.384568
50.874949
54.787993
53.123832
54.573417
50.254464
44.780970
42.495728
36.898851
32.759905
25.933981
23.713708
18.860698
16.585588
13.296604
15.181899
14.184713
14.624596
14.505982
15.003681
13.613701
##ZVALUE=225
47.247410
54.346919
75.440407
105.662942
120.044947
132.571459
121.603608
102.571845
76.246858
58.814883
35.196543
27.572513
26.694536
26.257634
28.083920
26.705861
22.747517
18.822551
14.826655
11.104941
8.030534
6.626844
5.958676
6.560683
7.143617
7.598996
6.595850
8.652806
8.822680
9.188652
9.755492
9.771585
10.339618
10.701418
10.623932
12.054443
12.417436
12.714863
12.569427
12.336969
13.168454
13.284683
12.760758
13.372898
13.543963
14.208555
13.999939
14.362931
14.062524
14.930964
14.016628
14.922619
14.555454
13.830662
13.848543
14.981627
13.545752
14.762878
14.700890
15.939474
15.707612
15.060902
15.334487
16.326904
17.737746
17.611980
17.692447
18.880963
18.629432
20.868778
24.207830
26.837587
30.092597
32.992959
33.208728
36.675930
35.723448
38.473606
35.558939
33.764839
32.783747
31.746626
27.515888
23.956895
23.557544
21.344423
18.558502
17.471910
15.499592
15.675426
15.359521
13.778806
16.019940
15.008450
14.787912
15.680790
##ZVALUE=230
26.724935
32.601953
55.224895
106.909871
142.313838
194.642544
223.072767
237.521529
218.647718
169.216990
128.731728
82.967877
55.155754
42.023659
42.020679
43.193698
45.752525
48.007965
40.493608
34.105778
26.227832
19.556880
13.450980
8.687973
6.938577
6.863475
5.794764
6.306767
6.354451
7.603765
8.081794
7.248521
8.360744
10.022521
8.928776
9.857416
8.824468
10.888577
11.065602
10.370612
10.956526
11.626482
12.178421
11.989474
13.286471
14.666915
13.044477
14.942884
13.415813
14.258623
15.214682
13.703704
15.086532
16.253591
14.202595
15.131831
16.676784
15.086532
16.847849
16.944408
18.157959
16.811490
16.484857
17.097592
17.164946
18.940568
19.336939
20.318627
21.976829
24.423599
24.227500
27.883649
28.781891
30.883551
31.725764
36.045909
35.612583
33.924580
30.258894
30.897856
29.778481
26.550889
24.027824
22.966862
21.919608
20.522475
19.535422
19.454956
21.252632
19.647479
19.712448
17.679930
18.609762
17.959476
18.779635
17.881989
##ZVALUE=235
9.569526
9.529591
28.959513
60.721636
122.050643
178.509951
297.402740
373.833776
445.451736
454.666615
399.549007
324.174762
243.302584
145.084858
100.449920
62.527657
61.381459
64.308643
67.466497
71.412921
67.014694
60.940981
47.272444
35.381913
23.002625
17.647743
12.071729
8.262992
10.092854
7.042885
7.893443
8.445978
8.821487
8.304715
8.666515
9.342432
10.088682
10.295510
10.617971
11.358857
12.301803
12.746453
13.392568
12.772679
16.045570
16.852617
16.783476
18.785596
17.938614
19.271970
20.609498
21.184683
19.930601
20.776987
20.258427
23.274422
21.601915
21.468997
22.671819
21.324754
22.928715
21.563768
22.319555
23.330450
23.383498
24.770498
24.587512
27.015805
26.211739
30.924678
31.770468
34.196973
35.429001
36.073923
42.387843
40.681958
41.666627
40.370822
39.133430
36.196709
35.778880
31.927824
32.187700
29.676557
29.212832
29.506683
27.362704
26.367903
27.629733
25.984645
26.106834
25.659800
27.344823
23.774505
25.552511
23.107529
##ZVALUE=240
1.611710
1.874566
4.638433
11.525750
39.858818
76.162815
175.674558
275.349617
458.725691
570.433736
688.272715
697.313547
642.423034
504.072905
390.946865
237.890482
159.468651
96.281767
81.553459
78.351498
88.151693
92.341900
93.918443
91.179609
77.904463
60.583949
44.623613
33.566952
21.251440
14.679432
12.294650
10.743737
9.978414
9.966493
10.578632
11.283755
11.705756
11.225939
11.779666
13.557673
13.584495
15.276670
17.014742
16.614795
18.331409
20.484924
21.698475
22.406578
21.891594
25.494695
26.037693
24.677515
27.687550
27.471781
27.379990
27.465820
27.823448
30.768514
28.341413
30.387640
28.894544
27.242899
29.543638
29.884577
29.977560
30.686855
32.703876
32.642484
32.860637
35.148859
34.994483
40.431619
42.585731
44.498444
47.567487
47.139525
47.404766
44.547915
45.284629
41.627884
37.786961
39.145947
35.905838
35.860538
35.179853
35.868883
33.441782
33.857822
32.884479
31.245947
32.401681
30.750632
32.296777
29.754639
31.057000
29.559731
##ZVALUE=245
1.659989
1.678467
1.620650
1.681447
3.219843
9.583831
33.580661
78.138709
188.321471
309.708714
527.649522
678.148866
806.818604
872.736573
830.630660
682.005882
539.584756
353.330970
238.554478
125.212669
85.205436
74.893832
88.977814
100.012422
110.003948
107.190609
99.887848
88.663697
69.359541
54.046512
37.677884
26.365519
17.950535
13.872981
12.106895
11.821985
11.985898
13.232827
13.113618
13.976693
14.971495
15.953779
17.099977
18.154979
20.219684
21.720529
23.493767
24.796724
25.633574
26.278496
29.418468
28.881431
27.249455
29.466748
29.786825
28.572679
30.602813
30.401945
28.525591
28.085709
28.910637
29.967427
30.370951
30.318499
27.848482
30.097961
30.202866
30.224919
32.484531
33.876896
34.327507
37.288666
37.973523
40.599704
39.903522
41.650534
41.245818
39.510727
38.405657
39.996505
37.206411
36.761761
35.115480
35.001636
34.003854
35.496950
32.333732
31.667948
31.434894
31.609535
31.689405
31.162500
30.016899
30.463934
30.136704
32.154918
##ZVALUE=250
1.320839
1.284480
1.497865
1.435876
1.884699
1.961589
2.349615
6.790757
28.801560
65.646768
176.363587
313.551426
484.429002
717.008710
875.268579
1002.534032
995.988846
882.389545
723.778009
489.368439
317.061543
197.746754
101.715922
76.402426
80.327988
95.647573
107.395649
112.829804
115.229487
105.235577
93.171597
74.727535
57.524443
38.885474
26.821494
17.650723
15.008450
12.808442
13.143420
15.007854
14.165640
16.483665
17.967820
19.750595
20.514727
23.562908
22.636652
24.311543
25.914907
26.439428
28.472543
27.380586
28.270483
29.432774
30.513406
29.313564
28.201938
27.577877
28.184652
27.814507
28.478503
28.872490
27.854443
26.840568
27.818680
26.409626
27.056932
28.807521
29.140711
29.232502
29.673576
32.546520
33.461452
34.304857
34.602880
35.261512
35.496950
35.480857
34.161806
32.885671
32.516718
30.635595
31.405687
32.436848
28.801560
29.801726
28.708577
28.721690
27.454495
29.274821
28.435588
27.654767
27.934909
27.214885
27.584434
27.675629
##ZVALUE=255
1.116991
1.348853
1.616478
1.218915
1.242757
1.480579
1.686811
1.814961
2.256632
3.489852
20.272732
53.939819
115.171671
270.794630
441.334844
726.338625
923.335552
1015.786529
1015.786529
1015.786529
910.405517
706.933737
430.122018
261.518955
130.776763
83.483458
69.050789
77.586770
96.992850
107.994676
116.419792
120.139718
111.784935
93.059540
78.880787
54.158568
40.725470
26.442409
19.235611
16.021729
14.566779
14.648438
16.105771
18.368959
18.687844
20.426512
20.565987
23.276806
23.055673
24.998784
25.291443
24.930835
25.298595
26.903749
25.315881
24.807453
25.539994
24.939775
25.876760
24.633408
24.502873
23.743510
22.438765
23.753643
23.027658
24.291873
24.034977
23.068786
24.091601
26.197433
26.620626
26.142597
26.274920
27.295947
29.495955
29.654503
29.691458
29.837489
29.124618
27.973652
26.101470
25.449991
26.089549
24.811625
26.807785
25.450587
26.214719
25.916696
25.517941
25.378466
25.528669
24.912953
25.154948
24.075508
25.341511
25.354624
##ZVALUE=260
1.229644
1.223683
1.461506
1.467466
1.377463
1.605749
1.398921
1.834631
1.986623
2.060533
2.131462
2.386570
7.600784
35.573840
85.342526
225.149989
387.321711
663.444996
906.848907
1016.000509
1016.000509
1016.000509
1016.000509
884.608626
565.201640
371.034741
197.900534
117.041469
69.417953
63.904524
74.625611
96.194744
111.665726
122.960806
123.265982
114.917755
98.463893
75.421929
59.296489
41.043758
31.087995
20.738840
18.083453
16.937852
17.375946
18.134713
18.017888
19.063950
20.625591
20.195842
20.809770
21.156669
21.664500
21.010637
20.911694
21.272898
19.865632
21.273494
21.424890
20.309687
20.166636
20.416975
19.729733
19.525886
19.977689
19.902587
19.140840
19.123554
20.129681
22.149682
22.752881
22.667646
23.800731
24.567842
24.997592
25.798678
25.452971
25.329590
24.588704
24.653673
23.676753
22.492409
23.126602
22.432804
23.181438
22.013783
23.207664
23.104548
22.349954
22.221804
22.779703
23.411512
23.694634
24.067760
23.512840
22.777915
##ZVALUE=265
1.167655
1.141429
1.018643
1.130700
1.203418
1.143813
1.295805
1.085997
1.215935
1.176596
1.467466
1.769662
1.647472
1.896620
4.282594
25.026798
63.829422
175.172687
322.232842
632.205606
909.920931
1015.774608
1015.774608
1015.774608
1015.774608
1015.774608
757.148862
514.933467
267.468691
156.365633
92.398524
56.505799
59.135556
81.580877
99.492669
117.017627
123.399496
126.739740
118.331909
97.323656
81.219673
57.736635
43.127537
28.330684
22.847652
17.750859
16.658902
16.191602
16.707778
18.056631
17.546415
17.512441
17.542839
17.129779
18.024445
18.158555
18.013716
17.243624
16.437769
17.429590
16.874671
16.581416
17.021894
16.194582
16.802549
16.769767
16.851425
17.784834
17.723441
17.743707
20.196438
20.323992
20.708442
22.072792
21.958947
22.603869
21.807551
21.683574
20.959973
21.599531
20.640492
20.257831
19.812584
20.822883
20.758510
19.852519
21.215677
20.170808
19.584894
20.196438
20.103455
20.038486
20.183921
19.961596
20.758510
20.604730
##ZVALUE=270
0.798702
0.839829
1.001954
1.012683
1.084805
0.837445
1.106858
1.142621
1.215935
1.060963
1.116991
1.442432
1.671910
1.169443
2.004504
1.930594
2.031922
11.083484
35.813451
127.101541
264.419913
478.966832
866.023898
1015.774012
1015.774012
1015.774012
1015.774012
1015.774012
964.780450
693.369508
462.046862
224.719644
120.942593
56.259632
48.066974
61.194897
78.694820
101.789832
115.165710
125.415921
125.367641
114.120841
101.678967
79.859495
62.471628
42.110682
31.044483
24.384856
19.155741
16.879439
15.613437
16.398430
15.865564
16.057491
16.706586
16.212463
15.587807
15.844703
15.172958
15.886426
15.534759
15.079975
14.526844
14.937520
16.003847
15.869737
15.582442
15.854836
16.172528
17.962456
18.012524
19.480586
19.173622
20.407438
21.078587
20.328760
20.203590
21.268725
19.941926
19.827485
19.512773
18.556714
18.893480
18.831491
18.533468
19.087791
18.888712
18.963814
18.935800
19.244552
19.260645
19.563437
19.093752
19.392967
19.205809
19.224882
##ZVALUE=275
0.836849
0.796914
0.791550
0.917912
1.094937
0.986457
0.762939
0.836849
0.952482
1.050830
1.124740
1.057982
1.086593
1.272559
1.637936
1.497865
1.580715
1.644492
1.774430
5.144477
21.970868
68.606734
215.764642
414.092541
792.417526
1015.774608
1015.774608
1015.774608
1015.774608
1015.774608
1015.774608
880.151987
597.930551
303.987861
164.516568
69.341660
42.907000
44.344664
58.466792
80.959797
98.304749
117.467642
124.496818
123.102665
114.974976
97.366571
79.040527
60.369968
46.105981
30.239820
23.940802
18.325448
16.507506
15.673637
14.539957
14.577508
14.545918
14.608502
14.826655
14.640689
14.520884
15.242696
14.676452
15.463829
14.993548
14.844537
15.955567
15.788674
16.231537
17.682910
18.233657
19.197464
19.959807
20.579696
20.676851
20.644665
20.033717
20.159483
20.028949
19.369721
19.001961
18.430948
18.142462
19.003749
18.017888
18.056631
18.801689
18.160939
17.870665
18.227696
18.113852
18.558502
18.400550
17.851591
17.153621
18.322468
##ZVALUE=280
0.667572
0.793934
0.712872
0.879765
0.818968
0.869632
1.005530
0.793934
0.718832
0.719428
0.970960
0.914931
1.149774
1.156926
1.384616
1.437664
1.257658
1.477599
1.374483
1.898408
2.247691
2.788901
14.410615
54.067969
185.181499
345.618725
646.700859
950.960517
1015.774012
1015.774012
1015.774012
1015.774012
1015.774012
974.373817
692.679882
376.994610
214.571953
92.668533
48.174858
33.504963
41.627884
60.823560
78.513622
101.121664
113.908648
123.421550
122.438669
111.371875
97.951889
76.676607
59.173703
40.790439
30.331612
21.270514
17.021894
15.232563
13.641715
13.825893
13.272762
13.541579
14.172792
13.919473
14.621615
14.721751
14.539957
14.734864
14.898777
15.436411
16.011000
16.975999
17.678738
17.433763
18.935800
19.818544
18.378496
19.728541
20.094514
19.221902
19.391775
19.081831
17.909408
18.404722
17.907619
18.472672
17.458797
17.859936
17.754436
17.308593
17.754436
17.429590
16.959906
17.106533
17.514825
17.511845
17.390847
17.080903
##ZVALUE=285
0.678897
0.539422
0.742674
0.766516
0.786781
0.565648
0.847578
0.675917
0.918508
0.764728
0.806451
0.817776
0.876784
1.044869
1.084805
1.229644
1.091957
1.378655
1.357794
1.468658
1.642704
1.636744
1.888871
2.284646
7.219911
29.534698
108.853579
235.976577
512.167811
788.278580
1015.774012
1015.774012
1015.774012
1015.774012
1015.774012
1015.774012
876.534581
520.032048
312.334895
138.554573
68.536997
32.718778
28.544664
41.225553
55.191517
76.309443
90.978742
107.541680
116.018653
116.124749
110.179782
93.579888
78.433752
56.892633
44.005513
27.632713
21.721721
15.901923
14.368892
13.523698
13.800859
13.108850
13.656616
13.430715
14.501810
14.206767
14.663935
14.858842
15.422702
16.192794
16.757846
17.513633
18.448830
19.141436
19.050837
18.704534
18.627644
18.593669
18.653870
18.295646
17.613769
17.981529
17.321706
17.432570
17.277598
17.476678
17.856956
17.599463
17.811656
16.995668
17.374754
17.285943
16.951561
16.758442
17.028451
16.348958
##ZVALUE=290
0.816584
0.696778
0.718832
0.630617
0.767708
0.712872
0.777841
0.703931
0.685453
0.824928
0.863671
0.707507
0.872612
0.810623
0.823736
0.976920
0.866652
1.086593
1.106858
1.201630
1.155734
1.614690
1.449585
1.857877
2.139807
1.952648
3.360510
11.917949
66.967607
165.364742
323.726535
659.085512
969.648957
1015.774012
1015.774012
1015.774012
1015.774012
1015.773416
1002.947688
656.293631
418.862700
197.041631
99.158883
37.543774
23.000836
26.484728
35.013556
51.609874
66.334605
87.432861
101.033449
110.851526
112.383962
104.163885
90.242624
70.789456
55.926442
38.397908
28.605461
19.661784
16.074777
13.305545
13.019443
13.662577
13.450980
13.520718
14.260411
14.359951
14.840961
16.216636
16.201735
16.343594
17.463565
17.579794
17.887950
17.698407
17.907619
17.896891
17.754436
17.509460
17.330647
18.098950
17.340779
17.277598
17.290711
16.606450
17.496943
17.401576
17.555952
17.301440
17.154813
16.705990
16.565919
16.426444
16.525984
16.588569
##ZVALUE=295
0.685453
0.708699
0.776649
0.609756
0.684857
0.641942
0.715852
0.687838
0.642538
0.804663
0.627637
0.702739
0.724792
0.783801
0.844598
0.785589
0.744462
0.912547
0.849962
0.995994
1.067519
1.170635
1.329780
1.525879
1.256466
1.674891
1.843572
2.134442
2.606511
4.853606
35.055876
113.854408
260.223746
578.740835
885.422826
1015.774012
1015.774012
1015.774012
1015.774012
1015.774012
1015.774012
814.963579
536.073446
262.939930
141.604543
53.231716
25.685430
17.531514
22.022724
34.184456
46.790838
65.913796
79.982877
96.656680
104.523897
105.264783
98.601580
84.137917
70.786476
51.018000
40.265918
27.174950
20.336509
15.749931
14.338493
12.813807
13.316870
13.677478
14.554858
14.661551
15.399456
16.039610
16.495585
17.047524
17.498732
17.369986
17.188787
17.825961
17.411709
17.216802
16.779900
17.087460
17.104745
17.280579
17.723441
17.182827
16.799569
17.151833
16.961694
17.328858
16.660690
16.952753
16.579628
16.830564
16.744733
15.923977
##ZVALUE=300
0.668764
0.502467
0.475645
0.649691
0.666976
0.466704
0.600815
0.572801
0.712872
0.704527
0.603795
0.738502
0.853539
0.805855
0.755787
0.852942
0.838637
0.855923
0.959635
1.001954
1.113415
1.130700
1.080632
1.098514
1.426935
1.386404
1.452565
1.566410
1.705885
2.010465
2.303720
3.084540
15.832782
69.446564
234.682560
437.158942
847.993493
1015.774608
1015.774608
1015.774608
1015.774608
1015.774608
1015.774608
1015.774608
660.274029
407.414436
195.706487
101.264715
37.466884
17.709732
15.632510
20.176768
30.090809
41.387677
58.268905
74.171424
90.116858
97.998977
99.737644
94.429851
80.901980
69.252849
51.494837
40.567517
27.168989
21.317601
16.527772
15.044808
14.552474
15.161633
15.634894
16.061664
16.737580
17.181635
16.926527
17.155409
17.427802
17.933846
17.492771
17.585754
17.360449
16.529560
17.132759
18.091798
17.418861
17.695427
17.753839
17.417669
17.903447
17.471910
17.116666
16.666651
17.089844
16.256571
16.449690
16.431808
##ZVALUE=305
0.528693
0.459552
0.509620
0.581741
0.348687
0.504851
0.607967
0.667572
0.638962
0.729561
0.776649
0.600815
0.681877
0.705719
0.742674
0.626445
0.676513
0.713468
0.783801
0.892878
1.032948
1.050830
1.026988
1.067519
1.055598
1.342893
1.286864
1.376867
1.482964
1.418591
1.643896
1.997948
2.346635
2.585649
8.102655
41.611791
186.329484
377.140641
742.502809
1015.774012
1015.774012
1015.774012
1015.774012
1015.774012
1015.774012
1015.774012
826.029778
542.300940
264.387727
140.868425
55.166483
24.598837
13.137460
14.071465
20.232797
27.828813
42.779446
55.372715
71.591735
83.223581
92.228651
95.578432
87.780952
79.793930
63.705444
50.761700
37.455559
28.499961
21.521449
18.652678
16.193986
16.456842
16.354918
16.629696
16.854405
17.069578
17.029643
17.220974
17.643571
17.322898
17.630458
17.886758
17.757416
18.160939
18.211603
17.698407
17.938614
18.065572
17.859936
17.743707
17.680526
17.643571
17.887950
17.257929
16.641617
16.946793
##ZVALUE=310
0.492930
0.606775
0.501871
0.604987
0.435710
0.478625
0.535846
0.432730
0.537634
0.552535
0.679493
0.635982
0.711679
0.572801
0.779629
0.709891
0.847578
0.565648
0.670552
0.929832
0.790954
0.854731
0.663996
1.016855
1.023412
0.829697
1.123548
1.140833
1.279712
1.271963
1.340508
1.438856
1.666546
1.914501
2.242923
2.386570
3.416538
16.292930
115.893483
276.608467
509.856939
927.014947
1015.774012
1015.774012
1015.774012
1015.774012
1015.774012
1015.774012
1015.773416
764.024854
412.417650
232.825875
93.615651
41.426420
14.748573
11.411905
13.698936
17.787814
26.842952
36.073923
50.879717
63.882470
77.968836
85.220933
88.081956
85.904598
77.179670
65.762997
50.403476
39.519668
29.636621
23.701787
19.027591
18.103719
16.970634
17.208457
17.300844
17.643571
17.601848
17.489791
17.339587
17.409921
17.855763
18.305779
18.214583
18.165708
18.455982
18.513799
18.733740
19.002557
18.178821
18.273592
17.743707
17.681718
17.440915
17.922521
##ZVALUE=315
0.547767
0.447631
0.501871
0.566840
0.611544
0.539422
0.570416
0.567436
0.558496
0.463724
0.527501
0.455976
0.592470
0.611544
0.701547
0.613928
0.572801
0.541806
0.686646
0.563860
0.720620
0.836849
1.053810
0.953674
0.818968
0.892878
0.966787
1.035929
1.129508
1.218915
1.131892
1.201630
1.305938
1.510978
1.722574
2.029538
2.170801
2.297759
2.581477
6.629825
65.670609
188.646913
459.392667
745.140910
1015.774012
1015.774012
1015.774012
1015.774012
1015.774012
1015.774012
1015.773416
880.050659
509.268641
305.903554
136.079788
63.177943
20.106435
11.568666
11.162758
12.287498
17.602444
24.233460
36.059618
46.170950
61.322451
72.608590
81.450939
85.148811
81.511736
73.219538
61.325431
51.046610
38.662553
31.393766
23.429990
20.789504
18.262863
17.986894
17.592907
17.482638
17.849803
18.053651
18.262863
18.837452
18.789768
18.817782
19.197464
19.164681
19.068718
18.706918
18.810630
18.275976
18.033981
18.027425
17.518997
18.037558
##ZVALUE=320
0.385642
0.398755
0.472665
0.504851
0.468493
0.523925
0.300407
0.650883
0.550747
0.606775
0.571609
0.442863
0.533462
0.512600
0.474453
0.630617
0.644922
0.681877
0.611544
0.534654
0.731945
0.562668
0.709891
0.694990
0.940561
0.890493
0.883937
0.867844
0.830889
0.963807
0.862479
1.142621
1.179576
1.273751
1.272559
1.336932
1.551509
1.877546
1.870990
2.205968
2.573729
3.934503
23.843646
149.273872
335.033536
688.250661
983.403921
1015.774012
1015.774012
1015.774012
1015.774012
1015.774012
1015.774012
990.196466
708.609819
370.918512
203.982592
83.831549
37.690997
13.577938
10.254979
10.320544
12.085438
16.512871
21.745563
32.432675
43.159723
58.008432
68.352818
78.154802
82.752705
79.711676
73.373914
60.424805
50.447583
37.714839
30.213594
23.957491
21.432638
18.785000
18.271804
18.194914
18.593669
18.632412
18.592477
18.473864
19.107461
18.951893
18.941760
18.814802
18.528700
18.537641
18.331409
18.224716
18.402934
18.128753
##ZVALUE=325
0.423789
0.438690
0.425577
0.398755
0.539422
0.397563
0.365973
0.431538
0.557899
0.416636
0.455976
0.627637
0.401735
0.486970
0.522733
0.438690
0.592470
0.486970
0.510812
0.562668
0.740886
0.841618
0.783801
0.798702
0.748634
0.727773
0.648499
0.709891
0.775456
0.937581
0.813603
1.035929
0.968575
1.101494
1.123548
1.261830
1.384616
1.546741
1.588464
1.692772
1.906753
2.031922
2.349615
2.969503
11.654496
110.519528
268.104672
568.566918
857.665539
1015.774012
1015.774012
1015.774012
1015.774012
1015.774012
1015.774012
1015.774012
835.402012
477.977991
275.073647
113.508701
52.515864
18.415451
10.948777
9.816885
10.574460
12.436509
16.252995
22.993684
31.443834
45.021772
56.407452
68.142414
73.777437
77.217817
74.785948
66.545606
57.709813
45.849681
37.771463
28.196573
23.901463
20.652413
19.755960
18.743873
18.655658
18.838644
19.212961
18.622875
18.950701
19.037724
18.526912
18.445849
18.772483
18.680692
18.464923
18.230677
##ZVALUE=330
0.378489
0.291467
0.562668
0.415444
0.456572
0.365973
0.342727
0.440478
0.480413
0.588894
0.501871
0.633597
0.486970
0.373721
0.444651
0.444651
0.481606
0.629425
0.454783
0.456572
0.727773
0.623465
0.670552
0.752807
0.744462
0.780821
0.537634
0.745654
0.914931
0.884533
0.975728
0.863671
0.970960
0.882745
1.091957
1.095533
1.194477
1.141429
1.299977
1.376867
1.502633
1.578927
1.771450
1.948476
2.444983
2.636909
5.569458
37.092566
202.800632
418.487787
794.628859
1015.774012
1015.774012
1015.774012
1015.774012
1015.774012
1015.774012
1015.774012
987.877846
688.457489
348.145962
185.480714
72.122812
32.100677
12.404919
10.263920
10.462999
11.160970
13.347864
17.308593
24.951696
31.944513
42.968988
52.258968
64.797997
70.765615
72.577596
70.960522
62.492490
54.695606
43.880939
36.390424
28.728843
24.625659
20.923615
19.836426
19.023418
18.716455
18.314719
18.740892
18.614531
18.736720
17.864704
17.868876
18.183589
17.960668
##ZVALUE=335
0.327826
0.455976
0.414848
0.548959
0.421405
0.503659
0.539422
0.475645
0.546575
0.471473
0.347495
0.430942
0.523925
0.538826
0.579953
0.662804
0.572801
0.470877
0.385642
0.576973
0.395775
0.632405
0.483990
0.647902
0.529885
0.500679
0.711679
0.651479
0.711679
0.690818
0.836849
0.805855
0.893474
0.817776
0.980496
0.968575
1.068711
0.984669
1.077652
1.272559
1.159906
1.394749
1.532435
1.685619
1.834631
1.932979
2.238750
2.440810
3.016591
10.937452
114.697814
301.038027
642.220974
961.114764
1015.774012
1015.774012
1015.774012
1015.774012
1015.774012
1015.774012
1015.774012
876.405835
477.824807
271.378756
105.205774
47.443509
17.449856
11.032820
10.650754
11.113882
12.092590
13.898611
18.023849
22.576451
31.101704
39.493442
51.138997
59.630871
67.600608
68.114996
65.963864
60.718656
51.795840
44.200420
35.259724
29.545426
24.467707
21.611452
19.042492
18.850565
18.392801
17.922521
17.862916
17.388463
17.403960
17.453432
##ZVALUE=340
0.418425
0.474453
0.513792
0.548959
0.560880
0.404716
0.489950
0.322461
0.620484
0.499487
0.531673
0.579953
0.405908
0.449419
0.435710
0.399947
0.304580
0.450611
0.440478
0.435710
0.603795
0.588894
0.528693
0.603795
0.744462
0.814795
0.658631
0.603795
0.703931
0.724792
0.650883
0.752807
0.770688
0.721812
0.969768
0.855923
0.954866
1.007915
1.097918
1.163483
1.084805
1.019835
1.191497
1.298785
1.357794
1.496673
1.548529
1.716614
2.196431
2.342463
2.818704
7.560849
51.268935
255.582929
502.601862
910.988450
1015.774012
1015.774012
1015.774012
1015.774012
1015.774012
1015.774012
1015.774012
962.528586
646.031499
311.044455
162.050724
62.658787
26.346445
11.967421
10.796785
11.064410
11.293888
11.997819
14.109612
17.526746
22.235513
30.066967
37.954450
49.342513
55.774450
61.873794
64.309835
61.515570
57.384968
50.357580
42.917728
33.758879
28.527975
23.509860
20.352602
18.363595
17.300844
17.118454
16.885996
16.953945
##ZVALUE=345
0.500679
0.410676
0.295639
0.371933
0.394583
0.353456
0.442863
0.317693
0.426769
0.324845
0.314713
0.511408
0.284910
0.421405
0.395775
0.381470
0.492930
0.494719
0.471473
0.411868
0.721812
0.765920
0.657439
0.611544
0.535846
0.436902
0.641942
0.706911
0.623465
0.632405
0.567436
0.640750
0.534654
0.786781
0.703931
0.800490
0.750422
0.761747
0.771880
0.924468
1.008511
1.040697
1.071692
1.109838
1.022816
1.356602
1.317859
1.443624
1.446605
1.675487
1.883507
2.115965
2.523661
3.371835
18.233657
168.623924
390.424728
746.190548
1015.756726
1015.756726
1015.756726
1015.756726
1015.756726
1015.756726
1015.756726
1015.327573
761.248469
427.611470
231.062770
86.207986
38.279891
15.499592
11.331439
10.712743
10.682940
10.833740
11.611581
13.266802
16.053915
21.477938
27.069449
36.905408
43.837428
51.682591
56.561828
59.804916
58.913827
53.908825
47.886968
40.819645
33.838749
26.301742
22.978783
19.126534
17.546415
16.700625
##ZVALUE=350
0.491738
0.494719
0.579953
0.443459
0.421405
0.511408
0.460744
0.421405
0.457764
0.395775
0.494719
0.523925
0.371933
0.456572
0.448823
0.508428
0.654459
0.465512
0.622869
0.462532
0.497699
0.489950
0.543594
0.579953
0.675917
0.512600
0.480413
0.568628
0.597835
0.637770
0.746846
0.646710
0.631809
0.666976
0.594854
0.779629
0.946522
0.634789
0.986457
0.826716
0.840425
0.927448
0.983477
0.970960
1.136661
1.201630
1.068711
1.078844
1.225471
1.395941
1.520514
1.477599
1.889467
2.145767
2.282858
2.899766
6.550550
86.311698
261.214972
609.404445
915.868878
1015.760899
1015.760899
1015.760899
1015.760899
1015.760899
1015.760899
1015.760899
865.425467
492.531657
285.601616
122.174621
55.396557
18.133521
10.972619
9.751916
9.664893
9.944439
10.005832
10.939837
12.505651
15.749931
18.973947
25.448799
31.019449
39.527416
45.902729
51.600933
54.738522
53.561926
50.976872
44.581890
38.637519
30.816793
26.142001
21.496415
##ZVALUE=355
0.520945
0.442863
0.600815
0.475645
0.440478
0.459552
0.358820
0.544786
0.485778
0.608563
0.510812
0.425577
0.680685
0.552535
0.484586
0.508428
0.592470
0.596642
0.576973
0.674725
0.657439
0.744462
0.520945
0.645518
0.642538
0.761747
0.767708
0.617504
0.698566
0.686646
0.615716
0.804663
0.766516
0.922680
0.556707
0.776649
0.840425
0.846982
0.739694
0.856519
1.013875
1.032948
1.109838
0.907779
0.905991
1.061559
1.007915
1.253486
1.284480
1.372695
1.271963
1.261830
1.536608
1.560450
1.743436
1.974702
2.347827
2.538562
3.937483
23.150444
188.122988
421.424508
805.000663
1015.774012
1015.774012
1015.774012
1015.774012
1015.774012
1015.774012
1015.774012
871.721506
609.716773
328.713655
173.364878
64.197779
27.988553
11.311769
9.414554
9.186864
9.159446
9.747744
9.789467
10.574460
11.988878
14.121532
16.892552
22.432804
27.629733
35.587549
41.012764
46.706796
49.339533
49.284697
47.413707
41.870475
36.902428
##ZVALUE=360
0.482798
0.352859
0.460744
0.503659
0.413656
0.417829
0.451803
0.357628
0.489950
0.526905
0.415444
0.509620
0.563860
0.611544
0.733733
0.560880
0.632405
0.797510
0.693798
0.514984
0.730753
0.730753
0.603795
0.680685
0.727773
0.656843
0.708699
0.722408
0.789762
0.627637
0.739694
0.837445
0.633597
0.608563
0.791550
0.815988
0.775456
0.750422
0.748634
0.880957
1.039505
0.697970
0.938773
0.978708
0.885725
0.974536
1.102686
1.282692
1.372695
1.242757
1.368523
1.401901
1.393557
1.380444
1.549721
1.829863
1.740456
2.014637
2.419949
2.889633
3.425479
10.594726
70.651770
305.184722
577.742457
986.007452
1015.779972
1015.779972
1015.779972
1015.779972
1015.779972
1015.779972
1015.779972
691.946745
439.386964
203.756690
102.052689
36.720634
16.388893
9.062886
8.436441
8.813739
8.597970
9.071827
9.145737
9.559989
10.479689
12.321472
14.691949
18.782616
23.730993
30.370951
35.488605
41.570663
43.917894
44.949651
##ZVALUE=365
0.401735
0.519753
0.412464
0.396967
0.189543
0.292659
0.391603
0.458956
0.246763
0.343919
0.367761
0.342727
0.398755
0.307560
0.378489
0.377893
0.340939
0.358820
0.505447
0.452995
0.429749
0.370741
0.443459
0.506639
0.337958
0.520945
0.594854
0.523925
0.671744
0.489950
0.510812
0.570416
0.622869
0.638962
0.605583
0.821948
0.632405
0.676513
0.519753
0.655651
0.698566
0.552535
0.806451
0.778437
0.760555
0.637770
0.904799
0.872612
0.764728
0.815988
1.045465
1.094937
1.166463
1.104474
1.258850
1.422763
1.134872
1.440644
2.000928
2.176762
2.614856
2.898574
3.242493
3.750920
33.135414
152.724981
451.033711
759.913921
1015.605927
1015.605927
1015.605927
1015.605927
1015.605927
1015.605927
1015.605927
878.445506
529.423952
315.164924
130.613446
59.318542
18.663406
9.592772
7.803440
7.536411
7.541776
7.810593
8.088946
8.294582
8.582473
9.080768
10.325909
12.416840
16.177893
20.262599
25.621653
30.575991
##ZVALUE=370
0.499487
0.371933
0.441670
0.372529
0.409484
0.493526
0.474453
0.408888
0.351667
0.464916
0.399947
0.436902
0.342727
0.470877
0.475645
0.564456
0.413656
0.480413
0.593662
0.431538
0.391603
0.341535
0.619888
0.455976
0.474453
0.527501
0.476837
0.540614
0.433922
0.646710
0.530481
0.442863
0.563860
0.605583
0.605583
0.664592
0.641942
0.689626
0.596642
0.722408
0.728965
0.601411
0.676513
0.711679
0.665784
0.691414
0.724792
0.643730
0.865459
0.761747
0.910759
1.016855
1.097918
1.063943
0.927448
1.249909
1.220703
1.267791
1.443624
1.501441
1.631975
1.932979
2.143979
2.127886
2.683401
3.288984
8.556843
101.920366
307.646990
706.417561
998.665690
1015.706658
1015.706658
1015.706658
1015.706658
1015.706658
1015.706658
945.392847
661.828518
347.227454
185.396671
69.980621
31.519532
12.180805
7.811785
7.202625
7.281899
7.202625
7.283688
7.192492
7.360578
7.809997
8.415580
9.683967
10.983944
14.286637
##ZVALUE=375
0.320673
0.323653
0.250936
0.424981
0.269413
0.352859
0.310540
0.509620
0.413656
0.404716
0.354648
0.402927
0.421405
0.281930
0.421405
0.525713
0.425577
0.257492
0.349879
0.513792
0.464916
0.392795
0.509620
0.399947
0.427961
0.377893
0.479817
0.368953
0.511408
0.455976
0.596642
0.465512
0.465512
0.504851
0.491738
0.326633
0.483990
0.580549
0.475645
0.588894
0.383854
0.558496
0.632405
0.677705
0.684857
0.706911
0.588894
0.560880
0.629425
0.785589
0.675917
0.798702
0.777841
0.935793
0.939965
0.853539
0.921488
0.928640
1.018643
1.043677
1.211762
1.167655
1.452565
1.683831
1.730919
1.837611
2.464652
3.047585
4.941821
38.758516
245.128870
494.547486
904.031992
1015.729904
1015.729904
1015.729904
1015.729904
1015.729904
1015.729904
1015.729904
742.545724
496.396422
263.885856
141.482949
53.119659
22.952557
8.596778
6.781816
6.543994
6.645918
6.741881
6.697774
6.849766
7.118583
7.257462
7.710457
##ZVALUE=380
0.334978
0.429749
0.341535
0.293851
0.301600
0.252724
0.422597
0.396967
0.339746
0.255704
0.480413
0.231862
0.440478
0.346899
0.279546
0.378489
0.407696
0.360608
0.458956
0.378489
0.444651
0.496507
0.414848
0.378489
0.427961
0.505447
0.519753
0.551939
0.523925
0.431538
0.434518
0.646710
0.472665
0.363588
0.542998
0.530481
0.450611
0.420809
0.450611
0.594854
0.498891
0.635982
0.619888
0.523925
0.652671
0.698566
0.644922
0.593662
0.778437
0.611544
0.825524
0.790954
0.906587
0.755787
0.857711
0.856519
0.844598
0.802875
1.008511
1.041889
1.242757
1.287460
1.203418
1.297593
1.380444
1.742840
1.688600
2.180934
2.549887
2.852678
3.436804
16.571879
106.353760
415.844917
733.844638
1015.774012
1015.774012
1015.774012
1015.774012
1015.774012
1015.774012
1015.774012
932.350755
583.234429
372.363925
173.977613
86.650848
30.161738
13.301969
6.806850
6.315708
6.106496
6.017685
5.998611
6.133914
6.310940
##ZVALUE=385
0.361800
0.347495
0.385642
0.272989
0.404716
0.434518
0.539422
0.447631
0.249743
0.319481
0.270605
0.399947
0.459552
0.373721
0.421405
0.412464
0.298619
0.287890
0.590682
0.355840
0.259876
0.374913
0.309944
0.272989
0.304580
0.467896
0.508428
0.500679
0.319481
0.355840
0.464916
0.519753
0.587702
0.538826
0.494719
0.533462
0.525713
0.711679
0.453591
0.473857
0.537634
0.746846
0.581741
0.632405
0.436902
0.663996
0.596642
0.601411
0.705719
0.627637
0.649691
0.670552
0.643730
0.725985
0.723600
0.775456
0.865459
0.909567
0.890493
0.714660
0.997782
1.064539
0.994802
1.228452
1.086593
1.533628
1.425743
1.807809
1.904964
2.162457
2.319813
2.544522
2.999902
5.529523
46.682358
272.838473
550.248623
971.650481
1015.774608
1015.774608
1015.774608
1015.774608
1015.774608
1015.774608
1015.774608
772.946477
521.326661
268.110633
144.921541
56.921840
23.385882
7.617474
5.773902
5.591512
5.591512
5.600452
##ZVALUE=390
0.302792
0.345707
0.227690
0.416636
0.362992
0.287890
0.347495
0.381470
0.238419
0.262856
0.426769
0.392795
0.372529
0.319481
0.317693
0.340939
0.333786
0.498891
0.439882
0.465512
0.417829
0.387430
0.276566
0.268817
0.472665
0.516772
0.464916
0.551939
0.372529
0.558496
0.590682
0.415444
0.488758
0.636578
0.592470
0.616908
0.523925
0.517964
0.477433
0.631809
0.533462
0.495911
0.679493
0.600815
0.428557
0.583529
0.689626
0.571609
0.669956
0.706911
0.561476
0.630617
0.770688
0.822544
0.729561
0.737906
0.727773
1.035929
0.898838
0.893474
0.870824
0.978708
0.922680
1.057982
1.231432
1.195669
1.521707
1.687407
1.820922
1.920462
1.974702
2.212524
2.247691
2.456903
2.660751
3.293753
22.596717
133.763552
466.784835
807.317495
1015.774608
1015.774608
1015.774608
1015.774608
1015.774608
1015.774608
1015.774608
987.676978
637.013912
409.022570
197.161436
98.449588
32.966733
13.010502
5.769730
5.317926
##ZVALUE=395
0.350475
0.324845
0.223517
0.305772
0.311732
0.278950
0.410676
0.259876
0.388622
0.409484
0.464916
0.263453
0.340939
0.343919
0.398755
0.475645
0.460744
0.416636
0.391603
0.561476
0.231862
0.171661
0.510812
0.296831
0.347495
0.512600
0.339746
0.528693
0.636578
0.478625
0.475645
0.436902
0.533462
0.516772
0.542998
0.579953
0.496507
0.621676
0.439882
0.554919
0.495911
0.515580
0.581741
0.499487
0.678897
0.567436
0.581741
0.764728
0.759959
0.713468
0.735521
0.710487
0.638962
0.803471
0.733733
0.907779
0.867844
0.771880
0.977516
0.875592
0.946522
0.820756
0.876784
1.061559
0.947714
1.132488
1.286864
1.400709
1.770854
1.768470
1.734495
2.011657
1.927614
2.012849
1.825690
2.069473
2.307892
2.767444
8.863807
73.216558
356.306434
663.862824
1015.774012
1015.774012
1015.774012
1015.774012
1015.774012
1015.774012
1015.774012
1015.774012
810.671449
539.442897
268.787742
139.066577
49.359798
21.273494
##ZVALUE=400
0.332594
0.449419
0.357628
0.345707
0.268817
0.289679
0.180602
0.251532
0.272989
0.313520
0.424981
0.353456
0.451803
0.361800
0.461936
0.331998
0.398755
0.383854
0.421405
0.414848
0.520945
0.373721
0.436902
0.344515
0.506639
0.442863
0.449419
0.500679
0.578761
0.614524
0.519753
0.356436
0.488758
0.406504
0.472665
0.540614
0.394583
0.592470
0.491738
0.466704
0.528693
0.468493
0.567436
0.467896
0.768900
0.542998
0.648499
0.607967
0.698566
0.567436
0.629425
0.679493
0.638962
0.683665
0.753999
0.830889
0.723600
0.671744
0.739694
0.955462
0.999570
0.953674
1.041889
1.065731
1.038909
1.136661
1.196861
1.540780
1.589656
1.842976
1.709461
1.618862
1.713634
1.504421
1.670718
1.787543
1.968741
2.281666
2.407432
2.930760
3.795624
44.754744
191.787481
556.031466
905.545950
1015.774012
1015.774012
1015.774012
1015.774012
1015.774012
1015.774012
1015.774012
952.847600
618.870854
389.821529
185.377002
##END
