##TITLE=QP00651
##FORMAT=SPECTACLE-ASCII V-1.2
##DATA TYPE=ULTRAVIOLET SPECTRUM
##SECOND TYPE=ULTRAVIOLET SPECTRUM
##DATE=11/14/17
##TIME=16:04:56
##SPECTROMETER/DATA SYSTEM=SPECTACLE
##XUNITS=NM EM
##YUNITS=ENERGY
##YFACTOR=1
##FIRSTX=220
##LASTX=410
##NPOINTS=96
##3DDATA=Equidistant
##ZUNITS=NM EX
##FIRSTZ=210
##LASTZ=400
##ZPOINTS=39
##XYDATA=(Y..Y)
##ZVALUE=210
3.752708
4.034638
4.178882
3.312826
3.396869
3.831983
3.770590
3.474951
3.434420
3.292561
3.436804
2.499819
2.157688
2.388954
2.469420
2.522469
2.349615
2.448559
2.707839
3.201962
2.642870
2.611876
2.970695
2.515912
3.200769
3.803968
3.764629
3.804564
3.304482
4.095435
3.809929
4.155636
4.554987
3.773570
3.853440
4.665852
4.343987
4.468560
4.656911
4.909635
4.887581
4.896522
4.835725
4.732609
4.895926
4.699826
4.942417
5.462766
5.242825
5.163550
5.372763
4.821420
6.121993
5.718470
5.442500
5.284548
4.964471
5.349517
5.933642
5.931854
5.273819
5.556941
4.606843
5.617738
5.557537
5.923510
5.792975
6.259680
7.473826
8.086562
9.876490
11.034608
12.475848
14.556646
15.309453
14.898777
14.878511
15.057921
14.874935
14.343858
12.830496
11.660457
11.613965
10.029674
8.303523
7.434487
7.263422
6.527901
5.646944
4.996657
5.315542
5.888939
6.423593
6.993413
6.500483
6.979704
##ZVALUE=215
8.105636
8.958578
7.217526
9.255409
7.707477
6.407499
6.809831
7.374883
6.747842
6.490946
6.647706
6.271601
5.514622
3.658533
3.494620
2.505779
2.526641
2.622604
3.090501
2.725720
3.486872
3.307462
3.137589
3.176928
3.996491
3.602505
3.611445
3.793836
4.026890
4.362464
3.247857
4.519820
4.441738
4.115701
4.040599
4.219413
5.311966
4.453659
4.868507
5.287528
5.098581
5.300641
4.807711
4.562736
4.217625
5.457997
4.997849
5.575418
5.250573
4.385710
5.994439
6.108880
6.021857
5.513430
5.374551
6.199479
6.157756
5.784631
6.323457
6.402731
6.637573
5.999804
6.573796
5.881786
6.317496
6.504655
7.113814
6.939769
7.420778
8.222461
9.659529
10.344982
11.307597
13.993979
14.440417
15.070438
15.050769
15.234947
14.652610
13.945699
12.028813
11.933446
11.062622
9.614825
8.306503
8.838773
7.321835
7.261634
6.106496
5.244613
5.327463
4.931688
5.373955
5.270839
5.312562
5.031824
##ZVALUE=220
20.309687
22.347569
24.470687
26.117563
27.656555
23.254752
20.289421
14.718771
13.564825
12.344718
12.909770
14.173985
15.811920
12.978911
11.279583
7.902980
6.044507
5.004406
4.442930
3.170967
2.988577
2.590418
3.648996
3.836751
3.254414
4.212856
3.503561
3.894567
4.858971
4.642606
4.829764
4.709959
4.649758
5.122423
4.741549
5.242825
4.835725
5.777478
5.217791
5.152822
5.697608
4.898906
6.125569
5.622506
4.966855
5.607605
5.196929
5.785823
5.947948
6.652474
6.865859
6.460547
6.911755
6.534457
7.232428
7.142425
7.106662
6.805658
7.061958
8.194447
6.613731
7.209778
7.261634
7.473826
6.382465
7.394552
7.885695
7.772446
8.975863
8.725524
10.806918
12.122989
11.869669
13.399720
14.254451
15.476942
14.963746
14.840961
15.616417
14.780760
13.480783
13.669729
12.130737
10.838509
9.163618
9.420514
8.417964
7.788539
6.022453
7.111430
6.014705
6.293654
5.444884
5.949736
5.792975
5.685687
##ZVALUE=225
29.865503
30.307770
43.504834
53.807497
65.947771
68.544745
65.373778
55.606961
43.631792
32.884479
25.992990
22.977591
24.355650
25.079846
25.893450
24.595857
21.114945
17.118454
13.812780
8.246899
6.706715
4.420877
4.353523
4.013777
4.593730
4.363656
3.829598
4.012585
4.821420
4.747510
5.394816
5.588531
4.713535
5.775690
5.086660
6.083846
5.593896
6.498694
7.056594
6.633997
6.562471
5.918741
5.984902
6.446838
5.998611
6.555915
6.913543
6.118417
7.124543
6.964803
8.154511
8.863807
8.140802
8.758903
7.751584
8.473992
8.140802
8.243918
8.435845
8.777976
9.064674
8.978844
8.923411
8.757710
8.927584
8.801818
8.933544
10.126829
10.433793
11.790991
12.057424
12.759566
14.648438
15.325546
15.866756
17.277598
16.864538
16.405582
16.296506
15.197992
14.243722
11.323690
11.529922
10.155439
9.950995
10.854602
8.152723
8.513927
8.199811
8.242726
8.256435
7.981658
8.341670
7.150769
7.983446
8.292794
##ZVALUE=230
21.874905
22.512674
43.657422
67.418814
99.485517
125.626922
147.580504
158.750415
150.724649
126.694441
91.433525
72.336793
49.988627
38.921833
37.594438
41.113496
44.567585
45.650601
39.295554
31.843781
22.889972
18.591881
13.079643
7.408857
5.493760
5.333424
5.415678
5.333424
5.235672
5.222559
6.054640
5.446672
5.134940
6.147623
6.295443
5.961657
6.838441
7.193685
5.100965
7.208586
7.583499
7.210970
6.996989
6.835461
7.279515
7.866621
7.300973
7.588863
8.507967
8.657575
8.198619
8.628964
9.681582
9.235740
8.556843
10.165572
10.361671
9.595752
9.995699
11.528730
10.780692
11.764765
10.840893
10.339618
12.108684
12.608767
12.883544
12.691617
13.476610
13.503432
15.626550
15.872717
15.875697
18.840432
19.179583
19.358993
18.425584
18.895864
17.132759
17.424822
17.735958
15.366673
14.410615
13.479590
12.735724
12.613535
12.508631
10.702610
10.930896
11.948943
11.232495
10.893941
10.003448
10.324717
10.090470
9.424686
##ZVALUE=235
6.378889
7.400513
17.837882
39.774776
74.193478
127.759576
185.410976
247.099996
291.454792
303.677917
276.869535
237.933993
171.395540
121.277571
81.068873
66.498518
57.416558
64.180493
68.440437
69.100857
67.264438
57.551861
47.468543
34.761429
22.300482
15.013814
10.992885
6.980896
6.486773
7.199645
6.557703
7.298589
7.756948
6.284714
6.656647
7.289648
7.261634
7.988811
8.147955
6.970763
7.140636
8.315444
7.070899
7.580519
7.897615
7.378459
8.139610
8.673668
8.867979
9.957552
9.753704
9.826422
10.489821
9.921789
11.537671
10.978580
11.053681
11.733770
12.818575
12.841821
12.728572
12.482405
12.269616
12.810826
13.888478
13.006926
14.571548
15.441775
16.953945
17.205477
17.434955
20.070672
20.270944
21.043420
22.167563
22.829771
22.193789
21.125674
21.834970
20.670891
19.585490
18.734932
17.920732
17.353892
15.168786
16.395450
15.449524
14.290810
12.633801
14.826655
13.495684
12.542605
13.534427
14.094710
13.293624
12.338758
##ZVALUE=240
1.811981
1.945496
2.824664
9.070635
21.609664
53.622723
97.267628
186.626911
266.461968
383.661985
452.929735
476.873517
450.801849
370.459557
295.681953
219.382644
134.765506
92.818737
73.163509
74.498653
85.508823
92.367530
93.434453
85.395575
71.654916
56.588650
44.959784
29.434562
21.524429
14.670491
11.711717
8.703470
8.751750
7.977486
7.941723
8.477569
7.104874
8.265972
7.551908
7.460713
8.114576
9.645820
8.526444
6.798506
8.282661
7.540584
8.156896
9.948611
9.904504
9.886622
10.251999
11.337996
10.228753
11.612773
10.499954
11.218786
12.341738
11.236668
12.261868
13.693571
12.557507
14.096498
14.976859
14.156699
14.453530
15.342832
14.739633
15.318990
18.023849
18.674731
19.702911
21.418929
21.490455
23.570657
23.584962
24.210811
24.686456
26.621819
22.333860
21.804571
20.944476
21.014810
20.309687
19.051433
19.194484
17.920732
17.210841
18.726587
16.274452
17.341971
16.795993
16.212463
15.764832
16.451478
16.454458
15.014410
##ZVALUE=245
1.489520
1.352429
1.354814
1.759529
2.287626
6.720424
18.848777
50.932765
100.603700
173.669457
312.728882
425.841808
543.565750
591.538548
567.854643
523.887873
394.079685
293.720961
209.873915
119.800568
85.589886
75.626969
86.382627
99.498630
108.725429
105.428696
97.478628
81.233978
68.047643
48.696995
34.758449
21.001697
15.338659
11.593699
9.977818
8.721948
7.384419
8.111596
7.988811
8.438826
7.767677
7.071495
7.214546
7.167459
8.089542
7.650852
7.495880
7.801652
8.004904
8.575916
8.606911
9.150505
9.617805
10.281801
9.841919
9.814501
11.118650
11.044741
11.823773
11.447668
12.449622
12.056828
12.556911
12.565851
13.026595
13.012886
14.981627
13.890862
14.868975
14.903545
16.911626
17.166734
19.494891
20.475984
20.866990
21.288991
21.072626
20.191669
20.847917
20.414591
19.536614
18.835664
18.296838
18.491745
18.552542
17.323494
17.234683
16.904473
16.322732
16.884804
16.022921
16.544461
14.695525
15.303493
16.039610
15.740991
##ZVALUE=250
1.009703
1.101494
1.500845
1.236796
1.494884
1.737475
1.928806
4.683733
12.372732
41.565895
84.344745
191.282630
294.297934
453.740954
564.754605
656.762719
677.442551
626.390576
545.697808
379.749537
267.606974
175.975561
96.699595
75.950623
77.113509
89.848638
104.346871
109.974742
112.149715
102.986693
86.413622
71.596503
54.937601
35.902858
24.827719
14.175773
9.562969
8.450747
7.930994
6.657839
6.328821
6.375909
6.673932
6.714463
7.003546
7.080436
6.613731
7.140636
6.465912
7.349849
6.974936
7.576942
7.940531
8.839965
8.848906
9.224415
8.667707
8.622408
9.738803
10.373592
9.656549
10.236502
10.574460
10.284781
10.771751
11.573434
11.435747
12.268424
12.519956
13.137460
13.235807
15.687943
15.448928
16.490817
17.719865
17.303824
17.763972
17.891526
17.911792
16.492605
16.521811
17.481446
15.992522
16.320944
15.186667
14.590621
15.053749
14.884472
15.020967
15.060902
14.071465
14.024973
14.900565
14.627576
14.662743
14.622808
##ZVALUE=255
0.978708
1.061559
1.129508
1.228452
1.046658
1.033545
1.064539
1.353621
1.477599
2.447963
10.109544
28.195977
61.476827
151.817799
251.630545
423.316956
555.557013
702.317953
774.659514
759.525895
684.533715
552.841425
366.399884
236.360431
124.340653
82.509518
66.949725
76.218843
95.586777
107.261539
112.401843
116.360784
108.884573
89.827776
74.556470
50.495863
35.761595
21.521449
13.672709
8.307695
6.995797
5.819798
5.942583
6.134510
5.936623
6.487966
6.325841
6.573796
6.266832
6.514788
6.848574
7.525682
7.145405
6.800890
7.424951
8.148551
7.614493
7.863641
8.954406
8.567572
8.864999
8.394718
8.397698
9.074807
9.048581
9.850860
9.473562
9.883642
11.322498
10.720491
12.051463
12.630820
13.162494
13.297796
14.263988
15.484691
14.554858
15.477538
15.078783
14.656782
14.710426
13.574958
13.084412
14.280677
12.789965
13.637543
13.499856
13.727546
13.781786
13.225675
14.032722
13.401508
13.690591
13.315678
13.194680
12.862682
##ZVALUE=260
0.891685
0.924468
1.114607
1.312494
1.187921
1.168847
1.405478
1.126528
1.190901
1.238585
1.496673
1.917481
4.346967
17.957687
42.439699
117.123723
203.387737
366.928577
520.115495
721.219778
832.290649
856.843591
801.014900
677.354932
464.993715
326.675773
189.703703
113.450885
65.895915
59.938431
71.190596
92.420578
106.824636
116.887689
117.318630
107.664466
94.444752
70.705414
52.811503
33.043623
21.750927
13.440847
8.924603
6.319880
5.960464
5.493760
6.044507
5.788803
5.559921
5.887747
6.553531
7.033944
7.042885
6.955862
7.119775
6.609559
7.285476
7.429719
7.905960
7.428527
7.415414
8.235574
7.725954
8.387566
7.802844
7.965565
8.350611
9.440780
9.372830
9.438992
10.595918
10.489821
11.270642
12.032986
12.099743
12.642741
12.039542
12.101531
12.605786
12.566447
12.718439
12.501478
11.388659
12.034774
11.036992
11.748672
11.119843
11.910796
11.508465
12.280941
11.740923
11.590719
11.727810
12.522936
12.437701
12.574792
##ZVALUE=265
1.042485
1.176000
0.781417
1.058578
1.003742
0.948906
0.917912
1.012683
1.029968
1.040697
1.178980
1.320839
1.152754
1.448989
2.518892
11.716485
32.663941
90.665817
169.145465
348.207951
517.688990
697.847009
885.384679
947.355628
897.321701
794.289708
602.362752
434.618592
250.750780
150.370002
86.602569
52.644610
56.499839
77.433586
94.028711
112.887621
119.932890
119.330883
109.176636
88.245869
70.570707
48.877001
33.632517
19.380450
12.126565
7.688999
5.897880
5.641580
5.717874
5.540848
5.980730
6.350875
6.054640
6.541610
6.789565
6.639957
7.070899
7.052422
7.163882
7.216930
7.810593
7.560849
6.987453
7.109642
7.586479
7.826686
8.274913
8.478761
9.065866
8.753538
9.826422
10.285974
10.290742
11.231899
11.400580
11.544824
11.546612
10.883808
10.967851
11.038780
11.072755
10.931492
10.824800
10.536909
10.875463
10.081530
10.455847
10.590553
10.240674
10.477901
10.614991
10.757446
10.582805
10.725856
11.349916
11.088848
##ZVALUE=270
0.740886
0.848770
0.703931
0.714660
0.965595
0.823736
0.788569
0.952482
0.987649
0.981688
1.068711
1.189709
1.197457
1.022816
1.117587
1.253486
2.025962
5.063415
16.774535
62.681437
133.926868
250.134468
480.140448
678.416491
909.567475
1003.272533
1012.426019
937.421918
744.919777
571.897626
395.978689
210.154653
117.798448
55.391788
43.787956
57.417750
74.544549
99.402666
109.005570
118.034482
119.118690
107.341409
91.099739
70.379972
51.424503
31.722784
20.557642
13.164878
9.148717
6.557703
6.207824
6.669760
6.365776
6.635785
7.112622
7.230639
7.313490
7.489920
7.431507
7.799864
7.776618
7.837415
7.749796
8.469820
7.984638
8.224845
7.772446
9.240508
8.463860
8.952618
9.726882
9.801984
9.895563
10.414720
10.084510
10.220408
11.499524
11.332631
10.663867
10.371804
9.990931
10.004640
9.853840
9.756684
9.913445
9.795427
9.221435
9.590983
9.563565
9.658933
10.049939
9.836555
10.054708
9.832978
9.716749
9.695888
##ZVALUE=275
0.696778
0.687838
0.811815
0.680685
0.942945
0.651479
0.694990
0.696778
0.834465
0.867844
0.802875
0.789762
0.860691
0.895858
1.133680
1.309514
1.459718
1.274943
1.435876
3.229976
10.110736
40.676594
95.506907
231.871605
393.141508
641.024709
823.254585
1006.169915
1015.774012
1015.774012
936.521888
689.852834
496.211648
276.045799
156.718493
70.322752
41.812658
39.321780
53.199530
75.250864
92.617869
108.661652
118.142962
113.955736
106.976628
88.597536
70.460439
49.869418
35.319924
21.432638
15.172958
9.992719
8.163452
7.170439
6.981492
6.813407
6.999969
7.391572
7.383823
8.165836
7.868409
8.411407
8.068681
8.461475
7.963777
8.787513
8.103848
8.316636
8.557439
9.643435
9.308457
9.546876
10.067821
10.387897
10.649562
10.836720
10.513663
10.693669
10.428429
10.691881
9.768605
9.878874
9.193420
9.789467
9.433627
9.231567
8.984804
9.554625
9.408593
8.952618
9.138584
9.534955
9.093881
8.911490
9.283423
9.393692
##ZVALUE=280
0.600815
0.603795
0.687838
0.608563
0.639558
0.472665
0.688434
0.649691
0.705719
0.614524
0.703931
0.667572
0.846982
0.958443
0.763535
1.143813
0.943542
1.155734
1.117587
1.173615
1.386404
1.490712
6.711483
24.381876
81.838965
161.098838
320.953727
505.260825
765.590668
942.202806
1015.743017
1015.743017
1009.535789
792.065859
584.280491
330.552459
197.206736
89.010596
45.159459
30.517578
36.927462
55.193901
72.099566
93.489885
106.852651
115.312934
112.678409
102.398992
88.730454
67.707896
51.592588
34.547448
23.685694
14.729500
11.041760
8.890629
8.069873
7.608533
7.739663
8.099675
8.779764
8.708835
8.835793
8.229613
9.185672
8.627772
8.937716
8.669496
9.137988
9.200573
9.041429
9.154677
10.097623
10.449886
9.828806
10.639429
10.462999
9.868741
10.210872
9.777546
9.870529
9.641647
9.333491
9.053946
8.597970
9.128451
9.086728
9.501576
9.354949
8.613467
9.091496
9.012818
8.985996
8.978844
9.205937
8.872747
##ZVALUE=285
0.769496
0.474453
0.480413
0.552535
0.655651
0.637770
0.567436
0.769496
0.652671
0.624657
0.700951
0.734925
0.586510
0.891685
0.713468
1.023412
0.825524
0.968575
0.981688
1.126528
1.150966
1.149774
1.460910
1.549721
3.727674
12.959838
47.484636
103.132725
240.975022
398.173928
594.906807
880.507827
1015.774012
1015.774012
1015.774012
953.910947
753.908753
471.282005
291.060805
135.089755
69.263577
28.840899
25.028586
35.217404
49.034953
72.195530
87.485909
102.722645
109.954476
108.630657
102.437735
87.053776
70.291758
51.723719
37.420988
23.365617
16.640425
12.230873
10.143518
9.533763
9.690523
9.344816
9.332895
9.382963
9.712577
9.392500
9.421706
9.863973
10.274649
9.771585
10.331869
10.647774
11.064410
10.689497
10.529757
11.030436
10.578632
10.455847
10.431409
10.287762
9.519458
9.680986
10.139942
9.181499
9.554625
9.390712
9.197593
9.073615
8.986592
8.885860
9.010434
8.837581
8.973479
8.634925
8.590817
8.593798
##ZVALUE=290
0.545979
0.627637
0.491738
0.556707
0.611544
0.529885
0.588894
0.695586
0.574589
0.575781
0.645518
0.703931
0.609756
0.626445
0.817776
0.806451
0.795722
0.935793
0.897646
0.923872
1.106858
0.862479
1.203418
1.293421
1.564622
1.552701
1.949668
5.590916
26.358962
64.775944
98.546743
299.269557
491.726995
792.402029
986.575484
1015.774012
1015.774012
1005.637646
848.156810
572.775602
378.550887
190.696716
99.386573
36.071539
21.113753
22.618771
31.583905
48.400760
64.008832
83.800554
98.595619
106.293559
107.715726
99.837780
88.318586
67.398548
53.123832
36.449432
26.151538
16.697645
14.049411
11.504889
10.631680
9.949803
10.437965
10.350943
10.178685
10.088682
10.331869
10.515451
10.984540
11.026859
10.820627
10.601878
10.791421
10.601878
10.899901
10.805726
10.908842
9.798408
9.914637
9.507537
9.475946
9.522438
9.464622
8.692741
9.327531
9.023547
9.021759
8.494854
9.189844
8.830428
8.521676
8.574724
8.514524
8.910894
##ZVALUE=295
0.480413
0.480413
0.508428
0.416636
0.561476
0.620484
0.497699
0.624657
0.613928
0.580549
0.601411
0.654459
0.647902
0.734925
0.648499
0.599623
0.742674
0.788569
0.669956
0.652671
0.841618
0.846982
0.870824
0.775456
1.034737
1.096725
1.136661
1.329780
1.694560
2.819896
8.551478
41.166544
98.061562
246.950984
417.094827
693.123937
903.853774
1015.774012
1015.774012
1015.774012
978.078842
702.710748
488.244891
260.204673
141.074657
52.806735
24.248958
15.810728
19.833446
31.823516
45.232773
63.348413
78.865886
94.651580
102.112889
104.394555
96.270442
84.513426
68.646669
50.847530
38.017631
25.763512
19.564629
13.998747
12.437701
11.083484
11.042953
10.890961
10.958910
11.209846
11.168718
11.487603
11.167526
11.532903
10.979772
11.289716
11.073947
10.757446
10.538697
10.524988
10.367632
10.121465
9.480715
9.623766
9.322762
9.258986
9.645820
9.376407
9.004474
9.293556
8.931756
9.052753
8.556843
8.625984
8.867979
8.816719
##ZVALUE=300
0.652671
0.476837
0.533462
0.360608
0.387430
0.615716
0.499487
0.466704
0.611544
0.440478
0.622869
0.394583
0.556707
0.500679
0.635982
0.816584
0.658631
0.708699
0.848770
0.649691
0.775456
0.692606
0.631809
0.772476
1.002550
1.176000
1.074672
1.258850
1.167655
1.384616
1.604557
1.646876
5.358458
20.659566
75.493455
157.432556
349.480510
555.495620
861.576796
1015.774012
1015.774012
1015.774012
1015.774012
896.844864
593.739748
388.341546
196.030736
103.983879
36.091805
17.934442
15.122890
19.835830
30.210614
41.239858
58.587790
73.119998
90.352893
97.041726
99.471807
94.665885
79.941750
68.382621
51.235557
38.996935
26.431680
19.804835
15.262961
12.600422
11.851788
11.623502
11.325479
11.045933
11.544824
11.675954
10.966659
11.121631
10.432601
10.876656
10.920763
10.987520
10.402799
10.363460
10.313988
9.950995
9.737611
9.756684
9.666681
9.086728
9.515882
9.311438
9.300709
9.198785
9.083748
8.763671
8.774996
8.107424
##ZVALUE=305
0.515580
0.624657
0.600815
0.408888
0.389814
0.584722
0.624657
0.526905
0.544786
0.630617
0.495911
0.575781
0.580549
0.518560
0.618696
0.660419
0.509620
0.463724
0.722408
0.643730
0.740886
0.643730
0.961423
0.943542
0.939965
0.983477
0.977516
0.903606
0.977516
1.229644
1.113415
1.249909
1.270771
1.644492
3.122687
11.103749
49.695969
113.837719
269.700885
443.668962
724.555850
942.075849
1015.836596
1015.836596
1015.836596
992.720723
726.297498
514.263511
274.483562
149.036646
56.657791
24.692416
13.673902
14.817715
20.621419
28.367639
42.757988
56.083798
71.646571
83.015561
93.735456
93.405843
87.896585
78.151822
63.394904
50.058961
35.387874
26.992559
18.065572
14.279485
12.017488
11.996627
11.633635
11.101961
11.568666
11.007786
11.052489
11.112690
10.909438
10.389686
10.386705
10.694861
9.889603
10.134578
9.947419
9.947419
9.561777
9.884834
9.593964
10.096431
9.576678
9.109974
9.055734
9.474754
9.168983
9.160638
##ZVALUE=310
0.441670
0.497699
0.464916
0.407696
0.291467
0.375509
0.481606
0.428557
0.421405
0.420809
0.456572
0.492930
0.618696
0.405908
0.722408
0.506639
0.632405
0.472665
0.569820
0.646710
0.702739
0.428557
0.721812
0.785589
0.673532
0.848770
0.945926
0.858903
0.951886
0.897646
0.911951
1.070499
1.126528
1.193881
1.342893
1.565814
2.085567
6.499887
22.154450
82.941651
172.357559
376.928449
588.919520
899.309516
1015.806794
1015.806794
1015.806794
1015.806794
927.568674
616.473556
408.805609
204.195976
108.752847
38.840771
17.471910
12.027621
13.997555
19.184947
26.081800
37.772655
50.310493
65.406561
76.116920
86.925626
88.019967
82.019567
75.051785
61.599612
48.519969
33.669472
25.743842
18.100739
14.211535
12.099743
11.517406
10.949969
10.461807
10.677576
10.117888
10.215640
10.223985
10.112524
10.132790
9.851456
10.062456
10.039806
10.173917
10.295510
9.937882
9.837747
9.682775
9.638667
9.341836
9.820461
9.878874
10.101795
##ZVALUE=315
0.496507
0.414848
0.465512
0.315905
0.433922
0.516772
0.436902
0.394583
0.357628
0.428557
0.423789
0.381470
0.504851
0.418425
0.328422
0.450611
0.476837
0.519753
0.548959
0.502467
0.491738
0.480413
0.484586
0.608563
0.700951
0.878572
0.760555
0.659823
0.547767
0.777841
0.798702
0.740886
0.878572
1.116991
1.079440
1.180768
1.221895
1.392961
1.689792
3.126860
11.235476
52.475929
120.869875
299.306512
505.082011
844.312906
1015.776992
1015.776992
1015.776992
1015.776992
1015.776396
762.458444
535.033941
282.757878
153.151751
55.577755
24.171472
11.609793
11.328459
12.973547
16.483665
24.594665
33.150911
46.838522
57.724714
72.274804
79.003572
81.880689
77.894926
67.935586
57.460666
44.034719
34.158826
23.157597
17.381907
13.135672
11.729598
10.360479
10.002851
9.498000
9.899735
9.587407
9.990931
9.625554
9.757876
9.831786
9.400845
9.902716
9.983778
9.596944
9.918809
10.119677
9.833574
9.871721
10.323524
10.279417
##ZVALUE=320
0.465512
0.369549
0.379682
0.346899
0.543594
0.405908
0.332594
0.410676
0.412464
0.329614
0.321865
0.361800
0.446439
0.453591
0.325441
0.492930
0.508428
0.470877
0.431538
0.517964
0.537634
0.469685
0.550747
0.589490
0.614524
0.696778
0.611544
0.561476
0.614524
0.890493
0.829697
0.800490
0.837445
0.838637
0.966787
0.977516
1.069903
1.318455
1.176596
1.363754
1.568794
1.778603
6.332994
22.789836
85.897446
191.106796
419.028997
644.568801
978.180766
1015.761495
1015.761495
1015.761495
1015.761495
982.024670
655.984879
423.453450
190.152526
97.508430
35.772920
15.790462
8.981824
9.322762
11.172891
14.199615
21.180511
28.715730
41.935444
52.726865
65.767765
72.946548
76.331496
73.208809
65.222979
55.019855
41.271448
32.515526
22.699833
17.186999
12.381673
10.771751
9.717941
9.183884
9.528995
9.417534
9.514689
9.625554
9.605885
9.316802
9.749532
9.772778
9.854436
9.873509
9.868741
10.201931
10.484457
10.381937
##ZVALUE=325
0.321865
0.372529
0.180602
0.264645
0.444651
0.387430
0.436902
0.352859
0.480413
0.281930
0.410676
0.370741
0.550747
0.580549
0.470877
0.378489
0.325441
0.482798
0.437498
0.294447
0.531673
0.570416
0.558496
0.751615
0.565648
0.590682
0.663996
0.615716
0.718832
0.661612
0.684857
0.595450
0.795722
0.849962
0.730753
0.941753
0.835657
0.969768
0.998974
1.004934
1.091957
1.434684
1.531839
1.806617
3.142953
18.363595
50.403476
154.098868
304.538608
614.996552
886.612535
1015.774012
1015.774012
1015.774012
1015.774012
1015.774012
804.152489
469.315648
286.365747
131.054521
61.216950
17.791986
9.184480
7.839799
8.367896
9.732842
12.899637
19.529462
26.735663
40.077567
49.971938
61.338544
68.305731
70.739985
67.469478
58.440566
50.174594
38.101673
28.871894
19.308925
15.453696
11.706948
10.540485
9.919405
9.334683
8.993745
9.279847
8.884668
9.400845
9.565949
9.523630
10.086894
9.797812
10.200739
10.032654
10.736585
##ZVALUE=330
0.414848
0.407696
0.254512
0.313520
0.382662
0.372529
0.339746
0.380874
0.300407
0.385642
0.497699
0.393987
0.533462
0.516772
0.374913
0.416636
0.420809
0.548959
0.529885
0.444651
0.360608
0.415444
0.569820
0.614524
0.587702
0.503659
0.604987
0.466704
0.570416
0.605583
0.737906
0.462532
0.600815
0.661612
0.646710
0.654459
0.740886
0.892878
0.891685
0.937581
1.069903
1.151562
1.332760
1.230836
1.428723
1.680851
2.060533
8.389950
27.379990
99.822879
207.862854
454.818606
700.895786
1011.737585
1015.774012
1015.774012
1015.774012
1015.774012
927.012563
610.205531
396.470428
190.005898
92.476606
31.190515
12.667775
7.240772
7.019639
7.712841
9.173751
13.084412
18.416643
26.774406
35.541654
48.785806
57.634711
63.914657
65.461993
62.593818
56.457520
44.906735
37.010908
25.884509
20.729899
14.403462
12.207627
10.255575
9.542704
9.158850
9.132624
9.511709
9.287596
9.441972
9.942651
9.650588
10.479689
10.753870
##ZVALUE=335
0.320673
0.187755
0.295639
0.234842
0.317693
0.420809
0.364780
0.417829
0.390410
0.492930
0.456572
0.337958
0.400543
0.301600
0.428557
0.341535
0.367761
0.458956
0.413656
0.633597
0.498891
0.459552
0.449419
0.475645
0.608563
0.368953
0.587702
0.640750
0.514984
0.598431
0.670552
0.644922
0.649691
0.585914
0.787973
0.624657
0.662804
0.683665
1.022816
0.886917
0.708699
0.919700
0.886917
1.039505
1.036525
1.224875
1.436472
1.589656
1.686811
3.884435
14.127493
57.103634
126.124620
320.605636
556.635857
942.368507
1015.803814
1015.803814
1015.803814
1015.803814
1015.803814
713.284612
482.004881
249.132514
130.988955
43.167472
17.090440
8.357763
7.096529
7.036924
7.786751
9.671450
12.486577
18.128753
24.438500
35.927892
43.313503
53.402781
57.951808
60.753822
57.413578
50.804615
43.009520
34.788847
28.130412
19.972920
15.606880
12.237430
10.483861
9.739995
9.297729
9.508729
9.969473
10.350943
10.380745
10.916591
##ZVALUE=340
0.318885
0.336766
0.196695
0.389814
0.300407
0.313520
0.359416
0.405908
0.535846
0.362992
0.347495
0.318885
0.362992
0.285506
0.189543
0.277758
0.438690
0.379682
0.405908
0.335574
0.358820
0.294447
0.419617
0.346899
0.477433
0.387430
0.489950
0.530481
0.523925
0.453591
0.487566
0.401735
0.517964
0.537634
0.256896
0.596642
0.604987
0.659823
0.392795
0.918508
0.814795
0.795722
0.865459
0.753999
0.895858
0.975728
1.072884
1.199841
1.204610
1.556873
1.570582
2.330542
7.028580
36.457777
94.276667
258.573890
474.637747
839.439631
1015.774012
1015.774012
1015.774012
1015.774012
1015.774012
875.449777
618.751645
326.605439
181.615949
72.707534
28.627515
9.308457
7.523894
7.175803
7.429719
8.355975
9.547472
12.836456
16.901493
24.152994
32.380819
43.225884
50.068498
55.702925
57.804585
54.083467
50.729513
41.405559
34.239888
25.803447
20.837784
15.717745
12.941957
10.930896
10.578632
10.435581
11.018515
11.428595
##ZVALUE=345
0.314713
0.179410
0.522733
0.247955
0.372529
0.155568
0.378489
0.400543
0.475645
0.198483
0.187755
0.327826
0.350475
0.194907
0.269413
0.456572
0.284910
0.366569
0.250936
0.260472
0.299811
0.440478
0.334978
0.355840
0.165701
0.474453
0.414848
0.467896
0.497699
0.446439
0.450611
0.413656
0.478625
0.522733
0.617504
0.472665
0.687838
0.660419
0.569820
0.708699
0.777841
0.815988
0.660419
0.846982
0.756979
0.882745
0.915527
1.011491
0.913739
1.148582
1.307726
1.346469
1.703501
1.683831
4.073977
16.856790
74.324608
164.301991
375.710726
622.341633
987.911820
1015.774012
1015.774012
1015.774012
1015.774012
1006.974578
712.902546
467.660427
219.712853
106.509924
34.044981
14.082789
7.782578
7.508993
7.153749
7.207990
7.574558
8.722544
11.199713
15.279651
23.004413
29.352903
38.059950
44.136643
50.581694
52.177906
50.960779
47.399998
40.259957
33.670664
26.467443
21.436810
16.484857
13.957620
12.791753
12.384653
##ZVALUE=350
0.176430
0.440478
0.269413
0.112653
0.232458
0.083447
0.183582
0.211596
0.176430
0.297427
0.177622
0.230670
0.308752
0.224710
0.194907
0.374913
0.179410
0.225902
0.244975
0.297427
0.181794
0.292659
0.233650
0.471473
0.386834
0.481606
0.350475
0.404716
0.500679
0.321865
0.201464
0.235438
0.337958
0.286698
0.404716
0.490546
0.440478
0.395775
0.422597
0.206828
0.482798
0.576973
0.495911
0.574589
0.545979
0.694990
0.563860
0.847578
0.692606
0.805855
1.120567
0.905991
1.037717
1.156926
1.387596
1.330972
2.269745
11.112690
35.473704
115.988851
236.747861
530.458689
806.272030
1015.666723
1015.666723
1015.666723
1015.666723
1015.666723
800.144672
473.983884
289.704800
130.861998
60.061812
16.985536
8.468628
6.606579
6.549954
6.402731
6.353855
7.094741
8.080602
10.930896
14.288425
19.687414
25.377870
33.918619
40.332675
45.429468
48.388839
48.041940
45.567751
39.084554
33.561587
26.833415
22.558570
18.254519
##ZVALUE=355
0.274777
0.377893
0.231862
0.298619
0.321865
0.248551
0.321865
0.307560
0.286698
0.202656
0.347495
0.328422
0.333786
0.455976
0.393987
0.403523
0.383854
0.446439
0.266433
0.524521
0.333786
0.337958
0.460744
0.471473
0.307560
0.286698
0.392795
0.307560
0.599623
0.474453
0.386834
0.530481
0.431538
0.278950
0.479817
0.533462
0.521541
0.677705
0.460744
0.532866
0.589490
0.612736
0.616908
0.604987
0.647902
0.707507
0.672936
0.704527
0.911951
0.831485
0.812411
0.821948
1.078844
1.140833
1.103878
1.346469
1.460910
1.577735
1.868606
3.810525
22.849441
61.842799
170.455575
327.822566
660.584569
945.816636
1015.774012
1015.774012
1015.774012
1015.774012
851.184726
615.000725
353.120565
199.289918
79.661608
34.516454
10.274649
6.379485
6.581545
6.022453
5.743504
6.124973
6.675720
7.491708
9.664893
12.351871
17.680526
22.782683
30.471683
36.223531
42.091608
45.473576
46.169758
43.304563
38.818717
34.479499
##ZVALUE=360
0.297427
0.365973
0.193715
0.264645
0.291467
0.204444
0.404716
0.241995
0.567436
0.350475
0.548959
0.288486
0.454783
0.484586
0.294447
0.217557
0.236630
0.442863
0.381470
0.444651
0.257492
0.459552
0.432730
0.373721
0.367761
0.327826
0.423789
0.348687
0.450611
0.478625
0.764728
0.480413
0.522733
0.483990
0.407696
0.520945
0.435710
0.529885
0.614524
0.587702
0.447631
0.763535
0.531673
0.600815
0.662804
0.735521
0.643730
0.601411
0.696778
0.804663
0.716448
0.742674
0.771880
0.946522
0.852942
0.966787
1.155734
1.317859
1.379848
1.361966
1.683831
2.682805
8.390546
38.738847
90.096593
227.913857
399.611592
693.825483
951.862931
1015.774012
1015.774012
1015.774012
993.400812
681.455731
456.403494
233.877897
122.974515
43.658614
16.222596
6.547570
5.931854
5.650520
5.727410
5.793571
5.885959
5.988479
6.666780
8.424520
10.370612
14.594793
19.147992
26.162863
31.684637
37.264824
40.281415
42.075515
##ZVALUE=365
0.336766
0.385642
0.415444
0.220537
0.295639
0.285506
0.221729
0.298619
0.443459
0.362992
0.203848
0.285506
0.196695
0.240803
0.395775
0.335574
0.254512
0.461936
0.237823
0.295639
0.372529
0.428557
0.358820
0.491738
0.492930
0.370741
0.307560
0.484586
0.295639
0.456572
0.585914
0.347495
0.372529
0.512600
0.411868
0.565648
0.399947
0.463724
0.523925
0.609756
0.426769
0.583529
0.514984
0.515580
0.599623
0.655651
0.618696
0.573993
0.851750
0.843406
0.614524
0.747442
0.707507
0.874996
0.885725
0.877976
0.855923
0.954866
1.055598
1.274943
1.361966
1.486540
1.620650
1.815557
3.825426
21.772981
60.767531
167.960525
304.462910
558.397770
796.012878
1015.774012
1015.774012
1015.774012
1010.853648
753.679872
532.593727
293.435454
162.529945
61.646700
24.862885
7.382631
5.748868
5.357862
5.071759
5.131960
5.251765
5.331635
5.591512
5.908608
7.301569
9.574890
12.568831
16.876459
21.772981
27.867556
##ZVALUE=370
0.246763
0.325441
0.282526
0.295639
0.359416
0.156760
0.239611
0.274777
0.168681
0.279546
0.378489
0.251532
0.278950
0.194907
0.383854
0.250936
0.358820
0.220537
0.385642
0.232458
0.292659
0.504851
0.335574
0.147820
0.422597
0.440478
0.367761
0.415444
0.360608
0.266433
0.321865
0.431538
0.417829
0.435710
0.340939
0.525713
0.429749
0.472665
0.406504
0.519753
0.398755
0.442863
0.524521
0.374913
0.471473
0.617504
0.473857
0.549555
0.440478
0.595450
0.634789
0.635982
0.696778
0.795722
0.713468
0.859499
0.845790
0.813603
0.767708
0.824928
0.885725
1.093745
1.051426
1.198649
1.305938
1.635551
2.072453
11.993647
39.302707
127.859712
243.536830
475.696921
697.397590
980.697870
1015.774012
1015.774012
1015.774012
857.042670
637.550950
363.044739
208.359957
84.703565
38.940907
12.592673
6.406903
5.158782
4.955530
4.784465
4.583597
4.861951
4.811883
5.160570
5.601645
6.602407
8.403659
11.223555
##ZVALUE=375
0.284910
0.340939
0.218749
0.335574
0.315905
0.273585
0.311732
0.436902
0.211596
0.136495
0.182986
0.248551
0.137687
0.173450
0.265837
0.292659
0.099540
0.260472
0.309944
0.295639
0.357628
0.251532
0.339746
0.367761
0.387430
0.338554
0.500679
0.200868
0.198483
0.356436
0.464916
0.320673
0.329614
0.224710
0.322461
0.242591
0.368953
0.417829
0.415444
0.424981
0.447631
0.512600
0.465512
0.348687
0.529885
0.340939
0.550747
0.508428
0.419617
0.406504
0.400543
0.477433
0.465512
0.599623
0.457764
0.685453
0.510812
0.643730
0.756979
0.693798
0.849962
0.869632
0.874996
0.930429
1.042485
1.087785
1.348853
1.477599
1.911521
5.645752
21.210909
75.212717
162.419677
364.340544
572.328568
871.425867
1015.783548
1015.783548
1015.783548
908.148885
697.903037
428.884625
274.793506
138.189793
69.334507
22.365451
8.426905
4.926920
4.706979
4.473925
4.437566
4.545450
4.452467
4.595518
4.806519
4.917979
##ZVALUE=380
0.275970
0.104904
0.233650
0.286698
0.281930
0.206828
0.220537
0.258684
0.294447
0.207424
0.289679
0.246763
0.353456
0.198483
0.229478
0.251532
0.237823
0.305772
0.328422
0.261664
0.393987
0.092983
0.302792
0.305772
0.361800
0.368953
0.269413
0.327826
0.350475
0.372529
0.043511
0.200868
0.351667
0.444651
0.304580
0.293851
0.340939
0.391603
0.427961
0.331998
0.405908
0.472665
0.261664
0.293851
0.428557
0.384450
0.462532
0.388622
0.453591
0.400543
0.421405
0.476837
0.462532
0.531673
0.569820
0.614524
0.529885
0.762939
0.654459
0.789762
0.568628
0.810623
0.901818
0.773668
0.938773
1.154542
1.120567
1.389980
1.596808
1.873970
2.136827
3.362894
12.147427
59.280992
150.816441
365.969539
614.523888
977.482796
1015.776992
1015.776992
1015.776992
1015.776992
915.869474
624.010563
408.831835
198.316574
100.429654
34.479499
13.944507
5.510449
4.647970
4.389882
4.105568
4.415512
4.112720
4.425645
##ZVALUE=385
0.174642
0.170469
0.241995
0.139475
0.286698
0.206828
0.209808
0.172853
0.230670
0.069737
0.164509
0.231862
0.200868
0.053644
0.291467
0.325441
0.048876
0.199676
0.321865
0.327826
0.303984
0.342727
0.158548
0.310540
0.225902
0.173450
0.238419
0.220537
0.257492
0.262856
0.205636
0.281930
0.279546
0.284910
0.332594
0.299811
0.254512
0.124574
0.330806
0.396967
0.361800
0.225902
0.262856
0.456572
0.273585
0.384450
0.263453
0.313520
0.430942
0.395775
0.369549
0.423789
0.363588
0.455976
0.443459
0.571609
0.503659
0.582933
0.529885
0.519753
0.568628
0.633597
0.558496
0.806451
0.703931
0.642538
0.710487
0.989437
0.965595
1.043677
1.374483
1.217723
1.654625
1.925826
5.352497
31.887889
79.794526
204.080939
370.379686
663.587451
887.101889
1015.749574
1015.749574
1015.749574
960.762501
692.070723
496.241450
270.782709
153.756738
63.487887
25.351644
6.706715
4.474521
3.815889
3.764629
3.966689
##ZVALUE=390
0.077486
0.088811
0.095963
0.020862
0.084639
-0.028610
0.087619
0.020862
-0.066757
0.046492
-0.092983
0.081658
0.061989
-0.125766
-0.061989
-0.086427
0.006557
-0.117421
0.058413
-0.000596
0.120997
0.109673
-0.069737
-0.040531
0.088811
0.070930
0.069737
0.089407
0.045896
0.133514
0.023842
0.077486
0.050664
0.010729
0.165701
-0.048876
0.019670
-0.000596
0.084639
-0.042915
0.323653
0.000596
0.221729
0.249743
0.115633
0.176430
0.083447
-0.000596
0.049472
0.235438
0.171661
0.180602
0.166893
0.269413
0.114441
0.166893
0.264645
0.238419
0.162721
0.202656
0.276566
0.341535
0.192523
0.245571
0.548959
0.510812
0.526905
0.696778
0.735521
0.659823
0.948906
0.963807
0.999570
1.064539
1.301765
1.341701
2.293587
14.366508
45.936704
144.132972
281.189680
534.926653
739.469528
973.595977
1015.546918
1015.546918
1015.546918
823.630691
626.381636
383.483768
222.953558
91.978908
40.857792
10.555983
4.497766
3.574491
##ZVALUE=395
0.202656
0.164509
0.157952
0.263453
0.345707
0.232458
0.272989
0.119805
0.109673
0.334978
0.235438
0.157952
0.252724
0.213981
0.273585
0.183582
0.325441
0.132918
0.258684
0.392795
0.381470
0.220537
0.291467
0.251532
0.258684
0.439882
0.146627
0.309944
0.282526
0.184774
0.418425
0.399947
0.283718
0.248551
0.361800
0.198483
0.305772
0.387430
0.320673
0.489950
0.241995
0.378489
0.314713
0.302792
0.330806
0.435710
0.330806
0.346899
0.297427
0.356436
0.431538
0.299811
0.470877
0.354648
0.397563
0.433922
0.537634
0.468493
0.561476
0.465512
0.561476
0.485778
0.598431
0.743866
0.509620
0.553727
0.661612
0.704527
0.881553
0.920892
1.148582
1.035929
1.118779
1.032948
1.090765
1.079440
1.371503
1.458526
1.693964
8.489490
29.815435
104.737878
205.547810
419.930816
620.054603
899.838805
1015.774012
1015.774012
1015.774012
1002.239585
801.739097
507.291555
316.444635
146.095753
67.081451
20.776987
##ZVALUE=400
0.227690
0.141859
0.102520
0.313520
0.241995
0.334978
0.215769
0.209808
0.139475
0.232458
0.075698
0.208616
0.206828
0.232458
0.225902
0.279546
0.097752
0.091791
0.324845
0.144839
0.185966
0.248551
0.244975
0.207424
0.227690
0.173450
0.350475
0.281930
0.248551
0.160933
0.194907
0.275970
0.212789
0.293851
0.352859
0.380874
0.158548
0.314713
0.444651
0.337958
0.537634
0.316501
0.420809
0.211596
0.380874
0.396967
0.256896
0.434518
0.374913
0.521541
0.316501
0.409484
0.462532
0.325441
0.312924
0.434518
0.548959
0.547767
0.490546
0.544786
0.531673
0.521541
0.568628
0.527501
0.616908
0.667572
0.538826
0.881553
0.837445
0.974536
1.130700
0.980496
1.114607
1.066923
1.115799
0.969768
1.028776
1.223683
1.394749
1.299977
1.432896
4.492998
16.512871
63.875914
133.686662
294.264555
471.647978
753.726959
948.045850
1015.774608
1015.774608
1015.774608
871.672630
602.293611
399.816632
200.663805
##END
