##TITLE=QP00602
##FORMAT=SPECTACLE-ASCII V-1.2
##DATA TYPE=ULTRAVIOLET SPECTRUM
##SECOND TYPE=ULTRAVIOLET SPECTRUM
##DATE=11/14/17
##TIME=15:30:29
##SPECTROMETER/DATA SYSTEM=SPECTACLE
##XUNITS=NM EM
##YUNITS=ENERGY
##YFACTOR=1
##FIRSTX=220
##LASTX=410
##NPOINTS=96
##3DDATA=Equidistant
##ZUNITS=NM EX
##FIRSTZ=210
##LASTZ=400
##ZPOINTS=39
##XYDATA=(Y..Y)
##ZVALUE=210
3.861785
3.789663
3.964901
3.654957
3.607869
4.543662
4.379749
3.624558
3.631711
3.677607
3.108978
3.307462
2.317429
2.075434
2.849698
2.570748
3.075600
3.191829
3.503561
3.198981
3.444552
3.780723
3.655553
4.504919
4.107952
4.267693
4.226565
4.588962
5.357862
4.595518
4.817843
5.036592
5.099773
5.770922
5.714893
5.751848
6.219745
5.149841
6.503463
5.760789
6.604791
6.592870
6.473660
6.463528
7.197857
6.774664
6.663799
6.501675
6.689429
7.139444
6.928444
7.539988
6.783605
8.013844
6.300807
7.255673
7.432699
7.111430
7.063746
7.306933
7.498860
7.445812
7.014871
7.676482
8.271933
7.776618
8.665919
9.075999
8.906722
11.085868
12.690425
13.979673
17.041564
18.438697
18.900633
20.606518
20.719767
19.983649
20.105839
18.632412
19.416809
16.308427
14.616847
13.721585
11.175871
9.883642
9.491444
8.172989
7.178783
7.367730
6.790757
7.188916
7.706881
8.414984
8.226633
8.279681
##ZVALUE=215
12.101531
12.511611
11.385679
10.565519
9.070635
7.665753
7.312894
8.680820
6.839633
8.695722
6.731749
7.264614
4.894733
4.677773
3.179908
3.088713
3.017783
3.431439
3.591776
3.571510
3.028512
3.257990
3.972650
4.037619
4.207492
4.045963
4.205704
4.056692
4.414916
4.473925
5.435944
5.065799
6.193519
4.926920
5.020499
5.370975
7.626414
6.716847
6.129742
5.719662
6.667972
6.761551
6.184578
6.058812
5.578995
6.050467
6.770492
6.814599
6.719828
6.132722
7.075667
5.773902
6.522536
6.693602
7.866621
7.263422
7.519722
6.990433
7.565618
6.951690
7.341504
6.634593
6.941557
6.794930
7.453561
7.995963
8.473992
9.476542
9.009838
9.965897
11.529922
12.158751
14.042854
16.300678
18.302798
18.907785
19.973516
19.600987
18.844604
18.763542
16.704798
14.840961
12.942553
12.157559
10.074973
8.973479
8.784533
7.100701
7.313490
7.300973
7.230639
6.303787
6.420612
7.279515
7.959604
6.245971
##ZVALUE=220
30.235648
31.168461
33.468604
35.357475
34.189820
26.269555
21.961927
16.077757
13.638735
13.669729
14.624000
13.333559
14.918447
13.991594
10.446906
9.814501
6.124973
5.453825
4.678965
4.155636
3.714561
4.360676
4.664660
3.619790
4.015565
4.775524
4.856586
4.939437
4.425645
4.789829
5.198717
5.874634
5.602837
6.262660
6.296635
5.289912
7.175803
6.674528
7.521510
6.996989
6.495714
6.615520
6.593466
6.499887
6.797910
6.815791
7.488728
7.022619
6.843805
7.451773
7.370710
6.815791
7.400513
7.049441
6.962419
8.260608
7.618666
8.708835
8.570552
9.488463
7.895827
9.732842
8.866787
9.159446
8.990765
8.597970
8.789897
9.695888
10.179877
11.543632
12.703538
14.027953
15.322566
17.905831
19.030571
19.299984
18.907785
19.572973
19.702911
18.964410
18.574595
17.601848
15.273690
13.501644
12.611747
12.018681
10.346770
9.681582
9.201765
8.786917
8.901954
8.162856
8.728504
8.455515
8.309484
8.049607
##ZVALUE=225
33.722520
36.739707
52.844882
64.607859
75.506568
79.127550
72.678924
62.363744
44.094920
34.469962
26.419759
24.641752
24.777651
25.840998
27.463436
23.936629
22.283792
16.353726
14.423728
8.259416
6.260872
5.324483
4.063845
4.163980
3.671646
3.876686
4.649758
4.279613
5.112886
5.395412
5.126595
5.110502
5.586743
5.945563
5.132556
6.270409
6.492734
5.918741
7.046461
6.582737
6.807446
7.175803
7.214546
6.825924
6.504655
7.085800
7.352829
6.668568
7.765889
7.913709
7.177591
7.865429
7.660985
8.088946
7.637739
8.612871
9.254813
9.253621
10.145903
9.967685
9.341836
10.026693
10.637641
10.942817
10.177493
10.875463
10.350943
12.188554
12.194514
13.383627
14.267564
16.396642
15.785694
18.031597
18.257499
18.326640
17.991662
17.993450
18.264651
18.356442
16.475916
14.470816
15.745759
13.953447
13.522506
12.230873
12.233853
11.859536
10.872483
10.725856
11.119843
11.356473
10.514855
11.279583
10.311604
10.759830
##ZVALUE=230
23.432970
26.326776
43.566823
77.827573
106.598735
139.751434
162.494779
173.984766
160.313845
139.683485
97.933412
70.686936
45.799613
40.235519
40.434599
43.005943
45.414567
43.734908
39.801002
34.058690
28.240681
17.880797
14.325976
7.837415
6.185770
5.319715
5.643964
5.795956
5.955696
6.940961
6.830692
7.618666
6.559491
7.624626
7.303953
6.969571
7.314682
6.890893
7.257462
7.925630
7.407665
8.118749
8.460879
7.455945
7.760525
7.461905
8.780956
8.774996
9.353757
9.444952
9.735823
9.958744
10.749698
10.978580
11.994839
11.125803
11.254549
13.476610
13.711452
14.646649
12.847781
13.589859
14.196634
15.168786
13.432503
15.985966
15.429854
16.222000
17.287731
19.586682
21.206737
21.929741
23.201704
24.988651
26.533604
25.906563
24.317503
26.025772
26.842952
24.216771
22.427440
21.848679
20.959973
21.785498
20.476580
19.389987
18.820763
18.387437
16.517639
18.575788
17.554760
16.826987
17.678738
18.051863
16.975999
15.683770
##ZVALUE=235
7.307529
8.814931
19.095540
46.186447
82.262754
147.569776
205.372572
284.089446
327.686667
343.491435
324.781537
274.706483
190.830827
136.050582
85.599422
66.913962
59.316754
62.350631
72.335601
71.767569
70.345998
59.112906
48.705935
35.225749
24.794936
16.737580
11.621714
9.347796
8.493662
9.127855
9.369850
10.328889
8.596778
9.772778
8.989573
9.324551
8.807778
10.021925
9.026527
8.541942
9.442568
9.416938
8.349419
9.016991
8.815527
8.981824
10.211468
8.655787
9.836555
11.248589
10.316968
11.432767
13.120770
13.187528
13.414621
14.301538
15.031695
16.003847
16.693473
16.582608
16.313791
18.446445
17.714500
19.294620
17.840862
21.051764
20.616651
21.481514
23.031831
25.303960
26.169419
28.920770
29.863715
33.323765
34.321547
35.311580
35.682917
36.031604
35.064816
34.852624
34.345984
33.373833
31.331778
29.018521
27.267933
27.104616
25.771856
26.942492
26.653409
23.494959
25.219917
22.568703
24.674535
23.172498
22.748709
22.762418
##ZVALUE=240
1.914501
1.676679
4.224777
8.210540
27.261972
53.864717
124.497414
202.609897
342.548490
433.039665
510.474443
537.643433
507.614613
415.481925
328.079462
232.271552
137.717724
94.861984
74.803829
74.409842
88.880658
99.531412
94.873905
96.309781
83.477497
63.973665
50.819516
35.082698
27.599931
17.949939
17.209649
14.907718
13.796687
12.508631
12.417436
12.998581
11.149645
11.378527
12.016892
10.117888
10.479689
9.114742
10.887980
11.448860
9.158850
9.775758
9.353757
9.196997
11.124611
11.840463
12.667775
13.255477
14.505982
14.253855
15.684962
15.801787
15.733838
16.638637
18.756986
18.546581
19.635558
19.901991
21.972656
21.201968
21.680593
23.357868
24.104714
26.084781
26.049614
29.588938
31.055808
32.241940
34.578443
34.292936
37.054420
40.168762
40.952563
39.797425
39.769411
41.215420
39.402843
38.159490
35.488605
36.031604
34.145713
34.397840
32.448769
32.556653
30.996799
29.823780
31.202435
29.936433
30.100942
29.689670
29.134750
27.714968
##ZVALUE=245
2.435446
1.787543
1.326799
1.794696
2.407432
6.964803
20.760894
51.862597
125.050545
209.131837
361.016989
475.792885
579.655766
637.093782
624.681711
539.593697
444.920659
304.763913
214.069486
127.694607
94.363689
79.617500
90.718865
99.809766
110.416412
111.929774
102.868676
90.810657
74.699521
57.774782
45.211911
30.670762
22.646785
16.451478
15.441775
14.081597
12.647510
12.353659
11.149645
11.106730
10.098815
9.850860
9.020567
9.100437
7.965565
8.668900
8.859634
9.019971
8.948445
10.324717
11.236668
11.448860
11.517406
12.305975
12.983680
14.212728
13.875961
15.271902
16.156435
16.790628
18.555522
18.310547
17.748475
19.416809
21.017790
21.062493
21.126866
21.786690
24.022460
25.976896
27.089715
27.839541
28.386712
33.512712
34.038424
33.995509
34.825802
34.308434
35.596490
34.571886
34.202933
34.973621
35.398602
32.598972
31.860471
32.887459
33.910871
30.098557
29.789805
29.291511
31.423569
30.393600
28.755665
28.435588
28.370619
27.469993
##ZVALUE=250
1.247525
1.391768
1.109838
1.534820
1.741648
1.079440
1.601577
5.036592
15.356541
46.669841
96.468925
213.110447
333.620906
512.430668
625.724792
724.516511
740.080476
683.911443
585.776567
415.913463
287.316442
193.626881
108.662844
83.542466
83.595514
96.716881
112.773776
119.000673
122.845769
112.073421
98.540783
78.626871
63.291788
40.107965
30.484796
19.109845
16.815662
13.227463
11.707544
9.638667
9.979606
9.310842
8.326769
8.129478
8.050799
7.455945
6.898642
8.291602
8.297563
8.778572
8.862615
10.626912
10.340810
11.136532
11.337996
12.264848
11.985898
13.336539
15.242696
13.700724
15.176535
15.183687
15.202761
16.344786
16.336441
16.529560
17.747879
17.839670
18.179417
21.018982
22.141933
23.126602
26.010871
26.522875
28.813481
28.753877
27.942657
29.127598
29.939413
29.131770
28.969646
29.228926
30.433536
29.035807
27.953982
27.982593
27.773976
28.145909
29.511452
27.509928
27.566552
25.334954
26.509762
25.945902
25.295615
26.650429
##ZVALUE=255
1.103878
1.216531
1.316667
1.135468
1.442432
1.576543
1.363754
1.584888
1.323819
2.382994
12.010932
32.193661
70.792437
168.368816
289.251804
490.469933
639.063716
788.123012
854.556561
821.463466
733.577609
594.601631
373.346806
246.265531
129.883885
86.390972
72.266459
81.617832
99.776983
113.531947
123.154521
123.135448
113.995671
95.393658
79.581738
54.461956
39.616823
24.505854
16.433001
9.920597
8.848906
8.045435
6.821752
7.502437
7.463694
6.837845
6.563663
7.022619
7.180572
7.221699
7.864833
8.935928
8.609891
8.890629
9.083748
9.387732
10.324717
10.696650
11.258721
11.587739
10.496974
12.709498
12.711883
12.710690
13.505816
13.630986
13.947487
14.487505
16.482472
16.078949
17.296672
17.573833
18.428564
20.477772
22.352934
22.222996
23.256540
23.222566
22.330880
22.365451
23.496747
23.247600
23.468733
23.283958
22.993684
22.867918
22.490621
22.520423
22.204518
23.854971
22.777915
22.208691
21.555424
20.901561
21.812916
21.126866
##ZVALUE=260
0.967979
1.003742
0.926852
1.272559
1.089573
1.214743
1.070499
1.170635
1.319647
1.487732
1.522899
1.845956
6.160736
17.795563
55.677891
118.145943
266.225934
411.743522
567.157865
802.263618
922.154784
951.157808
889.142752
708.953738
529.084802
314.676762
204.952955
108.274817
72.414875
64.905882
75.034499
96.757412
109.979510
122.794509
121.545792
112.006664
95.576644
71.818829
53.935647
35.213828
24.010539
14.218688
9.746552
6.534457
6.352663
6.578565
6.128550
6.339550
6.137490
7.405877
6.943941
7.992983
8.366704
8.722544
9.071827
9.577870
9.298921
10.132790
10.330677
10.582805
10.987520
10.319948
11.519790
11.667609
11.768937
11.870861
12.518764
12.265444
13.426542
14.552474
14.760494
15.833974
16.392469
19.202828
18.021464
18.470883
19.428730
19.054413
17.542839
19.516945
18.650889
18.960834
19.427538
19.336939
19.813776
18.802881
19.114614
18.721819
18.623471
19.242764
20.095706
20.342469
19.709468
19.464493
19.931793
17.967820
##ZVALUE=265
0.820756
0.831485
0.854731
0.843406
0.857711
1.006722
1.042485
0.978708
1.006722
1.129508
1.310706
1.203418
1.497865
1.389980
2.914667
14.116764
37.007928
105.689764
198.388696
400.217772
585.078597
770.292878
983.878970
1015.712023
986.286998
861.291885
650.937557
460.681915
257.874727
156.117678
79.290867
57.696700
58.171749
78.774691
95.738769
112.717748
120.802522
118.334889
110.965967
92.056990
72.819591
49.458742
35.342574
19.116998
13.315678
7.781982
6.745458
6.493926
6.163716
6.720424
7.368922
7.661581
7.929802
8.425713
8.951426
9.467602
9.784698
10.259748
11.180639
10.984540
10.732412
11.684895
12.179613
12.280941
11.437535
11.593699
13.104677
13.149977
13.244748
14.432669
14.170408
14.333725
16.134977
15.840530
15.803576
16.358495
16.887784
16.066432
17.335415
16.800761
16.050935
16.436577
16.678572
16.537905
17.104745
17.270446
17.405748
16.783476
16.897917
16.790628
16.800761
16.967654
16.631484
17.212629
16.875863
17.252564
##ZVALUE=270
0.617504
0.903606
0.877976
0.853539
0.977516
0.771880
0.781417
0.688434
0.980496
0.961423
1.098514
1.028776
1.255870
1.612902
1.498461
1.683831
1.911521
5.733967
18.986464
69.350004
153.659582
287.761688
541.526675
760.939717
1005.346775
1015.784740
1015.784740
1015.784740
829.928517
632.022619
450.764894
238.664746
129.613876
57.494640
44.040680
57.267547
74.344873
98.648667
111.044645
118.605494
118.419528
108.287930
95.697641
71.519613
53.286552
32.698512
21.350980
13.373494
10.242462
7.913709
7.625818
8.945465
9.112954
9.353757
9.749532
10.360479
11.138916
11.338592
11.635423
11.726618
12.949705
12.575984
12.516975
12.959838
12.880564
13.046861
13.898611
13.549924
14.365911
14.287829
14.978647
15.229583
15.494823
16.263723
16.562939
16.525984
16.623735
16.220808
15.694499
15.686750
16.476512
15.731454
15.326738
16.044974
16.330481
15.976429
15.734434
15.771985
15.996695
15.608668
15.853643
16.340613
15.919805
15.571713
15.844703
15.726686
##ZVALUE=275
0.378489
0.529885
0.354648
0.356436
0.634789
0.620484
0.836849
0.449419
0.590682
0.750422
0.635982
0.837445
0.721812
0.805855
0.933409
1.044869
1.215935
1.176596
1.193881
2.770424
11.869669
36.797523
118.926764
236.156583
480.664968
684.284568
933.131576
1015.527844
1015.527844
1015.527844
1015.527844
794.014931
575.167537
307.178497
176.033974
74.579716
41.722655
40.748715
53.322911
75.477958
93.472004
110.303760
116.852522
116.614699
108.510852
88.424683
71.778893
52.107573
37.684441
23.878813
17.587543
12.389421
10.852814
10.026693
10.840893
10.290742
11.804700
12.211800
12.607574
12.732744
13.155937
13.670921
13.964772
13.965964
13.801455
14.507771
14.291406
14.285445
15.309453
15.026927
15.761852
15.541911
15.829802
16.492605
16.129613
16.565919
16.117692
16.420484
16.046762
15.954971
15.696883
16.155839
15.014410
15.110970
14.737844
15.180707
15.620589
14.511943
14.955997
14.143586
13.980865
15.143752
14.919639
14.663935
15.316606
14.659762
##ZVALUE=280
0.562668
0.765920
0.768900
0.717640
0.873804
0.651479
0.625849
0.764728
0.866652
0.783801
0.784993
0.930429
0.668764
0.751615
0.902414
0.997782
0.960827
1.350641
1.240969
1.504421
1.528859
1.989603
8.021593
28.306842
95.542669
187.815428
373.858809
578.562617
868.191719
1015.774608
1015.774608
1015.774608
1015.774608
918.376446
693.618655
409.555435
250.272751
109.228492
52.823424
30.926466
37.399530
55.175424
73.135495
93.657970
106.070638
114.995837
113.549829
107.154846
92.337728
71.681738
54.807663
36.759973
26.916862
18.538833
15.309453
12.927651
13.261437
13.218522
14.015436
14.850497
15.632510
15.960932
15.204549
15.860796
16.863942
16.066432
16.364455
16.766787
16.125441
16.853809
16.932487
17.201900
17.200708
17.463565
16.820431
17.414689
17.116666
17.519593
16.719699
16.493797
16.043782
15.586615
15.730858
15.972853
15.417933
14.930964
15.752912
15.238523
15.283823
15.495420
15.028715
15.346408
14.526844
14.915466
15.100837
14.237761
##ZVALUE=285
0.478625
0.700951
0.670552
0.621676
0.735521
0.645518
0.688434
0.558496
0.756979
0.706911
0.841618
0.810623
0.672936
0.815988
0.958443
1.034737
1.126528
1.207590
1.082420
1.154542
1.044869
1.417994
1.593828
1.542568
3.977418
14.330745
51.006675
113.522410
268.841982
444.050431
654.075742
960.815549
1015.774012
1015.774012
1015.774012
1015.774012
857.927799
545.056462
341.490507
158.900619
78.386664
30.318499
24.854541
36.289692
50.274730
73.079467
86.560845
105.890632
113.282800
112.525821
107.902884
90.991855
77.602863
57.154894
43.489933
29.790998
22.815466
18.200874
17.420650
17.647743
17.842650
18.261671
17.894506
18.266439
18.498898
18.094778
17.768741
18.302798
18.631816
18.571615
19.134879
18.625855
18.778443
19.218922
19.287467
18.773675
17.863512
18.147826
18.432736
17.291903
16.808510
17.189980
15.634894
16.566515
15.763640
15.801787
16.138554
15.513897
15.746951
15.337467
14.991760
14.992952
14.915466
14.557838
14.446974
14.755726
##ZVALUE=290
0.722408
0.706911
0.590682
0.626445
0.671744
0.508428
0.664592
0.488758
0.649691
0.762939
0.822544
0.835657
0.669956
0.908971
0.939965
0.715852
0.771880
0.824928
0.854731
1.162887
1.065731
1.176596
1.184940
1.256466
1.628995
1.611710
2.335906
5.981922
29.033422
72.983503
185.385942
340.152979
552.004576
885.328650
1015.774012
1015.774012
1015.774012
1015.774012
988.833904
684.745908
457.412601
226.975679
116.717815
41.135550
21.409988
24.051666
33.053756
49.618483
65.049529
87.535977
101.012588
111.054778
113.247633
106.959939
94.530582
75.739622
61.018467
43.995976
35.537481
27.547479
24.194717
21.809936
20.951629
20.364523
20.223856
20.615458
20.687580
20.982623
20.636916
20.535588
20.474792
21.203756
20.623803
20.377636
20.514727
20.021796
19.920468
19.181967
18.982887
18.149614
17.412901
17.741919
17.085671
16.876459
16.640425
16.577840
16.063452
15.973449
15.797615
15.578866
15.501976
14.729500
14.603734
14.571548
14.084578
14.258623
##ZVALUE=295
0.501871
0.595450
0.619888
0.580549
0.752807
0.529885
0.527501
0.518560
0.401735
0.584722
0.650883
0.628829
0.493526
0.557899
0.654459
0.931621
0.749826
0.794530
0.701547
0.776649
0.850558
1.117587
1.052618
1.136661
1.222491
1.373887
1.315475
1.537800
1.655817
2.803802
9.426475
45.389533
108.254552
272.944570
457.981825
768.350959
988.522768
1015.774012
1015.774012
1015.774012
1015.774012
838.989019
598.496795
327.513814
177.886486
64.058900
28.438568
17.851591
22.206903
35.692453
49.068928
68.686604
84.488988
101.808906
112.183690
111.395717
105.658770
92.087984
80.568790
61.404705
49.489737
36.750436
31.208992
26.163459
23.776889
22.396445
22.263527
22.371411
22.448897
22.054911
22.226572
22.076964
22.075772
21.386743
21.301508
20.427704
20.362735
20.032525
19.195676
18.999577
18.305779
18.410683
17.697811
17.791986
17.199516
17.303824
16.673803
16.360879
15.811920
15.682578
15.762448
15.352964
15.000701
14.958978
14.755726
14.091730
##ZVALUE=300
0.447631
0.452995
0.510812
0.644922
0.592470
0.499487
0.671744
0.676513
0.746846
0.679493
0.545979
0.597835
0.647902
0.652671
0.748634
0.537634
0.526905
0.794530
0.821948
0.760555
0.831485
1.012683
0.868440
0.903606
0.997782
1.068711
1.027584
1.189709
1.353621
1.619458
1.772642
1.802444
6.775856
23.526549
87.722540
178.793669
386.806726
604.879856
911.150575
1015.774608
1015.774608
1015.774608
1015.774608
1007.480621
713.256001
478.553772
249.550939
136.426687
49.018860
22.913814
18.878579
24.783611
36.357641
48.003793
66.328645
82.201958
98.914504
107.116699
109.001994
105.929971
92.326999
79.313517
63.802600
51.270723
37.698746
31.978488
26.834607
24.935603
23.623705
23.077726
22.460818
22.906661
21.608472
22.398829
21.644831
21.075606
20.669699
20.804405
19.893646
19.959807
19.430518
19.247532
17.814636
18.408895
17.936826
16.870499
17.051697
17.028451
16.646981
16.174912
15.775561
15.500784
15.574694
15.213490
14.624000
14.510751
##ZVALUE=305
0.279546
0.507832
0.480413
0.438690
0.431538
0.442863
0.528693
0.570416
0.527501
0.700951
0.614524
0.526905
0.467896
0.560880
0.677705
0.666976
0.453591
0.704527
0.652671
0.686646
0.723600
0.833869
0.762939
0.702739
0.827909
0.961423
0.943542
0.975728
1.136661
1.123548
1.231432
1.346469
1.420975
1.624823
3.561974
12.944937
55.281520
127.704740
303.019881
488.019586
785.822868
998.840928
1015.774012
1015.774012
1015.774012
1015.774012
849.857926
610.058904
324.631929
183.366537
72.318912
34.569502
19.753575
20.526648
27.365685
36.067963
51.551461
64.206719
82.166791
93.772411
102.093816
103.584528
98.428726
90.037584
73.621869
61.470866
46.396852
37.908554
29.649734
26.018620
23.181438
22.406578
21.455884
21.685958
20.745993
20.895600
20.511746
19.821525
19.108653
19.933581
18.960834
18.638968
17.893910
18.618703
17.151833
17.744899
17.157793
17.341971
16.347766
15.868545
15.948415
15.521646
15.195608
15.650988
14.672875
14.758706
##ZVALUE=310
0.506639
0.437498
0.368953
0.563860
0.392795
0.461936
0.446439
0.485778
0.483990
0.563860
0.536442
0.412464
0.458956
0.533462
0.606775
0.534654
0.766516
0.610948
0.580549
0.720620
0.620484
0.599623
0.737906
0.724792
0.582933
0.752807
0.977516
1.022816
1.053810
0.992417
1.145601
1.099706
1.218915
1.433492
1.358986
1.679659
1.993775
7.103682
25.096536
88.628531
181.953907
392.992496
614.551902
934.617519
1015.767455
1015.767455
1015.767455
1015.767455
1015.768051
737.831593
498.117805
251.989961
134.815574
49.065948
23.966432
18.475652
20.578504
25.859475
33.732653
46.903491
58.504939
74.311495
84.680915
94.488859
95.568895
93.486905
84.616542
70.792437
57.932734
44.227839
35.483837
27.415752
23.798943
20.814538
19.833446
19.358993
19.127727
18.769503
18.793941
17.880797
18.184781
17.713904
17.446876
17.583966
17.434955
17.372966
16.802549
16.249418
17.156601
16.060472
15.588999
15.587807
15.684962
14.784932
14.783740
14.889836
##ZVALUE=315
0.447631
0.460744
0.244975
0.415444
0.405908
0.422597
0.485778
0.493526
0.519753
0.315905
0.332594
0.411868
0.401735
0.592470
0.520945
0.501871
0.697970
0.511408
0.472665
0.546575
0.537634
0.561476
0.471473
0.628829
0.727773
0.760555
0.745654
0.841618
0.900626
1.001954
0.946522
0.990629
1.187921
1.116991
1.151562
1.223683
1.223683
1.454949
1.589656
3.273487
12.264848
54.883957
127.643943
303.717852
496.456623
804.113746
1004.671454
1015.774608
1015.774608
1015.774608
1015.774608
886.318684
645.662546
359.562635
201.113820
75.512528
32.208562
16.841888
16.560555
19.081831
22.905469
31.449795
39.785504
53.089857
65.483451
78.148842
85.866451
88.465810
86.705685
75.854659
66.701770
51.597953
41.932464
30.761957
24.666786
20.880699
18.111467
17.488599
17.357469
17.458797
17.104745
16.444921
16.598701
16.572475
16.942620
16.228557
16.284585
16.505718
15.923977
15.806556
15.749931
15.503764
15.322566
15.073419
14.830828
14.390945
##ZVALUE=320
0.307560
0.286698
0.398755
0.274777
0.382662
0.395775
0.268817
0.477433
0.394583
0.427961
0.373721
0.522733
0.309944
0.532866
0.523925
0.491738
0.493526
0.502467
0.606775
0.594854
0.545979
0.427961
0.370741
0.531673
0.595450
0.550747
0.546575
0.651479
0.731945
0.774860
0.749826
0.755787
0.823736
0.921488
0.817776
1.076460
1.052618
1.167655
1.288652
1.437664
1.497865
2.056956
5.469918
31.784773
84.823966
228.653550
384.302735
648.822784
879.240036
1015.774012
1015.774012
1015.774012
1015.774012
1011.763811
792.485476
458.417535
265.246630
110.586882
49.981475
17.782450
13.385415
13.389587
15.148520
18.995404
23.905635
34.687519
44.799447
58.672428
68.868995
78.490973
80.907941
78.484416
71.788430
58.645606
48.177838
35.833716
29.090643
21.799803
18.973947
16.440749
15.810728
15.073419
15.600920
15.425682
15.268922
15.325546
15.267730
15.306473
15.708804
15.422702
15.203953
14.988780
14.686584
14.311671
14.504790
14.222860
##ZVALUE=325
0.367761
0.271797
0.365973
0.391603
0.295639
0.487566
0.313520
0.427961
0.339746
0.344515
0.331998
0.447631
0.470877
0.423789
0.369549
0.386834
0.441670
0.370741
0.506639
0.457764
0.450611
0.473857
0.553727
0.644922
0.730753
0.586510
0.661612
0.722408
0.642538
0.578761
0.708699
0.743866
0.697970
0.886917
0.892878
0.891685
0.853539
1.025796
0.851750
1.169443
1.233816
1.345873
1.584888
1.658797
3.285408
21.080971
57.461858
152.104497
282.576680
542.742610
764.877796
1015.774012
1015.774012
1015.774012
1015.774012
1015.774012
881.911516
566.637516
351.818800
155.188441
73.336959
22.968650
11.520982
9.780526
9.974837
11.918545
15.494823
21.739602
29.457808
42.938590
52.977800
64.759851
70.652962
73.884726
71.785450
62.543750
54.767728
41.913986
33.918619
24.556518
20.379424
16.792417
15.456676
14.743805
14.714599
14.851689
14.939904
14.730692
14.458895
14.407635
14.589429
14.208555
14.006495
14.095902
13.217926
13.777614
##ZVALUE=330
0.455976
0.242591
0.323653
0.345707
0.476837
0.416636
0.297427
0.324845
0.451803
0.464916
0.278950
0.332594
0.430942
0.463724
0.542998
0.507832
0.299811
0.451803
0.445843
0.387430
0.399947
0.501871
0.401735
0.487566
0.505447
0.542998
0.507832
0.630617
0.516772
0.557899
0.647902
0.487566
0.597835
0.604987
0.738502
0.664592
0.756979
0.958443
0.988841
1.073480
0.930429
1.018643
1.173615
1.236796
1.310706
1.583695
1.968741
9.167790
31.102896
105.250478
204.920769
414.381623
621.510744
920.071006
1015.771627
1015.771627
1015.771627
1015.771627
1008.257866
700.038671
465.999842
222.430825
109.530687
35.691857
13.881922
8.336902
8.522868
8.928776
10.841489
15.439987
19.968748
29.436946
38.112998
51.221848
59.680939
66.917539
68.547726
65.577626
59.689879
49.680471
40.654540
30.481815
24.571419
19.147992
16.843677
14.892817
14.599562
14.053583
13.992786
13.909936
13.960600
13.999939
13.394952
13.880730
13.595819
13.335943
##ZVALUE=335
0.375509
0.345707
0.450611
0.385642
0.491738
0.204444
0.238419
0.366569
0.325441
0.313520
0.386834
0.377893
0.320673
0.352859
0.446439
0.311732
0.540614
0.400543
0.317693
0.284910
0.392795
0.446439
0.499487
0.351667
0.307560
0.461936
0.460744
0.454783
0.712872
0.644922
0.589490
0.574589
0.687838
0.737906
0.720620
0.773668
0.720620
0.848770
0.698566
0.779629
0.897646
0.848770
0.981688
0.961423
1.074672
1.357794
1.196861
1.409650
1.629591
4.146695
16.926527
66.754818
141.445994
316.445827
510.299802
810.178518
1007.148623
1015.785933
1015.785933
1015.785933
1015.785933
851.967931
605.706573
325.591564
171.473622
53.915977
19.712448
9.285808
8.125901
8.582473
9.176731
11.210442
14.010668
20.634532
27.479529
37.769675
46.204925
57.249665
62.062740
64.165592
62.227845
54.596663
47.732592
37.924647
32.463670
24.175644
20.025969
16.313791
15.030503
13.894439
13.366938
13.556480
13.064742
13.276935
13.146996
13.119578
##ZVALUE=340
0.345707
0.338554
0.351667
0.224710
0.231862
0.355840
0.227690
0.277758
0.214577
0.230670
0.322461
0.183582
0.276566
0.358820
0.351667
0.211596
0.223517
0.355840
0.397563
0.518560
0.391603
0.270605
0.358820
0.458956
0.529885
0.267625
0.371933
0.398755
0.401735
0.303984
0.310540
0.548959
0.452995
0.519753
0.367761
0.636578
0.604987
0.607967
0.638962
0.781417
0.673532
0.642538
0.657439
0.765920
0.867844
0.948906
0.936985
1.057982
1.211762
1.505613
1.610518
2.315640
8.078814
42.306781
101.970434
251.974463
418.958664
681.720972
890.731812
1015.731692
1015.731692
1015.731692
1015.731692
967.406631
722.291470
402.954817
225.404501
89.117885
32.568574
10.279417
8.358955
8.620620
8.778572
9.723902
11.119843
14.731884
19.009709
26.803613
34.565926
45.789480
52.261949
58.780909
59.854984
58.469772
53.454638
45.464635
38.552880
30.308962
24.947524
19.694567
16.582608
14.037490
13.542771
12.880564
12.755990
12.574792
##ZVALUE=345
0.260472
0.394583
0.242591
0.218749
0.288486
0.369549
0.278950
0.365973
0.495911
0.418425
0.180602
0.090599
0.252724
0.462532
0.404716
0.297427
0.339746
0.424981
0.323653
0.479817
0.419617
0.366569
0.271797
0.386834
0.384450
0.431538
0.432730
0.298619
0.489950
0.539422
0.620484
0.542998
0.608563
0.585914
0.651479
0.438690
0.605583
0.634789
0.585914
0.643730
0.575781
0.538826
0.685453
0.843406
0.759959
0.802875
0.826716
0.973940
0.895858
1.073480
1.229644
1.224875
1.325607
1.771450
3.581643
24.917722
69.656968
179.793835
320.279598
575.468540
780.735016
1015.774608
1015.774608
1015.774608
1015.774608
1015.774608
854.589939
547.394753
324.257612
128.920674
53.196549
15.262961
8.976460
8.606911
8.575916
8.750558
9.460449
10.979772
13.363957
18.944740
24.946928
34.559965
41.292906
48.557520
52.115917
55.471659
54.258704
50.206780
44.774413
36.852956
30.461550
22.938848
18.809438
15.162826
13.566613
12.635589
##ZVALUE=350
0.351667
0.285506
0.252724
0.337958
0.262856
0.380874
0.281930
0.347495
0.284910
0.366569
0.354648
0.216961
0.205636
0.130534
0.228882
0.243783
0.291467
0.472665
0.326633
0.390410
0.385642
0.500679
0.435710
0.436902
0.417829
0.556707
0.361800
0.355840
0.261664
0.302792
0.529885
0.463724
0.451803
0.519753
0.486970
0.593662
0.485778
0.487566
0.534654
0.546575
0.565648
0.632405
0.730753
0.722408
0.747442
0.706911
0.739694
0.786781
0.848770
1.048446
0.934601
1.167655
1.171827
1.513958
1.366735
1.646876
2.308488
13.489723
42.057633
127.667785
241.357684
473.255515
673.341751
936.039686
1015.774012
1015.774012
1015.774012
1015.774012
982.355475
653.920770
408.892632
183.429718
79.910755
19.359589
9.564757
8.258820
8.023977
7.917881
8.303523
8.917451
10.084510
13.045669
16.572475
22.679567
29.021502
36.734939
42.877793
48.217773
50.979853
50.755739
47.975779
40.697455
35.289526
28.209686
22.867918
17.818809
##ZVALUE=355
0.426769
0.494719
0.331998
0.360608
0.272989
0.340939
0.402927
0.304580
0.341535
0.301600
0.318885
0.384450
0.427961
0.380874
0.271797
0.455976
0.495911
0.436902
0.307560
0.357628
0.454783
0.304580
0.467896
0.410676
0.517964
0.512600
0.490546
0.462532
0.512600
0.356436
0.376701
0.709891
0.466704
0.493526
0.510812
0.605583
0.603795
0.468493
0.522733
0.542998
0.605583
0.602603
0.600815
0.684857
0.573993
0.658631
0.642538
0.736713
0.791550
0.898838
1.025796
1.018643
1.016855
1.004934
1.283884
1.157522
1.352429
1.539588
1.754761
4.284978
26.850700
70.974827
183.031559
321.193933
583.120584
802.853703
1015.774012
1015.774012
1015.774012
1015.774012
963.176489
738.143921
440.325737
245.786905
91.909766
35.902858
10.559559
7.803440
7.255673
7.252693
7.656813
7.734895
8.544922
9.514689
11.539459
14.452934
19.802451
25.321841
32.492876
38.580894
43.371916
46.329498
46.286583
43.858886
37.830472
32.967925
##ZVALUE=360
0.230670
0.137687
0.237823
0.127554
0.386834
0.303984
0.257492
0.286698
0.279546
0.173450
0.321865
0.257492
0.386834
0.208616
0.332594
0.423789
0.202656
0.494719
0.229478
0.248551
0.336766
0.370741
0.353456
0.299811
0.534654
0.380874
0.403523
0.439882
0.489950
0.328422
0.639558
0.454783
0.507832
0.344515
0.451803
0.545979
0.391603
0.415444
0.473857
0.601411
0.624657
0.714660
0.586510
0.376701
0.754595
0.548959
0.583529
0.668764
0.524521
0.587702
0.740886
0.928640
0.825524
0.893474
0.993609
0.983477
0.911951
1.080632
1.246929
1.370907
1.760721
2.733469
10.152459
46.878457
107.920766
255.782604
415.503979
667.578578
881.947875
1015.712023
1015.712023
1015.712023
1015.712023
801.035762
564.634800
285.384655
148.405433
51.812530
17.878413
7.572770
6.902814
6.985664
7.048845
7.093549
7.366538
7.609725
8.151531
10.124445
12.286901
16.185641
20.619631
27.506948
32.939911
38.228631
41.130781
41.869879
##ZVALUE=365
0.163913
0.250936
0.250936
0.258684
0.143647
0.147820
0.221729
0.147820
0.164509
0.148416
0.282526
0.092983
0.121593
0.220537
0.166893
0.062585
0.182986
0.229478
0.271797
0.102520
0.180602
0.376701
0.199676
0.095963
0.247955
0.162721
0.373721
0.296831
0.299811
0.296831
0.235438
0.299811
0.135899
0.227690
0.355840
0.295639
0.329614
0.337958
0.395775
0.451803
0.421405
0.423789
0.416636
0.365973
0.329614
0.393987
0.549555
0.564456
0.425577
0.549555
0.468493
0.661612
0.719428
0.552535
0.605583
0.760555
0.863671
0.953674
0.939965
0.966787
1.214743
1.373887
1.587868
1.873970
4.383922
26.693940
69.561601
172.475576
309.523940
556.401610
750.199556
979.526639
1015.633941
1015.633941
1015.633941
837.450624
630.809665
366.180539
204.120874
70.391893
25.303960
7.610917
6.164908
6.201863
6.151795
6.246567
6.447434
6.006956
6.496906
7.174611
8.196831
10.705590
13.357997
18.497705
23.287535
28.809905
##ZVALUE=370
0.146627
0.192523
0.159740
0.106692
0.121593
0.103712
0.118613
0.040531
0.179410
0.151992
0.458956
0.345707
0.087619
0.084639
0.177622
0.370741
0.202656
0.162721
0.200868
0.236630
0.266433
0.168681
0.225902
0.335574
0.090599
0.294447
0.243783
0.399947
0.393987
0.196695
0.302792
0.259876
0.284910
0.399947
0.231862
0.299811
0.303984
0.416636
0.289679
0.311732
0.244975
0.408888
0.532866
0.295639
0.340939
0.370741
0.454783
0.526905
0.405908
0.355840
0.470877
0.357628
0.469685
0.510812
0.438690
0.568628
0.732541
0.566840
0.643730
0.625849
0.785589
0.972748
0.941753
1.154542
1.217723
1.452565
2.249479
13.733506
43.560863
132.536888
244.133472
450.316668
639.817715
892.025828
1015.646458
1015.646458
1015.646458
891.337991
690.092444
403.092504
226.089954
86.127520
36.332607
11.644959
6.658435
5.828738
5.627871
5.500913
5.460978
5.797744
5.608797
6.146431
6.749630
7.771850
9.416938
12.227893
##ZVALUE=375
0.255704
0.189543
0.185966
0.312924
0.235438
0.255704
0.175834
0.271797
0.250936
0.280738
0.252724
0.267625
0.203848
0.280738
0.231862
0.274777
0.345707
0.343919
0.259876
0.344515
0.307560
0.418425
0.293851
0.238419
0.366569
0.235438
0.246763
0.253916
0.417829
0.248551
0.269413
0.544786
0.160933
0.308752
0.384450
0.284910
0.467896
0.261664
0.313520
0.228882
0.378489
0.341535
0.421405
0.456572
0.438690
0.441670
0.430942
0.494719
0.456572
0.476837
0.608563
0.387430
0.527501
0.579953
0.529885
0.727773
0.520945
0.660419
0.603795
0.623465
0.799894
0.884533
0.934601
0.945926
1.101494
1.071692
1.248717
1.528859
1.801848
6.724000
26.212931
87.935925
180.179477
386.930704
574.238896
840.272903
999.341607
1015.774012
1015.774012
997.386575
815.583467
520.829558
329.450965
148.652792
71.935654
20.849705
8.439422
5.561709
5.113482
5.341768
5.299449
5.432963
5.454421
5.437732
5.521774
6.105900
##ZVALUE=380
0.185966
0.248551
0.167489
0.192523
0.062585
0.250936
0.314713
0.234842
0.169873
0.200868
0.144839
0.222921
0.308752
0.225902
0.198483
0.257492
0.311732
0.324845
0.334978
0.290871
0.342727
0.329614
0.278950
0.325441
0.310540
0.340939
0.307560
0.310540
0.372529
0.277758
0.289679
0.307560
0.281930
0.292659
0.355840
0.449419
0.420809
0.254512
0.294447
0.378489
0.289679
0.174642
0.306964
0.547767
0.326633
0.372529
0.426769
0.517964
0.598431
0.625849
0.494719
0.533462
0.481606
0.465512
0.540614
0.501871
0.450611
0.574589
0.470877
0.614524
0.637770
0.688434
0.691414
0.764728
0.927448
0.777841
0.804663
0.980496
1.181960
1.437664
1.751781
3.311634
13.735890
63.154697
137.346983
304.927826
475.819707
720.030665
907.004476
1015.774608
1015.774608
994.102955
835.114717
604.901910
415.466428
207.812786
106.239915
35.223961
13.653636
5.585551
4.960895
4.896522
4.849434
4.838705
4.772544
4.829764
##ZVALUE=385
0.224710
0.154972
0.276566
0.259876
0.185966
0.237823
0.113845
0.306964
0.204444
0.170469
0.274777
0.138879
0.284910
0.401735
0.398755
0.125766
0.313520
0.315905
0.062585
0.025630
0.309944
0.149608
0.031590
0.328422
0.192523
0.420809
0.400543
0.236630
0.289679
0.264645
0.291467
0.274777
0.338554
0.411868
0.349879
0.338554
0.260472
0.323653
0.151992
0.300407
0.374913
0.371933
0.298619
0.503659
0.316501
0.391603
0.403523
0.395775
0.391603
0.319481
0.352859
0.410676
0.433922
0.442863
0.388622
0.556707
0.438690
0.576973
0.484586
0.606775
0.506639
0.532866
0.633597
0.589490
0.778437
0.770688
0.802875
1.019835
0.927448
1.094937
1.160502
1.529455
1.504421
1.976490
6.572604
37.977695
91.138482
215.854645
367.181897
616.849661
799.548626
1000.442505
1015.774012
1015.774012
952.173471
719.846487
518.010855
284.639001
160.729885
64.930916
25.325418
6.766915
4.684925
4.369617
4.236698
4.191995
##ZVALUE=390
0.140667
0.251532
0.162721
0.163913
0.234842
0.105500
0.269413
0.177622
0.245571
0.271797
0.227690
0.225902
0.221729
0.169873
0.279546
0.230670
0.331998
0.330806
0.200868
0.310540
0.287890
0.316501
0.380874
0.166893
0.373721
0.397563
0.259876
0.224710
0.248551
0.183582
0.366569
0.285506
0.326633
0.246763
0.306964
0.342727
0.493526
0.309944
0.316501
0.391603
0.393987
0.373721
0.400543
0.362992
0.389814
0.300407
0.434518
0.443459
0.398755
0.281930
0.455976
0.356436
0.243783
0.505447
0.445843
0.446439
0.498891
0.390410
0.464916
0.592470
0.568628
0.477433
0.595450
0.639558
0.620484
0.611544
0.731945
0.796914
1.002550
1.089573
1.197457
1.184940
1.259446
1.326799
1.422763
1.508594
3.194809
21.760464
64.416528
177.725554
314.062834
554.333925
729.495883
924.253464
1015.774012
1015.774012
1010.099649
830.411911
648.404956
402.419567
237.769485
96.308589
42.838454
10.918975
5.187988
3.985763
##ZVALUE=395
0.267625
0.138879
0.175834
0.210404
0.233650
0.051856
0.123978
0.329614
0.193715
0.115633
0.208616
0.087619
0.328422
0.323653
0.165701
0.259876
0.280738
0.102520
0.205636
0.105500
0.247955
0.221729
0.204444
0.248551
0.259876
0.299811
0.372529
0.357628
0.363588
0.327826
0.483990
0.307560
0.248551
0.266433
0.350475
0.234842
0.274777
0.264645
0.391603
0.226498
0.383854
0.344515
0.362992
0.302792
0.388622
0.255704
0.265837
0.337958
0.366569
0.330806
0.364780
0.344515
0.386834
0.463724
0.338554
0.367761
0.399947
0.351667
0.562668
0.534654
0.527501
0.515580
0.569820
0.673532
0.751615
0.720620
0.903606
0.885725
0.759959
1.174808
1.103878
1.083612
0.868440
1.086593
1.207590
1.087785
1.271963
1.579523
2.009869
12.456775
44.310689
135.784745
242.343545
433.487892
611.337423
862.425566
1003.369689
1015.775800
1015.775800
961.903930
778.666735
502.638817
319.475532
139.529705
64.436793
19.378662
##ZVALUE=400
0.022650
0.089407
0.164509
-0.087619
-0.160933
-0.244975
-0.001788
0.026822
0.103712
0.110865
-0.054836
-0.138879
0.058413
0.095963
0.136495
0.001788
-0.019670
0.043511
-0.060797
-0.112653
-0.000596
-0.018477
0.062585
0.044703
0.061989
-0.091791
0.134706
0.004768
0.021458
0.077486
0.035763
0.053644
0.144839
0.106692
0.048876
0.133514
0.010729
0.160933
0.158548
0.155568
0.100732
0.074506
0.012517
0.313520
0.134706
0.201464
0.255704
0.177622
0.203848
0.148416
0.163913
0.078678
0.073910
0.211596
0.213981
0.250936
0.210404
0.326633
0.174642
0.289679
0.279546
0.213981
0.377893
0.402927
0.416636
0.534654
0.667572
0.572801
0.595450
0.955462
0.665784
0.794530
0.850558
0.792742
0.705719
0.942945
0.874996
0.935793
0.982881
1.281500
1.399517
6.615520
26.527643
89.272857
173.876882
346.522927
516.822934
743.556619
891.662836
1015.155911
1015.577912
955.794454
806.592703
555.080771
374.375582
192.582607
##END
