##TITLE=QP00652
##FORMAT=SPECTACLE-ASCII V-1.2
##DATA TYPE=ULTRAVIOLET SPECTRUM
##SECOND TYPE=ULTRAVIOLET SPECTRUM
##DATE=11/14/17
##TIME=16:08:41
##SPECTROMETER/DATA SYSTEM=SPECTACLE
##XUNITS=NM EM
##YUNITS=ENERGY
##YFACTOR=1
##FIRSTX=220
##LASTX=410
##NPOINTS=96
##3DDATA=Equidistant
##ZUNITS=NM EX
##FIRSTZ=210
##LASTZ=400
##ZPOINTS=39
##XYDATA=(Y..Y)
##ZVALUE=210
4.179478
3.487468
3.565550
3.816485
3.660917
4.034638
3.458858
3.403425
3.383756
3.286600
2.803802
2.652407
2.074838
2.134442
2.363920
2.159476
2.156496
2.179742
2.722740
2.707839
3.190637
3.238916
3.422499
3.629923
3.190637
3.417730
3.439784
3.887415
3.741980
3.980994
4.418492
4.292727
3.694892
4.647970
5.114675
5.061626
4.590750
4.506707
4.368424
5.321503
4.810691
4.811883
4.606843
5.187988
4.736781
4.682541
4.857779
5.536675
4.951954
4.760623
5.375743
5.591512
4.950762
5.652905
5.621910
5.483627
5.896688
5.964637
5.841851
5.487800
5.808473
5.291700
5.698800
5.846620
6.679893
6.506443
6.753802
7.005930
6.877780
9.672642
10.139942
11.201501
14.334917
14.792681
15.704632
17.226934
16.091466
17.084479
16.438961
15.481710
14.267564
13.796687
11.611581
10.837913
9.417534
7.729530
6.352663
6.064773
5.727410
6.084442
5.679727
6.129742
6.328821
5.739927
6.699562
6.414652
##ZVALUE=215
9.643435
8.836985
7.461905
8.124709
6.808639
6.565452
6.028414
5.858541
7.603765
6.416440
6.756783
5.588531
4.383922
4.106760
3.460646
2.945662
3.032684
2.579689
2.789497
2.810955
3.187656
3.746748
2.876520
3.573895
3.003478
3.142953
3.880858
3.992915
3.775954
3.996491
3.799796
4.710555
4.801750
5.104542
5.357862
4.439950
4.971623
4.895926
5.593896
6.088614
5.934834
6.135702
5.858541
5.298853
5.268455
5.340576
4.911423
5.757809
5.014539
5.555749
5.749464
6.722808
6.329417
6.143451
5.930662
5.795956
6.931424
7.140636
6.596446
7.730722
7.599592
6.063581
6.207824
6.219745
6.747842
6.544590
7.110834
7.291436
8.704662
9.451509
10.197759
11.556745
14.092922
15.538931
15.677810
17.074943
16.354918
15.611649
15.450716
15.259981
12.706518
12.204647
11.721849
10.860562
8.063912
7.734895
7.626414
5.888939
5.962849
5.061626
5.344748
5.621910
6.534457
5.300641
5.859733
7.471442
##ZVALUE=220
22.613406
23.158789
26.392937
26.447773
25.777817
24.854541
17.950535
14.408827
12.674928
13.032556
14.372468
15.121698
13.285875
12.040734
11.903644
7.245541
6.781816
4.664660
3.645420
3.181696
3.452897
2.909899
3.035665
3.496408
3.325939
3.492832
4.056692
4.332662
4.888773
4.743934
5.512834
5.098581
5.965829
4.983544
6.122589
5.335808
5.330443
5.740523
6.107688
6.002784
6.048679
6.318688
6.042719
5.489588
6.094575
6.939769
6.297827
6.736517
6.982684
5.775690
6.726980
8.009672
7.872581
8.796453
7.846951
8.274913
7.357597
9.418726
9.034872
8.921623
9.031892
9.289980
8.968711
9.473562
8.215904
8.613467
8.944869
9.324551
9.358525
12.446642
12.559891
12.926459
15.342832
16.124845
18.098950
18.569827
17.154813
18.964410
18.635988
16.260743
16.447902
14.373660
12.489557
11.455417
10.290742
9.550452
9.351969
7.959604
8.424520
7.348657
6.455779
7.909536
7.480979
6.611943
6.543994
7.160902
##ZVALUE=225
31.817555
33.000708
45.793653
59.806705
66.740513
75.247884
70.548654
58.747530
43.886900
38.112998
24.779439
22.482872
24.081469
25.447607
25.487542
24.067760
20.226836
17.277598
11.653900
9.411573
6.005764
4.610419
4.427433
3.675818
3.334880
4.888773
4.550815
5.219579
5.334616
4.834533
5.421638
5.869865
5.597472
5.734563
7.199645
6.498694
5.559921
6.764531
6.098747
7.212758
6.338954
8.604527
7.686615
6.568432
7.588863
7.040501
8.301735
8.466840
8.289814
8.189678
8.013844
9.283423
9.760857
10.664463
10.460615
12.168884
10.559559
10.787845
11.085868
11.908412
11.323690
11.857748
12.119412
11.689663
12.129545
11.768937
11.430979
11.689663
11.663437
13.665557
13.855696
14.707446
15.227795
16.902685
18.383861
16.634464
18.198490
17.448664
16.614795
16.915798
14.795661
14.275908
14.397502
12.273788
11.108518
10.957718
10.809898
9.832978
9.595752
10.189414
9.763837
9.646416
9.001493
8.272529
8.759499
7.876754
##ZVALUE=230
22.016764
27.002692
42.959452
75.691938
104.205608
144.082904
162.004828
169.560909
164.284706
140.083432
99.819899
70.310831
46.933889
37.924647
40.070415
41.034818
44.589639
43.602586
42.105913
33.617616
26.378632
16.843677
11.927485
8.509755
5.596876
5.890727
4.936457
4.891753
5.735755
6.342530
6.289482
6.305575
6.399751
6.360412
7.011890
8.337498
7.456541
7.540584
8.066893
7.879734
8.057952
8.448958
7.940531
8.828640
8.297563
8.048415
8.391738
8.923411
9.451509
10.028481
11.269450
10.841489
11.644959
11.569858
12.572408
11.955500
11.858940
14.881492
13.054609
14.114976
14.594793
15.049577
13.039708
15.828609
14.268756
14.367700
16.370416
14.178753
16.373992
16.371608
16.035438
16.410947
20.236969
21.655560
22.586584
21.734834
23.162961
20.047426
21.131635
19.607544
18.369555
17.389655
15.607476
14.948845
14.247894
14.190674
13.427734
13.353825
12.579560
12.313724
11.762977
12.431741
11.654496
12.313724
11.413693
10.916591
##ZVALUE=235
6.775856
7.096529
21.413565
42.091608
83.754659
134.682655
208.596587
264.241695
324.407816
331.097841
302.738547
255.087614
201.435685
129.702687
91.929436
60.733557
54.510832
64.626932
64.598918
68.074465
67.285895
60.622692
47.162771
33.651590
24.116635
16.988516
11.577606
8.245707
8.195639
6.821752
7.091761
7.918477
7.540584
7.809997
8.274913
8.741617
8.654594
8.752942
8.198619
8.942485
9.216666
8.174777
8.774996
7.976890
9.758472
8.804798
8.960962
9.770989
9.568930
10.681748
11.196733
11.229515
12.206435
13.047457
13.977885
14.650822
14.726520
15.839934
14.472604
15.537739
15.378594
16.626716
15.588999
14.832616
16.249418
16.633868
16.636848
17.518997
17.837882
18.663406
20.903945
22.212863
22.366643
22.672415
26.282668
23.628473
24.452806
26.179552
22.887588
23.489594
23.372769
21.543503
21.275878
21.157861
19.407868
18.742681
19.137859
16.342998
16.284585
15.953779
17.107725
16.820431
15.471578
15.597939
15.492439
13.852715
##ZVALUE=240
1.564622
1.636744
3.176928
9.624958
22.948980
58.851838
106.484890
206.232667
297.361612
392.090678
492.049456
517.473817
490.981936
417.492986
311.825871
225.652456
131.718516
94.203949
75.288415
75.810552
86.149573
93.883872
92.741847
85.878968
73.780417
56.525469
45.166612
29.899478
23.597479
14.553666
11.024475
9.860992
8.666515
8.418560
9.064674
8.706450
7.883906
8.914471
8.450747
9.183884
8.980632
8.314848
9.347796
9.081960
8.037686
9.495616
9.669662
8.686781
9.170771
10.528564
10.861754
10.341406
12.100935
11.915565
12.483597
13.776422
13.381839
13.954639
13.737679
15.675426
15.400648
16.270876
16.598701
18.100739
16.839504
17.907619
17.882586
19.613504
17.511845
21.239519
22.197962
22.813678
24.116635
27.883649
26.805997
27.334690
28.320551
26.201606
26.782751
25.592446
23.632646
23.199916
21.499991
22.232533
23.788810
20.884871
20.364523
20.317435
19.306540
20.250678
19.223690
19.164681
19.712448
18.099546
18.347502
18.407702
##ZVALUE=245
1.692772
1.456738
1.550913
1.263618
2.272725
6.720424
22.156835
50.611496
128.464699
203.560591
358.725786
470.500588
576.707721
648.919940
635.045767
549.050570
437.650681
300.510526
207.056999
119.406581
86.822510
74.825883
86.838603
98.511577
107.508898
104.030967
96.553564
86.608529
66.390634
49.573779
37.524700
23.859739
17.328858
12.005568
10.605454
9.353757
9.111762
8.837581
8.934736
9.105802
8.858442
8.741617
8.068681
7.917881
7.936954
7.765889
7.881522
7.568598
8.606911
9.380579
9.409785
10.487437
10.858774
10.934472
12.964606
12.300611
12.782812
13.426542
13.132691
13.523698
13.739467
14.405847
16.083717
13.112426
15.503764
15.289783
16.291738
16.561747
17.814636
18.616915
18.592477
19.046664
21.332502
23.136735
24.096966
24.872422
22.348762
22.752881
23.117661
23.819804
21.969676
20.745993
21.178722
19.908547
19.047856
19.711852
18.949509
18.627644
17.968416
18.298626
17.826557
17.116666
19.031763
17.710924
18.517971
17.471910
##ZVALUE=250
1.422763
1.322627
0.943542
1.174808
1.649857
1.454949
1.598001
4.390478
18.144846
39.806962
111.144781
199.136734
311.555862
489.221811
615.588427
726.684928
744.396448
688.189864
587.803721
421.589017
291.869640
182.730556
102.566481
78.161955
78.178644
93.297958
106.538534
111.821890
115.929842
103.695989
91.774464
73.143840
54.976940
36.444664
24.906993
14.748573
12.422800
9.254813
8.340478
7.889867
7.843971
7.116795
6.994605
7.288456
8.003712
6.812811
6.618500
7.511973
7.460713
7.895827
8.412600
9.049773
10.010600
9.329915
9.884834
9.864569
10.965466
11.808872
12.478828
11.147857
11.144876
11.571646
11.287928
12.997985
11.259913
13.237596
14.102459
14.244914
14.640689
15.411973
16.116500
17.532706
17.940998
18.113852
19.748807
20.190477
20.032525
20.909905
19.288659
19.204617
18.286705
17.543435
18.738508
17.414689
17.151833
17.983913
15.865564
17.029643
16.054511
17.098784
16.586781
17.048717
15.232563
16.083717
15.931726
17.552972
##ZVALUE=255
1.206994
1.181960
1.137853
1.153946
1.044869
1.254678
1.524687
1.426935
1.374483
2.506971
11.395812
31.375885
69.235563
169.681907
281.134844
472.594500
624.089837
782.549977
854.935646
833.458900
740.304589
604.102015
388.861895
245.866776
124.184489
81.770420
68.482757
75.294971
94.432831
108.526945
116.512775
117.820501
110.688806
89.205503
73.363781
50.516725
35.111904
21.683574
14.538765
9.518862
7.404685
7.172823
7.534623
6.766915
7.065535
6.551743
6.762743
7.442832
7.428527
7.544756
7.983446
8.181930
8.539557
9.328723
9.088516
8.972883
9.918809
9.959936
10.739565
10.668635
10.028481
10.437965
10.574460
10.529757
10.796785
11.247993
11.060834
12.086630
11.875629
13.041496
13.841987
14.388561
15.502572
16.003847
16.086698
17.378926
16.693473
16.963482
17.009974
15.901923
15.726686
14.815927
15.711784
15.361905
14.870763
14.619827
14.612675
14.721751
14.702678
15.154481
14.984608
15.046000
14.643669
14.612675
14.894605
14.362931
##ZVALUE=260
0.934601
0.767708
0.937581
0.726581
0.872612
1.185536
1.069903
1.335740
1.483560
1.366735
1.445413
2.342463
4.431605
19.549727
46.895742
126.090646
227.167606
405.864716
573.176742
804.326534
927.940011
971.092582
890.246034
748.546720
516.424775
348.012447
202.758908
120.666623
69.147944
60.531497
69.444776
92.758536
108.149648
120.814443
120.887756
108.591914
95.858574
70.862770
55.443645
34.673810
23.286939
13.890862
9.692907
6.994605
7.066727
6.756783
6.447434
6.745458
7.465482
7.627606
8.111596
7.891655
8.695722
9.000897
9.599924
9.715557
9.825826
9.388924
10.132790
10.719895
10.851622
10.407567
10.502934
10.360479
10.527968
9.445548
10.401607
10.921955
11.430979
12.404919
12.265444
12.441874
14.170408
14.080405
13.700724
14.462471
14.304519
14.501810
14.716983
14.067888
14.222860
13.776422
13.631582
13.595819
13.195872
14.400482
12.611747
13.473630
13.761520
13.284683
13.105869
12.749434
12.600422
13.386607
13.587475
13.679862
##ZVALUE=265
0.923872
0.993609
0.826716
0.877976
0.714660
1.000762
0.889897
1.179576
1.289845
1.236796
1.312494
1.194477
1.660585
1.729727
2.864599
12.738705
33.505559
95.526576
187.949538
387.434959
570.486784
760.632753
989.322662
1015.820503
1015.820503
911.538601
683.230758
490.387678
274.521708
162.886977
82.304478
56.732893
58.908463
75.510740
99.298954
111.178756
118.400455
120.057464
108.909607
93.234777
71.281791
52.417517
33.964515
22.757649
13.559461
10.272861
8.046627
7.794499
7.866621
8.529425
8.380413
9.104609
9.344816
10.641813
9.650588
10.132790
10.510683
10.641813
11.377931
11.065602
11.598468
10.470748
10.407567
11.165738
11.101961
11.152625
11.129975
11.169910
11.396408
11.452436
12.269616
12.748837
12.565851
13.655424
12.598634
12.995601
13.515949
14.525652
13.377666
13.240576
12.927651
12.619495
12.388825
12.395978
11.836886
11.938810
12.937784
12.123585
12.273788
12.239814
12.386441
12.187958
12.554526
12.431741
12.854934
12.967587
##ZVALUE=270
0.698566
0.726581
0.744462
0.743866
0.864863
0.917912
0.939965
0.880957
1.130700
1.162887
1.185536
1.114607
1.285672
1.104474
1.295805
1.352429
1.701713
5.787611
17.844439
66.088438
144.209862
274.519920
527.266860
747.167468
1004.754901
1015.774608
1015.774608
1015.774608
879.991651
676.556826
416.024923
251.970887
135.936737
61.784983
45.212507
59.899688
75.347424
97.799897
113.790631
120.790601
119.211674
109.434724
93.513727
69.907904
54.376721
34.617782
25.213957
15.411973
12.624860
9.511709
9.192824
9.174943
9.594560
10.073781
10.355711
10.678768
10.854602
11.146665
11.450648
10.945797
10.595918
11.289716
11.905432
11.887550
11.327863
11.395812
11.052489
11.180639
12.052655
12.232661
12.682676
12.987852
12.981892
13.064742
13.052821
14.149547
12.824535
12.676716
11.997819
12.801886
12.338758
11.972785
12.204647
11.529922
11.222959
11.727810
11.091828
11.525750
11.416674
11.774898
11.389852
10.982752
12.144446
11.703968
11.193752
11.943579
##ZVALUE=275
0.773668
0.663996
0.661612
0.552535
0.684857
0.690818
0.676513
0.775456
0.795722
0.881553
0.724792
0.864863
0.983477
1.052618
0.884533
1.162887
1.290441
1.437664
1.633763
3.108978
11.502504
34.871697
115.698576
230.080485
465.839505
673.850775
944.191813
1015.774012
1015.774012
1015.774012
1015.774012
811.709762
580.792427
308.432579
173.598528
73.931813
43.474436
42.368770
58.189631
77.433586
93.392730
111.177564
118.587613
118.494630
109.242797
90.152621
73.972940
53.937435
40.445924
24.414659
18.040538
12.829900
11.112690
10.925531
10.892749
10.835528
11.552572
11.567473
11.406541
12.427568
12.122989
12.280941
12.361407
11.630654
11.863708
11.439919
11.573434
11.433959
11.401772
12.132525
12.142658
12.084842
12.920499
12.679696
13.164878
13.101697
13.542771
13.215542
12.319684
12.416840
11.970997
11.258721
11.465549
11.062622
10.942817
10.956526
10.879636
10.950565
11.106730
10.278821
10.852814
11.317730
10.908842
10.675788
11.291504
10.991693
##ZVALUE=280
0.526905
0.781417
0.609756
0.676513
0.518560
0.745654
0.673532
0.556707
0.613928
0.726581
0.850558
0.752807
0.976920
0.884533
0.835657
0.990629
0.927448
1.129508
1.110435
1.297593
1.574755
1.701713
7.579923
25.610924
91.274977
178.762674
363.995433
577.683449
888.278484
1015.772820
1015.772820
1015.772820
1015.772820
923.620462
682.843924
396.143794
237.873793
106.705427
52.999854
32.593608
38.360953
57.452917
73.957443
95.111728
107.403994
116.035938
116.000772
103.590488
90.610981
69.587827
54.499507
36.210418
27.275681
17.984509
14.277697
11.990666
11.620522
11.634827
12.120605
11.651516
12.109876
12.069941
11.699796
12.153983
11.893511
11.898875
11.780858
11.866689
11.905432
11.952519
12.159944
12.626648
12.621880
13.316870
13.264418
12.086630
12.835860
12.241602
12.194514
11.763573
12.022853
11.235476
11.488795
11.169910
11.218786
10.768771
10.644794
10.573864
10.387897
10.128617
10.436773
10.395646
10.008812
10.390878
10.602474
10.283589
##ZVALUE=285
0.565648
0.683665
0.643730
0.681877
0.617504
0.605583
0.682473
0.725985
0.695586
0.738502
0.552535
0.801682
0.785589
0.669956
0.685453
0.814795
0.710487
1.124740
0.960827
1.058578
1.122952
1.254678
1.491904
1.561642
3.788471
12.929440
48.428774
111.044645
263.286829
439.759493
656.828880
969.607830
1015.776992
1015.776992
1015.776992
1015.776992
838.910937
525.306463
327.156782
152.722597
76.370835
30.981898
25.866628
36.366582
50.809979
74.535608
88.173747
103.454590
113.567710
111.186504
104.376674
90.024471
75.348616
54.043531
39.688945
26.473999
18.562675
15.476942
12.959838
12.529492
12.619495
12.474656
12.754798
12.442470
12.467504
12.183785
12.187958
12.977719
12.459755
12.658834
12.082458
12.883544
12.633801
13.159513
13.480783
12.878776
12.860894
12.552738
11.789799
11.534691
11.742711
11.524558
11.108518
10.807514
11.270642
10.625720
10.869503
10.788441
9.732842
10.482669
10.572672
10.535717
10.245442
10.452867
9.749532
10.133982
##ZVALUE=290
0.541806
0.410676
0.510812
0.641942
0.634789
0.660419
0.684857
0.633597
0.708699
0.607967
0.632405
0.556707
0.688434
0.712872
0.649691
0.832677
0.801682
0.715852
0.966787
0.850558
1.149774
1.080632
1.266599
1.516938
1.270771
1.757741
1.828671
5.433559
27.716756
70.332885
143.380761
334.936976
554.553866
904.693007
1015.778780
1015.778780
1015.778780
1015.778780
986.906886
674.051642
444.514751
220.296979
115.364790
43.215752
22.968650
23.354888
32.984614
49.477816
63.838959
84.969997
99.241734
109.037757
109.450817
101.552606
91.166496
70.529580
54.745674
38.987994
29.797554
20.346642
16.889572
13.824701
12.954473
12.542605
13.128519
12.853742
12.655854
12.570620
13.150573
13.311505
13.042688
13.497472
13.262630
13.155937
13.195872
12.960434
12.760758
12.236834
12.156963
12.033582
12.010932
11.610985
11.478662
10.978580
10.970831
10.906458
10.265708
10.903478
10.462999
10.475516
10.212660
10.562539
10.232925
10.243654
10.111928
9.753704
##ZVALUE=295
0.720620
0.816584
0.610948
0.526905
0.659823
0.598431
0.507832
0.684857
0.601411
0.557899
0.756979
0.594854
0.771880
0.705719
0.691414
0.848770
0.855923
0.732541
0.975728
0.917912
1.103878
0.899434
0.999570
1.015663
1.323819
1.334548
1.486540
1.763701
1.975894
3.057718
10.010600
45.994520
111.045837
400.280952
477.165580
925.599933
1015.870571
1015.870571
1015.870571
1015.870571
1015.870571
843.142867
590.579510
310.539007
174.570680
68.781972
30.706525
17.372966
21.320581
33.490658
45.442581
64.414740
79.863667
96.359849
102.821589
105.404854
98.878741
83.436966
71.137547
53.679943
41.371584
28.718710
22.252798
16.928911
15.030503
13.571978
13.561845
13.207793
13.257861
13.937950
13.694763
13.720989
13.603568
13.314486
13.938546
13.014674
13.104677
13.098717
12.753606
12.262464
12.021661
11.956692
11.987686
11.717677
11.617541
11.585951
11.630654
11.236668
10.511875
10.658503
10.781884
10.480881
10.540485
10.512471
10.508895
10.286570
##ZVALUE=300
0.404716
0.449419
0.580549
0.388622
0.754595
0.390410
0.538826
0.428557
0.512600
0.516772
0.541806
0.525713
0.552535
0.619888
0.717640
0.587702
0.641942
0.801682
0.653863
0.600815
0.634789
0.744462
0.950694
0.858903
0.921488
0.939965
1.207590
1.147985
1.446605
1.417994
1.533628
1.888871
6.359816
22.164583
83.940625
175.749660
389.547944
614.820719
941.475034
1015.774608
1015.774608
1015.774608
1015.774608
1005.811691
701.574087
470.448732
242.592692
134.041905
48.487782
21.162629
16.176701
20.727515
31.234622
42.051673
60.805678
74.672699
90.703964
100.079775
101.004839
97.085834
84.881783
71.161985
53.828955
41.980743
28.480887
21.887422
17.341971
14.903545
13.853908
13.262630
13.762712
13.064742
13.787746
13.487935
12.961626
13.452768
12.839437
13.061762
12.272596
12.173653
11.766553
12.018681
11.774898
11.093616
11.357665
11.111498
10.818839
11.267662
10.797977
10.888577
10.408759
10.602474
10.329485
10.590553
10.437965
10.047555
##ZVALUE=305
0.457764
0.413656
0.553727
0.542998
0.431538
0.430942
0.441670
0.592470
0.558496
0.442863
0.598431
0.351667
0.516772
0.448823
0.461936
0.511408
0.635982
0.520945
0.629425
0.506639
0.805855
0.885725
0.738502
0.771880
1.115799
0.904799
1.019835
1.065731
1.016855
1.228452
1.107454
1.476407
1.434684
1.754761
3.050566
12.234449
55.360794
128.440857
311.923623
507.479906
822.196603
1015.774012
1015.774012
1015.774012
1015.774012
1015.774012
863.237977
620.775819
341.839790
190.195441
72.050691
31.673908
15.139580
15.295744
21.850467
30.092597
44.873953
58.355927
73.811412
84.849000
95.600486
96.036792
89.627504
81.709623
65.840483
53.178668
38.139820
28.276443
20.603538
16.410947
14.567971
13.761520
13.109446
13.364553
12.846589
12.586713
12.565851
12.347698
12.410879
12.054443
11.810660
12.154579
11.702776
11.636615
11.622906
11.527538
11.002421
11.203885
10.903478
10.820627
10.191798
10.700822
10.381937
10.089874
9.858608
10.000467
##ZVALUE=310
0.358820
0.407696
0.554919
0.597835
0.479817
0.398755
0.358820
0.217557
0.353456
0.432730
0.526905
0.551939
0.447631
0.464916
0.561476
0.411868
0.647902
0.658631
0.498891
0.673532
0.648499
0.697970
0.647902
0.603795
0.614524
0.574589
0.634789
0.759959
1.024604
0.932813
0.766516
1.045465
1.097918
1.303554
1.470447
1.433492
1.882911
6.591678
23.597479
87.196827
182.056427
402.036905
629.676580
967.750549
1015.768647
1015.768647
1015.768647
1015.768647
1015.768647
767.646432
527.881980
274.619460
150.705576
53.849816
22.204518
13.462901
14.845729
20.657778
27.244687
40.029883
51.315427
68.457723
78.398585
86.832643
90.463758
83.937645
75.991750
63.139796
51.051974
35.385489
27.286410
19.840598
16.091466
13.874769
12.915730
12.307763
12.065768
11.903644
11.627674
11.171699
11.035800
11.099577
10.905862
11.008978
11.215806
10.901690
11.335611
10.948777
11.111498
11.159778
10.802746
10.819435
10.319948
10.546446
10.359883
10.237694
##ZVALUE=315
0.418425
0.434518
0.494719
0.420809
0.514984
0.479817
0.423789
0.434518
0.547767
0.313520
0.407696
0.472665
0.396967
0.446439
0.504851
0.631809
0.593662
0.377893
0.580549
0.518560
0.666976
0.513792
0.556707
0.645518
0.578761
0.608563
0.755787
0.687838
0.869632
0.850558
0.815988
0.875592
0.929832
1.110435
1.426935
1.245737
1.329780
1.502633
1.742840
3.258586
12.077689
53.746700
130.840540
326.146483
540.105700
886.847973
1015.803814
1015.803814
1015.803814
1015.803814
1015.803814
951.996446
697.636604
385.599732
206.615925
75.292587
29.969811
12.677908
12.264848
14.407635
17.701983
26.017427
34.675598
48.593879
59.182644
73.794723
80.832839
82.742572
80.435872
69.993734
59.762001
46.380758
36.179423
24.700761
18.570423
14.130473
12.543797
11.282563
11.079907
10.850430
10.949969
10.592937
10.695457
10.721684
11.018515
10.960698
10.615587
10.682940
10.602474
10.652542
10.436773
10.601878
10.327697
10.280609
10.144711
10.443926
##ZVALUE=320
0.338554
0.279546
0.342727
0.368953
0.403523
0.375509
0.263453
0.407696
0.377893
0.611544
0.561476
0.557899
0.621676
0.592470
0.454783
0.422597
0.461936
0.522733
0.553727
0.433922
0.564456
0.662804
0.488758
0.738502
0.615716
0.590682
0.624657
0.841618
0.833869
0.882745
0.769496
0.733733
0.982881
0.872612
1.095533
1.174808
1.119971
1.209974
1.399517
1.501441
1.737475
1.991987
7.129908
25.723577
101.064444
213.972926
450.983644
693.805814
1014.070511
1015.778780
1015.778780
1015.778780
1015.778780
1015.778780
772.801042
511.215925
239.465833
126.461983
46.278834
19.371510
10.579824
10.464787
12.216568
14.865994
22.134781
30.182600
42.108893
52.965879
67.352653
74.027777
77.549815
73.950887
65.778494
56.541562
42.374730
33.495426
23.616552
17.412901
13.477802
11.710525
10.748506
10.546446
10.137558
10.428429
10.263920
10.265708
9.989738
10.374784
10.501742
10.612607
10.155439
10.280609
10.212660
10.620952
10.233521
10.427833
##ZVALUE=325
0.403523
0.399947
0.383854
0.366569
0.348687
0.378489
0.313520
0.350475
0.571609
0.426769
0.366569
0.353456
0.514984
0.467896
0.601411
0.431538
0.430942
0.392795
0.416636
0.404716
0.439882
0.621676
0.394583
0.539422
0.439882
0.604987
0.636578
0.536442
0.558496
0.597835
0.787973
0.800490
0.706911
0.616908
0.645518
0.751615
0.843406
1.090765
0.994802
1.230836
0.948906
1.524687
1.505613
1.713634
3.236532
20.561814
57.175756
161.350965
303.424001
594.620705
859.355927
1015.774012
1015.774012
1015.774012
1015.774012
1015.774012
918.644667
580.461621
362.462401
159.068704
73.706508
22.135973
10.044575
8.071661
8.693933
10.198951
13.276935
20.209551
27.651787
40.468574
50.242543
62.562823
68.647861
71.785450
69.358945
59.606433
50.943494
38.776994
29.700994
20.735860
15.865564
12.362599
11.166930
10.082722
9.709597
10.067821
9.955764
10.121465
10.156631
10.427833
9.955764
10.168552
10.011792
9.930730
10.016561
9.998679
##ZVALUE=330
0.338554
0.434518
0.399947
0.402927
0.353456
0.318885
0.367761
0.344515
0.318885
0.352859
0.518560
0.312924
0.482798
0.375509
0.481606
0.401735
0.406504
0.339746
0.368953
0.270605
0.385642
0.387430
0.539422
0.671744
0.620484
0.674725
0.770688
0.456572
0.714660
0.521541
0.634789
0.669956
0.707507
0.575781
0.801682
0.772476
0.793934
0.957847
0.988841
1.003742
0.962615
1.078844
1.330972
1.401901
1.556873
1.688600
2.479553
6.215572
34.534931
90.488791
243.586898
427.592397
761.500001
1005.954742
1015.774608
1015.774608
1015.774608
1015.774608
1015.774608
901.144743
524.002910
298.359990
114.261508
45.449734
11.733770
7.848740
7.440448
8.046627
9.825826
12.932420
19.851923
26.486516
37.867427
46.672821
57.864785
63.152909
65.292716
63.525438
54.954886
46.961904
34.862757
28.099418
20.439625
16.180873
12.537837
11.234879
10.236502
9.857416
9.824634
9.733438
9.969473
9.847879
9.810925
9.785891
9.679794
10.027885
##ZVALUE=335
0.284910
0.356436
0.310540
0.234842
0.394583
0.236630
0.377893
0.400543
0.439882
0.344515
0.377893
0.565648
0.248551
0.431538
0.352859
0.173450
0.448823
0.369549
0.248551
0.316501
0.314713
0.249743
0.535846
0.355840
0.494719
0.598431
0.471473
0.709891
0.450611
0.455976
0.734925
0.620484
0.459552
0.565648
0.493526
0.675917
0.719428
0.688434
0.711679
0.829697
0.771880
0.947714
1.018643
1.038909
1.022816
1.340508
1.177788
1.688600
1.763701
4.055500
15.212893
63.209534
141.610503
333.416462
556.750894
917.974710
1015.774608
1015.774608
1015.774608
1015.774608
1015.774608
830.984712
575.842857
305.301547
164.051652
53.455830
19.194484
8.060932
7.461905
7.331967
7.966757
9.810925
12.417436
18.765926
25.041699
35.994649
44.532418
53.972602
60.578585
60.507655
58.486462
51.302910
44.626594
34.944415
28.405786
20.712614
16.515851
12.626648
11.374950
10.166764
9.509921
9.487867
9.485483
9.623766
9.348989
9.452701
##ZVALUE=340
0.297427
0.395775
0.224710
0.218749
0.352859
0.290871
0.349879
0.412464
0.339746
0.287890
0.415444
0.409484
0.373721
0.452995
0.415444
0.313520
0.227690
0.383854
0.452995
0.278950
0.330806
0.330806
0.345707
0.314713
0.542998
0.329614
0.399947
0.415444
0.514984
0.527501
0.588894
0.478625
0.440478
0.435710
0.440478
0.627637
0.632405
0.498891
0.658631
0.616908
0.673532
0.820756
0.830889
1.015663
0.954866
1.070499
1.096725
1.254678
1.332760
1.197457
1.320839
2.260804
6.858706
37.127733
95.458627
252.082944
450.488925
779.863000
1003.359556
1015.774608
1015.774608
1015.774608
1015.774608
919.940472
661.735535
350.998640
194.182992
78.042746
29.232502
9.137988
7.723570
6.849766
7.287860
8.006692
9.220839
12.517571
16.941428
24.374723
32.239556
43.293834
49.969554
55.517554
56.421757
54.798722
50.736666
41.784644
34.824610
26.206970
21.010637
15.537739
12.701750
10.608435
9.706616
9.224415
9.087920
9.022951
##ZVALUE=345
0.177622
0.239611
0.258684
0.297427
0.347495
0.300407
0.363588
0.330806
0.169873
0.381470
0.269413
0.170469
0.342727
0.294447
0.421405
0.385642
0.216961
0.373721
0.290871
0.415444
0.394583
0.324845
0.504851
0.398755
0.358820
0.294447
0.347495
0.445843
0.326633
0.475645
0.431538
0.569820
0.507832
0.577569
0.500679
0.628829
0.503659
0.513792
0.509620
0.661612
0.585914
0.688434
0.690818
0.646710
0.805855
0.659823
0.849962
1.045465
1.035929
1.063943
1.082420
1.269579
1.464486
1.819730
3.410578
21.955967
60.658455
165.850520
304.565430
581.734776
819.852948
1015.774608
1015.774608
1015.774608
1015.774608
1015.774608
812.009573
483.237505
277.838707
109.349489
47.441721
14.218688
8.045435
7.616878
7.067919
7.147789
7.645488
9.047985
11.160970
16.156435
22.140741
30.925870
37.708879
45.343637
49.710870
52.472949
51.508546
46.961904
41.565895
33.392906
26.850700
19.571781
15.524626
12.199879
10.614991
9.436607
##ZVALUE=350
0.239611
0.163913
0.130534
0.219941
0.286698
0.243783
0.296831
0.352859
0.216961
0.276566
0.384450
0.475645
0.311732
0.268817
0.340939
0.276566
0.351667
0.411868
0.520945
0.440478
0.355840
0.432730
0.496507
0.264645
0.338554
0.449419
0.283718
0.395775
0.412464
0.397563
0.491738
0.472665
0.450611
0.483990
0.490546
0.462532
0.521541
0.640750
0.543594
0.432730
0.493526
0.591874
0.671744
0.650883
0.669956
0.699759
0.698566
0.893474
0.868440
0.995994
1.019835
1.096725
1.225471
1.114607
1.288652
1.731515
2.017617
10.721684
35.573840
116.884708
226.368904
460.012555
684.427023
981.164575
1015.774012
1015.774012
1015.774012
1015.774012
892.978907
569.448471
350.636840
161.024928
73.469877
18.969774
8.876920
6.711483
6.690621
6.724596
6.345510
7.246733
8.227825
11.045933
14.298558
20.150542
25.959611
34.356713
39.694905
45.382977
47.729611
47.116876
44.420958
38.114786
32.372475
25.028586
20.093918
15.392900
##ZVALUE=355
0.288486
0.349879
0.484586
0.216961
0.320673
0.321865
0.337958
0.240803
0.377893
0.260472
0.346899
0.297427
0.287890
0.246763
0.304580
0.274777
0.215769
0.236630
0.368953
0.301600
0.348687
0.537634
0.415444
0.414848
0.331998
0.479817
0.319481
0.464916
0.334978
0.397563
0.560880
0.366569
0.498891
0.424981
0.519753
0.559688
0.624657
0.546575
0.435710
0.613928
0.550747
0.589490
0.826716
0.612736
0.677705
0.874996
0.718832
0.763535
0.867844
0.747442
0.943542
1.019835
1.173615
1.169443
1.209974
1.238585
1.525879
1.691580
1.918674
5.130768
18.945932
75.975657
159.859657
347.192883
562.391877
911.698937
1015.774012
1015.774012
1015.774012
1015.774012
1015.774012
723.607540
464.459658
204.802752
94.886422
26.240945
10.519624
6.731749
6.414652
6.410480
6.304979
6.741881
6.633997
7.852912
9.491444
12.953877
17.293692
24.098754
29.281974
35.804510
40.857792
43.532848
43.754578
40.367842
36.105514
29.630661
##ZVALUE=360
0.308752
0.286698
0.242591
0.237823
0.387430
0.218749
0.121593
0.202656
0.391603
0.381470
0.246763
0.258684
0.343919
0.430942
0.358820
0.353456
0.290871
0.334978
0.386834
0.427961
0.513792
0.395775
0.465512
0.481606
0.571609
0.363588
0.430942
0.396967
0.452995
0.422597
0.419617
0.510812
0.533462
0.360608
0.510812
0.380874
0.574589
0.561476
0.617504
0.580549
0.668764
0.550747
0.679493
0.719428
0.470877
0.661612
0.571609
0.703931
0.712872
0.763535
0.816584
0.860691
0.881553
1.112819
1.171827
1.080632
1.189709
1.431704
1.448989
1.613498
1.917481
2.698898
8.565784
40.047765
100.227594
258.951783
443.869829
747.720599
994.035602
1015.774012
1015.774012
1015.774012
1015.774012
830.072761
556.444526
271.120667
139.861703
48.133731
17.466545
6.989837
6.139874
5.887747
5.866885
6.089807
6.101727
6.280541
6.617904
8.639693
10.487437
14.527440
19.451976
26.043653
31.409860
36.340952
39.205551
40.006638
##ZVALUE=365
0.225902
0.319481
0.383854
0.380874
0.201464
0.329614
0.294447
0.225902
0.336766
0.282526
0.352859
0.503659
0.411868
0.195503
0.473857
0.247955
0.294447
0.261664
0.231862
0.392795
0.429749
0.344515
0.393987
0.538826
0.344515
0.408888
0.494719
0.380874
0.294447
0.242591
0.426769
0.389814
0.415444
0.497699
0.483990
0.484586
0.646710
0.546575
0.386834
0.447631
0.434518
0.630617
0.619888
0.590682
0.509620
0.572801
0.449419
0.554919
0.505447
0.692606
0.588894
0.776649
0.762939
0.920892
0.737906
1.074672
1.073480
1.126528
1.188517
1.223683
1.302958
1.521707
1.715422
2.090931
3.900528
21.589398
62.328577
180.465579
330.395699
603.452921
847.699642
1015.774012
1015.774012
1015.774012
1015.774012
857.247710
612.554550
336.410999
182.940960
66.677928
25.874972
7.824898
5.663633
5.473495
5.317926
5.328655
5.328655
5.261898
5.328655
6.118417
7.053614
9.380579
11.944771
16.594529
20.840764
26.954412
##ZVALUE=370
0.177622
0.188947
0.339746
0.292659
0.232458
0.283718
0.247955
0.277758
0.203848
0.132918
0.389814
0.170469
0.310540
0.180602
0.215769
0.306964
0.325441
0.194907
0.298619
0.498891
0.376701
0.237823
0.321865
0.334978
0.202656
0.260472
0.420809
0.326633
0.305772
0.421405
0.317693
0.401735
0.429749
0.541806
0.451803
0.370741
0.471473
0.355840
0.370741
0.448823
0.399947
0.644922
0.526905
0.614524
0.535846
0.601411
0.542998
0.434518
0.642538
0.512600
0.596642
0.618696
0.534654
0.732541
0.677705
0.856519
0.654459
0.966787
0.824928
0.761747
0.885725
1.067519
1.084805
1.354814
1.451969
1.603961
2.279878
11.286736
37.738681
124.255419
238.927603
468.926430
697.282553
998.768806
1015.771031
1015.771031
1015.771031
940.365791
701.687932
401.316881
227.626562
90.410709
39.361715
11.083484
5.957484
4.997849
4.901886
5.006790
4.652739
4.811883
4.748702
4.914999
5.196929
6.248951
7.580519
10.471940
##ZVALUE=375
0.300407
0.387430
0.348687
0.305772
0.301600
0.276566
0.246763
0.336766
0.356436
0.277758
0.251532
0.270605
0.320673
0.321865
0.199676
0.335574
0.428557
0.395775
0.422597
0.198483
0.354648
0.289679
0.356436
0.437498
0.305772
0.367761
0.357628
0.349879
0.336766
0.277758
0.322461
0.458956
0.393987
0.390410
0.464916
0.408888
0.517964
0.543594
0.500679
0.470877
0.354648
0.525713
0.409484
0.487566
0.473857
0.523925
0.436902
0.489950
0.661612
0.493526
0.634789
0.448823
0.624657
0.869632
0.622869
0.606775
0.765920
0.587702
0.694990
0.720620
0.757575
0.935793
0.923872
0.986457
0.997782
1.261830
1.400709
1.414418
1.735687
5.619526
20.901561
79.808831
171.040893
380.230546
590.877533
891.161561
1015.843749
1015.843749
1015.843749
1015.843749
845.134854
515.998006
324.623585
160.096884
78.582764
23.883581
8.957982
4.964471
4.697442
4.715919
4.782677
4.453659
4.663467
4.482865
4.659891
4.916787
##ZVALUE=380
0.025630
0.165701
0.280738
0.300407
0.373721
0.214577
0.287890
0.329614
0.176430
0.298619
0.190735
0.243783
0.137687
0.221729
0.206828
0.206828
0.179410
0.284910
0.340939
0.238419
0.195503
0.301600
0.224710
0.316501
0.234842
0.232458
0.276566
0.255704
0.303984
0.337958
0.216961
0.423789
0.246763
0.196695
0.351667
0.242591
0.214577
0.349879
0.398755
0.255704
0.448823
0.262856
0.356436
0.619888
0.383854
0.406504
0.432730
0.514984
0.454783
0.404716
0.367761
0.358820
0.429749
0.470877
0.494719
0.476837
0.514984
0.593662
0.528693
0.665784
0.513792
0.748634
0.709891
0.711679
0.849962
0.767708
0.849962
1.083612
1.192689
1.494884
1.815557
3.079772
11.269450
54.695010
128.105879
306.543708
509.020686
823.150873
1015.774608
1015.774608
1015.774608
1015.774608
987.710953
695.220828
462.329984
228.693485
116.483569
40.136576
15.467405
5.361438
4.365444
4.145503
4.278421
4.204512
4.115701
3.950596
##ZVALUE=385
0.234842
0.220537
0.250936
0.188947
0.269413
0.174642
0.166893
0.080466
0.096560
0.233650
0.170469
0.269413
0.179410
0.266433
0.201464
0.223517
0.261664
0.241995
0.318885
0.169873
0.096560
0.170469
0.193715
0.268817
0.191927
0.143647
0.392795
0.366569
0.288486
0.304580
0.139475
0.218749
0.323653
0.237823
0.379682
0.326633
0.360608
0.267625
0.416636
0.359416
0.305772
0.342727
0.360608
0.394583
0.255704
0.420809
0.322461
0.241995
0.321865
0.490546
0.383854
0.421405
0.443459
0.575781
0.494719
0.403523
0.652671
0.501871
0.493526
0.567436
0.561476
0.687838
0.536442
0.636578
0.702739
0.635982
0.896454
0.798702
0.935793
1.042485
1.222491
1.347661
1.625419
1.836419
6.353855
23.590922
87.464452
186.198950
409.101844
634.030700
945.663452
1015.774012
1015.774012
1015.774012
1005.174518
825.361013
527.845621
337.153673
153.348446
75.707436
25.050640
8.862615
4.193783
3.863573
3.856421
3.720522
##ZVALUE=390
0.195503
0.225902
0.230670
0.200868
0.294447
0.295639
0.140667
0.107884
0.072718
0.277758
0.211596
0.206828
0.200868
0.235438
0.200868
0.197887
0.227690
0.163913
0.188947
0.170469
0.130534
0.111461
0.362992
0.269413
0.276566
0.180602
0.416636
0.328422
0.160933
0.188947
0.319481
0.117421
0.199676
0.265837
0.150800
0.312924
0.379682
0.223517
0.221729
0.326633
0.343919
0.324845
0.412464
0.308752
0.358820
0.357628
0.393987
0.404716
0.377893
0.415444
0.438690
0.457764
0.299811
0.352859
0.543594
0.454783
0.361800
0.635982
0.609756
0.410676
0.533462
0.573993
0.755787
0.633597
0.616908
0.669956
0.667572
0.893474
0.978708
1.044869
1.198649
1.173615
1.224875
1.439452
1.552701
1.478791
2.902746
13.137460
61.149001
141.372681
338.385701
541.461706
822.402835
1009.867787
1015.774012
1015.774012
1015.774012
975.934863
677.108765
456.632972
236.377716
122.749805
42.204857
15.588999
4.846454
3.873706
##ZVALUE=395
0.211596
0.224710
0.126958
0.188947
0.224710
0.150800
0.200868
0.265837
0.160933
0.075698
0.236630
0.126958
0.295639
0.158548
0.297427
0.185966
0.227690
0.276566
0.264645
0.135899
0.331998
0.246763
0.223517
0.275970
0.304580
0.281930
0.414848
0.209808
0.153780
0.195503
0.256896
0.214577
0.258684
0.307560
0.254512
0.396967
0.226498
0.341535
0.406504
0.261664
0.345707
0.321865
0.202656
0.391603
0.412464
0.460744
0.322461
0.364780
0.263453
0.445843
0.478625
0.362992
0.419617
0.597835
0.379682
0.418425
0.545979
0.478625
0.477433
0.626445
0.624657
0.386834
0.562668
0.662804
0.501871
0.590682
0.670552
0.732541
0.964999
1.120567
1.014471
1.230836
1.142621
1.098514
1.020432
1.357794
1.198649
1.435876
1.744628
8.885860
32.747984
114.883780
224.988461
452.512503
673.851967
983.732939
1015.774012
1015.774012
1015.774012
1015.774012
898.904800
561.454892
354.396701
169.197917
78.633428
23.845434
##ZVALUE=400
0.027418
0.205636
0.026822
0.208616
0.293851
0.125766
0.220537
0.227690
0.313520
0.157952
0.255704
0.226498
0.164509
0.264645
0.143647
0.263453
0.283718
0.225902
0.101924
0.255704
0.170469
0.224710
0.258684
0.292659
0.288486
0.267625
0.268817
0.187755
0.224710
0.151992
0.214577
0.273585
0.219941
0.302792
0.199676
0.269413
0.282526
0.271797
0.204444
0.229478
0.218749
0.309944
0.295639
0.480413
0.383854
0.295639
0.394583
0.383854
0.462532
0.215769
0.445843
0.505447
0.473857
0.542998
0.448823
0.375509
0.441670
0.368953
0.425577
0.568628
0.399947
0.449419
0.562668
0.607967
0.555515
0.677705
0.663996
0.748634
0.840425
0.948906
0.859499
0.953674
1.145601
1.127720
0.971556
1.021624
1.060963
1.221895
1.385808
1.414418
1.747608
5.467534
20.074844
69.304705
149.580836
347.622633
570.252538
898.594856
1015.774012
1015.774012
1015.774012
1015.774012
971.634984
644.118786
426.753759
213.180780
##END
