##TITLE=QP00601
##FORMAT=SPECTACLE-ASCII V-1.2
##DATA TYPE=ULTRAVIOLET SPECTRUM
##SECOND TYPE=ULTRAVIOLET SPECTRUM
##DATE=11/14/17
##TIME=15:26:53
##SPECTROMETER/DATA SYSTEM=SPECTACLE
##XUNITS=NM EM
##YUNITS=ENERGY
##YFACTOR=1
##FIRSTX=220
##LASTX=410
##NPOINTS=96
##3DDATA=Equidistant
##ZUNITS=NM EX
##FIRSTZ=210
##LASTZ=400
##ZPOINTS=39
##XYDATA=(Y..Y)
##ZVALUE=210
4.590750
4.006624
3.164411
4.437566
3.187656
3.525615
4.304647
4.248619
4.556775
3.993511
2.798438
3.053546
2.857447
2.512932
3.118515
2.993941
2.890825
3.355742
3.786683
3.068447
3.386736
3.396869
3.838539
3.583431
4.362464
4.792809
4.940629
4.511476
4.666448
5.622506
5.639791
5.098581
4.853606
5.800724
5.322695
6.050467
6.530881
6.225705
6.667972
6.483793
5.951524
5.987883
6.671548
7.087588
6.751418
6.391406
6.906986
6.447434
6.987453
6.615520
7.456541
7.538795
7.371902
7.312894
7.233620
7.741451
7.815957
7.963777
7.905960
7.896423
7.055998
7.305741
9.641647
8.301735
8.307695
8.480549
9.315610
8.840561
9.573698
13.159513
13.161898
17.262697
18.885732
21.177530
20.701885
25.099516
24.638772
26.415586
26.121736
22.667646
21.232963
21.859407
18.369555
18.914938
16.856790
14.232993
12.309551
10.638833
10.240674
9.122491
7.550716
7.591844
7.368922
8.342862
9.759665
10.703802
##ZVALUE=215
12.582541
12.156963
11.542439
9.813905
8.345842
8.565784
6.755590
5.839467
8.277893
7.051826
7.950664
7.098913
5.686879
4.738569
3.757477
3.173947
3.149509
3.222823
3.326535
3.491640
3.856421
4.059672
4.356503
4.711747
3.969669
4.533529
5.369782
5.518794
5.519986
5.624890
5.789995
6.161928
6.695986
6.985664
5.627871
6.856918
6.618500
6.173849
6.774664
6.643534
6.444454
6.554723
6.800890
8.020997
6.546974
8.247495
8.211732
7.607937
8.528829
8.940697
7.433891
7.249713
8.570552
9.132624
8.308887
7.930994
8.277893
9.439588
8.269548
8.952618
8.442998
10.247827
9.489655
8.709431
9.996891
10.238886
10.256767
10.394454
11.439919
12.562871
13.794899
17.718673
19.863844
21.865964
21.811724
24.009943
24.532676
22.932887
24.140477
21.819472
22.005439
19.174814
19.639730
18.806458
17.613769
13.475418
12.574792
10.689497
9.622574
9.417534
9.448528
8.947849
7.543564
8.201599
7.988811
8.594990
##ZVALUE=220
28.826594
29.382706
34.228563
36.777854
37.330985
32.715797
25.279522
20.150542
14.978647
13.268590
12.875795
15.954971
14.350414
13.665557
11.695623
9.062886
6.832480
6.353855
5.511642
3.993511
3.929734
5.062819
4.813671
4.898906
4.539490
4.969835
4.835725
5.478859
5.870461
6.971955
5.614758
5.413890
5.817413
6.354451
7.287860
6.675720
8.015633
7.646680
7.300973
7.542968
7.491708
8.492470
7.324815
8.431673
7.339716
8.046627
8.504987
8.072853
8.363724
8.713603
9.082556
8.668900
9.134412
9.814501
9.553432
10.493994
9.040833
9.541512
9.883642
10.094643
10.391474
9.127855
9.236932
9.613633
10.224581
11.155605
11.939406
11.856556
13.549924
14.722943
15.130639
17.859936
20.682812
22.401810
23.248792
25.943518
25.862455
26.555657
26.338696
22.269487
24.887919
23.578405
19.952655
19.436479
18.522739
16.328692
15.041828
14.178753
12.245774
11.208653
11.351705
10.192990
9.287596
9.652972
9.614825
9.611845
##ZVALUE=225
39.801002
41.020513
58.433414
81.503987
93.808770
95.245838
98.813772
85.530877
66.236854
49.634576
33.449531
25.872588
25.847554
27.723908
26.283860
27.142763
21.913648
19.920468
15.699863
9.233952
7.487535
5.928874
5.669594
4.657507
5.814433
5.510449
5.373955
5.929470
6.435513
6.675720
6.959438
6.585717
6.952882
6.864667
7.649660
8.291602
7.082820
8.285642
7.716417
8.097887
8.658767
8.555651
8.009672
9.624958
8.232594
9.463429
9.244680
10.018945
9.434819
10.069609
10.120869
10.588765
10.510683
11.171699
11.958480
10.869503
11.739731
11.869669
12.529492
12.651682
11.172891
11.374950
11.964440
11.861920
12.663603
14.339685
14.682412
14.273524
15.366673
15.180707
17.695427
19.992590
20.451546
23.817420
25.038719
26.201606
25.484562
26.751757
26.404858
24.303794
22.941828
22.468567
20.323992
20.259619
19.149780
17.503500
15.677810
15.027523
15.131831
13.490915
13.396740
13.802648
13.806820
13.412833
12.600422
11.800528
##ZVALUE=230
29.973984
31.125546
64.941645
97.981691
154.054761
190.727711
225.442648
238.269567
229.979753
192.574859
135.022998
97.830892
75.050592
47.567487
41.332841
46.576858
45.621991
46.053529
42.008758
33.644438
27.152896
24.122596
13.034940
9.313822
6.901622
6.799698
5.997419
6.494522
6.334782
7.080436
6.798506
8.176565
8.000731
8.362532
8.724928
7.745624
9.262562
7.876754
7.733703
9.919405
10.036826
8.685589
9.454489
9.344816
8.972883
10.026693
8.878708
10.291934
10.935664
11.500716
11.970997
12.307763
12.220740
12.022853
12.873411
12.267828
15.393496
14.471412
14.820695
14.877915
16.168952
15.750527
15.769601
16.057491
17.181635
15.918612
18.466711
18.513799
18.799901
19.661784
21.198988
22.000670
26.690960
28.897524
28.283596
30.156970
31.817555
28.307438
30.132532
28.754473
28.526783
27.215481
23.344755
24.025440
21.981597
22.046566
20.226836
19.572973
18.249750
18.245578
17.777681
16.976595
16.379952
15.985966
16.772747
16.824603
##ZVALUE=235
8.063912
8.598566
26.903749
52.907467
116.767883
184.405446
293.151736
385.957956
458.545685
481.140614
440.371633
361.880660
282.111764
174.896717
121.251941
72.851777
64.491630
64.310431
72.851777
73.598623
70.172548
61.717629
49.439669
38.900971
25.099516
18.192530
13.084412
10.416508
7.682443
8.607507
7.951856
8.942485
8.909702
8.102655
8.680820
8.894801
8.722544
9.207726
8.993745
9.734631
9.441972
10.106564
10.170937
9.572506
10.551810
9.987950
10.120869
11.585951
12.022853
11.481643
12.991428
12.692809
12.898445
15.236735
14.394522
14.940500
17.250776
16.938448
16.741753
18.686652
18.101931
19.382834
19.946694
20.990968
21.133423
21.728873
22.276640
22.748709
23.445487
26.091933
26.134849
28.210878
29.538870
31.822920
33.508539
34.416914
34.695864
34.553409
32.503605
35.984516
33.374429
33.456683
31.460524
28.352737
28.931499
27.332902
27.068853
25.237799
25.137663
24.530888
24.203658
23.323894
22.911429
22.448897
21.855831
23.862720
##ZVALUE=240
1.748800
2.168417
3.764629
13.559461
30.152798
76.659918
148.089528
284.379721
423.219800
556.043983
697.674751
734.367967
673.591495
575.075746
423.792601
286.664963
163.536668
113.173723
85.688829
76.797605
81.144571
93.525648
94.422698
88.308454
76.922774
61.377883
43.664575
32.421947
23.665428
17.505884
12.770891
10.196567
10.899901
10.809898
10.655522
10.447502
10.817647
10.725856
9.505749
10.574460
9.459853
11.013746
10.557771
9.967685
8.698702
10.494590
10.120869
11.178851
11.258721
12.636781
14.245510
13.603568
14.031529
16.358495
15.720725
18.029809
17.133951
19.216537
18.704534
21.069646
20.992756
21.527410
20.384789
22.738576
23.271441
24.054646
25.618672
27.035475
26.066899
28.713942
31.891465
31.674504
32.639503
32.814741
35.967827
37.874579
37.270784
38.078427
36.460757
35.216808
36.139488
33.260584
32.801628
33.079982
31.883717
32.063723
30.195713
29.421449
28.744936
28.022528
27.741790
26.617646
25.815964
26.837587
26.596785
26.524663
##ZVALUE=245
1.504421
1.633763
1.789927
2.055764
3.280640
8.194447
29.120445
64.059496
166.889429
279.657841
499.262810
667.974949
809.772611
904.659033
893.575549
755.415559
613.384843
409.676433
270.830989
146.247745
97.504854
77.971816
86.419582
101.911426
104.577541
106.631517
98.711848
87.014437
67.361593
51.223636
35.801530
26.102662
20.687580
13.311505
11.482835
10.165572
10.666847
9.470582
9.141564
10.532737
9.889603
9.494424
8.020997
9.063482
8.578897
9.109974
8.971691
9.548664
10.048747
11.519790
12.587905
12.454987
12.830496
13.706684
14.754534
16.609430
15.866756
16.797781
18.097758
20.135641
19.418597
19.642711
20.556450
19.548535
20.665526
21.245480
22.291541
22.507906
23.595691
25.827885
26.097894
26.696920
28.938651
29.355884
31.846762
31.608939
32.387972
33.326745
33.173561
33.103824
31.926632
30.522943
31.635761
28.561950
30.851960
30.588508
28.276443
27.693510
27.725697
26.279688
26.944876
27.702451
25.727749
26.926994
25.563836
25.388598
##ZVALUE=250
1.652837
1.934767
1.688600
1.487732
1.795888
1.694560
2.366900
5.526543
22.993684
52.583814
149.770975
275.499821
437.526703
694.999695
886.121988
1015.774012
1015.774012
974.936485
831.816792
566.169620
376.401544
234.515667
117.893815
82.365870
80.470443
91.698766
108.813643
114.112496
114.720464
104.671717
95.275640
71.726441
58.006644
36.651492
25.865436
17.651916
12.783408
9.918809
8.988976
9.523630
8.744597
9.265542
8.471608
8.032918
8.109808
7.392764
8.936524
9.113550
8.793473
8.721948
9.623766
10.478497
11.761785
12.849569
13.140440
13.482571
13.518929
14.958978
14.835596
15.080571
16.386509
17.795563
16.904473
17.089844
16.809702
18.464923
18.912554
18.761754
20.175576
21.375418
21.755695
23.193955
24.161935
25.896430
27.268529
27.382970
29.033422
27.989745
28.083920
27.201772
26.633739
25.563836
27.151704
27.123690
26.430488
26.070476
25.972724
25.301576
25.665760
24.506450
24.856925
24.089813
23.930669
23.331642
24.004579
24.534464
##ZVALUE=255
1.291633
1.377463
1.443624
1.409650
1.485944
1.748800
1.946688
2.031922
1.780987
4.169941
11.364818
46.227574
101.552010
242.792964
398.677588
663.800836
883.738995
1015.771627
1015.771627
1015.771627
1015.119553
830.657482
517.852902
317.167640
157.780647
99.408627
70.955753
76.794624
98.893642
107.466578
117.200613
118.256807
106.599927
93.157887
75.853467
53.961873
37.729740
22.829771
16.568899
9.895563
8.286834
7.133484
7.507801
7.269979
8.041859
8.023977
7.866621
8.153915
8.183718
8.200407
9.828806
9.135604
10.044575
11.052489
11.205673
11.452436
10.819435
12.050867
13.051629
12.382865
12.823939
12.228489
13.563633
13.979673
14.756918
14.923811
15.160441
14.484525
17.083883
17.105937
19.325614
19.020438
20.696521
21.644831
22.520423
22.646785
23.171902
23.686886
23.915768
23.599863
22.882819
22.478700
22.593737
22.560954
22.420883
21.824837
21.204948
21.342635
22.049546
21.609664
21.645427
21.990538
21.172762
21.545887
20.974874
21.681786
##ZVALUE=260
1.241565
1.015663
1.256466
1.239777
1.245737
1.351833
1.403689
1.475811
1.496673
1.709461
1.930594
2.543926
6.015897
26.635528
66.582561
177.369714
316.439867
572.932959
816.575885
1015.789509
1015.789509
1015.789509
1015.789509
1009.118557
686.193705
461.757779
254.526734
146.692991
74.465871
63.771605
72.391629
93.240738
105.594993
117.708445
115.311742
108.689666
93.427896
71.199536
54.711699
34.831762
23.248792
13.858676
9.757876
7.783771
7.799864
7.166862
6.886721
7.485747
7.745624
7.870793
9.043813
9.731650
9.677410
10.024905
10.359883
10.723472
10.880828
10.463595
10.922551
11.463761
12.206435
12.551546
13.009906
13.319850
12.924671
13.019443
13.791919
14.115572
15.408993
15.581846
16.102791
17.666817
17.698407
19.853711
19.416809
18.939972
19.829869
20.627975
20.967722
19.503832
19.079447
19.219518
19.461513
19.541979
18.409491
19.756556
18.554926
18.872619
18.452406
19.114614
19.558668
18.932819
19.607544
19.265413
18.672943
18.950701
##ZVALUE=265
1.101494
1.143813
1.131892
0.895858
1.209974
1.218915
1.490712
1.150966
1.531839
1.416802
1.646876
1.656413
1.747608
2.149940
4.291534
14.618635
56.463480
121.636987
230.327845
489.209890
761.975646
1015.774012
1015.774012
1015.774012
1015.774012
1015.774012
948.394537
595.073700
380.375981
190.358758
104.844570
58.720708
58.407784
79.841614
95.718503
112.894773
118.934512
117.796659
107.106566
88.223815
72.029829
49.095750
36.488771
20.909905
14.409423
8.888841
7.375479
7.052422
8.111000
8.485913
8.001924
9.072423
9.556413
10.234714
10.497570
10.651946
10.644794
11.459589
12.526512
12.217760
12.858510
12.340546
12.904406
13.268590
12.807846
14.093518
13.317466
14.308691
15.223622
14.806986
16.213655
16.185641
17.438531
18.097758
17.978549
18.764734
17.924905
18.372536
18.945932
18.881559
17.605424
18.116832
18.062592
17.274618
16.880631
17.585754
17.059445
17.840862
16.843677
17.931461
17.018914
17.522573
17.339587
16.940832
17.125607
17.120838
##ZVALUE=270
0.911951
1.026988
1.077652
1.150966
0.985861
1.052618
1.112819
1.312494
1.322627
1.420975
1.685619
1.694560
1.613498
1.483560
1.510978
2.114773
2.462864
7.990599
25.484562
91.681480
196.877718
372.104645
716.580749
992.622972
1015.848517
1015.848517
1015.848517
1015.848517
1015.848517
897.544026
601.752996
306.079984
165.298581
69.431663
48.369765
58.043599
75.465441
98.340511
111.023784
119.840503
119.303465
109.126568
93.235970
70.552826
53.600669
33.362508
22.605658
14.323592
11.408925
9.409785
9.111762
9.421706
9.853840
10.851622
11.400580
11.676550
11.967421
11.905432
12.741685
13.143420
13.144612
13.457537
13.235807
14.770627
14.397502
14.310479
14.711618
14.849901
15.290976
15.613437
15.759468
17.450452
17.392635
18.038750
17.780662
17.554760
17.947555
18.087626
17.593503
17.891526
17.129779
17.288923
17.523766
16.939640
17.386675
17.135739
16.035438
17.036796
15.830994
17.053485
16.576648
17.225742
16.081929
17.186999
15.993714
16.690493
##ZVALUE=275
0.739694
1.079440
1.066923
0.869632
1.090765
1.033545
0.992417
0.994802
1.066923
1.028776
1.150966
1.172423
1.344681
1.270771
1.255870
1.549721
1.853704
1.886487
1.821518
3.904700
15.299916
46.572685
152.757764
305.255651
623.811483
906.675458
1015.783548
1015.783548
1015.783548
1015.783548
1015.783548
1015.783548
786.541700
412.751436
234.633684
94.679594
51.734447
42.602420
54.329634
76.018572
92.128515
111.122727
117.313862
116.951466
107.059479
86.805820
73.195696
53.480864
38.415790
24.634600
17.769933
13.086796
11.817813
11.380911
11.902452
12.148619
12.601614
13.706684
14.056563
14.657974
14.822483
15.380979
14.617443
15.436411
15.345812
15.660524
15.175939
15.808940
16.257763
17.094612
16.662478
17.378926
18.259883
18.000603
18.732548
18.062592
18.833876
18.655658
18.824935
17.706752
17.662644
17.873645
17.095804
16.694665
16.733408
16.749501
16.565919
15.846491
15.653968
16.205907
16.703606
15.497804
15.844703
15.946627
16.244650
16.031861
##ZVALUE=280
0.905991
0.832677
0.838637
0.925660
0.838637
0.794530
0.966787
0.947714
0.953674
0.844598
1.082420
0.966787
0.967979
1.142621
1.198649
1.285672
1.480579
1.640916
1.467466
1.643896
1.969934
2.459884
9.868741
34.821630
119.405985
235.335827
473.351479
737.031698
1015.774608
1015.774608
1015.774608
1015.774608
1015.774608
1015.774608
927.442908
524.356961
309.553742
131.177902
64.165592
33.640862
37.665963
56.473613
73.433518
93.797445
106.914639
115.569830
113.522410
103.901625
90.272427
70.163608
54.231882
38.026571
27.736425
19.832850
15.888810
14.365911
13.908744
14.355779
15.803576
16.404986
16.392469
16.683936
16.534925
16.813874
16.642809
16.693473
17.053485
17.559528
17.096996
17.449856
18.300414
18.471479
19.045472
18.801689
19.030571
18.847585
18.865466
17.718673
17.960668
17.942786
17.464757
17.386675
17.410517
16.892552
16.373992
16.634464
16.447902
16.681552
15.820861
16.468763
15.532970
15.479922
15.590787
15.876889
15.311837
15.258789
##ZVALUE=285
0.770688
0.695586
0.840425
0.807643
0.886917
0.864863
0.878572
0.826716
0.754595
0.845790
0.804663
0.809431
0.926852
0.888705
1.065731
1.276731
1.109838
1.234412
1.422763
1.449585
1.499653
1.954436
1.915693
2.030730
4.869699
17.115474
64.612627
145.977736
345.736742
572.690964
846.377611
1015.774012
1015.774012
1015.774012
1015.774012
1015.774012
1015.773416
718.508959
442.084670
201.223493
99.809766
37.817955
26.516914
37.515759
50.956607
71.582794
87.157488
104.143620
111.781955
111.275911
104.165673
91.718435
77.944994
57.455897
43.799877
30.967593
24.076700
19.288659
18.888712
18.208623
18.064976
18.382668
19.143820
19.384623
19.333959
18.957853
19.409657
19.622445
19.969940
19.578934
20.312667
19.332767
20.733476
20.083785
20.010471
20.231605
19.495487
20.167828
19.042492
18.857718
18.392801
17.877817
17.888546
16.809702
17.011762
17.042756
16.871691
16.694665
16.321540
15.939474
16.041994
15.508533
15.002489
14.778972
14.855862
15.295744
##ZVALUE=290
0.678897
0.809431
0.776649
0.750422
0.861883
0.584722
0.528693
0.719428
0.561476
0.748634
0.842810
0.859499
0.943542
0.916719
0.827909
0.975728
1.197457
1.333952
1.200438
1.199841
1.371503
1.520514
1.367927
1.876950
1.959801
2.070665
2.981424
7.397532
35.203695
89.322925
191.612840
436.669588
714.714527
1015.774012
1015.774012
1015.774012
1015.774012
1015.774012
1015.774012
897.206664
591.158867
292.851925
151.122808
53.458810
25.135875
24.673939
33.416748
49.984455
65.821409
87.306499
101.413727
112.064481
112.041831
104.769468
94.356537
75.515509
60.173869
45.370460
36.263466
27.642846
24.376512
21.883845
21.830797
21.420717
21.157861
22.005439
21.839738
21.497607
21.846890
21.943450
22.372603
21.807551
21.606684
21.834970
21.740794
20.718575
21.088719
19.965768
19.700527
19.395947
18.733740
18.364787
18.184781
18.026829
17.571449
17.057657
16.589761
16.600490
16.461611
16.310811
16.099811
15.665889
15.565753
14.894605
15.116930
15.307665
##ZVALUE=295
0.685453
0.569820
0.675917
0.665784
0.680685
0.730753
0.945926
0.641942
0.624657
0.803471
0.702739
0.781417
0.810623
0.789762
0.846982
0.790954
0.952482
1.009703
0.965595
1.159906
1.107454
1.142621
1.179576
1.494884
1.300573
1.564622
1.746416
2.091527
2.419949
3.798604
17.763972
54.421425
132.833719
344.282985
586.753488
980.398655
1015.774608
1015.774608
1015.774608
1015.774608
1015.774608
1015.774608
751.975775
381.739736
208.762884
77.108741
33.544898
18.914938
23.033619
35.149455
48.110485
68.151951
81.948638
100.413561
108.316541
111.023784
105.361938
90.560913
78.456998
62.138438
50.128698
37.887692
31.249523
26.210546
23.995638
23.645759
23.112893
23.281574
23.128986
23.170710
23.124814
23.188591
23.039579
22.940636
22.195578
22.135973
21.729469
20.825863
20.491481
20.134449
20.008683
19.602776
19.007921
17.850995
17.972589
18.105507
17.898679
17.278790
16.751885
17.024875
16.812682
16.364455
15.749931
15.675426
15.234947
15.275478
##ZVALUE=300
0.740886
0.713468
0.495911
0.603795
0.601411
0.722408
0.652671
0.700951
0.733733
0.736713
0.739694
0.776649
0.718832
0.555515
0.910759
0.738502
0.726581
0.790954
0.883937
1.049638
1.107454
1.014471
0.991821
1.246929
1.344681
1.379848
1.529455
1.637936
1.788735
1.830459
1.889467
2.505779
5.767941
34.702420
91.629624
246.953964
443.432927
809.356570
1015.774012
1015.774012
1015.774012
1015.774012
1015.774012
1015.774012
938.490033
535.426736
314.778686
138.274431
64.648986
23.795962
19.229650
26.198626
34.405589
50.536990
63.836575
84.652901
96.660852
106.134415
109.136701
103.525519
95.011592
79.061985
66.319704
50.498843
40.579438
31.495690
28.253794
24.874806
23.729801
23.627877
24.168491
23.488998
23.370981
23.416877
22.857785
22.750497
21.698475
21.109581
20.960569
20.819902
20.905733
20.107627
19.123554
18.927455
18.659830
18.093586
18.285513
17.836690
16.720891
16.761422
16.737580
16.095638
15.912652
15.783906
15.779734
15.194416
##ZVALUE=305
0.623465
0.612736
0.726581
0.753999
0.670552
0.531673
0.621676
0.558496
0.543594
0.589490
0.709891
0.713468
0.767708
0.782609
0.678897
0.758767
0.802875
1.030564
0.848770
0.778437
0.754595
0.821948
1.024604
1.133680
0.991821
1.096725
1.329780
1.318455
1.473427
1.372695
1.424551
1.849532
1.721978
2.274513
3.595948
20.272732
60.415864
177.775025
337.443948
672.831535
970.649719
1015.774608
1015.774608
1015.774608
1015.774608
1015.774608
1015.774608
712.185502
446.603894
205.927491
103.288889
37.542582
21.728873
22.448897
27.111769
38.520694
50.983429
67.961812
81.700683
96.013546
103.138685
104.820728
99.336505
87.581873
75.750947
59.494972
48.945546
37.186742
31.507611
26.249886
24.065971
23.363829
22.625923
22.524595
22.191405
21.834970
21.615624
20.877719
20.482540
19.998550
20.034909
19.903779
19.479990
18.962622
18.230677
18.019676
18.405914
17.883778
17.701983
17.168522
16.750693
16.469955
15.954971
15.975833
15.687943
15.236735
##ZVALUE=310
0.480413
0.525713
0.436902
0.424981
0.477433
0.561476
0.709891
0.726581
0.764728
0.683665
0.495911
0.579953
0.575781
0.692606
0.782609
0.784993
0.659823
0.787973
0.843406
0.823736
0.757575
0.819564
0.864863
0.888705
0.830889
1.112819
0.982881
0.918508
0.972748
1.275539
1.540780
1.424551
1.788735
1.656413
1.961589
1.863837
5.500913
7.272959
37.170649
96.956491
381.934643
494.661927
975.786448
1015.781760
1015.781760
1015.781760
1015.781760
1015.781760
1015.781760
987.522006
376.696587
333.005786
152.626634
71.735978
25.892854
18.997788
23.358464
26.654601
33.021569
57.351589
58.785677
74.277520
92.919469
94.599724
95.383525
93.042850
83.851814
73.992610
56.229830
42.213798
35.813451
25.870800
24.607778
22.349954
20.762682
20.222664
19.346476
19.608736
19.028783
19.003749
19.347668
18.798709
18.296838
18.293858
18.312931
18.196702
17.530918
17.865896
17.274618
16.863942
17.268658
16.218424
16.240478
16.121864
15.682578
15.758872
##ZVALUE=315
0.739694
0.498891
0.485778
0.486970
0.401735
0.522733
0.476837
0.648499
0.477433
0.569820
0.497699
0.601411
0.629425
0.677705
0.597835
0.631809
0.801682
0.673532
0.523925
0.673532
0.910759
0.809431
0.996590
0.928640
0.760555
1.005530
0.780821
0.985861
1.322627
1.094937
0.759959
1.075864
1.138449
1.185536
1.304746
1.505613
1.754761
1.742840
2.325773
3.546476
21.022558
60.465932
177.601576
339.671969
689.476728
987.851024
1015.774012
1015.774012
1015.774012
1015.774012
1015.774012
1015.773416
753.550529
473.626852
221.352577
109.230876
36.499500
19.768476
17.817616
19.624829
24.429560
29.977560
41.510463
51.940680
68.240762
77.767968
86.385608
89.411736
84.951520
77.442527
64.868927
53.818822
40.451884
33.019781
25.551915
22.715926
19.736886
18.994808
17.787814
17.998815
17.653704
17.900467
17.897487
17.414689
17.757416
17.535686
17.484426
17.169714
16.555786
17.315745
16.542673
16.868711
16.232729
15.701652
15.790462
15.729666
##ZVALUE=320
0.446439
0.414848
0.542998
0.569820
0.488758
0.560880
0.463724
0.633597
0.412464
0.493526
0.666976
0.592470
0.576973
0.607967
0.423789
0.539422
0.703931
0.670552
0.543594
0.616908
0.747442
0.716448
0.672936
0.781417
0.744462
0.914931
0.883937
0.930429
1.035929
0.892878
1.009703
1.039505
1.042485
1.080632
1.082420
1.322627
1.494884
1.532435
1.699924
1.852512
1.871586
2.475977
7.098913
40.182471
103.761554
281.991363
485.517383
837.315917
1015.774012
1015.774012
1015.774012
1015.774012
1015.774012
1015.773416
974.267721
561.201572
323.551893
142.022967
63.272715
21.245480
14.272928
14.488697
15.718937
19.324422
24.359822
35.624504
45.333505
58.987737
69.157481
78.633428
81.001520
78.699589
71.369410
59.199929
49.263835
36.668777
30.180812
23.183823
20.088553
17.682910
16.909838
16.797781
16.759634
16.562939
16.135573
16.058683
16.294718
16.295910
16.537905
16.129613
15.998483
15.652776
15.522838
15.509725
15.270710
15.055537
##ZVALUE=325
0.443459
0.490546
0.382662
0.514984
0.453591
0.475645
0.343919
0.342727
0.434518
0.482798
0.440478
0.549555
0.505447
0.543594
0.547767
0.582933
0.670552
0.571609
0.631809
0.590682
0.567436
0.657439
0.876784
0.692606
0.632405
0.545979
0.705719
0.821948
0.692606
0.917912
0.874996
0.931621
0.973940
0.883937
1.144409
1.187921
1.184940
1.146793
1.403689
1.349449
1.456738
1.741648
1.964569
1.986623
4.199743
25.751591
69.252849
192.657709
356.072783
694.211721
985.907912
1015.774012
1015.774012
1015.774012
1015.774012
1015.774012
1015.774012
671.829581
412.160754
191.390514
89.905858
26.047826
12.672544
10.325909
10.794997
12.852550
16.172528
22.474527
30.502677
42.941570
53.188801
64.523816
71.639419
73.853731
72.372556
63.549876
55.182576
42.788982
35.031438
26.169419
21.229982
17.809868
16.726851
15.859604
15.540719
15.457869
15.804768
15.234947
15.668869
15.718937
15.672445
15.424490
15.367866
15.362501
15.327930
14.938712
##ZVALUE=330
0.392795
0.527501
0.519753
0.344515
0.461936
0.453591
0.407696
0.318885
0.464916
0.306964
0.583529
0.529885
0.542998
0.527501
0.403523
0.472665
0.579953
0.426769
0.671744
0.662804
0.500679
0.558496
0.675917
0.534654
0.654459
0.670552
0.654459
0.640750
0.725985
0.624657
0.753999
0.996590
0.818968
0.728965
0.882745
0.990629
1.015663
0.963807
1.093745
1.253486
1.100898
1.206994
1.587868
1.533628
1.729727
2.219677
2.578497
10.805726
36.709905
128.412843
256.050825
540.179610
823.920965
1015.774012
1015.774012
1015.774012
1015.774012
1015.774012
1015.773416
845.104456
548.720956
261.536837
131.886601
44.153929
16.818643
8.997917
9.109974
9.756684
11.439919
15.570521
20.659566
30.135512
38.602948
51.705837
60.269833
68.028569
70.046782
66.563487
60.444474
49.959421
41.945577
31.373501
25.491714
20.524859
17.490983
16.226768
15.568733
14.672875
14.770627
15.233755
14.942884
14.768839
14.645457
14.709830
14.775991
14.750957
##ZVALUE=335
0.386834
0.487566
0.464916
0.435710
0.502467
0.529885
0.515580
0.480413
0.524521
0.502467
0.490546
0.537634
0.483990
0.418425
0.444651
0.437498
0.481606
0.550747
0.479817
0.537634
0.452995
0.630617
0.507832
0.550747
0.598431
0.616908
0.713468
0.841618
0.825524
0.898838
0.781417
0.809431
0.800490
0.882745
0.850558
1.017451
1.139641
0.927448
1.074672
0.996590
1.074672
1.263618
1.288652
1.312494
1.397729
1.678467
1.724958
1.935959
2.354980
5.348921
19.596815
80.279708
172.271729
401.116014
667.541623
1015.828848
1015.828848
1015.828848
1015.828848
1015.828848
1015.828848
986.737609
700.361729
365.557671
192.557573
65.311790
25.014877
10.552406
8.931756
9.078979
10.084510
12.024641
15.136600
21.219850
28.275847
39.034486
46.948791
56.898594
62.150955
64.814687
62.732697
55.956841
48.919916
40.324926
32.990575
25.851727
21.058917
17.707944
15.991926
15.222430
14.583468
14.482737
14.314651
14.419556
14.220476
14.453530
##ZVALUE=340
0.485778
0.595450
0.669956
0.532866
0.651479
0.603795
0.406504
0.571609
0.519753
0.525713
0.478625
0.531673
0.471473
0.562668
0.683665
0.571609
0.630617
0.511408
0.667572
0.623465
0.509620
0.621676
0.685453
0.726581
0.807643
0.688434
0.773668
0.745654
0.843406
0.817776
0.913739
0.795722
0.918508
0.978708
0.871420
0.764728
0.924468
0.930429
1.000762
1.079440
1.088977
0.994802
1.151562
1.243949
1.270771
1.421571
1.517534
1.699924
1.829863
1.925826
2.181530
3.024936
9.439588
49.554706
122.614503
312.283635
538.852811
920.338035
1015.901566
1015.901566
1015.901566
1015.901566
1015.901566
1015.901566
853.380561
455.296636
254.092813
104.320645
39.782524
12.103915
9.586811
9.461641
9.870529
10.809898
11.876822
16.177893
20.146966
27.722716
35.188794
46.615601
53.649545
59.262514
60.271621
59.478879
54.533482
46.457648
39.248466
30.850768
25.593638
20.145774
17.154813
15.310645
14.454722
14.052987
13.912916
13.896823
##ZVALUE=345
0.381470
0.270605
0.363588
0.274777
0.360608
0.477433
0.384450
0.497699
0.579953
0.513792
0.531673
0.493526
0.422597
0.355840
0.471473
0.364780
0.299811
0.396967
0.464916
0.596642
0.449419
0.539422
0.584722
0.670552
0.448823
0.588894
0.378489
0.468493
0.437498
0.454783
0.583529
0.742674
0.681877
0.609756
0.644922
0.624657
0.728965
0.550747
0.866652
0.860691
0.948906
0.844598
0.916719
0.945926
0.935793
1.191497
1.045465
1.186728
1.250505
1.530647
1.522899
1.546741
1.837611
2.336502
4.586577
29.228926
81.322789
218.228698
401.579738
754.495859
1013.211608
1015.774012
1015.774012
1015.774012
1015.774012
1015.774012
984.838605
604.687929
348.562002
138.853788
60.876608
18.689632
10.486841
9.349585
9.592772
10.114908
10.386705
11.579990
14.424920
19.059777
24.185777
33.722520
40.761828
49.125552
54.092407
55.966973
54.948926
49.681664
45.422912
37.697554
30.643940
23.954511
20.328760
16.603470
14.972687
14.176965
##ZVALUE=350
0.385642
0.232458
0.567436
0.408888
0.248551
0.427961
0.448823
0.272989
0.372529
0.423789
0.393987
0.446439
0.372529
0.357628
0.484586
0.519753
0.378489
0.356436
0.572801
0.427961
0.532866
0.521541
0.437498
0.612736
0.468493
0.472665
0.590682
0.398755
0.619888
0.648499
0.766516
0.459552
0.642538
0.801682
0.819564
0.571609
0.830889
0.809431
0.745654
0.777841
0.663996
0.804663
0.880957
0.774860
0.981688
0.888705
0.957847
1.021624
1.005530
1.162887
1.276731
1.308918
1.484752
1.561642
1.891851
1.970530
2.764463
15.332699
47.362447
145.636797
283.288360
592.427850
884.076953
1015.774012
1015.774012
1015.774012
1015.774012
1015.774012
1015.774012
715.071559
440.073013
192.216635
86.467862
24.351478
11.220574
8.969903
8.800626
8.771420
9.106994
9.581447
10.962486
13.928413
17.092824
22.860765
29.068589
36.465526
43.457747
49.064755
51.711798
50.393939
47.754645
41.144490
35.709739
27.799606
23.344755
18.676519
##ZVALUE=355
0.503659
0.332594
0.424981
0.521541
0.470877
0.352859
0.297427
0.322461
0.399947
0.344515
0.428557
0.415444
0.184774
0.544786
0.628829
0.397563
0.327826
0.423789
0.489950
0.461936
0.398755
0.451803
0.567436
0.368953
0.623465
0.500679
0.503659
0.524521
0.727773
0.685453
0.596642
0.646710
0.648499
0.634789
0.655651
0.770688
0.746846
0.637770
0.750422
0.683665
0.726581
0.844598
0.837445
0.883937
0.902414
0.856519
0.865459
0.876784
0.966787
1.106858
1.039505
1.134872
1.248717
1.288652
1.409650
1.552701
1.586676
1.971722
2.128482
7.173419
26.274920
97.969770
199.986696
430.836082
689.404011
1015.774608
1015.774608
1015.774608
1015.774608
1015.774608
1015.774608
856.216550
561.327934
256.516933
123.948455
36.521554
13.942719
8.499622
8.494854
8.292794
8.503795
8.776784
9.173751
10.462999
12.136698
16.036630
20.137429
26.466846
32.014847
39.127469
43.971539
47.362447
47.026873
43.788552
39.839745
33.715963
##ZVALUE=360
0.507832
0.399947
0.623465
0.429749
0.479817
0.423789
0.475645
0.464916
0.432730
0.397563
0.526905
0.562668
0.514984
0.537634
0.634789
0.423789
0.511408
0.435710
0.460744
0.529885
0.397563
0.432730
0.484586
0.625849
0.575781
0.448823
0.561476
0.484586
0.536442
0.616908
0.642538
0.687838
0.630617
0.619888
0.551939
0.658631
0.553727
0.830889
0.902414
0.662804
0.838637
1.020432
0.865459
0.991821
0.860691
0.875592
0.904799
0.973940
1.084805
0.975728
0.995994
0.951886
1.094937
1.227856
1.207590
1.257658
1.618862
1.625419
1.899600
2.159476
2.195835
3.717542
11.762977
53.181648
122.946501
305.745602
526.944995
918.563008
1015.780568
1015.780568
1015.780568
1015.780568
1015.780568
977.163911
675.377846
338.167548
178.743005
64.824820
23.746490
8.831620
7.682443
7.776618
7.825494
8.034706
8.147955
8.450747
9.197593
11.063814
13.015866
16.902685
21.623969
28.585792
33.068657
38.520694
41.560531
42.376518
##ZVALUE=365
0.470877
0.497699
0.553727
0.404716
0.486970
0.300407
0.287890
0.237823
0.401735
0.333786
0.434518
0.373721
0.292659
0.363588
0.464916
0.284910
0.356436
0.417829
0.422597
0.523925
0.546575
0.445843
0.427961
0.532866
0.490546
0.665784
0.586510
0.489950
0.580549
0.628829
0.636578
0.583529
0.570416
0.622869
0.705719
0.744462
0.655651
0.825524
0.888705
0.747442
0.776649
0.788569
0.707507
0.900626
0.583529
0.796914
0.721812
0.877976
0.837445
0.806451
1.022816
0.974536
1.018643
1.196861
1.171827
1.207590
1.233816
1.360774
1.347661
1.706481
1.761913
1.884699
2.299547
2.543926
5.359650
30.636787
81.196427
211.432576
393.301845
745.224953
1008.134484
1015.771627
1015.771627
1015.771627
1015.771627
1015.771627
858.047009
483.858585
265.126824
94.782710
35.866499
10.177493
7.489920
7.030964
7.150769
7.072687
7.228851
7.151961
7.750988
8.031726
9.178519
11.894703
14.576912
19.310713
23.692846
29.760599
##ZVALUE=370
0.359416
0.454783
0.387430
0.450611
0.499487
0.402927
0.529885
0.455976
0.390410
0.532866
0.381470
0.513792
0.402927
0.386834
0.429749
0.458956
0.538826
0.586510
0.615716
0.713468
0.580549
0.461936
0.739694
0.508428
0.499487
0.538826
0.602603
0.392795
0.440478
0.593662
0.566840
0.628829
0.673532
0.539422
0.624657
0.814795
0.510812
0.588894
0.669956
0.775456
0.622869
0.695586
0.700951
0.849962
0.683665
0.739694
0.708699
0.870824
0.962615
0.910759
0.828505
0.900626
0.930429
0.927448
0.970960
1.129508
1.157522
1.112819
1.164675
1.205802
1.415610
1.576543
1.661777
1.854897
1.935959
2.254844
3.172755
15.726686
51.971674
164.462924
310.707688
607.481599
902.165771
1015.841961
1015.841961
1015.841961
1015.841961
1015.841961
972.113609
564.530492
323.012471
129.085779
58.732629
17.875433
8.312464
6.898642
6.665587
6.800890
6.658435
6.919503
6.856918
7.033944
7.417798
8.555651
9.941459
13.318658
##ZVALUE=375
0.427961
0.431538
0.377893
0.382662
0.524521
0.358820
0.357628
0.239611
0.393987
0.464916
0.389814
0.506639
0.512600
0.325441
0.326633
0.236630
0.277758
0.401735
0.371933
0.426769
0.400543
0.347495
0.559688
0.547767
0.508428
0.439882
0.539422
0.484586
0.528693
0.541806
0.450611
0.567436
0.500679
0.458956
0.584722
0.549555
0.517964
0.606775
0.645518
0.486970
0.523925
0.789762
0.622869
0.541806
0.620484
0.659823
0.834465
0.819564
0.596642
0.689626
0.887513
0.535846
0.834465
0.745654
0.859499
0.788569
0.969768
1.000762
1.083612
1.017451
1.105666
1.300573
1.224875
1.390576
1.577735
1.583695
1.776814
2.039671
2.367496
7.994771
28.247833
100.815892
213.428736
486.572981
767.484903
1015.805006
1015.805006
1015.805006
1015.805006
1015.805006
1015.805006
730.640888
466.613770
234.586000
116.662979
34.414530
12.393594
6.577969
6.343722
6.210804
6.283522
6.083846
6.213784
6.330609
6.376505
6.966591
##ZVALUE=380
0.274777
0.336766
0.370741
0.342727
0.365973
0.231862
0.268817
0.338554
0.408888
0.492930
0.401735
0.459552
0.354648
0.330806
0.316501
0.291467
0.232458
0.238419
0.322461
0.401735
0.592470
0.512600
0.361800
0.401735
0.277758
0.203848
0.494719
0.342727
0.274777
0.471473
0.456572
0.467896
0.237823
0.370741
0.363588
0.581741
0.616908
0.545979
0.596642
0.537634
0.602603
0.447631
0.544786
0.561476
0.575781
0.632405
0.638962
0.526905
0.509620
0.632405
0.579953
0.640750
0.654459
0.586510
0.834465
0.719428
0.816584
0.877976
0.780821
0.958443
0.940561
0.942945
0.889897
1.072884
1.061559
1.230836
1.264811
1.558661
1.842976
2.217889
2.292991
4.421473
15.242696
72.550774
164.855719
388.102531
637.931824
995.301008
1015.774012
1015.774012
1015.774012
1015.774012
1015.774012
965.634584
664.054751
327.651501
165.982842
55.370927
20.986795
7.421970
5.908608
5.816817
5.619526
5.469918
5.511642
5.475879
##ZVALUE=385
0.408888
0.314713
0.392795
0.279546
0.251532
0.273585
0.295639
0.327826
0.337958
0.274777
0.360608
0.338554
0.474453
0.319481
0.301600
0.289679
0.389814
0.237823
0.347495
0.429749
0.406504
0.303984
0.581741
0.528693
0.368953
0.428557
0.318885
0.289679
0.474453
0.484586
0.341535
0.403523
0.280738
0.448823
0.570416
0.507832
0.363588
0.525713
0.522733
0.549555
0.493526
0.570416
0.613928
0.489950
0.478625
0.506639
0.560880
0.469685
0.487566
0.660419
0.564456
0.506639
0.625849
0.705719
0.616908
0.725985
0.797510
0.755787
0.718832
0.714660
0.923872
0.958443
0.968575
0.977516
1.014471
1.019835
1.239777
1.271963
1.455545
1.538992
1.771450
2.054572
2.245903
2.871752
7.617474
39.773583
101.444721
270.412564
475.385785
847.720504
1015.799642
1015.799642
1015.799642
1015.799642
1015.799642
1015.799642
838.196874
472.307801
274.977684
111.797452
43.035746
9.765625
5.717874
5.128980
4.968643
5.198717
##ZVALUE=390
0.342727
0.347495
0.440478
0.320673
0.394583
0.464916
0.315905
0.228882
0.482798
0.402927
0.425577
0.304580
0.386834
0.442863
0.298619
0.330806
0.349879
0.293851
0.430942
0.473857
0.344515
0.314713
0.448823
0.367761
0.461936
0.318885
0.445843
0.459552
0.426769
0.479817
0.479817
0.429749
0.469685
0.615716
0.444651
0.488758
0.419617
0.543594
0.657439
0.607967
0.618696
0.400543
0.483990
0.469685
0.513792
0.572801
0.682473
0.512600
0.597835
0.616908
0.565648
0.650883
0.613928
0.653863
0.714660
0.577569
0.729561
0.680685
0.751615
0.648499
0.814795
0.910759
0.866652
0.920892
0.908971
0.910759
1.339912
1.329780
1.373887
1.724958
1.669526
1.752973
1.686811
2.104640
2.130866
2.273917
3.964901
22.083521
67.092776
200.172663
378.408432
715.323687
980.823636
1015.852690
1015.852690
1015.852690
1015.852690
1015.852690
1004.101634
658.865571
393.582582
161.746740
74.479580
20.984411
7.288456
5.003810
##ZVALUE=395
0.394583
0.324845
0.272989
0.275970
0.238419
0.387430
0.285506
0.311732
0.298619
0.361800
0.418425
0.443459
0.466704
0.335574
0.335574
0.512600
0.372529
0.115633
0.452995
0.362992
0.209808
0.169873
0.327826
0.406504
0.576973
0.332594
0.402927
0.500679
0.455976
0.378489
0.510812
0.485778
0.553727
0.601411
0.545979
0.577569
0.511408
0.380874
0.464916
0.456572
0.533462
0.443459
0.508428
0.647902
0.556707
0.555515
0.564456
0.678897
0.534654
0.728965
0.576973
0.541806
0.562668
0.597835
0.566840
0.640750
0.505447
0.699759
0.718832
0.739694
0.849962
0.773668
0.805855
0.834465
0.931621
0.856519
0.955462
1.236796
1.302958
1.431704
1.577735
1.545548
1.765490
1.568794
1.666546
1.749992
1.941919
2.024770
2.565980
13.601780
48.253536
160.657763
300.796628
561.322570
825.924873
1015.809774
1015.809774
1015.809774
1015.809774
1015.809774
1015.809774
774.186850
497.270823
225.149989
108.974576
32.889843
##ZVALUE=400
0.339746
0.467896
0.465512
0.340939
0.524521
0.445843
0.488758
0.410676
0.229478
0.554919
0.617504
0.508428
0.419617
0.562668
0.520945
0.440478
0.534654
0.497699
0.459552
0.531673
0.499487
0.427961
0.638962
0.581741
0.621676
0.487566
0.600815
0.542998
0.469685
0.589490
0.490546
0.532866
0.593662
0.532866
0.526905
0.604987
0.420809
0.488758
0.503659
0.623465
0.787973
0.630617
0.608563
0.644922
0.794530
0.682473
0.706911
0.804663
0.722408
0.613928
0.685453
0.739694
0.711679
0.769496
0.751615
0.671744
0.717640
0.809431
0.844598
0.794530
0.893474
0.934601
1.013875
0.934601
0.945926
1.022816
1.051426
1.183748
1.277924
1.482964
1.655817
1.705885
1.780987
1.604557
1.641512
1.641512
1.621842
1.704693
1.631975
2.097487
2.389550
7.732511
27.999878
94.362497
197.803974
434.613824
686.613917
1015.932560
1015.932560
1015.932560
1015.932560
1015.932560
1015.932560
880.184770
600.921512
314.861536
##END
