##TITLE=QP00302
##FORMAT=SPECTACLE-ASCII V-1.2
##DATA TYPE=ULTRAVIOLET SPECTRUM
##SECOND TYPE=ULTRAVIOLET SPECTRUM
##DATE=11/14/17
##TIME=15:49:31
##SPECTROMETER/DATA SYSTEM=SPECTACLE
##XUNITS=NM EM
##YUNITS=ENERGY
##YFACTOR=1
##FIRSTX=220
##LASTX=410
##NPOINTS=96
##3DDATA=Equidistant
##ZUNITS=NM EX
##FIRSTZ=210
##LASTZ=400
##ZPOINTS=39
##XYDATA=(Y..Y)
##ZVALUE=210
3.279448
3.063679
3.386736
3.283620
3.196597
3.611445
3.454685
3.622770
3.694892
3.053546
2.782941
2.334714
2.505779
2.321601
2.559423
2.752542
2.202988
2.662539
3.410578
2.964735
3.135800
3.645420
3.537536
3.445745
3.353953
3.723502
4.541874
3.930926
4.456639
4.009604
4.295707
4.947782
5.521774
5.279779
5.018711
4.851818
5.306602
5.567670
5.114675
6.421804
6.059408
6.102920
6.720424
6.381869
6.705523
6.474853
6.952882
7.027984
6.951690
7.081628
7.313490
6.604791
6.589890
7.916689
6.840825
8.727908
8.038878
6.842613
6.960630
6.383657
8.061528
8.711815
7.829666
8.097887
9.104609
8.790493
9.620786
9.164810
11.318922
12.987852
14.625788
19.139647
23.048520
21.661520
23.760796
27.308464
26.345849
25.079846
25.394559
25.865436
21.528602
21.441579
18.177629
16.603470
13.293624
12.239814
9.928942
9.787679
8.335710
8.944869
9.329915
7.831454
8.309484
8.138418
8.803606
9.581447
##ZVALUE=215
10.285974
9.909868
9.811521
7.685423
7.080436
6.346703
7.168651
7.013679
7.186532
6.787777
5.867481
5.875826
5.081892
3.871918
2.935529
2.337694
3.141761
3.244877
2.877712
3.196597
3.742576
3.339648
4.001856
3.694892
3.836751
3.858805
4.605651
4.297495
4.351735
4.359484
5.555749
4.768968
5.742908
6.022453
5.853772
6.525517
6.551743
6.225705
6.339550
7.003546
6.298423
7.884502
6.776452
7.914901
7.193685
7.449985
8.047819
7.136464
7.198453
7.072687
7.466674
8.628964
8.198619
8.113980
8.183718
7.646680
8.357763
7.869601
8.463860
8.107424
8.071661
9.833574
8.236766
7.832646
8.396506
8.391738
10.603666
9.675622
12.168884
13.604760
15.039444
16.509891
18.453598
21.690726
23.879409
23.842454
25.721788
25.468469
25.124550
22.802949
19.943714
19.348860
16.548634
14.821887
13.232827
11.650920
11.209846
10.333657
10.831952
9.049773
8.805990
9.579659
9.369850
8.809566
9.560585
9.711981
##ZVALUE=220
23.837686
22.296906
26.693940
28.628707
28.056502
24.705529
21.387935
15.833974
14.233589
12.473464
13.607740
14.140606
13.722777
12.676716
10.170937
8.230805
6.294847
4.885793
4.246831
3.667474
3.548861
4.029870
4.089475
4.954934
4.267693
4.506707
5.006790
5.024672
5.416870
5.699992
6.097555
6.221533
6.846786
7.034540
6.200671
7.718801
8.212924
8.889437
8.636713
7.973909
8.162856
9.591579
8.446574
8.218884
9.179711
8.951426
9.945631
9.798408
9.333491
8.663535
10.003448
8.782744
9.005666
8.461475
9.721518
10.095835
11.218786
10.061860
10.626912
11.132956
10.949969
11.010766
11.168718
9.972453
11.749864
10.340810
11.845827
12.326837
14.576912
15.444756
17.012954
18.666983
23.425817
24.036765
27.137995
29.380918
28.481483
29.125810
25.223494
25.382638
22.228956
20.638704
18.048882
18.191934
14.207959
14.592409
13.410449
13.155937
11.367798
11.168718
11.434555
11.197925
10.312796
11.073947
10.357499
10.887980
##ZVALUE=225
31.920671
32.741427
44.465661
58.352947
71.380734
76.278448
74.789524
65.049529
53.479671
43.776631
26.965737
27.882457
24.151802
24.063587
25.549531
21.663904
21.503568
17.631650
15.316606
9.131432
7.064939
5.226731
4.931688
4.893541
4.496574
4.917979
4.419684
5.457997
6.217957
5.884767
6.882548
5.532503
6.611943
6.788969
7.430911
8.116961
8.134842
8.069873
9.170771
9.326935
9.036660
8.602738
8.927584
9.854436
11.392832
9.715557
9.117723
9.701848
10.029674
10.513663
9.350777
9.696484
11.174679
10.942817
11.578798
11.977553
11.969805
11.713505
11.849999
12.915730
11.774898
12.678504
13.316870
12.679696
14.619827
13.104677
12.793541
14.573932
15.381575
17.763972
17.731786
21.464825
22.895932
26.295781
25.968552
28.506517
26.281476
27.660728
25.840998
26.900768
23.495555
24.328828
20.497441
19.319654
17.455816
18.227696
14.731884
14.841557
16.348958
14.686584
14.462471
14.110804
14.155507
14.710426
13.547540
13.554692
##ZVALUE=230
22.733808
25.194883
44.249892
80.805421
106.709003
146.497488
173.585415
183.326602
168.151855
148.664713
106.798410
77.058673
50.594807
42.037964
38.209558
41.102767
46.663880
44.006705
41.524768
35.632849
29.051900
18.019676
13.246536
9.077787
5.932450
5.642772
6.911755
5.483627
5.672574
6.246567
5.887747
7.900596
7.134676
7.672906
8.013844
7.876754
8.243918
8.428693
8.523464
8.814931
8.428693
9.390712
10.512471
10.455847
9.835958
10.355711
10.583997
10.621548
11.016726
10.166764
10.159612
10.708570
11.286736
11.278987
11.756420
11.955500
12.968779
13.126731
12.683868
13.376474
14.988780
14.050603
14.820695
14.291406
13.661981
15.536547
16.440749
16.610622
17.034411
19.118786
22.312999
24.001598
24.852753
28.276443
29.124618
29.992461
29.561520
26.860833
28.767586
26.571751
28.339624
27.539730
24.830699
23.465753
22.370815
18.558502
17.933846
19.341707
17.022491
18.310547
18.534660
16.918778
18.390417
17.492771
17.991662
18.338561
##ZVALUE=235
6.974936
8.158684
17.456412
44.933558
83.237886
152.365565
211.368799
292.677879
340.499878
363.125801
329.537988
267.182589
199.132562
130.987763
92.249513
70.873499
60.925484
62.727928
69.862604
71.791410
68.677664
59.314966
48.116446
35.161972
25.843978
16.769767
11.412501
7.305741
6.870627
7.077456
7.129908
6.917715
7.166862
7.494688
8.235574
7.844567
8.572936
8.391738
8.353591
9.325743
9.268522
8.801818
10.613799
10.315776
10.074973
9.204745
8.884668
10.738969
9.980798
9.993911
9.937882
10.061860
11.670589
11.773705
11.491776
11.819601
12.941957
13.973713
13.877749
15.229583
14.346838
15.479922
16.426444
16.886592
16.262531
17.507672
18.409491
20.289421
19.761920
20.782948
22.296906
25.633574
27.771592
32.154918
31.954646
35.266876
33.640862
36.101937
34.401417
30.674934
29.975772
28.714538
27.446747
26.807785
25.351644
26.622415
25.968552
23.550987
23.411512
23.317933
22.614598
22.843480
24.547577
21.533966
22.748709
22.121668
##ZVALUE=240
1.954436
1.903772
3.545880
8.903742
28.019547
56.368709
127.797723
208.312869
351.527929
443.546772
546.177626
567.384958
528.446436
439.471006
347.799659
221.076608
154.393911
100.663900
79.198480
77.590942
89.156628
95.898509
91.760755
92.367530
74.305534
60.218573
43.820739
30.990839
22.512674
15.866756
12.010932
8.326769
9.526610
8.549690
8.081794
8.955598
8.830428
9.168983
8.473992
8.940697
8.831620
8.102655
8.259416
8.780956
8.199811
9.281635
8.658767
8.963943
10.006428
9.924769
10.955930
10.766983
11.110902
11.552572
12.332797
12.621880
12.880564
13.956428
13.996959
13.481975
14.537573
16.992688
17.349720
15.435815
16.257763
16.186833
18.602610
18.991828
22.321939
21.760464
23.901463
27.593970
27.283430
30.881763
32.908916
34.250617
37.113428
34.006834
32.259822
31.535625
33.573508
31.607747
31.006932
28.467774
28.439760
26.842952
26.705861
26.246905
27.197599
27.756691
27.293563
26.780963
27.293563
27.030706
26.614666
24.207830
##ZVALUE=245
1.405478
1.572967
1.549721
1.826882
2.822876
6.732941
24.134517
56.271553
137.684941
232.688785
396.825671
536.806583
634.233952
709.237456
698.961616
591.403842
496.927500
347.732902
234.203935
138.341784
91.028810
80.422759
85.473657
97.319484
106.183887
106.707811
97.824931
85.207820
69.709420
49.229860
37.766695
25.073886
17.871857
11.181831
10.532737
8.938909
8.843541
8.292794
8.874536
8.459687
8.332729
8.238554
7.931590
7.892847
8.067489
8.637905
7.919669
8.011460
7.857680
8.024573
8.936524
9.348989
9.082556
9.472966
9.848475
10.649562
10.926723
12.246966
11.661649
12.672544
11.442900
13.412833
13.799667
14.349818
15.610456
14.650822
13.954639
17.322898
17.566681
20.296574
20.181537
23.411512
25.692582
27.070642
27.949810
30.242801
29.812455
30.658841
31.802654
29.032826
29.279590
30.383468
27.465820
27.963519
26.536584
26.750565
24.913549
25.160909
26.793480
24.904609
26.731491
26.151538
25.658607
26.192665
25.485754
25.759935
##ZVALUE=250
1.298785
1.438856
1.172423
1.554489
1.242757
1.312494
1.824498
5.496740
15.035868
38.038492
110.671520
210.861564
383.786559
531.841516
698.140860
784.391761
811.863542
767.940879
668.034554
470.191836
323.511958
175.001621
116.386414
78.329444
79.149604
95.412731
105.176568
114.261508
113.616586
102.973580
93.013644
68.407655
54.300427
36.143661
24.947524
15.013814
11.425614
9.188652
8.169413
8.021593
7.404685
7.502437
7.894635
8.142591
7.816553
7.019639
7.629991
7.532835
7.506609
8.471608
7.619858
8.310676
8.862615
8.143783
8.385777
8.918643
9.512901
10.028481
10.746717
11.550784
11.461973
10.745525
11.236668
12.367964
12.091994
13.241768
13.033748
15.304685
14.696717
18.121600
18.262863
19.962788
21.285415
22.736788
24.448633
24.200678
24.396777
25.716424
25.953650
25.207996
25.517941
24.484992
24.783611
23.643970
23.808479
22.374988
23.305416
22.540689
24.445653
23.269653
24.048686
23.199916
22.780895
22.873878
23.101568
23.038983
##ZVALUE=255
0.718832
0.987649
1.135468
1.096725
0.885725
1.212955
1.279712
1.156926
1.388788
2.542734
13.980865
35.505891
79.482794
189.523697
320.155621
537.274480
697.308779
869.499445
949.215889
923.821926
818.656683
669.007897
425.346494
270.234942
138.495564
89.443922
71.659684
76.316595
95.830560
106.141567
117.095709
117.542744
110.870600
91.038942
76.121688
51.145554
36.731958
21.187663
15.219450
10.134578
8.202791
7.173419
7.781982
6.832480
7.033944
7.410645
7.270575
6.813407
7.614493
8.158684
7.523894
7.005930
7.728934
7.685423
7.946491
7.356405
8.534789
7.855892
8.763671
9.270906
9.006858
9.884834
9.780526
9.893775
9.843707
11.185408
11.048913
12.955666
12.521744
14.387965
15.657544
17.853975
18.973947
19.660592
20.227432
21.898746
20.934939
21.604896
21.335483
20.743608
21.783710
20.711422
21.498799
21.402836
19.490719
21.162629
21.020770
19.867420
19.449592
20.463467
20.585656
21.777749
21.958947
21.681786
22.521615
20.671487
##ZVALUE=260
0.994802
1.204610
1.124740
1.079440
1.224875
1.157522
1.025796
1.335740
1.381636
1.563430
1.612902
2.024770
4.787445
23.384690
56.209564
152.142644
273.276567
479.811430
673.006773
934.326649
1015.779972
1015.779972
1006.404757
858.793855
573.405623
397.325754
225.513577
135.774612
73.007941
63.906908
72.449446
94.133615
111.549497
120.847821
121.544600
111.438632
97.303987
73.815584
56.669712
36.912560
25.040507
14.814734
11.218786
8.412600
8.095503
7.555485
7.684827
7.765889
7.912517
7.833838
7.412434
7.835627
7.700920
8.323789
8.570552
7.998943
8.355975
8.568764
9.065866
9.101629
9.311438
9.512901
9.424686
10.051727
10.418892
10.227561
10.990500
11.643767
12.696981
13.957620
14.091730
15.414953
16.755462
18.774867
18.654466
19.368529
19.199848
18.736720
19.677877
18.852949
19.023418
18.893480
18.918514
18.984675
19.528866
19.413829
19.245744
18.851757
19.279718
20.234585
20.408630
20.040870
20.146966
20.224452
20.338893
20.649433
##ZVALUE=265
1.153946
0.945926
1.025796
0.980496
0.931621
1.296997
1.035929
1.100898
1.163483
1.092553
1.362562
1.405478
1.471639
1.834631
3.109574
16.729832
41.694641
119.431615
232.945681
479.719639
698.670745
916.060805
1015.774608
1015.774608
1015.774608
1015.774608
791.597962
565.438867
310.121775
186.165571
92.262626
59.037805
58.828592
81.082582
98.752975
115.820765
123.637915
122.104883
116.982460
94.224811
76.093674
53.771734
38.550496
23.158789
15.275478
10.968447
8.877516
8.476973
8.326769
8.271933
8.621812
8.887649
8.178949
8.226633
8.749962
8.416772
8.896589
8.690953
8.933544
8.864999
9.467602
9.122491
10.074973
9.737611
9.790659
10.602474
11.191964
11.613965
12.124777
12.910962
14.004707
14.991760
15.835762
16.051531
17.115474
18.276572
18.393993
18.388629
18.907785
18.092990
17.330647
18.674731
16.902685
17.384887
17.415881
17.840862
17.528534
18.566847
18.268824
18.605590
17.942786
18.542409
18.505454
18.551946
19.169450
18.493533
##ZVALUE=270
1.137853
0.963807
0.975728
1.116991
0.870824
1.308918
1.070499
1.083612
1.084805
0.876784
1.273751
1.064539
1.256466
1.459718
1.610518
1.700521
2.016425
7.048845
22.560954
86.051822
186.106563
356.729627
685.840845
957.117677
1015.845537
1015.845537
1015.845537
1015.845537
994.256735
766.182542
530.168414
282.761455
150.042772
64.748526
47.895908
61.138868
80.720782
100.882649
113.824606
125.185847
122.662783
112.665892
97.579956
74.745417
56.147575
36.019683
25.904775
16.811490
13.090968
10.308623
9.717941
9.185672
9.234548
9.037852
9.418726
9.946823
9.561777
9.785891
10.161996
9.757876
9.822845
9.970665
10.292530
10.773540
10.324717
10.703802
10.885000
11.872649
12.218952
13.766885
14.291406
14.436841
15.929937
16.798973
17.400980
17.482638
17.898679
17.122626
16.693473
17.903447
17.411709
16.334653
16.862750
16.588569
16.586781
17.123818
18.398762
16.691685
16.664863
17.471910
18.287897
17.647743
18.154979
17.511845
17.553568
17.837882
##ZVALUE=275
0.739694
0.933409
0.582933
0.920892
1.029968
0.749826
0.921488
0.882745
0.737906
0.917912
1.102686
0.930429
1.125932
1.315475
1.178980
1.463890
1.234412
1.619458
1.708865
3.211498
11.412501
54.267645
127.602816
310.252905
539.335608
874.073505
1015.774012
1015.774012
1015.774012
1015.774012
1015.774012
904.865861
655.172467
361.588597
206.920505
86.213946
49.182773
43.891668
56.873560
80.729723
97.433925
115.043521
123.398900
121.056437
112.586617
94.300508
76.294541
53.554773
39.422512
26.114583
18.748641
13.136864
10.682940
9.757876
9.310842
9.592772
10.025501
9.986758
10.383725
10.709763
10.128617
10.795593
10.975599
11.101961
11.581779
11.520982
11.241436
12.526512
12.470484
14.179945
14.130473
14.173985
14.801621
16.236901
16.352534
16.902685
17.328858
16.815662
16.659498
16.185641
16.064644
16.682744
16.544461
16.385913
16.284585
15.954971
15.812516
16.121864
16.559958
16.690493
16.910434
17.044544
16.932487
16.894937
15.960932
17.198920
##ZVALUE=280
0.665784
0.506639
0.628829
0.477433
0.753999
0.696778
0.783801
0.673532
0.647902
0.701547
0.650883
0.802875
1.026988
0.917912
0.782609
1.034737
1.092553
1.127720
1.454949
1.518726
1.749992
2.045631
8.951426
32.391548
114.635825
225.327015
453.339815
702.153444
1015.726924
1015.726924
1015.726924
1015.726924
1015.726924
1015.726924
793.891549
455.817580
272.101760
115.973949
58.769584
33.938885
40.494800
59.815645
74.791908
98.358989
109.671950
119.642615
117.490888
106.330514
93.900561
71.948767
55.952668
36.734939
26.222467
17.118454
13.289452
10.774732
10.580420
10.512471
10.110736
10.450482
10.576844
10.963678
10.712743
11.110902
11.604428
11.898875
11.977553
11.781454
12.563467
13.381839
13.274550
14.766455
15.050769
15.371442
15.552640
16.227961
17.062426
16.724467
16.691685
16.345978
15.808940
15.750527
15.752912
14.891624
15.447736
15.046000
15.012622
15.445948
15.631914
16.299486
15.480518
15.653968
15.786886
15.900731
15.983582
16.163588
##ZVALUE=285
0.619888
0.647902
0.719428
0.653863
0.504851
0.770688
0.661612
0.686646
0.862479
0.800490
0.660419
0.838637
0.869632
0.937581
0.853539
0.921488
1.195669
1.294613
1.225471
1.224875
1.402497
1.394749
1.689792
1.989603
4.339814
15.798807
63.564777
143.674612
338.451862
550.739765
794.527531
1015.774012
1015.774012
1015.774012
1015.774012
1015.774012
977.839828
627.693534
397.306681
186.363459
94.729662
37.477612
28.940439
37.930608
52.009821
74.402690
88.946819
105.600953
110.839605
113.910437
105.527639
88.885427
75.984001
55.034757
40.125847
25.543571
18.500686
13.736486
11.143684
10.592937
11.121631
11.414886
11.299849
11.278987
11.231899
11.950731
12.574792
12.984872
13.308525
13.448000
14.245510
15.464425
15.319586
15.768409
16.087890
16.611814
16.539693
16.048551
16.227961
15.765429
15.796423
16.066432
15.885830
15.384555
15.835762
15.199780
15.449524
16.334653
15.691519
15.835762
16.182661
15.526414
15.871525
15.968680
15.629530
15.482903
##ZVALUE=290
0.558496
0.532866
0.533462
0.588894
0.749826
0.784993
0.669956
0.505447
0.635982
0.731945
0.603795
0.724792
0.722408
0.790954
0.805855
0.791550
0.999570
0.948906
0.937581
0.981688
0.977516
1.302958
1.452565
1.350641
1.734495
1.869798
2.390742
6.999969
36.570430
94.927549
244.496465
433.091521
792.402625
1015.774608
1015.774608
1015.774608
1015.774608
1015.774608
1015.774608
856.611729
512.410998
310.753584
138.446689
66.006780
25.341511
23.165941
34.870505
47.090650
68.369508
84.672570
100.129843
108.637810
110.904574
103.137493
87.403655
72.327852
51.728487
38.093925
26.298761
19.786954
14.198422
12.890697
11.809468
11.845827
11.628866
12.204647
12.225509
12.945533
13.714433
13.712645
14.649630
15.323758
15.333891
15.788674
15.795827
16.071796
16.237497
15.184879
16.210675
16.124845
15.584826
15.902519
15.680790
16.087890
16.165972
15.909672
16.290545
16.351938
16.151667
16.255975
15.815496
15.991926
15.541911
16.023517
15.288591
14.625788
##ZVALUE=295
0.482798
0.561476
0.660419
0.707507
0.674725
0.461936
0.517964
0.551939
0.682473
0.649691
0.749826
0.808835
0.591874
0.735521
0.657439
0.890493
0.874996
0.880957
0.994802
1.148582
1.025796
0.844598
1.094937
1.348853
1.282692
1.617670
1.460910
1.874566
1.973510
3.301501
11.330843
57.756901
140.185356
364.259481
612.698793
996.457934
1015.774012
1015.774012
1015.774012
1015.774012
1015.774012
985.145569
723.301768
393.795967
223.945975
84.767938
38.850904
18.619895
20.940900
33.148527
45.105815
65.160990
79.399943
95.101595
102.983713
104.555488
97.270608
82.459450
70.572495
50.828457
38.536787
25.873780
19.292831
15.628934
13.455749
12.725592
12.635589
13.076663
13.547540
13.711452
14.160872
14.758706
15.829802
15.690923
15.961528
15.870929
15.597939
16.190410
16.075969
16.404986
16.080737
15.865564
15.961528
16.125441
15.929937
16.140938
16.454458
16.175508
16.048551
15.493631
15.863776
15.425682
15.287995
15.491843
15.162826
15.416741
##ZVALUE=300
0.515580
0.531673
0.618696
0.470877
0.641942
0.526905
0.541806
0.559688
0.664592
0.614524
0.504851
0.516772
0.642538
0.711679
0.655651
0.623465
0.744462
0.751615
0.790954
0.767708
0.856519
1.019835
1.020432
1.029968
1.256466
1.299977
1.170635
1.315475
1.580715
1.799464
1.883507
2.265573
5.357862
34.922957
94.736814
264.320970
473.233461
843.334794
1015.774012
1015.774012
1015.774012
1015.774012
1015.774012
1015.774012
907.370448
529.752970
317.204595
143.206716
66.554546
21.934509
15.938878
20.473599
29.143691
42.855740
57.286620
76.046586
88.401437
98.205805
99.628568
92.062950
83.809495
66.661835
52.598715
38.208961
28.863549
20.343661
16.684532
14.165640
13.378859
13.935566
14.399886
14.939904
14.997721
16.079545
15.716553
16.439557
16.441941
16.397834
16.678572
16.415715
16.303658
16.592741
16.583800
16.628504
15.924573
16.073585
16.081929
16.219616
16.226768
16.325712
15.837550
15.984774
16.197562
15.895963
16.067624
15.965700
##ZVALUE=305
0.612736
0.574589
0.520945
0.666976
0.548959
0.614524
0.598431
0.537634
0.658631
0.616908
0.713468
0.547767
0.554919
0.711679
0.699759
0.531673
0.651479
0.622869
0.739694
0.719428
0.785589
0.764728
0.824928
0.834465
0.872612
1.086593
1.181960
1.138449
1.232624
1.431704
1.562834
1.534820
1.975894
2.085567
3.303885
20.237565
62.966943
193.080902
374.181867
734.739900
1010.962725
1015.802622
1015.802622
1015.802622
1015.802622
1015.802622
1015.802622
680.793524
431.042910
204.529762
102.146864
33.775568
14.912486
14.693737
19.151568
29.480457
40.996671
56.440830
69.849491
84.693432
93.651414
93.499422
90.080500
78.449845
66.710711
48.823953
38.284659
27.446747
21.333694
16.946793
16.277432
15.146732
15.212893
15.691519
16.019940
16.070604
15.924573
16.041994
16.017556
16.358495
16.746521
16.811490
16.512871
16.918778
17.178655
16.512871
16.893744
16.628504
16.849637
16.636848
15.920997
16.149879
15.492439
16.109943
15.723705
16.253591
##ZVALUE=310
0.526905
0.413656
0.519753
0.524521
0.494719
0.568628
0.549555
0.443459
0.480413
0.418425
0.572801
0.466704
0.633597
0.574589
0.668764
0.551939
0.566840
0.530481
0.453591
0.637770
0.590682
0.758767
0.917912
0.792742
0.798702
0.880957
0.967979
0.771880
1.091957
1.315475
1.170635
1.234412
1.380444
1.425743
1.727939
1.826882
2.581477
7.073879
41.156411
105.305910
275.161862
487.345457
884.120464
1015.797853
1015.797853
1015.797853
1015.797853
1015.797853
1015.797853
978.136659
604.856014
365.835428
160.432458
71.393847
20.730495
12.575984
14.266968
18.547773
26.291609
35.968423
51.389933
65.034628
78.054667
85.979700
89.519620
85.306764
75.372458
64.999461
49.393773
38.578510
27.586818
22.451878
18.025637
16.581416
16.320944
15.973449
15.487671
16.533732
16.104579
16.434789
16.160607
16.430616
16.776919
16.577840
16.835928
17.069578
17.414689
17.115474
17.344952
16.873479
17.253757
16.150475
16.208887
16.354918
16.133785
16.448498
##ZVALUE=315
0.365973
0.382662
0.386834
0.522733
0.541806
0.614524
0.514984
0.455976
0.541806
0.470877
0.482798
0.405908
0.375509
0.424981
0.432730
0.428557
0.548959
0.456572
0.663996
0.440478
0.626445
0.723600
0.734925
0.793934
0.665784
0.772476
0.854731
0.921488
0.942945
0.956655
0.924468
1.104474
1.142621
1.262426
1.251698
1.544952
1.386404
1.912713
2.075434
4.228950
17.324686
76.683760
173.736811
414.257050
694.432855
1015.761495
1015.761495
1015.761495
1015.761495
1015.761495
1015.761495
1015.761495
816.751719
443.303585
242.438912
85.856915
33.527613
12.797713
11.374950
13.395548
17.040968
25.483966
33.566952
47.687888
59.410930
74.122548
82.195997
84.580779
82.515478
72.140694
62.387586
49.287677
38.993955
29.081702
23.358464
18.304586
17.486811
16.540885
16.242862
15.804768
16.031861
16.532540
16.289949
17.025471
16.871691
16.490817
16.687512
16.943812
16.675591
16.779900
16.848445
16.553998
16.672611
16.661882
16.053915
16.058683
##ZVALUE=320
0.515580
0.510812
0.531673
0.229478
0.323653
0.396967
0.254512
0.257492
0.450611
0.458956
0.494719
0.588894
0.302792
0.478625
0.526905
0.592470
0.492930
0.629425
0.528693
0.596642
0.418425
0.544786
0.488758
0.491738
0.532866
0.729561
0.566840
0.880957
0.797510
0.838637
0.905991
0.937581
0.963807
1.099706
1.128912
1.225471
1.310706
1.563430
1.520514
1.508594
1.906753
2.549887
7.613897
44.450760
112.745762
301.607847
521.484613
908.969641
1015.774012
1015.774012
1015.774012
1015.774012
1015.774012
1015.774012
957.898498
544.150472
315.305591
137.172937
59.731603
16.930699
10.470748
10.348558
12.006760
15.697479
21.439791
31.602979
42.517781
57.078600
68.383813
76.756477
79.731941
76.765418
70.862770
57.652593
47.741532
35.640597
28.465986
21.822453
18.560886
16.597509
15.959740
15.915632
16.191602
16.109943
16.434789
16.249418
17.405748
16.352534
16.792417
16.875863
16.782880
16.299486
16.460419
16.561747
16.703606
15.900731
##ZVALUE=325
0.439882
0.427961
0.470877
0.432730
0.308752
0.378489
0.429749
0.429749
0.280738
0.368953
0.463724
0.482798
0.261664
0.413656
0.433922
0.376701
0.485778
0.368953
0.490546
0.460744
0.513792
0.393987
0.359416
0.648499
0.548959
0.620484
0.855923
0.856519
0.646710
0.569820
0.660419
0.797510
0.711679
0.882745
0.958443
0.931621
1.056790
1.196861
1.206994
1.443624
1.368523
1.724958
1.774430
2.006888
4.402995
26.617646
75.429678
211.448669
385.355949
735.173821
1002.168655
1015.774012
1015.774012
1015.774012
1015.774012
1015.774012
1006.304622
634.868741
394.622684
180.946589
84.461570
23.677945
11.056662
9.039640
9.892583
11.830926
14.986992
21.702647
29.618740
42.781830
53.460598
65.273643
72.871447
76.073408
72.369576
64.219832
55.401921
44.253469
35.126805
25.980473
21.890998
18.315911
16.980767
16.353726
16.397834
16.011000
15.862584
16.673803
16.320944
16.696453
16.863942
16.384721
16.312599
16.051531
16.470551
15.910864
##ZVALUE=330
0.245571
0.292659
0.333786
0.312924
0.375509
0.308752
0.572801
0.481606
0.337958
0.420809
0.370741
0.385642
0.408888
0.473857
0.336766
0.517964
0.391603
0.440478
0.484586
0.503659
0.399947
0.422597
0.650883
0.627637
0.661612
0.567436
0.548959
0.495911
0.553727
0.705719
0.628829
0.661612
0.744462
0.646710
0.858903
0.843406
0.798702
0.900626
1.167655
1.119971
1.193881
1.333952
1.401901
1.330972
1.822710
1.897812
2.676845
12.599826
44.064522
151.705742
296.736956
598.903894
880.239606
1015.772820
1015.772820
1015.772820
1015.772820
1015.772820
1015.772820
813.672543
534.335971
256.492496
131.385922
43.607950
16.807914
9.279847
9.075999
9.902716
11.824965
15.749931
20.916462
30.285716
38.937926
52.108765
60.899854
69.138408
71.784854
67.768693
62.223673
50.991774
42.684674
32.207966
27.111769
21.154881
18.991828
17.190576
16.638637
15.594959
16.190410
15.850663
16.303658
15.878677
15.741587
16.076565
15.835762
15.599728
##ZVALUE=335
0.097752
0.127554
0.082850
0.102520
-0.003576
0.274777
0.024438
0.154972
0.081658
0.028610
0.244975
0.215769
0.167489
0.160933
0.020862
0.156760
0.156760
0.283718
0.206828
0.221729
0.262856
0.078678
0.299811
0.335574
0.267625
0.025630
0.149608
0.318885
0.530481
0.459552
0.401735
0.394583
0.469685
0.633597
0.649691
0.565648
0.496507
0.675917
0.762939
0.667572
0.672936
0.901818
0.886917
1.021624
1.133680
1.102686
1.367927
1.563430
1.828671
5.398989
22.003651
91.333389
196.881890
447.414517
732.640028
1015.555859
1015.555859
1015.555859
1015.555859
1015.555859
1015.555859
982.659459
695.080757
371.079445
194.818974
64.745545
24.451613
10.335445
9.325743
9.580851
10.066628
12.354851
15.064478
21.692514
28.688908
39.510727
48.371553
57.727695
62.962770
65.408945
63.570738
56.617856
49.522519
40.948987
34.279823
26.654601
21.962523
18.566847
16.814470
15.782714
15.301704
15.665889
15.254617
15.334487
15.042424
15.254617
##ZVALUE=340
0.417829
0.432730
0.318885
0.287890
0.308752
0.398755
0.501871
0.568628
0.425577
0.550747
0.555515
0.437498
0.283718
0.433922
0.399947
0.343919
0.516772
0.500679
0.579953
0.610948
0.362992
0.555515
0.529885
0.361800
0.311732
0.580549
0.524521
0.552535
0.573993
0.581741
0.556707
0.930429
0.645518
0.554919
0.664592
0.716448
0.689626
0.823736
0.822544
0.840425
0.852942
1.053810
1.019835
1.099706
1.340508
1.269579
1.406670
1.698732
1.651645
1.928806
2.090931
3.056526
10.875463
59.287548
148.917437
370.201468
619.801879
987.616777
1015.839577
1015.839577
1015.839577
1015.839577
1015.839577
1015.839577
828.115940
442.840457
245.091915
99.852681
38.338900
12.028813
9.783506
9.979606
10.074973
11.198521
12.652874
15.923977
20.177960
28.306842
36.274791
47.137737
54.374933
61.093569
61.657429
60.389638
56.532621
47.805905
40.330887
32.124519
26.505589
21.601915
18.616915
16.156435
15.499592
15.036464
15.012622
15.107989
##ZVALUE=345
0.253916
0.355840
0.279546
0.222921
0.411868
0.285506
0.310540
0.309944
0.357628
0.310540
0.326633
0.226498
0.242591
0.222921
0.335574
0.303984
0.400543
0.461936
0.434518
0.379682
0.450611
0.506639
0.496507
0.462532
0.416636
0.548959
0.468493
0.423789
0.516772
0.588894
0.482798
0.558496
0.588894
0.687838
0.674725
0.747442
0.747442
0.758767
0.576973
0.788569
0.684857
0.706911
0.918508
0.848770
0.999570
0.975728
1.199841
0.878572
1.130700
1.438856
1.406670
1.744628
1.794696
2.244711
5.267859
34.897923
101.412535
267.311931
467.033386
836.871862
1015.774012
1015.774012
1015.774012
1015.774012
1015.774012
1015.774012
973.933935
579.409003
338.854790
147.296786
61.234832
18.203855
10.554790
9.982586
9.793639
9.840727
10.370612
11.979938
14.294982
19.936562
25.487542
35.155416
42.162538
50.639510
55.182576
58.046579
57.070851
52.735806
47.262907
38.199425
32.138824
24.724603
20.980835
17.577410
15.807748
15.033484
##ZVALUE=350
0.329614
0.202656
0.235438
0.411868
0.319481
0.332594
0.444651
0.375509
0.366569
0.310540
0.396967
0.216961
0.239611
0.321865
0.299811
0.451803
0.395775
0.370741
0.495911
0.367761
0.422597
0.563860
0.513792
0.410676
0.408888
0.402927
0.414848
0.470877
0.578761
0.512600
0.497699
0.598431
0.559688
0.461936
0.472665
0.603795
0.685453
0.664592
0.475645
0.679493
0.662804
0.727773
0.781417
0.917912
0.813603
0.909567
0.718832
0.890493
0.979900
1.034737
1.259446
1.477599
1.521707
1.544952
1.802444
1.988411
2.846718
16.601682
56.151748
179.341435
335.573554
658.861995
941.973925
1015.774608
1015.774608
1015.774608
1015.774608
1015.774608
1015.774608
705.143809
441.588759
204.608440
95.674992
25.347471
11.509657
9.014606
8.979440
9.119511
9.235740
9.856820
11.289716
14.435649
17.827749
23.995638
29.443502
38.042665
44.553876
50.690770
53.208470
52.708983
49.367547
42.682886
36.717653
29.558539
24.468899
19.688606
##ZVALUE=355
0.307560
0.374913
0.362992
0.361800
0.335574
0.305772
0.297427
0.365973
0.307560
0.287890
0.316501
0.256896
0.460744
0.344515
0.336766
0.450611
0.442863
0.511408
0.355840
0.526905
0.395775
0.300407
0.605583
0.354648
0.495911
0.495911
0.298619
0.470877
0.437498
0.490546
0.633597
0.533462
0.763535
0.496507
0.582933
0.531673
0.570416
0.593662
0.645518
0.686646
0.639558
0.614524
0.814795
0.761747
0.750422
0.911951
0.755787
0.965595
0.950694
1.110435
1.047850
1.219511
1.218915
1.224875
1.489520
1.506805
1.689792
1.962781
2.250671
7.998943
30.235648
114.528537
235.276818
492.237806
770.739913
1015.774012
1015.774012
1015.774012
1015.774012
1015.774012
1015.774012
824.918747
529.733896
236.469507
112.541914
33.612847
13.372898
8.599758
8.216500
8.495450
8.656979
9.097457
9.578466
10.991693
12.851954
16.769767
20.762682
27.403831
33.444762
40.116906
45.326948
47.920942
48.093796
44.981837
40.998459
34.395456
##ZVALUE=360
0.383854
0.351667
0.337958
0.380874
0.355840
0.317693
0.231862
0.447631
0.389814
0.415444
0.468493
0.448823
0.216961
0.253916
0.317693
0.427961
0.328422
0.520945
0.503659
0.385642
0.503659
0.473857
0.435710
0.416636
0.460744
0.543594
0.442863
0.466704
0.480413
0.501871
0.488758
0.563860
0.693798
0.663996
0.713468
0.563860
0.673532
0.633597
0.497699
0.693798
0.708699
0.900626
0.721812
0.767708
0.772476
0.693798
0.832677
0.763535
0.963807
0.895858
1.042485
0.823736
0.867844
1.216531
1.163483
1.434684
1.397729
1.532435
1.593828
1.867414
2.074838
3.742576
13.334751
62.148571
149.523616
365.919471
602.035522
965.511799
1015.774012
1015.774012
1015.774012
1015.774012
1015.774012
907.407999
606.505871
294.604897
153.441429
52.498579
19.731522
8.483529
8.105636
8.198619
7.962584
8.151531
8.197427
8.581877
9.531975
11.200905
13.397932
17.619729
21.835566
28.982759
34.559965
40.289760
42.881966
43.616891
##ZVALUE=365
0.430942
0.328422
0.499487
0.462532
0.467896
0.368953
0.301600
0.277758
0.357628
0.344515
0.412464
0.299811
0.391603
0.375509
0.460744
0.332594
0.503659
0.359416
0.304580
0.437498
0.469685
0.411868
0.421405
0.484586
0.450611
0.519753
0.566840
0.518560
0.438690
0.488758
0.458956
0.570416
0.563860
0.364780
0.478625
0.555515
0.455976
0.553727
0.753999
0.702739
0.647902
0.757575
0.524521
0.447631
0.731945
0.751615
0.753999
0.741482
0.735521
0.804663
1.057982
0.852942
0.764728
1.116991
1.106858
1.057982
1.182556
1.195669
1.467466
1.490712
1.574755
1.866817
2.157688
2.428889
5.426407
32.716990
92.908740
253.804922
452.570915
797.611475
1015.774012
1015.774012
1015.774012
1015.774012
1015.774012
1015.774012
786.156654
434.888005
235.886574
84.407926
32.401681
9.902716
7.373691
7.163882
7.157922
7.054806
7.363558
7.391572
7.650852
8.443594
9.484887
12.308955
15.010834
19.631982
24.077892
29.603839
##ZVALUE=370
0.381470
0.434518
0.341535
0.306964
0.461936
0.155568
0.370741
0.375509
0.364780
0.198483
0.330806
0.343919
0.325441
0.253916
0.340939
0.400543
0.443459
0.333786
0.400543
0.343919
0.410676
0.474453
0.244975
0.368953
0.466704
0.534654
0.480413
0.562668
0.469685
0.439882
0.437498
0.394583
0.532866
0.465512
0.490546
0.503659
0.483990
0.482798
0.429749
0.527501
0.585914
0.643730
0.627637
0.678897
0.640750
0.698566
0.718832
0.683665
0.773668
0.705719
0.652671
0.724792
0.793934
0.618696
0.818968
0.903606
0.985861
1.181960
1.130700
1.189709
1.298785
1.427531
1.559854
1.692772
1.806617
2.023578
3.384948
17.845631
60.798526
194.572806
360.238552
679.561496
974.806547
1015.775800
1015.775800
1015.775800
1015.775800
1015.775800
905.627608
509.971976
285.777450
109.906793
47.380924
15.269518
8.041859
6.582737
6.674528
6.670952
6.826520
6.682873
6.754994
7.070899
7.695556
8.763671
10.448694
13.543963
##ZVALUE=375
0.322461
0.271797
0.330806
0.253916
0.274777
0.213981
0.194907
0.261664
0.326633
0.248551
0.302792
0.400543
0.315905
0.324845
0.377893
0.270605
0.322461
0.313520
0.171661
0.232458
0.472665
0.305772
0.328422
0.399947
0.370741
0.274777
0.436902
0.402927
0.386834
0.374913
0.306964
0.436902
0.580549
0.315905
0.431538
0.397563
0.484586
0.547767
0.411868
0.561476
0.503659
0.502467
0.605583
0.600815
0.519753
0.638962
0.649691
0.541806
0.523925
0.749826
0.546575
0.421405
0.582933
0.795722
0.766516
0.774860
0.658631
0.865459
0.851750
1.043677
0.932813
0.955462
1.155734
1.257658
1.262426
1.428723
1.650453
1.983643
2.277493
8.723736
33.005476
119.454861
246.631503
534.439683
812.858939
1015.774012
1015.774012
1015.774012
1015.774012
1015.774012
1015.774012
682.626963
434.065461
215.520859
103.337765
29.670000
11.131763
6.508827
6.208420
6.252527
6.160736
6.234646
6.229877
6.194711
6.533861
6.898642
##ZVALUE=380
0.241995
0.242591
0.261664
0.323653
0.289679
0.295639
0.310540
0.234842
0.131726
0.129938
0.177622
0.236630
0.228882
0.198483
0.309944
0.093579
0.435710
0.305772
0.314713
0.568628
0.395775
0.147820
0.342727
0.380874
0.275970
0.357628
0.245571
0.315905
0.201464
0.336766
0.098944
0.342727
0.389814
0.195503
0.352859
0.373721
0.443459
0.388622
0.456572
0.442863
0.359416
0.368953
0.594854
0.399947
0.478625
0.305772
0.398755
0.580549
0.519753
0.476837
0.666976
0.530481
0.523925
0.693798
0.675917
0.555515
0.529885
0.709891
0.666976
0.763535
0.815988
0.820756
0.900626
0.940561
0.977516
1.152754
1.232624
1.330972
1.547933
1.786947
2.275705
4.342794
18.545985
84.319711
190.655589
427.722931
670.011640
996.109843
1015.774012
1015.774012
1015.774012
1015.774012
1015.774012
806.882977
546.356440
269.332528
138.800740
46.518445
17.790794
6.850958
5.940795
5.706549
5.678535
5.655885
5.803704
5.677938
##ZVALUE=385
0.164509
0.313520
0.146627
0.188947
0.179410
0.213981
0.225902
0.251532
0.216961
0.252724
0.226498
0.274777
0.282526
0.270605
0.445843
0.209808
0.198483
0.282526
0.340939
0.254512
0.270605
0.205636
0.348687
0.351667
0.257492
0.342727
0.199676
0.247955
0.241995
0.172853
0.252724
0.313520
0.364780
0.428557
0.451803
0.327826
0.438690
0.305772
0.376701
0.453591
0.320673
0.377893
0.384450
0.404716
0.485778
0.474453
0.437498
0.503659
0.575781
0.547767
0.392795
0.409484
0.421405
0.535846
0.674725
0.693798
0.567436
0.606775
0.672936
0.777841
0.819564
0.645518
0.867844
0.870824
0.938773
0.872612
1.103878
1.248717
1.450777
1.570582
1.869798
1.948476
2.241731
2.632737
10.329485
37.706494
131.139755
269.775987
565.434694
853.886008
1015.774608
1015.774608
1015.774608
1015.774608
1015.774608
1015.774608
749.551654
489.957929
226.398706
108.831525
32.847524
11.178851
5.798936
5.295873
5.319715
5.234480
##ZVALUE=390
0.301600
0.249743
0.236630
0.279546
0.314713
0.141859
0.078678
0.149608
0.234842
0.194907
0.295639
0.203848
0.111461
0.279546
0.131726
0.396967
0.231862
0.158548
0.264645
0.264645
0.251532
0.417829
0.440478
0.358820
0.293851
0.353456
0.172853
0.201464
0.279546
0.127554
0.080466
0.399947
0.227690
0.319481
0.406504
0.326633
0.386834
0.572801
0.447631
0.420809
0.416636
0.451803
0.444651
0.374913
0.444651
0.509620
0.533462
0.408888
0.392795
0.399947
0.484586
0.506639
0.593662
0.576973
0.541806
0.578761
0.661612
0.766516
0.535846
0.773668
0.784993
0.642538
0.846982
0.721812
0.795722
0.766516
1.046658
1.267791
1.183748
1.621842
1.487732
1.827478
1.779795
1.851916
1.920462
2.239943
4.144907
25.638938
76.719522
228.889585
426.303744
803.409815
1015.776992
1015.776992
1015.776992
1015.776992
1015.776992
1015.776992
1001.903415
634.447932
371.853709
148.346424
63.712001
15.497804
6.592870
4.961491
##ZVALUE=395
0.233650
0.257492
0.279546
0.266433
0.155568
0.234842
0.206828
0.157952
0.159740
0.383854
0.302792
0.238419
0.278950
0.209808
0.331998
0.397563
0.119805
0.226498
0.327826
0.137687
0.197887
0.256896
0.339746
0.186563
0.383854
0.234842
0.143647
0.293851
0.215769
0.346899
0.205636
0.404716
0.482798
0.352859
0.410676
0.418425
0.453591
0.276566
0.362992
0.356436
0.452995
0.396967
0.364780
0.374913
0.395775
0.422597
0.492930
0.491738
0.540614
0.492930
0.494719
0.449419
0.541806
0.549555
0.415444
0.455976
0.654459
0.571609
0.543594
0.695586
0.602603
0.592470
0.548959
0.700951
0.657439
0.838637
1.019835
1.127720
1.141429
1.318455
1.447797
1.439452
1.584888
1.556873
1.632571
1.892447
1.620650
1.847744
2.634525
15.667677
53.996444
174.077749
318.902731
591.327548
877.403617
1015.778780
1015.778780
1015.778780
1015.778780
1015.778780
1015.778780
790.798664
505.924821
234.960914
108.239651
31.297803
##ZVALUE=400
0.229478
0.217557
0.212789
0.254512
0.251532
0.195503
0.129938
0.136495
0.227690
0.177622
0.382662
0.236630
0.116825
0.163913
0.199676
0.208616
0.320673
0.238419
0.389814
0.301600
0.211596
0.191927
0.267625
0.260472
0.298619
0.207424
0.209808
0.196695
0.226498
0.373721
0.221729
0.325441
0.328422
0.397563
0.366569
0.327826
0.314713
0.372529
0.272989
0.455976
0.442863
0.430942
0.437498
0.468493
0.442863
0.266433
0.432730
0.511408
0.501871
0.356436
0.486970
0.444651
0.529885
0.580549
0.604987
0.514984
0.551939
0.580549
0.607967
0.659823
0.583529
0.583529
0.610948
0.760555
0.670552
0.782609
0.728965
0.976920
1.219511
1.285672
1.236796
1.308918
1.515746
1.464486
1.377463
1.300573
1.437664
1.638532
1.657605
2.015829
2.051592
8.397698
31.579733
111.397505
233.740807
510.636568
793.944001
1015.772820
1015.772820
1015.772820
1015.772820
1015.772820
1015.772820
872.391462
573.835969
289.872885
##END
