##TITLE=QP0030
##FORMAT=SPECTACLE-ASCII V-1.2
##DATA TYPE=ULTRAVIOLET SPECTRUM
##SECOND TYPE=ULTRAVIOLET SPECTRUM
##DATE=11/14/17
##TIME=15:45:29
##SPECTROMETER/DATA SYSTEM=SPECTACLE
##XUNITS=NM EM
##YUNITS=ENERGY
##YFACTOR=1
##FIRSTX=220
##LASTX=410
##NPOINTS=96
##3DDATA=Equidistant
##ZUNITS=NM EX
##FIRSTZ=210
##LASTZ=400
##ZPOINTS=39
##XYDATA=(Y..Y)
##ZVALUE=210
3.632903
4.252791
3.172755
3.613830
3.282428
4.319549
4.647970
3.819466
3.617406
3.467798
4.025698
2.950430
2.667904
2.860427
3.384948
2.859831
3.106594
3.130436
3.759861
3.997684
3.974438
3.974438
3.976822
4.739761
5.194545
5.355477
4.583597
4.837513
5.395412
5.450845
5.427599
5.548596
6.005764
5.756617
5.353689
5.804896
5.348921
6.622672
6.839633
6.571412
7.240772
7.354617
6.301999
6.881952
8.036494
6.486773
7.427931
7.362962
7.138848
6.419420
7.464886
6.677508
7.756948
7.782578
7.959604
8.664727
6.982684
8.281469
8.103848
8.195639
7.589459
8.902550
8.325577
8.724928
9.419918
8.195639
9.973645
11.584759
13.473630
13.661981
17.753839
18.817782
23.175478
25.326610
27.094483
25.013685
26.198626
26.851892
22.851825
22.894740
18.522739
19.249916
15.714765
14.354587
13.664961
10.775924
10.694861
9.257793
8.873940
8.149743
8.105636
9.445548
8.756518
8.919835
8.905530
9.586811
##ZVALUE=215
11.296868
10.993481
9.642839
9.128451
7.787943
7.141829
6.544590
6.908774
7.257462
7.152557
7.248521
5.797744
5.639791
3.687739
4.302859
3.399849
3.294945
3.200769
3.963709
3.859997
3.967881
4.035830
3.916621
4.955530
4.612803
5.600452
5.369782
5.747676
4.677773
5.494952
5.444884
6.120801
6.543994
5.751848
6.153584
7.116795
6.563663
6.431937
8.522868
6.545782
6.965995
7.416606
7.173419
7.149577
6.840825
7.664561
8.133650
7.276535
7.647872
7.968545
7.797480
8.402467
8.308887
8.620620
7.393956
8.832812
7.760525
8.077621
8.368492
8.281469
8.537769
8.849502
9.047985
9.083748
9.723902
9.631515
10.643601
11.780858
12.793541
14.173985
17.941594
19.992590
22.321939
25.509596
25.260448
23.902655
26.285648
24.023652
23.272634
20.821691
18.011928
16.358495
13.799667
13.957620
12.841821
11.475682
9.694695
9.003878
9.486675
9.558797
9.009838
8.010864
6.856918
9.146929
8.386970
8.793473
##ZVALUE=220
30.614734
29.062629
30.084848
34.628510
33.314824
27.070642
23.256540
17.830729
13.469458
12.058616
13.847947
15.966892
15.492439
12.623668
11.406541
8.667707
7.943511
5.657673
4.638433
4.840493
4.144907
5.533695
4.763603
5.573630
4.895926
5.062819
5.504489
5.589724
6.028414
5.971789
5.438924
7.077456
6.200671
6.922483
6.955862
7.121563
8.078814
7.680655
7.367730
7.223487
7.326603
7.624626
6.726980
7.363558
7.645488
7.900000
7.848740
8.426905
7.679462
8.689761
7.662773
7.916689
10.027885
9.149909
8.470416
10.170937
8.913875
8.247495
8.813739
10.108948
9.718537
10.520816
10.639429
11.282563
9.508729
10.039806
11.144876
11.974573
13.099909
15.439987
17.269850
19.998550
22.144914
23.519993
27.472973
24.797916
24.983883
24.364591
22.942424
23.306608
20.448565
18.895864
16.815662
15.122890
12.846589
11.918545
12.140870
10.073781
10.371804
9.464622
9.938478
9.495616
10.640621
10.373592
8.834600
8.797646
##ZVALUE=225
41.964650
61.023831
62.176585
78.827739
94.183683
100.572705
93.353987
74.376464
59.705973
40.483475
28.112531
24.690628
25.159717
28.122663
27.838945
25.091767
23.142695
16.327500
13.588667
9.606481
5.945563
6.686449
6.081462
5.789995
4.453659
6.033778
5.766749
6.845593
6.653666
6.413460
6.717443
5.471706
7.108450
6.736517
7.094741
7.001758
7.599592
8.694530
8.256435
8.246899
8.305907
8.939505
8.605719
8.468628
8.819699
8.653998
9.179711
9.129643
8.564591
8.539557
8.975863
9.376407
10.826588
10.715723
10.284781
9.209514
11.002421
10.882616
11.616945
11.100769
11.796951
11.536479
10.631680
11.170506
12.106895
11.935830
11.341572
14.368892
16.135573
18.256903
18.355846
21.424890
25.501847
24.362803
25.064945
26.567578
25.166869
25.565624
23.945570
22.693872
19.758940
19.541979
18.124580
18.166900
13.891459
14.379621
13.935566
13.099909
12.894869
13.891459
12.999773
12.922883
13.025999
11.808872
12.111664
13.941526
##ZVALUE=230
30.558705
32.718778
58.330894
108.299851
152.152777
205.503702
234.271884
245.744586
230.592489
189.784765
140.875578
83.711743
59.892535
42.437911
38.866997
43.623447
48.256516
47.241449
43.091774
32.978654
27.670860
19.777417
12.919903
9.638667
7.128716
7.038713
6.370544
6.794930
6.498694
7.135868
8.559823
7.991791
7.000566
7.440448
8.445978
8.441806
9.034872
8.249879
9.331703
8.718967
8.616447
8.679628
9.020567
9.768605
10.504723
9.708405
9.436607
9.170771
10.506511
10.394454
9.912848
10.957718
11.690855
11.504889
12.192726
11.417866
12.167692
12.474656
12.129545
12.710690
13.412833
14.209747
15.135407
13.748407
15.407801
15.464425
16.300678
17.036796
19.745827
21.875501
21.993518
26.779771
28.594732
29.469728
30.623674
29.573441
29.936433
30.256510
29.098988
24.641752
25.089979
24.448633
22.460818
21.147728
20.542741
19.108653
19.653440
18.510818
18.334985
20.119548
16.564727
17.501712
17.204881
17.794967
16.691685
16.590953
##ZVALUE=235
9.775758
12.004972
22.652745
67.431927
123.052597
220.338702
308.766961
430.207849
496.018529
516.055822
469.342470
389.754772
262.311697
183.708668
111.057758
77.319741
64.730644
63.702464
71.593523
71.613789
71.629882
59.858561
45.826435
39.030910
26.315451
18.250942
13.770461
10.267496
8.293986
8.787513
9.228587
8.484721
9.259582
8.426905
9.252429
10.304451
10.383725
9.393692
9.331703
9.451509
10.659695
9.954572
10.043979
10.941625
10.780692
11.026859
11.354685
12.269616
12.176633
12.975931
12.836456
11.201501
12.719631
12.891889
12.911558
12.042522
14.775991
14.429688
14.294982
16.462803
15.037656
15.924573
16.630888
18.013716
19.157529
18.764734
19.440651
20.979643
23.073554
25.678873
26.268959
29.058456
32.271743
36.168694
34.919977
35.349727
35.288930
34.003854
34.676790
29.625893
31.162500
29.581785
27.102828
25.547743
25.397539
25.298595
25.462508
25.523901
23.324490
24.712682
24.344921
23.312569
24.042726
23.110509
23.232698
21.758676
##ZVALUE=240
2.051592
2.121925
4.856586
12.733936
41.849613
87.140799
191.558003
318.552852
521.833897
665.041804
795.532465
829.640627
780.443549
618.399978
468.203425
277.641416
187.992454
115.757585
86.097717
78.532696
88.011622
97.804666
97.513795
91.740489
75.047612
62.072873
49.469471
34.773946
23.829937
17.424822
13.192892
10.867715
10.996461
11.183619
11.153817
9.897947
11.049509
11.335611
10.493994
11.398792
10.527968
11.180639
10.650754
10.716915
10.768771
11.025667
12.160540
11.565685
11.529922
11.563897
11.584759
12.246966
12.959838
13.240576
12.882948
13.106465
14.631748
15.327930
15.417933
16.688704
16.018748
16.912818
16.287565
19.379854
19.720793
20.715594
21.117926
22.495985
24.630427
26.505589
30.948520
34.164786
34.666657
36.855936
38.417578
38.153529
38.635731
37.408471
38.504601
35.063624
34.657717
32.773614
33.085942
30.377507
31.590462
30.487776
30.022860
30.729771
28.345585
27.088523
29.018521
28.982759
27.649999
27.891994
28.132796
27.630925
##ZVALUE=245
2.301931
1.809597
1.756549
1.599789
3.428459
11.935830
30.440688
92.668533
188.774467
387.719870
564.463735
813.826919
965.910554
1015.774012
986.228585
878.601670
652.262568
462.661982
268.979669
160.771608
98.910928
81.570745
90.518594
105.138421
109.188557
105.500817
100.502968
84.462762
71.298480
51.549673
40.358901
26.148558
19.617677
13.350844
11.508465
11.840463
11.225939
10.251999
10.109544
10.636449
10.488629
10.415912
9.973645
9.157658
10.170937
9.825826
10.554790
10.042787
10.570884
10.033846
11.305809
10.706782
11.694431
11.993647
12.411475
12.406707
12.645721
13.872981
14.460683
13.289452
14.611483
14.477968
15.022755
15.645623
17.043948
16.846657
19.421577
20.083785
21.726489
25.047660
24.294853
26.690960
30.826926
33.230782
35.719872
33.886433
33.280849
32.922626
32.791495
31.059980
30.762553
29.158592
29.169917
28.816462
29.586554
28.535724
28.035641
28.280616
26.747584
29.319525
27.926564
26.459694
28.481483
28.691888
26.707649
24.851561
##ZVALUE=250
1.410842
1.595616
1.504421
1.449585
1.964569
2.385974
2.480745
7.181764
30.242801
74.890852
199.688673
352.617502
553.973913
844.512582
1015.774012
1015.774012
1015.774012
1015.773416
892.667770
603.201985
401.403904
244.328976
121.770501
86.964965
82.557797
93.171000
106.732845
116.767883
114.720464
105.790496
96.614957
76.662898
58.645606
38.802624
26.078820
17.120838
12.601614
11.012554
10.064840
9.601712
10.013580
9.238720
10.011792
9.511709
8.854866
9.119511
9.542704
8.976460
10.121465
8.792877
9.256601
9.891987
10.090470
10.798573
10.345578
10.193586
11.391640
11.719465
12.492537
11.821985
11.568666
12.401938
13.349652
14.307499
15.763640
14.649630
16.339421
17.289519
18.050671
21.146536
23.784637
24.455786
25.800467
28.245449
27.495623
28.527975
30.802488
27.330518
28.066635
27.315617
28.874874
26.729703
26.339889
25.436878
25.119781
26.202798
25.660992
25.252700
24.801493
25.599599
23.477674
25.810599
25.524497
25.388598
25.784969
25.320649
##ZVALUE=255
1.140833
0.661612
1.058578
0.926852
1.162887
1.042485
1.109838
1.578927
1.752973
3.654957
19.582510
60.303807
132.249594
311.555862
512.568951
853.053927
1015.338898
1015.338898
1015.338898
1015.338898
1015.338898
877.550840
534.624457
319.295526
153.967738
96.407533
74.759722
77.447891
97.158551
110.581517
118.113756
120.285749
109.463930
93.162656
74.990988
52.041411
36.610961
23.132563
15.338659
10.646582
8.897781
8.201599
7.452965
7.953644
8.253455
7.497668
8.778572
8.107424
8.090734
8.422732
8.258820
9.538531
9.382963
8.505583
9.141564
9.464622
9.164810
10.072589
10.345578
9.893775
10.712743
10.781884
11.555552
11.234879
12.706518
13.152957
13.940930
14.827847
16.220808
17.733574
18.949509
20.328760
21.770000
22.571683
23.689866
24.378896
23.608804
24.016500
23.558736
23.293495
23.140907
22.158623
21.989942
22.852421
22.761822
21.514893
21.649599
23.239851
22.017956
22.709966
21.687746
22.450686
22.261739
21.229982
21.889806
21.227598
##ZVALUE=260
1.417994
1.163483
1.333952
1.111627
1.101494
1.704693
1.450777
1.446605
1.598597
1.782775
1.768470
2.690554
11.129975
32.693744
108.647943
224.991441
495.871902
754.422545
991.197824
1015.774012
1015.774012
1015.774012
1015.774012
1015.774012
781.399608
435.312390
265.877843
125.356913
77.189803
64.795613
76.633692
97.947717
111.529827
122.441649
123.479962
110.855699
97.394586
75.160861
55.993795
36.146641
24.745464
15.345812
10.400414
8.454919
7.773638
8.230805
7.992983
8.035898
7.750988
8.449554
8.054972
8.805990
8.633733
8.813739
8.994937
8.862615
8.802414
8.538961
9.455681
10.009408
10.003448
10.894537
10.385513
10.615587
10.879636
11.503696
11.922717
13.659000
13.331771
15.652776
17.370582
19.055605
19.494891
20.761490
21.901727
21.058917
21.838546
20.701885
20.453930
20.270944
19.087791
19.648671
19.523501
20.242929
19.524693
20.158887
20.664930
20.198822
20.375848
20.874739
20.457506
20.453930
20.094514
20.169616
21.308661
20.182729
##ZVALUE=265
1.187921
1.055598
1.126528
1.087785
1.306534
1.325607
1.288652
1.396537
1.334548
1.592636
1.738667
1.924634
2.486706
2.768636
4.897714
25.986433
71.042776
197.629929
371.451974
742.080808
1015.774608
1015.774608
1015.774608
1015.774608
1015.774608
1015.774608
977.776647
676.138997
350.966454
195.144415
91.624856
59.769750
60.033798
80.349445
96.899867
114.408731
125.491619
122.994781
113.257766
93.222857
75.167418
51.726699
36.470890
21.299720
14.401674
9.591579
9.038448
7.782578
8.228421
7.802844
8.564591
7.958412
8.577704
8.634925
9.012818
8.905530
9.166598
8.823872
8.951426
10.156631
9.473562
10.186434
10.064840
9.685755
10.693669
11.030436
12.136698
12.239814
12.890697
14.446974
15.504956
16.584992
17.888546
17.871857
18.669963
17.473698
19.186735
19.133687
18.935800
17.629862
18.358827
17.652512
17.889738
18.017888
17.833710
17.895699
18.135905
17.082691
17.355680
18.148422
18.592477
18.638968
18.477440
17.681718
18.307567
18.493533
##ZVALUE=270
0.892878
1.045465
1.173615
1.135468
1.025796
1.081824
1.097918
1.307726
1.247525
1.316667
1.422763
1.324415
1.178980
1.788735
2.200603
2.309680
2.958775
12.146831
40.157437
147.168636
302.657485
637.847781
971.121788
1015.774608
1015.774608
1015.774608
1015.774608
1015.774608
1015.774608
965.566635
564.909577
332.961679
148.467422
73.273778
50.053000
58.276653
79.109669
99.226832
116.591454
123.016834
123.639703
113.787651
96.266866
72.677732
54.767728
34.657717
24.017692
16.017556
11.706948
9.429455
7.980466
8.108616
8.541942
8.331537
8.318424
8.931756
9.677410
9.670854
9.953976
9.417534
9.923577
9.570718
10.095835
10.296702
9.839535
11.056662
11.422634
11.644959
12.518764
13.202429
14.964938
16.275644
15.965700
17.634630
17.107725
17.172694
17.079711
17.311573
16.688704
16.288757
16.678572
16.005635
16.123652
15.544891
15.733838
17.229915
16.136765
16.629696
16.513467
16.973615
17.269850
16.222000
17.578602
17.130971
17.522573
18.147826
##ZVALUE=275
1.024604
0.888705
0.993609
0.943542
1.066923
1.171827
1.125932
1.097918
1.333952
1.326799
1.289845
1.285672
1.332760
1.405478
1.805425
1.777411
1.784563
2.150536
2.280474
5.745888
24.860501
76.967478
250.446796
485.668778
951.728821
1015.774012
1015.774012
1015.774012
1015.774012
1015.774012
1015.774012
1015.774012
816.987753
422.489643
228.575468
87.330937
47.224760
43.008924
56.386590
77.218413
93.880892
113.248825
119.963884
119.342804
110.970736
90.983510
75.716972
53.922534
38.992763
24.739504
17.101765
12.347698
9.914637
8.804798
8.634925
9.211898
9.630919
9.725690
9.607673
10.212660
9.700656
9.886622
9.955764
10.654926
10.490417
10.641813
11.422634
11.752844
12.853742
14.242530
14.816523
15.430450
15.465617
16.511679
16.907454
16.327500
16.688704
16.496778
16.047955
15.603900
16.558766
15.410781
15.792847
15.600920
15.201569
15.958548
15.527606
15.846491
15.612841
15.665889
16.106963
15.898943
16.295910
16.046762
16.780496
16.870499
##ZVALUE=280
0.620484
0.461936
0.652671
0.586510
0.856519
0.697970
0.771880
0.792742
0.849962
0.770688
0.765920
0.846982
1.051426
1.039505
1.196861
1.112819
1.431704
1.344681
1.843572
1.934767
2.094507
2.686977
15.255809
57.342649
200.870633
389.086604
744.483471
1015.550494
1015.550494
1015.550494
1015.550494
1015.550494
1015.550494
1015.550494
977.073908
552.860498
324.459672
134.048462
62.734485
34.757853
39.263964
57.312846
75.656772
97.066760
108.814836
118.693709
116.503835
106.450915
94.599724
71.944594
54.817796
36.172867
25.768876
16.034842
11.833906
10.029674
9.476542
9.481907
9.694695
9.341836
10.079741
10.061860
10.533929
10.779500
11.316538
11.577606
11.565685
12.275577
12.920499
13.474822
13.702512
14.890432
15.552640
16.709566
15.723705
16.380548
15.713573
15.363693
15.082955
15.094876
15.629530
14.887452
15.055537
15.145540
14.677644
15.344620
15.052557
15.495420
14.488697
15.508533
15.286803
15.647411
15.599728
15.088916
15.556812
14.588833
##ZVALUE=285
0.809431
0.767708
0.921488
0.822544
0.599623
0.613928
0.732541
0.782609
1.086593
0.860691
1.106858
0.949502
1.049638
1.418591
1.379848
1.256466
1.402497
1.512766
1.571774
1.682639
1.648664
1.940727
2.390742
2.726912
7.387400
29.386878
113.011599
244.583488
555.544496
894.286036
1015.774012
1015.774012
1015.774012
1015.774012
1015.774012
1015.774012
1015.773416
760.920644
468.189716
213.169456
102.701783
37.863851
27.823448
38.942695
52.006841
74.702501
90.748668
106.243491
113.452673
113.963485
104.686618
90.348721
74.320436
53.372979
39.121509
25.165677
18.159747
13.002753
11.231899
10.409951
10.257959
11.062622
11.154413
11.007786
11.241436
11.498928
11.711717
12.243986
12.863874
13.429523
14.126897
14.354587
15.861988
15.582442
15.941858
16.099811
16.516447
15.481710
15.528798
15.307665
15.216470
15.076995
15.112758
14.942884
14.929771
15.669465
15.298724
15.179515
14.399886
14.966726
14.935732
14.624000
15.681982
15.410781
14.795661
15.746951
##ZVALUE=290
0.558496
0.760555
0.743866
0.687838
0.799894
0.839829
0.766516
0.782609
0.888705
0.855923
0.903606
1.071692
1.074672
1.041889
1.172423
1.044869
1.099706
1.310706
1.461506
1.574755
1.484752
1.638532
1.965761
1.952648
2.317429
2.596974
3.672838
11.719465
65.210462
161.938667
401.798487
705.339909
1015.774608
1015.774608
1015.774608
1015.774608
1015.774608
1015.774608
1015.774608
956.779718
623.658895
310.398936
156.312585
52.087903
25.471449
25.685430
34.621954
51.695704
66.151619
86.157918
97.773671
108.454823
109.538436
102.208853
89.774728
69.269538
53.735971
35.494566
26.398897
18.190742
14.404655
12.027621
11.378527
10.904670
11.094809
11.465549
11.570454
12.090802
12.981892
13.602972
13.720989
14.930964
15.582442
15.488863
15.100837
15.194416
15.220642
15.339851
15.561581
14.976859
15.220642
14.845729
15.181899
15.224814
14.958978
15.057921
14.876723
15.269518
15.207529
15.270710
15.111566
14.694929
14.878511
14.928579
14.209747
14.570951
##ZVALUE=295
0.677705
0.750422
0.754595
0.729561
0.721812
0.802875
0.650883
0.978708
0.880957
0.775456
0.845790
0.895858
0.878572
0.968575
1.002550
0.927448
1.167655
1.168847
1.078844
1.263618
1.417994
1.522899
1.656413
1.586676
1.812577
1.835823
1.992583
2.387762
2.797842
5.102754
20.376444
102.583766
248.925686
605.884790
964.338779
1015.774012
1015.774012
1015.774012
1015.774012
1015.774012
1015.774012
1015.774012
801.502466
424.391627
228.130817
80.663562
34.956932
18.692613
21.756887
33.523440
45.509934
65.552592
79.982877
94.562769
102.621913
104.989409
97.131729
83.113909
69.036484
50.393939
37.783980
25.959611
19.065738
14.363527
12.814999
12.493730
12.228489
12.170672
13.090968
13.627410
14.256835
15.004873
14.823675
15.599728
16.132593
15.682578
15.620589
16.049743
15.737414
15.326738
15.640855
14.993548
15.418530
15.639663
15.437603
15.648603
15.167594
15.053749
14.863610
15.354753
14.783740
14.927983
14.778972
14.952421
15.267730
14.671683
##ZVALUE=300
0.731945
0.631809
0.696778
0.618696
0.603795
0.713468
0.606775
0.588894
0.596642
0.766516
0.833869
0.779629
0.841618
0.824928
0.883937
0.888705
0.769496
1.006722
1.114607
1.132488
0.986457
1.174808
1.387596
1.427531
1.394749
1.624823
1.799464
1.963973
2.205968
2.399683
2.756715
3.052950
12.951493
53.341389
201.343894
406.200886
840.737820
1015.774608
1015.774608
1015.774608
1015.774608
1015.774608
1015.774608
1015.774608
953.137875
612.188578
306.389928
161.395669
54.416656
23.512840
16.704798
20.590425
31.139851
42.570829
59.032440
74.296594
90.448856
97.095966
98.654628
93.470812
81.464648
68.478584
50.475001
39.659739
27.155876
20.413995
15.767813
14.058948
13.634562
13.695955
15.000701
14.814734
15.737414
15.330911
15.568733
15.857816
15.892982
15.263557
15.509725
15.425682
15.610456
15.456676
15.735626
15.586615
15.417933
15.276670
15.630722
15.915632
15.575886
15.562773
15.313625
15.191436
15.265942
15.231967
14.656782
14.847517
##ZVALUE=305
0.634789
0.732541
0.498891
0.602603
0.559688
0.611544
0.550747
0.706911
0.645518
0.755787
0.745654
0.717640
0.818968
0.828505
0.775456
0.747442
0.906587
0.906587
0.948906
0.937581
1.187921
1.046658
1.200438
1.150966
1.235604
1.558661
1.383424
1.546741
1.721978
1.885891
2.099872
2.335906
2.615452
2.842546
6.738901
30.513406
140.589476
318.181515
719.333887
1015.774012
1015.774012
1015.774012
1015.774012
1015.774012
1015.774012
1015.774012
1015.774012
769.762993
383.470654
204.733610
77.928901
32.917857
14.297962
14.621615
19.943714
28.617978
43.256879
55.544972
71.718693
83.867908
93.406439
94.897747
89.861751
80.156922
62.954426
50.955415
36.651492
28.292537
20.132661
16.653538
15.111566
15.067458
15.359521
15.425682
15.121698
15.445948
15.683770
16.059875
15.885830
15.280843
15.631914
15.962720
15.807748
16.024709
15.893579
15.955567
15.885830
15.966892
15.548468
16.198754
15.585423
15.561581
14.841557
15.216470
14.825463
14.824867
##ZVALUE=310
0.767708
0.645518
0.675917
0.791550
0.573993
0.712872
0.777841
0.748634
0.747442
0.714660
0.712872
0.903606
0.946522
0.836849
0.916719
0.836849
0.752807
0.996590
0.995994
1.081824
1.119971
1.062751
1.089573
1.077652
1.194477
1.306534
1.363754
1.384616
1.510978
1.422763
1.379848
1.987815
2.021790
2.286434
2.486706
2.989769
3.620982
16.129613
63.061714
233.319402
462.699533
943.578482
1015.870571
1015.870571
1015.870571
1015.870571
1015.870571
1015.870571
1015.870571
954.407454
614.531636
295.280814
152.942538
52.025914
20.942688
12.533665
13.702512
19.466877
25.258660
38.363934
49.962997
66.822767
76.976418
86.216927
88.642836
84.660649
76.209903
63.075423
51.697493
37.502646
29.520988
22.270679
19.447803
16.763806
16.216636
15.176535
15.971661
15.988946
15.642643
15.598536
15.810728
16.085505
16.446710
15.761852
16.073585
16.401410
16.848445
16.262531
15.818477
16.426444
15.829802
15.950799
15.627742
15.625954
16.012788
15.693903
##ZVALUE=315
0.893474
0.883937
0.870824
0.799894
0.964999
0.896454
1.020432
0.976920
0.920892
1.005530
0.964999
1.062751
1.048446
0.969768
0.835657
1.139641
1.011491
1.048446
1.105666
1.111627
1.242757
1.277924
1.338720
1.332760
1.358986
1.393557
1.669526
1.566410
1.591444
1.637936
1.808405
1.915693
1.930594
1.999736
2.278686
2.560616
2.780557
3.079772
3.166795
7.770658
32.975674
157.135725
353.222489
778.694749
1016.093493
1016.093493
1016.093493
1016.093493
1016.093493
1016.093493
1016.093493
1016.093493
825.251937
421.734452
223.588943
78.784823
31.735897
13.099909
11.829734
14.045835
17.499924
25.139451
33.992529
48.467517
59.662461
74.715614
81.457496
84.738731
83.102584
73.194504
63.486695
49.487948
39.442778
28.680563
23.388863
18.600821
16.621947
15.861988
15.776753
15.871525
16.285777
16.507506
16.645789
16.305447
16.811490
16.647577
16.864538
16.714931
17.096996
16.503930
16.748905
16.635656
16.606450
15.708804
16.284585
15.622973
##ZVALUE=320
0.645518
0.607967
0.431538
0.399947
0.734925
0.579953
0.580549
0.601411
0.781417
0.647902
0.550747
0.496507
0.630617
0.648499
0.725985
0.612736
0.642538
0.827909
0.787973
0.868440
0.703931
0.924468
0.854731
0.910759
0.906587
1.017451
1.126528
1.122952
1.015663
1.098514
1.029968
1.449585
1.314878
1.567602
1.731515
1.853704
1.824498
2.034903
2.320409
2.313852
2.912879
4.121661
14.460683
95.603466
245.216489
607.655644
971.899629
1015.774012
1015.774012
1015.774012
1015.774012
1015.774012
1015.774012
1015.774012
1000.003815
557.210445
307.659507
128.223896
57.015419
17.563701
11.131763
10.852814
12.458563
16.739964
21.477938
33.053756
42.879581
56.342483
67.937970
78.322887
80.959797
77.650547
71.485639
58.213472
47.816634
35.459995
28.917789
21.918416
18.591881
16.803741
16.110539
15.740991
15.796423
16.134977
15.938878
16.544461
16.687512
16.526580
16.611814
16.508698
16.089678
16.345978
15.846491
16.059875
15.919805
15.858412
##ZVALUE=325
0.436902
0.397563
0.473857
0.428557
0.536442
0.580549
0.517964
0.586510
0.557899
0.564456
0.509620
0.582933
0.445843
0.787973
0.602603
0.595450
0.603795
0.816584
0.650883
0.715852
0.822544
0.840425
0.741482
0.833869
0.769496
0.960827
0.986457
0.927448
0.790954
1.069903
1.063943
1.123548
1.190901
1.052618
1.504421
1.453757
1.433492
1.732707
1.802444
1.743436
2.206564
2.293587
2.582669
3.450513
7.739663
62.144995
173.826814
462.286472
789.288878
1015.774012
1015.774012
1015.774012
1015.774012
1015.774012
1015.774012
1015.774012
1015.774012
663.423538
390.356779
172.451735
79.228878
23.142695
11.941791
9.985566
10.563731
13.031960
15.801787
21.988750
30.912757
44.620633
54.847002
66.434741
72.828531
76.549649
72.648525
64.372420
55.552721
44.075847
35.611987
26.662946
21.982789
18.068552
17.125607
16.334653
16.145706
16.504526
16.339421
16.230941
16.135573
16.054511
16.295910
16.306639
16.150475
16.181469
16.050935
16.069412
##ZVALUE=330
0.725985
0.454783
0.396967
0.398755
0.403523
0.551939
0.404716
0.454783
0.566840
0.430942
0.676513
0.663996
0.453591
0.664592
0.694990
0.660419
0.573993
0.655651
0.620484
0.649691
0.669956
0.758767
0.908971
0.760555
0.848770
0.958443
0.931621
0.997782
0.886917
1.057982
1.067519
0.975728
1.141429
1.034737
1.043677
1.144409
1.395941
1.437664
1.474619
1.568794
1.832843
1.940727
2.171993
2.361536
2.681613
3.047585
4.048944
30.028820
106.657743
334.169865
611.934662
1015.774012
1015.774012
1015.774012
1015.774012
1015.774012
1015.774012
1015.774012
1015.774012
909.190774
555.836558
242.608786
118.872523
42.090416
16.871691
10.074973
10.150671
10.998845
12.917519
16.940832
22.027493
31.420588
40.466785
54.276586
62.541962
69.331527
71.307421
68.455935
62.350631
52.378774
43.552518
32.600760
27.019978
21.961927
19.001961
16.799569
16.585588
16.508698
16.271472
15.864968
15.977621
15.662909
15.649796
15.788674
15.701652
15.425682
##ZVALUE=335
0.399947
0.510812
0.475645
0.525713
0.546575
0.695586
0.550747
0.334978
0.490546
0.535846
0.567436
0.496507
0.573993
0.437498
0.487566
0.631809
0.523925
0.605583
0.677705
0.718832
0.730753
0.568628
0.855923
0.714660
0.724792
0.786781
0.827909
0.800490
0.791550
0.894666
0.958443
0.880957
0.847578
1.008511
1.002550
1.021624
1.200438
1.322627
1.373887
1.353621
1.422763
1.667738
1.632571
1.767874
2.101660
2.257824
2.437830
2.614856
3.189445
11.855960
56.490898
227.682590
460.956693
930.151939
1015.774012
1015.774012
1015.774012
1015.774012
1015.774012
1015.774012
1015.774012
1015.773416
740.377903
363.030434
184.319615
57.728887
23.870468
11.454821
10.208488
10.866523
11.629462
13.889670
16.541481
22.812486
29.350519
40.582418
49.166679
58.596730
63.707829
66.606998
63.996911
57.382584
50.319433
41.305423
34.329891
26.554465
22.083521
18.600821
16.834736
15.976429
15.733838
15.495420
15.520453
15.121698
15.322566
15.487671
##ZVALUE=340
0.330806
0.379682
0.416636
0.346899
0.385642
0.386834
0.494719
0.528693
0.551939
0.552535
0.574589
0.595450
0.580549
0.425577
0.625849
0.608563
0.550747
0.541806
0.604987
0.695586
0.655651
0.723600
0.638962
0.662804
0.780821
0.861883
0.640750
0.830889
0.904799
0.767708
0.766516
0.846982
0.748634
1.038909
0.971556
0.994802
1.166463
1.061559
1.101494
1.157522
1.228452
1.463890
1.488924
1.571774
1.700521
1.889467
1.990795
2.084970
2.468824
2.614856
2.928972
5.486012
26.200414
146.308541
348.972678
791.558623
1015.774012
1015.774012
1015.774012
1015.774012
1015.774012
1015.774012
1015.774012
1015.774012
954.473615
483.232737
256.470442
97.503662
37.139654
13.095737
11.238456
11.350513
11.540651
12.063980
13.638735
16.877651
20.941496
29.321909
36.832690
48.139691
55.425763
61.900616
62.704682
61.074495
55.829883
47.650933
40.672421
32.085776
26.265979
21.427870
18.491745
16.609430
15.234947
15.058517
14.633536
14.658570
##ZVALUE=345
0.432730
0.384450
0.439882
0.371933
0.491738
0.425577
0.587702
0.592470
0.616908
0.603795
0.534654
0.393987
0.589490
0.445843
0.587702
0.653863
0.535846
0.629425
0.655651
0.560880
0.680685
0.501871
0.643730
0.641942
0.626445
0.679493
0.683665
0.748634
0.788569
0.790954
0.824928
0.912547
0.900626
0.870824
0.868440
0.861883
0.794530
0.903606
1.146793
1.128912
1.217723
1.301765
1.268983
1.313686
1.388788
1.644492
1.514554
1.561642
1.772642
2.010465
2.311468
2.602935
2.720952
3.502965
10.956526
88.108778
246.358514
609.436631
966.826677
1015.774012
1015.774012
1015.774012
1015.774012
1015.774012
1015.774012
1015.774012
1015.773416
704.803467
393.238664
148.901939
60.585737
17.781854
11.950731
11.308789
11.313558
11.099577
11.247993
13.084412
15.403628
20.648837
26.483536
36.271811
42.636991
50.514936
55.475831
57.537556
57.540536
52.275658
46.767592
39.157867
32.351613
25.021434
20.550489
17.591715
15.661716
14.285445
##ZVALUE=350
0.429749
0.412464
0.438690
0.475645
0.624657
0.500679
0.603795
0.671744
0.474453
0.617504
0.668764
0.511408
0.784993
0.550747
0.559688
0.573993
0.536442
0.576973
0.543594
0.556707
0.604987
0.812411
0.702739
0.572801
0.843406
0.706911
0.693798
0.726581
0.635982
0.684857
0.898838
0.834465
0.862479
0.943542
0.957847
0.743866
0.971556
0.975728
1.078844
1.028776
1.201630
1.240969
1.004934
1.238585
1.206994
1.468658
1.360774
1.584888
1.693964
1.831651
1.701713
1.864433
2.322793
2.650619
2.642870
3.389716
5.656481
46.109557
148.926377
434.418917
765.255690
1015.774012
1015.774012
1015.774012
1015.774012
1015.774012
1015.774012
1015.774012
1015.774012
812.374949
484.378934
217.426419
99.205971
27.036667
12.798905
10.351539
10.401607
10.296702
9.947419
10.829568
11.959672
15.403628
18.620491
24.033785
30.124784
38.524866
45.263767
50.871968
53.383708
52.874684
49.417615
42.866468
37.211776
29.238462
24.635792
19.704700
##ZVALUE=355
0.561476
0.575781
0.590682
0.625849
0.663996
0.438690
0.477433
0.315905
0.496507
0.504851
0.615716
0.487566
0.705719
0.536442
0.545979
0.715852
0.703931
0.716448
0.786781
0.760555
0.700951
0.810623
0.904799
0.693798
0.815988
0.737906
0.756979
0.840425
0.846982
0.795722
0.847578
0.955462
0.948906
0.887513
0.961423
0.962615
0.896454
0.932813
0.996590
0.996590
1.092553
1.261830
1.165867
1.105666
1.223683
1.365542
1.483560
1.438856
1.575947
1.617670
1.775622
1.773834
1.920462
2.169609
2.391934
2.435446
2.815723
3.369451
3.930926
22.843480
90.889931
317.267776
601.933599
1015.774012
1015.774012
1015.774012
1015.774012
1015.774012
1015.774012
1015.774012
1015.774012
989.234447
635.888577
273.847580
127.972960
37.856698
15.560985
10.254979
9.894967
9.515882
9.700656
10.262728
10.485649
11.493564
13.703704
17.561913
21.513700
28.470755
33.620000
40.992498
45.482516
48.768520
48.225522
45.255423
41.870475
34.689903
##ZVALUE=360
0.573993
0.555515
0.567436
0.541806
0.605583
0.549555
0.515580
0.548959
0.725985
0.612736
0.645518
0.650883
0.657439
0.614524
0.743866
0.670552
0.817776
0.621676
0.738502
0.687838
0.743866
0.607967
0.842810
0.787973
0.951886
0.839829
0.828505
0.974536
0.837445
0.761747
0.732541
0.819564
0.893474
0.934601
1.151562
0.938773
0.845790
1.011491
1.063943
1.064539
0.971556
1.161695
1.269579
1.188517
1.315475
1.327991
1.309514
1.326799
1.351833
1.525879
1.612902
1.672506
1.809597
1.919866
1.982450
2.056956
2.388954
2.654791
3.046989
3.290772
3.920794
8.770823
40.248036
179.268718
399.598479
860.168934
1015.774012
1015.774012
1015.774012
1015.774012
1015.774012
1015.774012
1015.774012
1015.774012
820.244551
382.973552
193.392634
68.371892
24.983883
10.451674
9.516478
9.203553
9.070635
9.046793
9.116530
9.786487
10.426641
12.194514
14.377832
18.513799
23.094416
29.899478
35.143495
40.892959
43.574572
43.973923
##ZVALUE=365
0.584722
0.637770
0.606775
0.597835
0.511408
0.439882
0.560880
0.610948
0.531673
0.670552
0.535846
0.680685
0.614524
0.590682
0.621676
0.685453
0.553727
0.583529
0.597835
0.617504
0.595450
0.651479
0.836849
0.793934
0.867844
0.765920
0.762939
0.827909
0.813603
0.728965
0.685453
0.971556
0.835657
0.766516
0.816584
1.013875
0.858903
1.020432
0.916719
0.871420
0.974536
1.062751
1.184940
1.227856
1.160502
1.132488
1.215935
1.282692
1.357794
1.316667
1.414418
1.487732
1.672506
1.567602
1.731515
1.800656
1.900792
2.206564
2.475977
2.638698
3.112555
3.503561
3.803968
4.908442
15.151501
98.743439
261.161923
649.510026
1000.065804
1015.774012
1015.774012
1015.774012
1015.774012
1015.774012
1015.774012
1015.774012
1015.774012
634.346604
356.464982
127.457976
42.825937
11.482835
9.107590
8.578897
8.289814
8.504987
8.369684
8.293986
8.474588
9.335876
10.346770
12.822747
15.545487
20.292997
24.828911
30.805469
##ZVALUE=370
0.540614
0.600815
0.684857
0.546575
0.547767
0.558496
0.539422
0.639558
0.465512
0.667572
0.626445
0.515580
0.732541
0.722408
0.607967
0.614524
0.591874
0.746846
0.678897
0.507832
0.515580
0.799894
0.571609
0.520945
0.657439
0.698566
0.536442
0.522733
0.754595
0.641942
0.727773
0.787973
0.824928
0.746846
0.741482
0.838637
0.789762
0.969768
0.827909
0.812411
0.904799
0.937581
0.918508
0.809431
1.013875
1.018643
1.011491
1.016855
0.900626
1.163483
0.994802
1.257658
1.267791
1.344681
1.422763
1.360774
1.468658
1.537800
1.741648
1.779795
2.124906
2.158880
2.456903
2.819896
3.048778
3.686547
7.551908
54.940581
171.266794
488.707423
830.808878
1015.774012
1015.774012
1015.774012
1015.774012
1015.774012
1015.774012
1015.774012
1015.774012
776.595473
492.600799
233.976841
114.823580
28.799772
9.683967
7.785559
7.544756
7.367730
7.314682
7.510781
7.367730
7.796884
8.060932
9.415746
11.192560
14.047623
##ZVALUE=375
0.407696
0.518560
0.515580
0.521541
0.630617
0.430942
0.578761
0.435710
0.452995
0.433922
0.440478
0.452995
0.481606
0.559688
0.533462
0.390410
0.503659
0.531673
0.475645
0.471473
0.501871
0.522733
0.558496
0.546575
0.728965
0.721812
0.649691
0.519753
0.486970
0.579953
0.701547
0.643730
0.607967
0.760555
0.523925
0.583529
0.719428
0.696778
0.745654
0.842810
0.749826
0.643730
0.628829
0.724792
0.841618
0.713468
0.852942
0.838637
0.887513
0.879765
1.017451
0.913739
1.022816
0.989437
0.997782
1.086593
1.285672
1.386404
1.461506
1.488924
1.501441
1.728535
1.702905
1.896620
2.078414
2.374649
2.628565
3.145933
4.263520
27.560592
100.176930
325.618982
625.487566
1015.774012
1015.774012
1015.774012
1015.774012
1015.774012
1015.774012
1015.774012
1015.774012
940.497518
625.469685
342.286825
194.989443
60.940981
17.721653
7.456541
7.420778
6.905794
6.923676
6.854534
6.851554
6.844997
7.028580
7.670522
##ZVALUE=380
0.242591
0.382662
0.295639
0.302792
0.125766
0.317693
0.420809
0.240803
0.350475
0.454783
0.407696
0.289679
0.320673
0.225902
0.328422
0.408888
0.430942
0.465512
0.272989
0.287890
0.431538
0.362992
0.538826
0.405908
0.552535
0.474453
0.409484
0.386834
0.553727
0.511408
0.490546
0.571609
0.553727
0.445843
0.493526
0.511408
0.703931
0.498891
0.695586
0.721812
0.545979
0.650883
0.592470
0.515580
0.571609
0.667572
0.544786
0.568628
0.766516
0.810623
0.886917
0.823736
0.855923
0.972748
0.881553
1.122952
0.990629
1.126528
1.084805
1.124740
1.146793
1.300573
1.414418
1.483560
1.734495
1.935959
2.097487
2.533793
3.038645
3.236532
4.423857
10.242462
75.197816
224.747658
610.805750
982.909799
1015.697718
1015.697718
1015.697718
1015.697718
1015.697718
1015.697718
1015.697718
1015.697718
691.529512
405.205488
170.153975
78.552961
20.664930
8.661747
6.980896
6.709695
6.272793
6.460547
6.377697
6.063581
##ZVALUE=385
0.053644
0.039935
0.038743
0.097752
0.100732
0.197887
0.248551
0.405908
0.138879
0.156760
0.067949
0.163913
0.188947
0.216961
0.164509
0.203848
0.218749
0.103712
0.294447
0.297427
0.291467
0.369549
0.310540
0.332594
0.216961
0.247955
0.285506
0.280738
0.352859
0.365973
0.221729
0.409484
0.225902
0.331998
0.378489
0.284910
0.257492
0.397563
0.429749
0.503659
0.463724
0.406504
0.449419
0.517964
0.458956
0.368953
0.486970
0.454783
0.478625
0.444651
0.622869
0.657439
0.599623
0.785589
0.785589
0.670552
0.645518
0.948906
0.699759
1.022816
0.803471
0.997782
1.084805
1.192689
1.282692
1.248717
1.761913
1.813769
2.133846
2.281666
2.739429
3.129840
3.210902
5.307794
25.496483
142.888427
340.334773
752.819777
1015.563011
1015.563011
1015.563011
1015.563011
1015.563011
1015.563011
1015.563011
1015.563011
964.430571
524.597764
292.367935
114.575624
43.439865
10.479689
6.354451
5.675554
5.920529
5.641580
##ZVALUE=390
0.109673
0.021458
0.224710
0.123978
0.107884
0.082850
0.130534
0.155568
0.232458
0.018477
0.159740
0.254512
0.065565
0.136495
0.160933
0.026822
0.196695
0.265837
0.201464
0.164509
0.275970
0.303984
0.218749
0.092983
0.194907
-0.042915
0.160933
0.142455
0.247955
0.393987
0.448823
0.462532
0.306964
0.268817
0.210404
0.365973
0.440478
0.278950
0.241995
0.327826
0.250936
0.383854
0.340939
0.335574
0.525713
0.370741
0.400543
0.574589
0.487566
0.513792
0.542998
0.509620
0.567436
0.620484
0.524521
0.588894
0.596642
0.752807
0.716448
0.701547
0.862479
0.894666
0.920892
1.149774
1.271963
1.468658
1.441836
1.682639
1.796484
2.175570
2.280474
2.598763
2.601743
2.697706
2.954602
3.728867
11.141896
79.675913
227.416754
610.924959
981.986523
1015.524864
1015.524864
1015.524864
1015.524864
1015.524864
1015.524864
1015.524864
1015.524864
802.897811
462.469459
183.050632
76.351762
17.465949
7.135868
5.722642
##ZVALUE=395
0.265837
0.376701
0.379682
0.343919
0.321865
0.422597
0.183582
0.404716
0.297427
0.281930
0.303984
0.318885
0.327826
0.427961
0.324845
0.410676
0.382662
0.316501
0.267625
0.354648
0.488758
0.284910
0.490546
0.405908
0.498891
0.302792
0.471473
0.366569
0.440478
0.440478
0.408888
0.446439
0.515580
0.594854
0.470877
0.460744
0.476837
0.482798
0.616908
0.669956
0.650883
0.577569
0.553727
0.753999
0.558496
0.763535
0.658631
0.704527
0.790954
0.675917
0.642538
0.633597
0.680685
0.723600
0.698566
0.757575
0.869632
0.898838
0.821948
0.930429
1.023412
1.113415
1.061559
1.239777
1.334548
1.348853
1.458526
1.774430
1.977682
2.109408
2.278686
2.281666
2.240539
2.534986
2.545714
2.796650
2.874732
3.198981
5.558729
48.121810
159.302950
474.224687
808.266997
1015.728712
1015.728712
1015.728712
1015.728712
1015.728712
1015.728712
1015.728712
1015.728712
972.798467
620.576739
271.012783
125.864744
34.705997
##ZVALUE=400
0.395775
0.385642
0.505447
0.429749
0.406504
0.334978
0.501871
0.551939
0.460744
0.241995
0.376701
0.472665
0.318885
0.443459
0.156760
0.434518
0.373721
0.367761
0.519753
0.368953
0.412464
0.375509
0.235438
0.416636
0.461936
0.418425
0.421405
0.447631
0.571609
0.590682
0.557899
0.609756
0.523925
0.591874
0.561476
0.594854
0.673532
0.491738
0.663996
0.545979
0.725985
0.569820
0.727773
0.592470
0.569820
0.585914
0.613928
0.863671
0.633597
0.791550
0.737906
0.749826
0.826716
0.803471
0.668764
0.701547
0.901818
0.920892
0.920892
0.930429
0.961423
1.098514
1.062751
1.086593
1.224875
1.486540
1.675487
1.658797
1.674891
1.812577
2.126694
2.124906
2.096891
2.235770
2.136827
2.091527
2.256632
2.488494
2.711415
3.126860
3.766418
25.542974
91.953874
290.563703
566.302538
1015.774012
1015.774012
1015.774012
1015.774012
1015.774012
1015.774012
1015.774012
1015.774012
1015.774012
732.476711
377.795696
##END
