##TITLE=QP00352
##FORMAT=SPECTACLE-ASCII V-1.2
##DATA TYPE=ULTRAVIOLET SPECTRUM
##SECOND TYPE=ULTRAVIOLET SPECTRUM
##DATE=11/14/17
##TIME=16:30:25
##SPECTROMETER/DATA SYSTEM=SPECTACLE
##XUNITS=NM EM
##YUNITS=ENERGY
##YFACTOR=1
##FIRSTX=220
##LASTX=410
##NPOINTS=96
##3DDATA=Equidistant
##ZUNITS=NM EX
##FIRSTZ=210
##LASTZ=400
##ZPOINTS=39
##XYDATA=(Y..Y)
##ZVALUE=210
3.517866
3.307462
3.348589
3.335476
3.720522
3.302693
3.726482
3.475547
3.280640
3.368855
2.591610
2.666712
1.916885
2.357960
1.965761
2.519488
2.428889
2.299547
2.143979
2.680421
2.701879
2.605915
3.286600
2.959967
3.440976
3.351569
3.039837
3.170967
3.706813
4.018545
3.996491
4.118681
4.045963
4.358888
4.084706
4.480481
3.988743
4.152656
3.973842
4.342794
4.795790
4.238486
4.709959
3.869534
4.858971
4.089475
4.646778
4.044771
5.247593
4.801750
5.203485
4.857779
5.289912
5.161762
5.129576
4.930496
4.789829
5.594492
5.376935
4.905462
5.567670
4.601479
6.160736
6.359816
5.930662
5.795956
6.236434
6.356835
7.959604
7.746816
9.643435
12.113452
13.137460
14.042854
15.370846
15.631914
16.497970
16.418695
16.087890
14.767647
14.762878
13.713837
13.410449
11.233687
9.041429
9.000897
7.355809
7.121563
5.993843
6.752610
5.596876
5.115867
6.011724
5.846620
5.287528
6.524920
##ZVALUE=215
7.738471
8.127689
8.121729
8.028746
7.113814
6.033778
6.488562
6.973743
6.429553
6.403923
7.245541
5.357862
3.914833
4.213452
3.012419
2.656579
2.799630
2.914667
2.243519
2.507567
2.763867
2.878904
3.080964
3.235936
3.410578
3.170967
2.685785
3.765821
4.080534
3.560781
3.674626
3.102422
4.319549
3.630519
4.476905
4.938841
4.934669
3.834963
4.678965
4.527569
4.788637
4.604459
4.027486
4.306436
4.783869
4.382730
4.681945
4.383922
5.628467
5.190969
5.674958
5.026460
5.093813
5.029440
5.073547
5.477667
5.492568
5.564690
5.867481
5.792975
6.408691
6.116629
6.642938
5.920529
5.989671
6.267428
6.453991
7.303953
7.814765
8.645654
9.788871
10.653734
12.454987
14.616847
14.399886
15.964508
16.661882
17.385483
13.973713
14.403462
12.874603
12.597442
12.046695
9.893775
8.546710
7.644892
6.554723
6.802678
5.724430
5.647540
5.013943
5.623698
6.096959
5.967617
5.578995
5.733967
##ZVALUE=220
19.557476
19.753575
21.631718
23.381710
23.012757
21.858811
16.240478
15.374422
13.734698
12.178421
14.840961
12.825727
13.738871
12.364984
9.769797
7.394552
6.223917
3.798604
3.641844
2.534986
2.875924
3.400445
3.026724
3.970861
3.727674
3.257990
3.453493
4.313588
3.963709
4.591942
3.592968
4.506707
4.535913
4.105568
5.032420
4.644990
5.222559
4.323721
5.032420
4.678965
5.165935
5.480647
4.963875
4.990697
4.693866
5.733967
5.083680
5.631447
6.241798
6.412864
6.440878
6.517768
6.190538
6.263852
6.249547
6.724000
7.448792
7.353425
7.786751
8.045435
7.784963
8.302927
8.754730
7.138848
8.355975
8.280873
8.142591
9.697676
9.111762
11.037588
12.142658
14.645457
15.777946
21.477938
20.992756
21.772981
21.594763
20.642877
19.514561
18.898845
17.287731
16.339421
13.879538
14.050603
12.793541
11.412501
10.124445
9.583831
9.515882
8.897781
8.835793
8.435845
8.516908
8.310676
8.240938
9.023547
##ZVALUE=225
34.844875
36.968589
57.970881
75.601935
98.277926
110.383630
112.471581
106.410980
77.944994
58.967471
35.606623
24.943948
25.475621
26.021600
26.789904
24.129748
23.524761
18.803477
14.060736
9.400845
7.866621
5.283952
4.694462
4.825592
5.567670
5.299449
6.333590
5.970597
6.214976
7.341504
6.101727
6.285906
8.167624
7.823706
7.823706
7.242560
8.054972
7.526875
7.840991
8.268952
8.308887
8.222461
8.033514
7.897615
8.888841
7.772446
9.540915
8.041859
9.277463
8.536577
9.025931
9.477735
10.911822
8.980632
9.555817
10.015965
10.434985
12.261868
11.032820
11.310577
10.424852
10.808706
9.929538
10.693669
11.300445
13.873577
12.599826
12.800694
13.182759
15.126467
17.443895
19.225478
22.261739
23.427606
25.226474
26.422739
25.815964
23.618937
24.845600
21.301508
18.426776
17.068982
15.904903
13.011694
12.749434
13.145804
11.086464
10.749698
10.912418
10.870695
10.851622
9.565949
9.794831
9.201765
9.812713
9.554625
##ZVALUE=230
19.095540
20.031929
34.276843
66.386461
89.749694
126.926899
143.866539
152.200460
146.223903
128.175616
91.996789
66.707730
46.100616
37.742853
38.358569
43.180585
45.115948
43.604970
42.505860
32.615662
26.200414
17.660856
11.963844
7.601976
5.664825
4.435778
4.694462
4.744530
5.567670
5.645752
4.725456
5.101562
4.973412
6.997585
5.555749
6.336570
7.030964
5.833507
5.825758
6.581545
6.893873
5.929470
5.883574
5.932450
6.517768
6.551743
7.379651
6.411672
6.230474
7.679462
7.716417
7.425547
6.895661
7.361770
7.997751
9.000897
9.044409
8.627772
9.864569
9.757876
9.310842
10.506511
9.029508
9.505749
9.812713
10.711551
11.149645
10.938644
12.470484
11.819601
15.177727
15.054941
15.885830
16.016960
16.914606
17.444491
18.263459
17.932653
16.000867
16.865730
15.161633
14.093518
12.639761
12.217760
11.692643
10.092854
10.772943
10.828972
9.816885
9.170771
8.794665
9.335876
9.056926
8.457899
9.027719
8.725524
##ZVALUE=235
5.990863
7.497668
15.281439
40.814877
71.809888
119.995475
165.137649
230.199695
275.707841
292.719007
274.312496
233.252645
169.956684
122.992992
81.623793
68.344474
58.801770
60.637593
66.506863
67.295432
67.907572
54.875612
47.477484
34.031868
24.310946
14.202595
10.482669
7.762909
6.936789
6.086826
6.828904
6.283522
5.405545
6.076694
6.759763
6.200671
6.700754
7.677674
6.623864
7.495880
7.070899
6.675720
6.650686
6.277561
6.706715
6.793737
7.787943
7.085800
6.721616
7.952452
7.802844
8.239746
8.264780
7.804632
9.380579
9.864569
9.931922
9.668469
9.104609
11.303425
11.131763
11.335611
11.888742
11.482835
10.930896
11.453629
11.654496
12.805462
13.171434
14.380813
15.305877
16.690493
18.073916
20.185709
18.158555
17.611980
20.320415
18.581748
17.716885
18.312931
16.947985
15.419722
16.032457
13.659596
14.202595
12.830496
13.225675
12.479424
12.722611
11.863708
12.461543
12.247562
13.389587
11.301637
10.516644
12.848973
##ZVALUE=240
1.524687
1.850724
2.752542
7.678866
23.495555
48.099756
104.670525
167.690516
281.865597
364.941955
439.995527
470.605493
444.572568
372.975469
292.529464
193.339586
133.368969
89.113712
72.708726
77.637434
85.098743
91.671944
92.392564
88.472962
72.030425
61.281919
45.070648
29.550791
19.059777
13.473630
9.924769
7.784963
7.782578
8.308887
7.594824
8.196831
8.228421
6.618500
7.691979
7.930994
7.329583
7.365942
7.095933
7.384419
6.878972
7.075667
6.983876
7.514954
8.058548
7.803440
8.090734
8.883476
9.832978
8.138418
8.550882
9.226799
10.390878
9.895563
11.560917
9.897947
10.238886
11.756420
11.521578
12.291670
12.345910
12.787580
13.082623
13.001561
13.342500
16.174912
17.196536
17.540455
17.927885
20.408630
21.655560
21.803975
21.038651
20.419955
18.941760
19.406676
18.234849
17.732978
18.382668
16.087890
16.126633
16.102791
15.741587
15.043616
13.848543
14.857650
14.362931
14.357567
13.961792
16.298890
14.611483
14.122725
##ZVALUE=245
1.409650
1.527667
1.525879
1.549721
2.298951
5.311966
19.876957
42.559505
105.651617
178.318620
309.958458
415.158868
507.131815
574.550629
566.835999
507.096648
417.193770
284.843445
201.711655
114.451647
83.029866
73.411465
85.640550
93.449950
104.335546
106.266737
98.174810
87.029934
66.591501
50.813556
38.206577
24.523735
16.854405
11.591911
9.554625
7.859468
9.322762
8.097887
7.521510
7.993579
7.294416
6.405711
7.242560
7.030964
5.770922
6.349683
6.199479
6.550550
6.486773
6.254911
7.270575
7.431507
7.561445
8.276701
7.649660
7.833838
8.517504
9.556413
9.385943
9.829998
10.006428
10.490417
10.872483
10.782480
11.540651
11.839867
12.113452
12.293458
13.116598
13.570786
15.573502
15.174747
16.898513
18.098950
18.854737
18.446445
18.519759
18.899441
19.813776
18.074512
19.157529
17.766953
17.068982
16.423464
16.444921
14.287829
14.738441
15.325546
14.565587
13.625622
13.935566
13.665557
14.041662
12.777448
14.010668
14.470816
##ZVALUE=250
0.992417
1.129508
1.543760
1.459718
1.342893
1.504421
1.668930
5.098581
12.084842
38.477778
81.309676
183.599591
287.805796
443.766713
549.556017
647.479892
663.977861
614.568591
534.428954
374.105573
258.272886
174.511671
95.517635
73.351860
77.049732
91.979504
103.987455
113.018751
110.870004
104.980469
87.538958
71.850419
54.128766
35.715699
23.667812
14.576912
10.488629
7.568598
7.470846
6.531477
6.684661
6.111860
6.013513
5.323887
4.900694
5.754828
5.562901
5.655885
5.658865
5.851984
7.065535
6.025434
5.953908
6.599426
7.370710
7.772446
8.123517
7.341504
7.981658
8.072853
8.653998
8.168817
8.180737
8.539557
8.741617
8.704662
9.710789
10.487437
9.903908
11.439919
12.220740
12.557507
13.990998
14.101863
14.866590
16.612411
15.655756
15.606880
15.391707
14.761686
15.052557
15.303493
15.597939
14.745593
13.122559
12.651682
12.515783
13.645887
14.301538
13.314486
12.941957
13.414621
13.532639
13.073683
12.691617
12.874603
##ZVALUE=255
0.932813
0.963807
0.848770
1.085997
1.101494
1.169443
1.137853
1.152754
1.679659
2.144575
9.668469
27.245879
60.188770
144.680738
243.227482
414.915681
546.551943
681.449771
750.666857
745.049715
660.050511
533.979535
340.462923
218.395591
112.586617
76.963902
67.424774
75.546503
94.081759
109.602809
114.351511
116.419792
108.331442
89.933872
74.391961
52.248836
35.648942
20.667911
12.886524
8.224845
6.587505
5.857944
5.597472
5.382895
5.065799
4.680753
5.255938
5.381703
4.400611
5.256534
5.758405
5.544424
5.495548
5.817413
5.887747
6.213784
6.314516
6.692410
6.609559
7.130504
6.596446
7.195473
7.380843
7.725954
7.034540
7.629991
8.270741
8.368492
9.101629
9.392500
10.404587
10.837913
11.913776
13.299584
12.853742
13.513565
13.759732
13.725758
12.726784
13.709664
12.657642
12.994409
11.823773
11.916757
12.633801
11.896491
12.001991
11.701584
11.985898
11.347532
11.916757
12.459755
11.860728
12.438893
11.465549
11.272430
##ZVALUE=260
0.911951
0.979900
1.012683
0.713468
1.025796
0.754595
0.964999
1.254678
1.119971
1.025796
1.437664
1.864433
5.718470
14.181733
44.910908
99.007487
221.455693
349.992514
545.520782
689.806938
834.935904
864.351988
782.513618
660.173893
523.691773
310.449600
203.037858
104.658604
71.376562
62.639713
72.051883
95.020533
109.751821
119.059682
120.693445
106.801987
92.296004
70.953965
52.936673
34.880638
22.909641
12.240410
7.933974
5.869865
5.410910
5.063415
5.409718
5.200505
4.783869
5.754828
5.337000
6.156564
5.998611
5.957484
5.916953
5.837679
6.087422
6.387830
6.083846
6.249547
6.739497
7.035732
6.182790
6.717443
7.129908
6.828904
7.094741
7.611513
7.785559
8.406639
8.931756
10.534525
10.366440
10.932684
10.859966
12.004972
10.869503
11.450648
11.655688
11.435747
11.289716
10.503531
10.475516
11.504889
10.436773
10.396838
10.589957
10.657907
10.266900
10.804534
10.994673
10.323524
10.712743
10.679960
10.416508
11.307597
##ZVALUE=265
0.667572
0.841618
0.916719
1.072884
1.003742
0.860691
0.902414
0.812411
1.080632
0.930429
1.173615
1.228452
1.274943
1.285672
2.654791
10.999441
30.556917
85.158944
165.989995
340.890884
511.209965
692.223907
887.802839
959.241986
906.503797
800.909996
617.928505
447.894931
257.883668
158.846974
80.525875
56.450963
56.573749
77.620745
98.262429
113.945603
117.787719
117.226839
110.095739
87.460876
71.520805
48.998594
33.973455
18.971562
12.549758
7.272959
5.344748
5.358458
5.213618
5.390644
5.865693
6.152987
6.220937
5.899668
6.518960
6.506443
6.162524
6.582737
6.856918
7.069707
6.707907
7.091761
6.991625
7.964969
7.109642
7.043481
7.645488
7.394552
7.972717
8.523464
8.520484
9.268522
9.938478
10.482669
10.134578
10.383725
10.478497
10.964870
9.512901
9.826422
9.204745
9.456873
9.968877
9.673834
9.447932
9.722710
9.008646
9.487867
9.557605
9.833574
10.084510
9.086728
9.253621
9.453893
9.685755
9.313822
##ZVALUE=270
0.770688
0.642538
0.743866
0.770688
0.620484
0.820756
0.760555
0.720620
0.990629
0.890493
0.809431
0.911951
1.130700
1.161695
1.450777
1.305938
1.997948
5.205870
17.716885
64.502954
140.074492
259.556770
490.763783
689.945817
927.067995
1015.765667
1015.765667
992.278457
820.427537
642.842650
458.559990
252.179503
143.689513
61.682463
46.565533
57.492852
74.213743
97.281933
111.330748
119.713545
119.196773
103.707910
93.023777
69.949627
51.917434
32.151937
21.199584
12.535453
9.271502
6.653666
6.177425
6.413460
6.442666
6.787777
6.772876
6.856918
6.753802
6.754994
7.215738
7.466674
7.699728
7.479787
7.737875
6.834865
7.001758
7.724762
7.122755
8.095503
8.317828
8.381605
9.241700
9.698868
9.258986
10.201931
10.535717
9.599924
10.421872
10.120869
9.480715
9.587407
8.510947
9.009838
9.372830
8.964539
8.558631
8.465648
8.916855
8.843541
9.128451
8.915663
9.356737
8.934736
8.613467
9.367466
8.924603
9.050965
##ZVALUE=275
0.553727
0.501871
0.584722
0.738502
0.569820
0.543594
0.707507
0.794530
0.659823
0.576973
0.901818
0.814795
0.812411
1.067519
0.926852
1.240969
1.263618
1.179576
1.250505
2.871752
10.969639
34.698844
112.415552
224.836469
443.989038
634.032488
872.315764
1014.435887
1015.713811
1015.713811
1015.713811
809.040666
600.430965
328.063965
190.163851
78.871846
45.361519
41.229725
53.059459
76.000690
94.221830
110.179782
118.021965
116.952658
107.372999
86.388588
72.585940
50.757527
36.605597
21.509528
15.054941
9.551644
7.838607
7.141829
6.859899
6.785989
7.061958
7.653832
7.336736
7.411838
7.531643
7.731915
7.852912
7.760525
7.325411
7.779598
7.990599
7.954836
7.941723
8.548498
8.523464
9.011626
9.185672
10.295510
9.582639
10.063648
9.199977
9.493828
9.329915
9.131432
9.169579
8.842945
8.311868
8.620620
8.491874
8.796453
8.350611
8.079410
8.450747
8.404851
8.176565
8.279681
8.322597
8.127689
8.568764
8.254647
##ZVALUE=280
0.701547
0.674725
0.439882
0.664592
0.544786
0.848770
0.693798
0.826716
0.840425
0.653863
0.771880
0.790954
0.873804
0.881553
0.889897
0.820756
0.974536
1.081824
1.261830
1.388788
1.598597
1.687407
7.796884
25.789738
87.784529
171.811581
338.988900
524.659753
798.735023
974.895954
1015.820503
1015.820503
1015.820503
884.450674
675.889850
396.634936
242.788792
109.580755
54.674745
31.479597
35.566688
55.327415
72.382689
95.447898
108.944774
114.944577
113.887787
103.163719
90.040565
67.633986
52.377582
35.124421
24.502873
15.447736
10.952950
8.477569
7.492900
7.576942
7.584691
8.139610
8.289814
8.298755
8.370876
8.259416
8.399487
7.823706
8.122921
7.822514
8.613467
8.753538
9.005666
8.722544
9.223819
9.735823
9.542704
9.862781
9.625554
9.445548
9.414554
9.159446
8.574724
8.287430
8.366704
8.323789
8.304715
8.148551
8.244514
7.954836
8.019805
8.104444
8.101463
7.859468
7.689595
7.500648
7.726550
7.521510
##ZVALUE=285
0.521541
0.508428
0.505447
0.487566
0.332594
0.480413
0.678897
0.561476
0.540614
0.713468
0.703931
0.609756
0.847578
0.853539
0.857711
0.659823
0.873804
1.095533
1.019835
1.090765
1.148582
1.191497
1.428723
1.412630
3.639460
11.870861
44.544935
103.545785
245.429873
407.730937
612.792969
903.670788
1015.774012
1015.774012
1015.774012
1000.101566
824.796557
535.956621
342.423916
160.568953
79.792738
31.001568
25.384426
36.241412
49.079657
72.355866
86.427927
103.403926
110.195875
109.382868
102.990866
88.034868
72.523952
51.424503
36.930442
23.082495
16.068816
11.150837
9.403825
8.203983
8.226633
7.900596
8.602738
8.456707
8.660555
8.060932
8.349419
8.951426
8.734465
9.528995
9.175539
9.314418
9.509921
9.343624
9.281635
9.387732
9.568930
8.855462
8.716583
9.127855
8.594990
8.262992
8.332729
7.734895
8.280873
8.276701
7.607937
8.066893
7.992983
7.956624
7.412434
7.641912
7.898808
7.498860
7.565618
7.537603
##ZVALUE=290
0.500679
0.430942
0.514984
0.589490
0.654459
0.588894
0.665784
0.695586
0.532866
0.604987
0.695586
0.827909
0.503659
0.679493
0.854731
0.892878
0.719428
0.686646
0.831485
0.789762
0.998974
1.053810
1.124740
1.071692
1.435876
1.375675
1.876950
4.912615
23.980737
60.687661
96.933842
298.820734
491.782427
814.339519
1009.404659
1015.774012
1015.774012
1015.774012
973.476768
662.475824
444.423556
221.671462
111.267567
38.904548
19.872785
22.496581
32.348633
47.924519
63.261986
83.604455
96.624494
106.818676
108.513832
100.865960
88.418722
67.492723
52.113533
35.907626
24.909973
16.448498
12.316704
9.974837
8.742809
8.901954
8.319616
8.861423
8.681417
9.005666
9.066463
9.455681
9.349585
9.623766
9.619594
9.482503
9.583831
9.285808
9.620786
8.969903
8.912683
8.947849
8.521676
8.405447
8.603930
8.098483
7.898808
8.161664
7.787943
8.068681
7.672906
7.667542
7.631779
7.681847
7.302761
7.408857
7.352829
7.326603
##ZVALUE=295
0.525713
0.525713
0.341535
0.528693
0.430942
0.397563
0.531673
0.588894
0.613928
0.608563
0.721812
0.769496
0.671744
0.645518
0.568628
0.882745
0.740886
0.963807
0.972748
0.794530
0.776649
0.848770
1.016855
1.030564
1.075864
1.094937
1.356602
1.602769
1.773834
2.409816
7.538795
34.665465
89.946985
239.054561
416.713953
709.214807
941.082835
1015.833616
1015.833616
1015.833616
1015.833616
814.387798
577.227473
308.151841
166.074634
59.069991
26.337504
15.968680
19.968748
31.296611
43.845773
63.065886
78.109503
93.999505
101.246834
102.680922
94.418526
81.648827
68.265796
49.052835
36.729574
24.400949
17.671585
12.652874
10.205507
9.108782
9.053946
8.878708
9.051561
9.285808
9.442568
9.586811
9.931922
9.597540
9.312630
9.577870
9.209514
9.433627
8.993745
8.661747
8.897781
8.638501
8.370876
8.066893
8.223653
7.722974
7.673502
7.649660
8.116961
7.439852
7.570982
7.523894
7.571578
7.204413
7.652640
6.935596
##ZVALUE=300
0.444651
0.478625
0.432730
0.606775
0.381470
0.461936
0.357628
0.712872
0.460744
0.464916
0.587702
0.742674
0.680685
0.656843
0.620484
0.564456
0.664592
0.687838
0.676513
0.730753
0.767708
0.794530
0.859499
0.756979
0.791550
1.024604
1.130700
1.044869
1.117587
1.194477
1.224875
1.617670
5.309582
18.355846
73.000789
153.738856
341.374874
546.553731
854.754448
1015.774608
1015.774608
1015.774608
1015.774608
968.799591
657.714605
438.273549
225.863457
118.460655
41.020513
18.676519
14.056563
18.743873
29.348731
40.845871
57.758689
72.109699
89.458823
96.809864
99.149942
93.206763
81.014633
66.249967
48.871636
37.958622
24.363995
17.764568
12.631416
10.664463
9.619594
9.021759
9.353757
9.167790
9.425879
9.441972
9.206533
9.677410
8.869767
8.898973
8.990765
8.255839
8.306503
8.180737
8.050799
7.949471
8.340478
8.191466
7.635951
7.632971
7.667542
7.697940
7.305741
7.452965
7.279515
7.473826
7.316470
7.157922
##ZVALUE=305
0.457764
0.573993
0.437498
0.340939
0.330806
0.392795
0.454783
0.421405
0.480413
0.388622
0.649691
0.612736
0.599623
0.521541
0.497699
0.633597
0.556707
0.646710
0.442863
0.640750
0.528693
0.726581
0.703931
0.665784
0.715852
0.915527
0.783801
0.984669
0.909567
1.147985
1.042485
1.415610
1.490712
1.740456
2.384782
12.840629
41.150451
124.573708
242.811441
477.992892
694.608688
985.129476
1015.785933
1015.785933
1015.785933
994.162560
808.573961
528.006554
336.435437
151.316524
74.199438
24.669766
13.283491
14.041662
17.866492
29.106736
40.187836
55.350661
68.170428
82.990527
89.524984
90.372562
86.727738
75.446963
63.259602
45.404434
34.808517
22.990704
16.789436
12.313724
10.303855
9.524822
9.549856
9.168983
8.855462
8.810759
8.840561
8.816719
8.276701
8.393526
8.340478
8.360744
7.838607
8.184910
8.058548
7.948875
7.820725
7.792711
7.497668
7.389784
7.286668
7.341504
7.225871
7.130504
7.011890
7.254481
##ZVALUE=310
0.379682
0.562668
0.457764
0.186563
0.345707
0.438690
0.358820
0.464916
0.437498
0.485778
0.504851
0.553727
0.586510
0.580549
0.639558
0.537634
0.544786
0.581741
0.373721
0.540614
0.613928
0.510812
0.694990
0.630617
0.702739
0.766516
0.756979
0.967979
0.653863
0.925660
1.067519
0.976920
1.037717
1.327991
1.393557
1.504421
1.861453
5.847812
21.294951
80.407858
170.752406
370.352864
586.726665
904.240608
1015.774012
1015.774012
1015.774012
1015.774012
972.098708
681.225657
467.553735
235.756636
125.374794
44.209957
18.641949
10.851622
12.294650
17.310977
23.786426
35.749674
47.333837
64.567924
74.628592
83.563924
85.689425
80.873966
73.057413
58.094859
46.452880
33.020973
23.557544
16.773939
12.877584
9.589791
8.911490
8.514524
8.292794
8.304715
8.260608
7.597804
7.929802
7.557869
7.494688
7.515550
7.670522
7.616878
7.588863
7.484555
7.607937
7.762909
7.623434
7.218719
7.359982
7.429719
7.432699
7.099509
##ZVALUE=315
0.433922
0.474453
0.332594
0.566840
0.408888
0.325441
0.537634
0.423789
0.427961
0.622869
0.424981
0.533462
0.545979
0.354648
0.450611
0.287890
0.355840
0.323653
0.372529
0.484586
0.441670
0.446439
0.656843
0.727773
0.724792
0.690818
0.636578
0.876784
0.685453
0.617504
0.717640
0.679493
0.767708
0.903606
1.043677
1.259446
1.317859
1.444817
1.484752
2.836585
10.555983
48.726797
117.029548
285.285711
465.897918
763.140917
974.850655
1015.774608
1015.774608
1015.774608
1015.774608
775.257945
553.116798
296.231508
163.158774
60.502887
24.658442
10.548830
9.692907
11.892915
15.459657
22.886992
31.601787
44.736862
56.528449
70.592761
77.199936
80.439448
77.028871
66.753626
56.604743
42.930841
31.951666
21.735430
15.736818
11.230707
9.364486
8.520484
7.882714
7.791519
7.641912
7.563829
7.484555
7.623434
7.324815
7.568598
7.596612
7.247925
7.400513
7.491708
7.356405
7.467866
7.310510
7.283688
6.689429
7.080436
##ZVALUE=320
0.337958
0.344515
0.363588
0.250936
0.414848
0.365973
0.415444
0.457764
0.473857
0.422597
0.452995
0.400543
0.494719
0.535846
0.426769
0.374913
0.478625
0.345707
0.295639
0.460744
0.383854
0.561476
0.569820
0.633597
0.583529
0.670552
0.452995
0.526905
0.595450
0.739694
0.730753
0.763535
0.666976
0.653863
0.862479
1.016855
0.962615
0.870824
1.391768
1.372695
1.288652
1.844764
4.871488
27.515888
76.259971
205.518007
350.576043
595.451593
809.517503
1015.774012
1015.774012
1015.774012
1015.774012
899.343491
666.056871
374.068618
216.154456
92.978477
41.069984
12.661815
8.759499
8.358955
9.822845
13.755560
18.933415
29.535890
39.043427
53.159595
63.104630
71.881413
75.264573
72.083473
65.248609
52.379966
41.448474
28.745532
21.245480
14.428496
10.924935
8.596778
7.730722
7.394552
7.202625
7.177591
7.274747
7.046461
6.833673
6.929636
6.921887
7.212758
7.053614
7.029772
7.067919
7.051826
6.755590
6.817579
##ZVALUE=325
0.321865
0.253916
0.343919
0.270605
0.228882
0.271797
0.416636
0.454783
0.189543
0.350475
0.327826
0.300407
0.440478
0.411868
0.298619
0.355840
0.283718
0.350475
0.465512
0.447631
0.409484
0.517964
0.544786
0.623465
0.375509
0.424981
0.367761
0.621676
0.702739
0.667572
0.654459
0.502467
0.762939
0.686646
0.729561
0.826716
0.803471
1.066923
0.929832
1.060963
1.025796
1.197457
1.227856
1.478791
2.801418
17.943978
49.875975
140.684843
255.181789
497.011542
708.768964
988.028646
1015.774012
1015.774012
1015.774012
989.503860
767.595768
467.329025
287.562609
132.743716
63.194633
18.414855
8.883476
6.905794
7.247925
8.884668
11.955500
18.289685
26.189685
38.918853
48.494935
61.781406
67.417622
70.459843
67.138672
57.510734
49.461722
36.419630
28.100610
18.244982
13.790727
9.554625
8.052588
7.459521
7.094741
6.856918
6.941557
6.937981
7.037520
7.199645
6.693602
6.846786
6.851554
6.452799
6.486773
6.820560
##ZVALUE=330
0.451803
0.380874
0.335574
0.292659
0.354648
0.283718
0.220537
0.393987
0.305772
0.382662
0.306964
0.395775
0.378489
0.275970
0.314713
0.322461
0.315905
0.349879
0.429749
0.418425
0.343919
0.398755
0.389814
0.402927
0.571609
0.638962
0.446439
0.491738
0.442863
0.561476
0.438690
0.532866
0.540614
0.726581
0.647902
0.738502
0.859499
0.742674
0.819564
1.118779
0.897646
1.109838
1.225471
1.188517
1.277924
1.536608
2.063513
8.189678
27.706623
96.484423
189.062953
393.964648
596.337914
911.207795
1015.776992
1015.776992
1015.776992
1015.776992
998.334885
692.637563
458.407402
222.243667
111.813545
36.891699
13.646483
7.082820
6.609559
7.327795
8.889437
12.288690
16.980767
26.544929
35.358667
47.921538
55.415630
62.778592
64.395666
59.701800
54.781437
44.031739
35.130978
24.797916
18.450618
12.954473
10.448694
8.514524
7.630587
7.295609
7.023811
6.700754
6.620884
6.710887
6.762743
6.524920
6.779432
6.520748
##ZVALUE=335
0.319481
0.257492
0.181794
0.132918
0.193715
0.289679
0.123978
0.286698
0.380874
0.312924
0.275970
0.256896
0.287890
0.291467
0.416636
0.212789
0.491738
0.322461
0.263453
0.321865
0.317693
0.369549
0.428557
0.382662
0.327826
0.338554
0.386834
0.484586
0.356436
0.312924
0.229478
0.302792
0.384450
0.580549
0.453591
0.656843
0.555515
0.564456
0.698566
0.705719
0.760555
0.834465
0.957847
0.885725
0.995994
1.114607
1.268983
1.333952
1.663566
3.853440
13.834834
59.924722
131.839514
310.445428
509.099960
829.113722
1015.728712
1015.728712
1015.728712
1015.728712
1015.728712
836.542845
587.557554
316.656828
167.937875
54.555535
19.710660
7.730722
6.564856
6.629825
7.094741
8.873940
11.294484
16.864538
23.861527
34.861565
43.157935
52.468777
57.726502
58.982968
56.960583
49.423575
42.590499
33.077598
26.298761
18.539429
13.525486
10.134578
8.141994
7.228851
6.506443
6.747842
6.424785
6.396770
6.392598
6.395578
##ZVALUE=340
0.265837
0.277758
0.176430
0.346899
0.249743
0.244975
0.211596
0.268817
0.256896
0.344515
0.404716
0.200868
0.340939
0.355840
0.278950
0.341535
0.404716
0.254512
0.338554
0.365973
0.199676
0.601411
0.435710
0.350475
0.292659
0.427961
0.534654
0.472665
0.397563
0.464916
0.503659
0.430942
0.536442
0.484586
0.441670
0.450611
0.580549
0.769496
0.625849
0.526905
0.640750
0.719428
0.659823
0.829697
0.869632
0.876784
1.148582
0.960827
1.251698
1.243949
1.599789
1.923442
9.601712
33.204556
109.694600
222.501755
474.096537
693.811774
982.280970
1015.774012
1015.774012
1015.774012
1015.774012
914.649963
597.576499
384.738445
187.163949
91.274977
24.938583
8.838773
6.628633
6.547570
6.791949
7.111430
8.677840
10.653734
15.905499
22.103786
31.589866
39.730668
48.945546
54.036975
55.339932
53.184628
46.948791
40.706992
31.582713
25.302768
17.301440
13.555884
9.892583
7.838607
6.705523
6.190538
5.997419
6.165504
##ZVALUE=345
0.276566
0.241995
0.464916
0.243783
0.283718
0.315905
0.407696
0.303984
0.317693
0.304580
0.334978
0.231862
0.170469
0.255704
0.266433
0.382662
0.141859
0.218749
0.382662
0.300407
0.280738
0.333786
0.398755
0.383854
0.290871
0.316501
0.291467
0.329614
0.392795
0.213981
0.485778
0.293851
0.375509
0.538826
0.544786
0.452995
0.468493
0.579953
0.511408
0.655651
0.618696
0.680685
0.740886
0.678897
0.722408
0.833869
0.903606
0.905991
1.062751
0.948906
0.994802
1.326799
1.317859
1.497865
3.532767
22.422671
61.551929
160.077810
291.686654
536.904931
756.064653
1009.230614
1015.774012
1015.774012
1015.774012
961.458683
737.012625
430.519581
251.145959
107.250810
46.796799
13.563633
7.161498
6.437898
6.146431
6.440878
6.636977
7.573962
9.892583
14.781952
20.329952
29.031634
36.161542
44.218898
48.144460
50.847530
49.591660
43.944716
38.914680
31.071901
24.424791
16.839504
13.064742
9.557605
7.860661
6.556511
##ZVALUE=350
0.177622
0.263453
0.341535
0.313520
0.402927
0.279546
0.428557
0.400543
0.250936
0.357628
0.270605
0.338554
0.190735
0.280738
0.317693
0.171661
0.420809
0.264645
0.431538
0.413656
0.306964
0.331998
0.379682
0.376701
0.375509
0.309944
0.318885
0.330806
0.576973
0.438690
0.306964
0.358820
0.446439
0.479817
0.518560
0.398755
0.410676
0.501871
0.589490
0.619888
0.699759
0.626445
0.553727
0.558496
0.658631
0.617504
0.717640
0.681877
0.836849
0.886917
0.911951
1.012683
0.968575
1.188517
1.214743
1.582503
2.049804
11.682510
36.134720
108.869672
206.816792
423.568487
626.615882
902.667642
1015.774012
1015.774012
1015.774012
1015.774012
867.136717
545.488000
339.107513
158.085823
72.945952
18.797517
7.829666
5.807877
5.695820
5.399585
5.318522
5.889535
7.005930
9.933710
12.870431
18.437505
23.818612
32.644868
37.977695
44.136643
46.162605
45.530796
42.278767
36.118627
29.392838
21.904707
16.995668
11.959672
##ZVALUE=355
0.311732
0.329614
0.269413
0.450611
0.372529
0.167489
0.317693
0.175834
0.243783
0.270605
0.378489
0.406504
0.430942
0.238419
0.178814
0.281930
0.285506
0.339746
0.359416
0.415444
0.407696
0.419617
0.346899
0.519753
0.341535
0.483990
0.444651
0.495911
0.478625
0.499487
0.457764
0.548959
0.522733
0.503659
0.447631
0.499487
0.492930
0.290871
0.525713
0.500679
0.466704
0.519753
0.593662
0.576973
0.614524
0.553727
0.673532
0.739694
0.692606
0.596642
0.748634
0.803471
0.735521
0.961423
1.117587
1.229644
1.367927
1.544952
1.706481
5.242825
21.138787
76.938868
154.279470
326.347947
518.581867
823.390484
1011.291742
1015.774012
1015.774012
1015.774012
988.040566
681.144595
448.662639
201.341510
96.125603
26.755929
9.843707
5.753636
5.400777
5.261898
4.990697
5.312562
5.506873
6.486773
7.845759
11.457801
15.216470
21.897554
27.650595
34.739971
38.718581
41.965842
41.958690
38.617849
34.467578
28.184652
##ZVALUE=360
0.190735
0.259876
0.223517
0.283718
0.407696
0.257492
0.270605
0.231862
0.261664
0.173450
0.220537
0.195503
0.181794
0.300407
0.243783
0.158548
0.369549
0.426769
0.397563
0.376701
0.371933
0.414848
0.482798
0.390410
0.266433
0.330806
0.354648
0.429749
0.283718
0.427961
0.371933
0.305772
0.477433
0.332594
0.326633
0.579953
0.477433
0.470877
0.431538
0.636578
0.560880
0.443459
0.593662
0.504851
0.566840
0.589490
0.528693
0.576973
0.583529
0.778437
0.825524
0.797510
0.832677
1.082420
0.963807
1.101494
1.067519
1.227856
1.220703
1.486540
1.791716
2.849698
8.952618
40.797591
98.443627
245.196819
409.419537
685.115457
952.257514
1015.728712
1015.728712
1015.728712
1015.728712
953.972936
654.923916
327.005982
166.512728
57.347417
19.227862
6.236434
5.564690
5.082488
5.001426
4.857779
4.848838
4.994869
5.586743
7.279515
9.283423
13.318658
17.700791
24.660826
29.279590
34.747720
37.601590
37.652850
##ZVALUE=365
0.316501
0.368953
0.329614
0.388622
0.316501
0.397563
0.199676
0.428557
0.169873
0.314713
0.256896
0.246763
0.406504
0.331998
0.375509
0.400543
0.365973
0.325441
0.331998
0.352859
0.328422
0.201464
0.442863
0.421405
0.362992
0.274777
0.451803
0.394583
0.488758
0.351667
0.459552
0.461936
0.393987
0.350475
0.474453
0.450611
0.419617
0.467896
0.568628
0.449419
0.578761
0.528693
0.404716
0.557899
0.512600
0.582933
0.525713
0.804663
0.599623
0.677705
0.662804
0.854731
0.913739
0.864863
0.936985
0.771880
0.870824
0.875592
0.906587
1.267791
1.315475
1.472831
1.701713
1.813769
4.012585
24.193525
62.169433
158.494711
291.324854
544.930696
765.211582
1012.641788
1015.769839
1015.769839
1015.769839
959.967971
721.229911
427.278876
238.947868
85.624456
29.400587
7.330775
5.228519
4.850626
4.612803
4.345775
4.363656
4.543662
4.750490
5.050898
5.882978
8.256435
10.551810
15.356541
19.412637
25.591850
##ZVALUE=370
0.247955
0.191927
0.111461
0.231862
0.296831
0.201464
0.182986
0.220537
0.290871
0.187755
0.328422
0.385642
0.213981
0.327826
0.272989
0.336766
0.213981
0.238419
0.341535
0.314713
0.232458
0.381470
0.419617
0.292659
0.275970
0.323653
0.388622
0.249743
0.250936
0.275970
0.393987
0.454783
0.534654
0.307560
0.331998
0.237823
0.151992
0.324845
0.313520
0.414848
0.289679
0.556707
0.464916
0.430942
0.577569
0.552535
0.438690
0.529885
0.484586
0.392795
0.471473
0.560880
0.583529
0.599623
0.643730
0.640750
0.744462
0.949502
0.839829
0.877976
0.985861
0.926852
1.052618
1.307726
1.339912
1.638532
2.437830
9.190440
45.247674
109.039545
255.260468
412.409902
697.037578
950.397849
1015.710831
1015.710831
1015.710831
1015.710831
810.031891
550.840497
268.345475
141.709447
50.244927
16.786456
5.425811
4.642606
4.167557
4.380941
3.929734
4.028678
4.013777
4.051924
4.188418
5.040765
6.914735
9.181499
##ZVALUE=375
0.269413
0.286698
0.297427
0.298619
0.101924
0.266433
0.326633
0.260472
0.082850
0.234842
0.302792
0.311732
0.302792
0.209808
0.280738
0.301600
0.224710
0.348687
0.219941
0.416636
0.343919
0.358820
0.404716
0.309944
0.355840
0.247955
0.309944
0.340939
0.042915
0.365973
0.432730
0.261664
0.480413
0.358820
0.283718
0.362992
0.356436
0.312924
0.362992
0.345707
0.309944
0.469685
0.468493
0.435710
0.422597
0.426769
0.456572
0.344515
0.456572
0.561476
0.503659
0.484586
0.595450
0.619888
0.384450
0.546575
0.695586
0.732541
0.739694
0.683665
0.774860
0.863671
0.822544
0.972748
0.864863
1.017451
1.368523
1.536608
1.660585
5.939603
21.192431
74.969530
159.363747
357.961655
558.601022
855.155587
1015.774608
1015.774608
1015.774608
1015.774608
897.684693
588.971972
389.984846
202.769637
104.392767
29.929876
9.213686
4.451871
4.079938
3.918409
3.792644
3.728867
3.602505
3.578663
3.606677
3.788471
##ZVALUE=380
0.187755
0.406504
0.234842
0.097752
0.194907
0.184774
0.176430
0.192523
0.121593
0.228882
0.239611
0.124574
0.357628
0.179410
0.181794
0.310540
0.063777
0.339746
0.302792
0.177622
0.473857
0.159740
0.433922
0.236630
0.220537
0.356436
0.241995
0.165701
0.287890
0.216961
0.348687
0.300407
0.205636
0.409484
0.373721
0.369549
0.507832
0.389814
0.407696
0.340939
0.308752
0.503659
0.357628
0.412464
0.429749
0.282526
0.342727
0.300407
0.384450
0.320673
0.574589
0.283718
0.486970
0.581741
0.529885
0.518560
0.499487
0.383854
0.697970
0.534654
0.593662
0.384450
0.661612
0.579953
0.745654
0.813603
0.995994
1.091957
1.155734
1.468658
1.750588
3.189445
11.627674
53.083897
121.032596
277.757645
447.168946
699.551702
904.353857
1015.774608
1015.774608
1015.774608
939.278603
686.208010
479.327440
251.884460
130.367875
44.445992
15.506744
5.057454
4.136562
3.668666
3.398657
3.274679
3.426671
3.297925
##ZVALUE=385
0.207424
0.364780
0.330806
0.133514
0.181794
0.137687
0.329614
0.362992
0.241995
0.331998
0.241995
0.163913
0.065565
-0.028610
0.200868
0.108480
0.179410
0.134706
0.141859
0.154972
0.121593
0.133514
0.210404
0.327826
0.161529
0.160933
0.247955
0.238419
0.260472
0.224710
0.126958
0.335574
0.237823
0.240803
0.437498
0.359416
0.185966
0.199676
0.307560
0.339746
0.324845
0.223517
0.304580
0.428557
0.383854
0.409484
0.426769
0.417829
0.467896
0.388622
0.450611
0.391603
0.418425
0.268817
0.285506
0.427961
0.544786
0.554919
0.520945
0.412464
0.502467
0.562668
0.557899
0.697970
0.596642
0.799894
0.784993
1.034737
1.037717
1.159906
1.430511
1.529455
1.552701
1.993775
6.078482
33.179522
82.809925
203.264952
357.453823
632.197857
862.455964
1015.756726
1015.756726
1015.756726
1015.756726
849.470496
628.011823
354.982018
205.259919
84.929466
32.645464
6.901622
4.062653
3.310442
3.331900
3.111959
##ZVALUE=390
0.350475
0.180602
0.148416
0.216961
0.239611
0.112653
0.191927
0.176430
0.226498
0.453591
0.218749
0.274777
0.232458
0.237823
0.199676
0.165701
0.147820
0.075698
0.341535
0.293851
0.187755
0.345707
0.210404
0.269413
0.326633
0.274777
0.413656
0.238419
0.154972
0.268817
0.346899
0.373721
0.211596
0.337958
0.440478
0.380874
0.268817
0.315905
0.178814
0.334978
0.319481
0.554919
0.343919
0.488758
0.388622
0.353456
0.332594
0.488758
0.441670
0.325441
0.315905
0.400543
0.363588
0.380874
0.589490
0.567436
0.478625
0.536442
0.641942
0.507832
0.494719
0.551939
0.491738
0.481606
0.456572
0.797510
0.832677
0.880957
0.891685
0.992417
1.026988
1.152754
1.303554
1.235604
1.176596
1.648664
3.059506
18.856525
54.340959
156.154633
291.070938
537.185669
719.686747
950.817466
1015.788913
1015.788913
1015.788913
874.733925
686.976910
428.161621
258.984566
106.170774
46.031475
11.181831
4.349947
3.201962
##ZVALUE=395
0.268817
0.075698
0.153780
0.126958
0.177622
0.153780
0.118613
0.251532
0.204444
0.185966
0.165701
0.237823
0.204444
0.282526
0.202656
0.307560
0.131726
0.168681
0.186563
0.442863
0.305772
0.288486
0.261664
0.346899
0.152588
0.218749
0.315905
0.055432
0.008941
0.295639
0.287890
0.268817
0.323653
0.217557
0.321865
0.267625
0.339746
0.140667
0.382662
0.125766
0.233650
0.334978
0.268817
0.382662
0.439882
0.325441
0.353456
0.423789
0.386834
0.358820
0.256896
0.240803
0.291467
0.334978
0.438690
0.422597
0.396967
0.339746
0.519753
0.268817
0.343919
0.390410
0.508428
0.633597
0.545979
0.643730
0.707507
0.677705
0.782609
0.819564
0.985861
0.918508
1.151562
0.959635
1.120567
1.130700
1.064539
1.251698
1.738667
10.496974
36.120415
113.128424
205.761790
382.324457
562.856793
822.364688
988.385677
1015.774608
1015.774608
962.908864
772.870779
501.430631
316.371918
145.496726
69.374442
20.733476
##ZVALUE=400
0.181794
0.186563
0.112653
0.174642
0.135899
0.194907
0.261664
0.296831
0.073910
0.232458
0.174642
0.207424
0.083447
0.084639
0.250936
0.144839
0.165701
0.134706
0.254512
0.305772
0.227690
0.136495
0.208616
0.283718
0.233650
0.220537
0.281930
0.102520
0.269413
0.195503
0.272989
0.175834
0.268817
0.306964
0.306964
0.085831
0.385642
0.307560
0.288486
0.389814
0.169873
0.309944
0.268817
0.350475
0.267625
0.390410
0.412464
0.346899
0.388622
0.330806
0.332594
0.302792
0.424981
0.425577
0.422597
0.394583
0.404716
0.468493
0.489950
0.504851
0.560880
0.399947
0.501871
0.597835
0.563860
0.616908
0.566840
0.693798
0.761747
0.867844
0.953674
0.929832
0.931621
1.156926
0.971556
1.029968
1.023412
1.166463
1.150966
1.430511
1.535416
5.605817
21.706820
73.115826
148.150921
315.930843
495.320559
768.419504
966.784954
1015.774608
1015.774608
1015.774608
989.987850
695.948601
471.364856
245.477557
##END
