##TITLE=FQP00351
##FORMAT=SPECTACLE-ASCII V-1.2
##DATA TYPE=ULTRAVIOLET SPECTRUM
##SECOND TYPE=ULTRAVIOLET SPECTRUM
##DATE=02/05/18
##TIME=14:43:38
##SPECTROMETER/DATA SYSTEM=SPECTACLE
##XUNITS=NM EM
##YUNITS=ENERGY
##YFACTOR=1
##FIRSTX=220
##LASTX=410
##NPOINTS=96
##3DDATA=Equidistant
##ZUNITS=NM EX
##FIRSTZ=210
##LASTZ=400
##ZPOINTS=39
##XYDATA=(Y..Y)
##ZVALUE=210
2.595782
1.909733
2.532601
3.170967
2.205968
2.643466
2.679825
3.350973
3.314614
2.706647
2.583861
2.894998
2.881885
2.464652
2.982616
3.762841
3.198981
3.602505
4.136562
4.217625
4.291534
5.303621
5.686879
5.589724
4.829764
5.759597
5.182624
6.252527
7.618666
6.221533
6.839633
7.459521
7.688999
8.220673
7.525682
8.074641
8.590817
9.170771
7.932782
8.551478
8.283854
8.461475
7.994771
8.645654
8.484721
10.109544
8.759499
8.280873
8.634925
9.083748
9.331703
9.576678
9.176731
10.023713
9.257793
9.344816
10.437965
9.406805
9.262562
9.933710
10.242462
8.912683
9.889603
9.132624
9.326935
9.862781
10.840893
12.241602
12.474656
15.053749
17.868876
20.120740
22.411942
25.720000
29.229522
30.615926
31.396747
33.888817
34.302473
37.308931
34.004450
30.069947
28.950572
24.438500
18.699765
16.259551
11.989474
11.109710
8.366704
8.379817
8.602738
8.412600
8.034706
8.459687
8.801818
9.626746
##ZVALUE=215
9.261966
9.297729
8.371472
6.692410
5.379915
5.359650
4.644990
5.007982
4.887581
6.220937
4.817843
4.395843
4.650950
3.956556
3.921986
4.495978
3.537536
4.749894
4.197955
4.432797
4.186630
4.777908
5.117655
4.431605
5.757809
5.657673
6.160736
6.326437
6.563663
8.210540
8.764863
6.878972
6.421804
8.185506
8.617640
7.360578
8.827448
8.057952
8.155704
8.785725
8.051991
8.881688
7.315874
8.231997
6.630421
8.495450
8.234978
8.031726
7.617474
8.122921
8.328557
8.989573
8.262992
7.195473
9.610653
8.551478
8.336902
8.982420
8.805990
7.998943
8.034706
9.382963
8.656979
10.115504
8.448958
9.766817
9.460449
9.980798
10.469556
12.799501
14.756918
18.791556
19.519925
23.268461
26.782751
27.996898
29.422641
28.947592
30.275583
28.742552
25.564432
22.929907
20.413995
18.577576
13.230443
11.635423
9.969473
9.020567
7.858872
7.650852
8.483529
7.879734
7.639527
7.773638
7.637739
8.372664
##ZVALUE=220
26.919842
28.397441
29.479861
27.629733
25.573969
20.523667
16.392469
14.147758
11.175871
10.367632
12.477636
12.747645
11.506677
11.968613
9.816885
8.292794
6.304979
4.980564
4.552603
3.849864
3.296733
5.646944
5.205870
5.300641
5.142689
6.194711
5.602837
6.397963
7.169843
7.026792
8.249879
8.281469
8.754730
9.599924
9.740591
9.085536
8.860826
9.097457
8.655787
8.965731
9.735823
8.166432
7.826686
7.782578
8.232594
8.298755
6.823540
7.797480
7.829666
7.930994
7.480979
6.613731
7.113814
7.140636
7.789731
7.742643
6.258488
7.944703
7.555485
6.911755
7.091761
6.689429
6.909966
6.631613
6.293654
7.682443
7.934570
8.644462
8.764863
10.734797
10.992885
12.661815
12.758970
14.954805
18.284917
18.619895
18.196702
20.223856
18.541813
17.324686
17.340779
16.591549
12.289882
11.830926
9.610653
9.089708
7.545948
7.299781
7.635951
6.579757
6.948709
7.017851
6.992817
6.098747
5.431771
6.698966
##ZVALUE=225
46.871901
49.693584
63.698888
75.194836
81.950426
77.698827
72.044730
52.754879
40.662885
30.230880
23.462772
21.022558
24.219751
25.472641
25.142431
21.615624
21.100640
17.067790
12.314916
8.316636
6.001592
4.722476
4.882812
5.123615
5.000830
5.414486
6.060600
6.829500
7.509589
8.795857
9.252429
9.309649
10.075569
9.326935
10.166764
9.390712
10.007620
8.562803
9.699464
10.320544
7.760525
9.352565
8.790493
8.816719
7.844567
8.360744
8.509755
8.343458
8.348823
8.161664
7.999539
7.015467
7.012486
6.440878
6.774664
6.937981
7.716417
7.340908
7.934570
8.371472
8.919835
7.976890
7.543564
7.853508
7.224679
7.789731
7.798672
7.992983
9.563565
9.841919
11.973977
13.789535
12.340546
16.443729
14.117956
16.293526
17.425418
16.674995
16.272664
16.146898
16.028881
14.160872
13.161898
9.838939
10.449886
9.232759
8.080602
7.205606
7.849932
7.512569
7.610917
8.106828
7.728934
7.185936
6.602407
7.025599
##ZVALUE=230
42.419434
45.267940
67.087412
113.001466
148.077607
187.018514
202.438831
204.471946
180.782676
151.512623
104.981661
71.299672
51.594973
45.011640
44.225454
45.446754
49.273968
48.432946
43.735504
36.018491
26.958585
17.682910
12.684464
8.547902
7.110834
6.196499
6.387830
8.029938
8.356571
8.657575
10.210872
10.107756
11.855960
11.193752
10.520816
10.212660
10.552406
11.204481
9.782910
9.540915
10.169744
10.085702
10.456443
9.393692
8.795857
8.744597
9.045601
8.872747
9.224415
8.619428
9.251833
8.544922
8.952618
8.171797
8.721948
8.090734
9.219646
8.256435
8.576512
9.000897
9.615421
9.626746
8.594990
9.467602
9.258986
9.995699
9.911656
11.223555
11.699796
12.126565
13.814569
14.298558
15.943646
16.988516
17.283559
18.050671
17.522573
18.251538
17.316937
17.172694
17.120838
16.496778
14.625788
13.646483
12.596846
10.972619
13.008714
10.366440
11.716485
11.007786
10.468960
9.867549
10.354519
9.714961
10.251999
10.700822
##ZVALUE=235
14.316440
16.840696
34.731627
88.872910
135.418773
218.695998
298.739672
362.377763
389.994979
403.027534
359.330773
291.339755
205.175877
145.550966
99.190474
76.822639
74.496865
77.056885
83.767772
83.764791
77.013969
66.061616
51.812530
34.171939
23.897886
14.021993
13.167858
10.056496
9.059906
8.258820
9.823442
10.547638
10.592937
10.616779
10.750890
10.000467
10.642409
10.816455
10.312796
10.198951
9.989738
10.533929
10.110736
9.876490
10.162592
9.786487
9.662509
9.572506
9.671450
9.676814
8.559823
9.055734
10.728836
9.751916
10.700822
11.041760
10.195971
10.659695
11.435747
11.132956
11.042953
11.763573
10.651946
10.821819
12.466908
12.039542
12.716651
14.331937
14.624596
16.404986
17.371774
19.361973
21.484494
23.862720
22.730827
23.524761
25.817752
23.728609
24.334788
24.601817
23.971796
23.346543
20.695925
19.291639
18.585920
17.351508
16.036630
15.447736
14.791489
14.568567
15.669465
14.917850
14.542937
13.481975
13.380647
13.726950
##ZVALUE=240
2.909899
2.713799
7.148981
19.477606
55.472851
107.259750
225.330591
340.355635
514.040589
622.846484
702.740550
702.873468
633.541942
492.082834
368.275642
228.520632
158.797503
103.445649
96.522570
102.533698
116.157532
118.939877
111.650825
105.448961
86.757541
66.452622
48.144460
34.668446
22.859573
16.433001
13.905764
12.619495
12.111664
11.509657
10.888577
11.314750
11.899471
10.217428
11.219978
10.956526
10.337830
11.424422
11.381507
10.670424
10.902882
10.344982
11.094809
10.251999
10.069609
10.670424
10.676980
11.382699
10.944605
11.276603
11.139512
11.798739
10.767579
10.736585
11.933446
11.774898
12.522936
12.503862
12.313724
12.737513
14.022589
14.213920
14.667511
16.530752
15.970469
19.523501
19.270778
21.361709
24.253726
23.545623
23.825765
27.604699
28.120875
26.955605
23.900867
25.301576
26.531816
24.005771
22.881627
20.606518
20.911694
20.329952
18.468499
18.739700
19.241571
19.289851
18.875599
18.949509
18.618703
18.914938
17.593503
19.433498
##ZVALUE=245
1.568794
1.703501
1.906753
1.820922
3.785491
13.673902
38.187504
103.306770
189.979672
307.421684
496.590734
637.381673
755.294561
768.944621
722.613931
617.347956
445.143580
318.619013
260.278583
129.664540
101.604462
101.556778
116.479993
129.993558
132.291913
126.772523
117.246509
95.698833
78.982711
54.388642
38.339496
25.633574
18.511415
13.604760
12.126565
11.585951
11.409521
10.658503
10.120869
10.618567
10.590553
10.759830
10.685921
9.832978
10.442734
9.102821
10.047555
9.729862
9.760857
8.885860
9.729862
9.554625
9.118915
9.273887
8.535981
8.528829
9.451509
8.595586
9.002686
9.751916
10.616779
9.686947
10.268688
10.620952
10.660887
11.806488
11.467934
11.628866
12.481809
14.366508
15.539527
16.389489
17.777681
17.487407
18.106699
20.144582
21.143556
21.138787
21.651983
20.583868
21.108985
18.928647
18.724799
19.153953
18.892884
18.555522
17.553568
17.848611
17.984509
16.338825
18.072724
17.178655
17.208457
18.259883
17.134547
16.316772
##ZVALUE=250
1.538992
1.260638
1.497865
1.643896
1.581907
1.615882
2.486706
9.212494
27.836561
79.156756
150.262713
303.297639
439.200997
624.627471
728.974938
786.740780
782.117844
681.575537
560.194850
376.213789
260.265470
177.432895
109.084845
95.064640
105.999708
124.189854
138.823986
142.827630
140.359998
126.205683
106.975436
84.701777
64.496994
42.327642
27.094483
18.459558
14.247894
11.619925
10.137558
10.630488
10.980964
10.859966
10.370612
10.255575
9.865761
9.772778
10.244846
9.686947
9.307861
8.533597
8.696914
8.649826
8.466840
8.581877
9.018779
8.605719
7.963777
8.575916
8.446574
8.576512
9.111762
9.459853
9.559989
9.961724
9.678602
9.647608
9.827614
11.214614
11.642575
13.269782
14.152527
15.147924
16.030669
18.427968
18.060803
19.206405
20.038486
19.235611
20.102859
20.016432
18.935800
18.254519
18.461943
17.739534
17.287731
18.632412
17.327666
17.998815
18.425584
17.997622
16.072989
17.093420
16.880631
17.213821
17.058849
16.562939
##ZVALUE=255
1.290441
1.023412
1.046658
1.302958
1.391768
1.560450
1.402497
1.824498
2.384782
7.820725
34.749508
82.392693
160.275698
330.702662
494.270921
733.160973
887.261629
1015.888453
1015.888453
989.146829
877.485871
719.267726
475.980639
321.242809
185.965896
127.270818
101.955533
107.914805
131.338835
144.132972
150.810480
147.913694
134.854913
109.777451
86.821914
57.984591
42.712688
26.338696
19.198656
13.664961
11.471510
11.241436
11.509657
10.473728
10.575652
10.671616
10.267496
10.861754
10.181665
9.654760
10.038614
10.140538
9.622574
9.032488
8.853674
9.099841
8.640885
8.569956
9.045601
8.905530
8.570552
8.739829
9.345412
9.036660
9.417534
9.981990
9.723902
10.907650
10.961890
12.253523
12.760758
13.058782
13.924837
16.944408
16.579628
17.602444
18.434525
18.462539
18.159747
18.077493
18.154979
17.308593
17.127991
16.046762
17.591715
16.228557
16.182661
15.321970
15.563965
15.622973
15.811920
16.496778
16.582608
16.016960
16.140938
15.104413
##ZVALUE=260
1.280904
1.037717
1.055598
1.248717
1.074672
1.349449
1.421571
1.619458
1.765490
1.744628
2.270937
2.970695
8.488894
38.797855
93.059540
241.279602
409.353971
676.195621
918.672681
1015.874743
1015.874743
1015.874743
1015.874743
998.016596
667.726994
463.976860
266.991854
168.508887
97.875595
92.231631
108.442903
132.953525
150.008798
158.559680
156.828761
137.819648
116.657615
88.536739
64.014792
41.044950
29.132962
18.385649
14.340878
12.790561
10.905862
9.828806
10.391474
9.843707
10.007620
9.764433
10.018945
8.704662
9.374619
8.892417
8.729696
8.820891
8.895993
8.746982
8.752942
9.408593
8.317828
8.320808
8.473992
8.874536
9.034872
9.149909
9.563565
10.057688
11.091828
11.342764
12.483597
13.882518
14.813542
16.236901
15.683770
17.156601
17.017722
16.875863
16.990900
16.375780
15.823841
15.988946
15.815496
14.585853
15.123487
15.201569
14.024973
14.707446
14.965534
15.506744
15.170574
14.296770
13.859868
15.606880
15.754700
15.269518
##ZVALUE=265
1.226664
1.260638
1.154542
1.215935
1.327991
1.204610
1.339912
1.220703
1.665950
1.560450
1.791716
1.839995
1.658797
2.363920
5.392432
28.101802
79.487562
236.231685
447.297692
849.472880
1015.888453
1015.888453
1015.888453
1015.888453
1015.888453
1015.888453
873.581767
612.279773
350.656509
210.427642
128.355622
81.612468
87.814927
116.467476
135.791898
155.545473
161.907673
155.216455
139.222741
110.864639
88.322759
59.960485
40.558577
24.911761
18.561482
13.329983
11.283755
9.944439
9.612441
10.320544
9.724498
9.322762
8.964539
8.800626
9.065866
8.608699
8.478761
9.494424
8.523464
8.112788
8.019805
8.611679
8.368492
8.557439
8.578897
8.528829
8.863807
9.665489
10.026693
10.954738
12.011528
12.289882
13.102889
14.672875
14.717579
14.807582
15.184879
14.706850
14.523864
13.903975
14.787912
14.546514
13.938546
13.286471
13.504624
13.434887
12.418628
13.015866
13.415813
13.763905
13.288856
12.797713
13.697743
14.444590
13.726950
13.656616
##ZVALUE=270
0.820756
0.949502
0.940561
0.955462
1.043677
1.114607
0.896454
1.057982
1.122952
1.067519
1.394749
1.092553
1.466870
1.380444
1.614690
2.230406
2.832413
11.566877
36.138892
127.880573
275.296569
499.668717
876.154900
1015.889645
1015.889645
1015.889645
1015.889645
1015.889645
765.247941
557.895899
374.825001
191.530585
109.901428
65.101981
65.785646
90.238452
114.132762
137.818456
154.333711
159.246922
155.341625
133.528709
114.728808
83.673000
62.674880
36.471486
25.963783
16.487837
12.435913
8.650422
8.352995
8.002520
7.718801
7.843971
8.101463
7.145405
7.440448
7.624626
7.744431
7.266998
7.504821
8.047819
7.479787
7.138848
6.971955
8.058548
7.953644
8.118749
8.746982
9.159446
9.443760
9.983778
10.002851
10.616779
11.313558
11.001825
10.941625
11.082888
11.413693
10.854602
12.295842
10.814667
11.018515
10.759830
11.241436
11.559725
10.994673
11.110902
11.902452
10.736585
11.097789
10.837913
11.930466
11.288524
11.693835
11.591911
##ZVALUE=275
0.812411
0.691414
0.818968
0.638962
1.042485
0.824928
0.762939
0.907779
0.987649
0.922680
0.934601
1.021624
1.146793
0.992417
1.214743
1.280904
1.200438
1.389980
1.938939
6.269813
33.089519
95.879436
245.431662
409.397483
672.420859
829.527974
999.994874
1015.889645
1015.889645
985.299945
845.775604
613.779426
429.014564
228.993893
131.122470
63.944459
50.601959
61.615705
80.583692
110.584497
133.243799
150.298476
155.797601
147.433877
133.458972
106.434822
84.239841
59.275627
42.065978
24.912953
16.535521
10.219812
7.845759
7.304549
6.687641
6.854534
7.125735
7.356405
6.999969
7.157922
6.759763
7.099509
7.178783
7.429719
7.014871
7.148981
7.288456
7.755756
7.201433
8.111596
8.334517
9.145737
9.539723
9.974837
9.970665
10.148883
10.400414
10.391474
10.185838
10.347962
9.974837
10.259748
9.784698
9.852648
10.424852
10.399818
9.970665
9.919405
9.969473
10.261536
10.274649
10.034442
10.520816
10.482669
10.968447
10.629892
##ZVALUE=280
0.684857
0.512600
0.595450
0.552535
0.550747
0.428557
0.774860
0.801682
0.636578
0.793934
0.890493
0.702739
0.694990
0.984669
0.988841
1.062751
1.242757
1.252890
1.256466
1.437664
1.418591
2.776980
11.424422
39.994717
122.714639
223.906636
407.998562
590.433478
815.770626
940.854549
1015.842557
1002.298594
867.228508
701.426864
463.204980
303.968787
155.016780
83.753467
44.976473
40.844679
57.506561
79.313517
107.261539
127.155781
145.784616
152.497888
143.737793
132.611990
105.026960
82.843900
55.084825
39.155483
23.791790
15.262961
9.708405
8.005500
6.731749
6.687641
6.697774
6.693602
6.667972
7.214546
7.000566
7.286668
7.164478
6.903410
7.386804
7.454753
7.578731
8.149743
8.450747
8.866787
8.879900
9.584427
8.858442
9.516478
9.052753
9.538531
9.219646
9.884834
9.668469
10.066628
9.577870
9.248853
9.630919
9.561777
9.666681
9.502769
10.416508
9.508729
9.722710
9.633899
9.103417
9.675622
9.180903
9.403825
##ZVALUE=285
0.511408
0.587702
0.492930
0.485778
0.479817
0.815988
0.790954
0.781417
0.777841
0.683665
0.779629
0.838637
0.792742
0.663996
0.724792
0.902414
0.815988
0.881553
1.115799
1.145601
1.093745
1.358986
1.578927
1.603961
5.340576
20.332932
69.202781
144.522786
312.633514
472.642779
648.836493
879.900455
1003.294587
1015.914679
987.614989
795.172453
617.657900
379.887819
234.147906
111.762881
58.419704
31.940937
35.069585
54.294467
73.098540
103.902817
121.960640
140.729547
145.855546
142.952800
130.190849
107.136965
84.340572
58.127642
40.505528
24.047494
15.529990
10.479689
8.111000
7.171631
7.293820
6.969571
7.102489
7.539988
7.560849
7.435679
7.678866
8.102655
8.223653
8.512735
9.007454
9.238720
9.398460
9.464622
9.609461
9.673834
9.640455
9.517670
9.871721
9.642839
9.945631
9.577870
9.435415
9.785891
10.004640
9.547472
9.602904
9.796619
9.645820
9.484887
9.291768
9.386539
9.274483
9.319782
9.058714
9.144545
##ZVALUE=290
0.471473
0.486970
0.505447
0.445843
0.625849
0.763535
0.693798
0.574589
0.712872
0.688434
0.666976
0.624657
0.626445
0.655651
0.629425
0.771880
0.803471
0.909567
0.807643
0.902414
0.945926
1.145601
1.403689
1.196861
1.400709
1.656413
2.245903
7.397532
36.537647
89.488626
177.738667
363.140702
552.895665
811.187625
963.043571
1015.883684
1015.883684
894.213915
727.562904
482.089520
313.983560
153.984427
82.140565
34.199953
24.879575
34.584999
48.360825
71.755648
91.553926
119.813681
133.066773
142.042637
140.733719
125.907660
107.112527
79.236627
60.121417
38.667917
26.671886
15.428662
11.266470
8.599758
8.003712
7.898808
7.906556
7.834435
7.744431
8.398890
8.441806
8.533597
9.035468
9.092689
9.519458
9.589791
9.701848
9.736419
9.148717
9.144545
9.433627
9.584427
9.589791
9.271502
9.479523
9.589791
9.376407
9.700656
9.484887
9.294748
9.567738
9.778738
9.466410
9.450912
9.604692
9.188652
8.813739
9.185672
##ZVALUE=295
0.482798
0.513792
0.568628
0.403523
0.519753
0.529885
0.537634
0.537634
0.614524
0.437498
0.556707
0.663996
0.442863
0.679493
0.602603
0.673532
0.822544
0.611544
0.872612
0.758767
1.039505
0.844598
0.945926
0.925660
1.047850
1.291633
1.286864
1.467466
1.896620
3.131628
18.047690
51.629543
151.623487
286.101699
529.783964
730.156898
962.959528
1015.883684
1015.883684
1004.387736
810.770988
624.397397
380.640626
232.674479
104.378462
51.339865
22.724867
20.360947
31.017661
44.679642
68.672895
86.670518
111.926794
127.948523
136.321783
134.626627
120.444894
103.754997
79.048872
61.206818
39.629936
27.702451
16.964674
12.258887
9.333491
8.476973
8.555651
8.408427
8.674860
8.868575
9.076595
9.430647
9.421706
9.629726
9.897947
10.345578
9.819865
9.891987
9.829998
9.939671
9.722710
9.456873
9.369850
9.904504
9.807944
9.806752
10.017753
9.610653
9.475946
9.393692
9.329915
9.545684
9.245872
9.344816
9.021759
9.282827
##ZVALUE=300
0.358820
0.296831
0.402927
0.431538
0.507832
0.561476
0.599623
0.585914
0.655651
0.622869
0.513792
0.435710
0.547767
0.488758
0.379682
0.508428
0.714660
0.631809
0.806451
0.585914
0.746846
0.724792
0.837445
0.833869
0.845790
0.955462
1.129508
1.324415
1.258850
1.395941
1.547933
2.059937
5.530715
31.554699
77.928901
202.063918
344.097614
590.056777
776.295662
996.241570
1015.889645
1015.889645
993.366838
760.064721
551.265478
302.576423
174.440742
73.921680
35.213828
16.813874
18.041730
27.790666
39.175749
61.515570
80.455542
106.179714
121.408701
130.535960
128.624439
115.879774
101.469755
77.657700
59.976578
40.644407
28.066635
17.163754
12.939572
10.375977
9.209514
8.984804
9.042621
9.064674
9.618998
9.841919
9.958744
9.507537
10.496974
9.834766
9.813905
10.310411
10.274649
9.840727
9.941459
9.491444
9.822845
9.530783
9.818673
9.646416
9.646416
9.595752
9.664893
9.119511
9.205937
8.703470
9.500980
9.020567
##ZVALUE=305
0.481606
0.504851
0.434518
0.481606
0.476837
0.349879
0.571609
0.704527
0.417829
0.614524
0.567436
0.639558
0.408888
0.484586
0.548959
0.488758
0.572801
0.674725
0.603795
0.466704
0.702739
0.903606
0.676513
0.749826
0.766516
1.027584
0.796914
0.868440
0.823736
1.177788
1.051426
1.204610
1.294613
1.488924
3.115535
18.616915
50.302744
144.093633
260.380507
476.278663
679.330826
903.918743
1015.901566
1015.901566
1015.901566
862.478018
683.372617
434.431434
268.598795
117.593408
55.391788
19.515753
13.520718
17.892718
25.607944
42.404532
57.248473
80.885887
98.264813
117.332935
123.724937
120.857954
114.556551
94.642639
77.716708
54.287910
38.719773
25.638938
18.065572
12.349486
10.628700
9.821653
9.466410
9.683967
9.151697
9.672642
9.613633
9.525418
9.694695
10.024905
9.697676
10.129809
10.161996
9.627938
9.757876
9.854436
10.224581
9.584427
9.543896
9.444952
9.370446
9.259582
8.750558
8.790493
9.015799
8.791685
##ZVALUE=310
0.409484
0.442863
0.387430
0.429749
0.562668
0.366569
0.337958
0.373721
0.407696
0.486970
0.595450
0.513792
0.484586
0.475645
0.454783
0.657439
0.515580
0.404716
0.410676
0.662804
0.621676
0.640750
0.799894
0.667572
0.607967
0.743866
0.714660
0.748634
0.808835
0.861883
0.732541
1.076460
0.818968
1.197457
1.198649
1.537800
1.856685
7.445812
25.604963
86.182952
170.177817
349.275470
528.743863
769.215822
926.593542
1015.888453
1014.249921
893.093944
740.978718
501.102805
337.818861
168.864727
90.245605
32.489896
15.411973
11.937618
15.184879
23.676753
34.567714
54.280758
71.344972
92.289448
105.804801
116.298795
117.317438
105.964541
93.996525
73.855519
58.160424
37.577748
27.482510
18.568635
13.751984
10.300875
10.020733
9.551644
9.400845
9.640455
9.314418
9.410977
9.404421
9.790659
9.920597
9.293556
9.426475
9.675622
9.601712
9.893775
9.512901
9.476542
9.541512
9.395480
9.004474
9.371638
9.051561
9.251833
##ZVALUE=315
0.306964
0.303984
0.393987
0.285506
0.361800
0.387430
0.354648
0.360608
0.422597
0.400543
0.400543
0.546575
0.472665
0.469685
0.451803
0.561476
0.468493
0.451803
0.410676
0.554919
0.537634
0.506639
0.459552
0.458956
0.611544
0.519753
0.607967
0.758767
0.663996
0.619888
0.694990
0.885725
0.884533
0.914931
0.957847
1.019835
1.124740
1.266599
1.521707
3.459454
12.747645
53.354502
119.382739
271.377563
430.300832
672.971010
833.112001
971.198678
1004.361510
919.300914
784.859657
559.957623
393.801928
207.703710
111.750960
42.048693
18.758774
10.164976
10.260940
14.851689
20.740628
33.518672
46.979785
67.687631
83.469748
102.332830
109.019876
109.970570
102.643967
86.670518
71.840882
52.995682
39.566755
25.063753
18.529892
12.813807
10.955930
9.648800
9.533763
9.335876
9.243488
9.685755
9.619594
9.756684
9.363890
9.499788
10.266900
9.488463
9.364486
9.770989
9.519458
9.161830
9.439588
8.969903
9.069443
9.174943
##ZVALUE=320
0.297427
0.247955
0.349879
0.364780
0.179410
0.220537
0.324845
0.416636
0.478625
0.409484
0.455976
0.405908
0.413656
0.347495
0.351667
0.447631
0.373721
0.475645
0.571609
0.582933
0.421405
0.519753
0.630617
0.567436
0.480413
0.528693
0.644922
0.547767
0.637770
0.711679
0.625849
0.746846
0.821948
0.751615
0.853539
0.971556
0.943542
1.096725
1.071692
1.206994
1.193881
1.710653
5.749464
30.021667
76.215863
195.627809
325.083733
533.780456
706.765652
903.660655
978.698730
958.243608
857.027769
652.083755
475.314856
264.083743
150.021911
63.823462
29.820800
11.681914
8.990765
9.879470
12.571812
19.157529
28.329492
45.447946
59.981942
78.614950
91.969967
102.681518
103.895664
97.687840
86.240768
66.639781
52.646995
35.383701
26.027560
17.108917
13.471842
10.706782
10.100603
9.966493
9.881854
9.274483
9.382963
9.367466
9.628534
9.542704
9.172559
8.962750
9.351969
9.237528
9.446740
9.354949
9.189844
9.366870
##ZVALUE=325
0.398755
0.294447
0.410676
0.410676
0.260472
0.119805
0.250936
0.342727
0.391603
0.400543
0.360608
0.375509
0.434518
0.449419
0.430942
0.382662
0.442863
0.482798
0.397563
0.339746
0.336766
0.509620
0.520945
0.375509
0.457764
0.344515
0.595450
0.569820
0.545979
0.547767
0.626445
0.548959
0.580549
0.768900
0.546575
0.847578
0.815988
0.690818
0.845790
0.942945
0.972748
1.095533
1.138449
1.339912
3.024936
19.218922
50.435662
134.220719
239.077806
443.326831
615.363717
825.358629
928.588510
968.440771
894.774795
704.283714
525.334477
309.674740
190.401673
87.130666
41.624904
14.115572
8.916855
8.063912
8.924603
12.355447
17.953515
28.413534
40.745735
60.267448
73.923469
90.001822
97.892880
98.179579
91.628432
79.961419
64.866543
47.225952
35.644770
23.225546
16.954541
12.502670
10.887980
10.159612
9.465814
9.291768
9.171963
9.233952
9.357929
9.459853
9.148717
9.066463
9.123683
9.087920
9.016991
8.827448
##ZVALUE=330
0.288486
0.387430
0.318885
0.177622
0.216961
0.392795
0.328422
0.045896
0.269413
0.194907
0.197887
0.332594
0.289679
0.308752
0.421405
0.278950
0.387430
0.359416
0.482798
0.291467
0.518560
0.576973
0.563860
0.472665
0.479817
0.535846
0.598431
0.542998
0.606775
0.550747
0.521541
0.492930
0.595450
0.627637
0.770688
0.593662
0.595450
0.622869
0.623465
0.780821
0.766516
0.863671
0.849962
0.893474
1.136661
1.359582
2.009869
6.454587
31.536818
77.572465
193.860531
320.775509
543.262959
712.084770
893.445015
966.048837
919.635892
804.110765
595.808625
430.472493
232.677460
133.702755
54.058433
24.507642
9.698868
7.817745
7.722974
8.879900
12.476444
17.513633
28.826594
39.173961
56.947470
70.420504
84.370971
91.761947
92.463493
86.768866
73.252916
60.612559
44.227839
33.699870
23.495555
17.771721
12.998581
11.483431
10.010600
9.833574
9.166598
8.984804
9.058714
8.717775
8.541942
8.720756
8.869767
8.721948
##ZVALUE=335
0.282526
0.202656
0.197887
0.277758
0.277758
0.250936
0.243783
0.190735
0.388622
0.371933
0.295639
0.293851
0.335574
0.346899
0.325441
0.161529
0.267625
0.245571
0.324845
0.273585
0.199676
0.351667
0.385642
0.376701
0.376701
0.309944
0.478625
0.330806
0.401735
0.537634
0.421405
0.548959
0.496507
0.532866
0.572801
0.586510
0.664592
0.693798
0.687838
0.650883
0.874996
0.854731
0.669956
0.773668
0.637770
1.069903
1.092553
1.125932
1.385808
3.905892
14.061928
54.832697
115.936995
255.180597
409.075618
641.340017
788.424611
908.840895
920.107961
818.196535
679.636598
462.225676
314.036012
162.651539
86.151958
31.646490
13.806820
7.573962
7.376671
7.818937
8.621812
11.784434
16.107559
26.578903
37.654638
53.920746
65.901875
79.035759
85.299611
86.602569
81.494451
69.391727
58.253407
43.884516
33.917427
23.723841
17.881989
13.366938
11.243820
9.855628
9.171963
8.639693
8.371472
8.617640
8.748770
8.348823
##ZVALUE=340
0.225902
0.222921
0.247955
0.328422
0.323653
0.167489
0.256896
0.349879
0.237823
0.263453
0.214577
0.139475
0.214577
0.303984
0.376701
0.236630
0.424981
0.340939
0.268817
0.491738
0.341535
0.422597
0.416636
0.305772
0.272989
0.435710
0.352859
0.460744
0.373721
0.410676
0.425577
0.476837
0.501871
0.345707
0.430942
0.625849
0.505447
0.535846
0.511408
0.450611
0.498891
0.679493
0.535846
0.512600
0.582933
0.877976
0.724792
0.823736
1.031756
1.068711
1.219511
1.994967
6.628633
33.441782
80.687404
199.104548
331.863761
540.319681
696.747899
856.785774
904.241800
845.685005
732.469559
534.955859
374.270678
195.156932
107.649565
44.044852
18.903613
8.314848
7.685423
7.623434
7.704496
8.736849
11.208653
17.424822
24.123788
36.676526
48.116446
63.865781
73.810816
81.488490
81.440806
76.215863
68.318844
55.618882
45.431852
31.738877
24.484992
17.037988
13.243556
10.429621
9.346604
8.589625
8.430481
8.339882
##ZVALUE=345
0.245571
0.338554
0.261664
0.207424
0.123978
0.297427
0.208616
0.207424
0.425577
0.296831
0.321865
0.218749
0.370741
0.226498
0.179410
0.196695
0.281930
0.336766
0.206828
0.349879
0.370741
0.402927
0.386834
0.372529
0.417829
0.406504
0.402927
0.297427
0.452995
0.417829
0.347495
0.489950
0.385642
0.313520
0.354648
0.476837
0.484586
0.507832
0.482798
0.461936
0.611544
0.524521
0.614524
0.510812
0.641942
0.496507
0.780821
0.839829
0.740886
0.856519
0.943542
1.078844
1.027584
1.255870
3.066659
18.593669
51.888824
135.468841
238.167644
430.365801
586.087704
773.544908
854.501724
857.682824
776.194930
590.085387
436.910987
256.589651
145.521760
56.694746
26.042461
11.053681
7.588863
7.549524
7.144809
7.216930
8.114576
10.577440
15.107989
23.592710
32.389760
46.976805
56.505799
67.144632
72.872639
75.879693
72.519779
64.000487
54.917932
42.861700
32.791495
22.658706
16.851425
12.132525
9.939671
9.008646
##ZVALUE=350
0.306964
0.223517
0.294447
0.126958
0.249743
0.267625
0.052452
0.278950
0.267625
0.149608
0.257492
0.354648
0.366569
0.240803
0.134706
0.304580
0.237823
0.264645
0.376701
0.224710
0.244975
0.269413
0.270605
0.238419
0.254512
0.293851
0.360608
0.407696
0.363588
0.392795
0.436902
0.537634
0.338554
0.374913
0.485778
0.331998
0.563860
0.446439
0.391603
0.538826
0.540614
0.504851
0.536442
0.417829
0.509620
0.618696
0.550747
0.460744
0.669956
0.591874
0.725985
0.624657
0.807643
0.831485
0.918508
1.308918
1.779795
9.901524
29.552579
90.915561
170.767903
339.703560
488.177538
677.231550
792.936683
846.853852
801.800489
658.159852
502.125621
297.312737
182.339549
85.494518
39.794445
12.965798
7.756948
6.694794
6.696582
6.596446
6.920695
8.078814
9.987950
15.114546
20.296574
29.217601
37.977695
50.548911
58.960915
67.005754
68.826675
66.411495
60.878992
49.642920
41.392446
29.796958
22.868514
16.439557
##ZVALUE=355
0.211596
0.120997
0.246763
0.195503
0.173450
0.248551
0.187755
0.246763
0.198483
0.235438
0.351667
0.365973
0.277758
0.298619
0.301600
0.279546
0.250936
0.224710
0.352859
0.302792
0.237823
0.277758
0.281930
0.194907
0.383854
0.364780
0.299811
0.297427
0.321865
0.264645
0.393987
0.341535
0.392795
0.507832
0.347495
0.464916
0.305772
0.466704
0.431538
0.391603
0.478625
0.517964
0.553727
0.532866
0.542998
0.592470
0.588894
0.577569
0.619888
0.535846
0.658631
0.771880
0.837445
0.689626
0.705719
0.922680
0.973940
1.146793
1.299977
4.329681
15.940666
60.358644
122.068524
254.516602
397.245884
602.127910
727.435946
817.617774
805.912018
682.163835
550.910830
360.008478
228.608847
100.391507
48.699975
16.595721
8.539557
6.477833
6.376505
6.118417
6.269813
6.380677
7.242560
9.355545
12.225509
18.258691
24.594665
35.010576
43.550730
52.952766
58.870912
63.050985
60.780644
55.302978
48.868656
38.857460
##ZVALUE=360
0.404716
0.332594
0.386834
0.364780
0.401735
0.371933
0.415444
0.335574
0.273585
0.427961
0.311732
0.250936
0.305772
0.524521
0.367761
0.329614
0.513792
0.389814
0.220537
0.396967
0.279546
0.492930
0.354648
0.442863
0.473857
0.531673
0.462532
0.371933
0.418425
0.425577
0.482798
0.502467
0.465512
0.388622
0.493526
0.496507
0.478625
0.501871
0.435710
0.587702
0.515580
0.560880
0.548959
0.627637
0.644922
0.672936
0.498891
0.722408
0.680685
0.676513
0.658631
0.837445
0.659823
0.872612
0.767708
0.947714
0.820756
1.113415
1.103878
1.206994
1.391768
2.253652
6.912947
31.256676
74.753761
184.176564
302.302837
485.897660
632.233620
767.593980
795.669556
732.913017
614.333749
416.571498
277.504921
135.053992
70.252419
27.117729
11.467934
6.487966
6.159544
6.215572
6.374717
6.085634
5.987883
6.482601
7.579923
10.316968
13.899803
20.852685
27.985573
38.326979
45.221448
54.043531
56.810975
56.508780
##ZVALUE=365
0.309944
0.318885
0.342727
0.169873
0.301600
0.268817
0.207424
0.204444
0.244975
0.327826
0.152588
0.218749
0.212789
0.305772
0.332594
0.247955
0.286698
0.179410
0.283718
0.261664
0.242591
0.142455
0.301600
0.469685
0.209808
0.298619
0.349879
0.316501
0.254512
0.351667
0.432730
0.435710
0.436902
0.223517
0.479817
0.551939
0.411868
0.514984
0.479817
0.413656
0.403523
0.355840
0.360608
0.452995
0.366569
0.416636
0.342727
0.449419
0.440478
0.627637
0.552535
0.737906
0.615716
0.498891
0.600815
0.727773
0.746846
0.827909
0.648499
0.890493
0.824928
0.968575
1.384616
1.297593
3.186464
17.160773
46.126842
121.455789
222.100019
407.102704
546.021461
695.846677
762.993693
744.224787
654.906034
474.172831
334.990621
185.774565
100.584626
36.519766
15.740991
6.946921
5.822778
5.689859
5.549788
5.338788
5.348921
5.514622
5.797744
6.615520
8.304715
12.428761
17.018914
25.173426
31.597614
40.455461
##ZVALUE=370
0.203848
0.182986
0.389814
0.274777
0.253916
0.256896
0.301600
0.109673
0.278950
0.200868
0.255704
0.233650
0.204444
0.239611
0.268817
0.256896
0.309944
0.306964
0.154972
0.269413
0.210404
0.456572
0.213981
0.277758
0.161529
0.311732
0.340939
0.383854
0.250936
0.448823
0.260472
0.388622
0.339746
0.318885
0.393987
0.256896
0.230670
0.390410
0.376701
0.428557
0.518560
0.452995
0.450611
0.287890
0.434518
0.338554
0.483990
0.512600
0.580549
0.628829
0.418425
0.511408
0.393987
0.494719
0.548959
0.626445
0.473857
0.512600
0.446439
0.615716
0.972748
0.811815
0.925660
1.008511
1.099706
1.292825
2.057552
6.993413
36.119819
85.659623
197.963715
313.491821
491.983891
623.933673
737.803578
753.237009
675.370693
555.693507
367.897749
236.209631
109.496713
56.858659
22.021532
10.283589
5.991459
5.234480
5.104542
4.984736
4.980564
4.855990
4.833937
4.977584
6.063581
7.419586
10.753870
14.290810
##ZVALUE=375
0.151992
0.304580
0.171661
0.124574
0.325441
0.281930
0.287890
0.229478
0.113845
0.181794
0.302792
0.280738
0.248551
0.206828
0.177622
0.215769
0.305772
0.231862
0.280738
0.243783
0.318885
0.320673
0.246763
0.230670
0.334978
0.276566
0.257492
0.365973
0.316501
0.417829
0.314713
0.443459
0.312924
0.410676
0.359416
0.273585
0.277758
0.155568
0.343919
0.405908
0.493526
0.432730
0.423789
0.382662
0.261664
0.338554
0.411868
0.258684
0.337958
0.291467
0.406504
0.540614
0.498891
0.451803
0.368953
0.364780
0.412464
0.381470
0.562668
0.488758
0.487566
0.590682
0.553727
0.734925
0.825524
0.864863
0.960827
1.214743
1.357794
3.793836
20.996928
51.621795
130.805969
232.725739
408.352613
544.044971
690.319538
744.395852
709.336996
609.878898
433.959961
303.161740
170.219541
95.063448
37.840605
16.430616
6.469488
4.981756
4.862547
4.736781
4.617572
4.444718
4.544854
4.283786
4.846454
5.233884
##ZVALUE=380
0.247955
0.310540
0.222921
0.206828
0.285506
0.135899
0.057817
0.195503
0.179410
0.084639
0.109673
0.142455
0.213981
0.131726
0.274777
0.274777
0.178814
0.254512
0.323653
0.224710
0.222921
0.307560
0.221729
0.197887
0.176430
0.227690
0.209808
0.244975
0.353456
0.252724
0.183582
0.344515
0.285506
0.276566
0.243783
0.154972
0.300407
0.243783
0.205636
0.421405
0.308752
0.302792
0.351667
0.320673
0.350475
0.303984
0.319481
0.343919
0.410676
0.456572
0.267625
0.374913
0.465512
0.446439
0.445843
0.375509
0.391603
0.373721
0.443459
0.381470
0.367761
0.561476
0.647902
0.474453
0.404716
0.685453
0.774860
0.757575
0.994802
1.061559
1.253486
2.001524
10.467768
32.048821
96.578598
178.362727
338.096619
483.991504
655.085444
729.418993
728.305578
656.036735
507.738590
379.411578
220.595002
128.805637
53.266883
24.419427
7.962584
5.006790
4.437566
4.260540
4.279613
4.192591
4.233718
4.119873
##ZVALUE=385
0.137687
0.288486
0.189543
0.216961
0.349879
0.202656
0.034571
0.141859
0.192523
0.067949
0.007749
0.149608
-0.016689
0.085831
0.057817
0.282526
0.285506
0.031590
0.132918
0.148416
0.099540
0.093579
0.190735
0.025630
0.294447
0.096560
0.231862
0.145435
0.078678
0.243783
0.024438
0.392795
0.199676
0.357628
0.309944
0.245571
0.219941
0.062585
0.232458
0.176430
0.189543
0.257492
0.367761
0.274777
0.179410
0.314713
0.310540
0.207424
0.235438
0.266433
0.411868
0.370741
0.412464
0.385642
0.403523
0.394583
0.441670
0.263453
0.331998
0.293851
0.141859
0.275970
0.319481
0.508428
0.515580
0.447631
0.489950
0.614524
0.747442
0.815988
0.982881
0.917912
1.122952
1.459718
3.786683
21.946430
56.705475
140.825510
246.940851
431.338549
570.805669
698.228478
729.943514
688.130856
600.773692
436.896682
308.749676
167.371631
94.375610
38.683414
16.270876
5.662441
4.088879
3.974438
4.016757
4.043579
##ZVALUE=390
-0.046492
0.023842
-0.137687
0.177622
0.096560
0.122786
-0.029802
0.033975
0.168681
0.087619
0.015497
0.031590
0.162721
-0.007749
0.100732
0.130534
0.057817
0.140667
0.095963
-0.082850
0.025630
0.081658
0.188947
0.017881
-0.027418
0.107884
0.183582
0.177622
0.205636
0.226498
0.125766
0.096560
0.114441
0.137687
0.257492
0.078678
0.159740
0.173450
0.277758
0.130534
0.179410
0.241995
0.186563
0.207424
0.146627
0.049472
0.175834
0.121593
0.121593
0.108480
0.216961
0.309944
0.218749
0.331998
0.144839
0.206828
0.053644
0.174642
0.081658
0.253916
0.260472
0.455976
0.426769
0.269413
0.422597
0.503659
0.400543
0.493526
0.519753
0.553727
0.655651
0.544786
0.734925
0.803471
0.772476
0.954866
1.876950
11.288524
34.596920
106.858611
199.519992
369.506478
501.036644
642.815828
716.652870
729.801655
665.664673
520.711541
393.103957
237.614512
137.589574
56.571960
25.654435
7.817745
4.299879
3.846884
##ZVALUE=395
0.128746
0.205636
0.162721
0.149608
0.212789
0.247955
0.139475
0.188947
0.143647
0.072718
0.340939
0.238419
0.210404
0.183582
0.155568
0.168681
0.227690
0.236630
0.189543
0.238419
0.209808
0.274777
0.171661
0.240803
0.189543
0.188947
0.190735
0.228882
0.291467
0.153780
0.133514
0.348687
0.235438
0.227690
0.338554
0.279546
0.124574
0.311732
0.250936
0.198483
0.312924
0.279546
0.320673
0.216961
0.337958
0.139475
0.200868
0.277758
0.202656
0.258684
0.353456
0.362992
0.435710
0.282526
0.369549
0.359416
0.298619
0.323653
0.480413
0.259876
0.249743
0.421405
0.446439
0.422597
0.521541
0.439882
0.600815
0.627637
0.614524
0.533462
0.767708
0.738502
0.871420
0.746846
0.787973
0.906587
0.823736
1.042485
1.310706
6.623864
23.380518
79.504848
149.430633
281.164646
411.988497
592.698455
698.281527
756.932497
726.542473
608.093739
471.868515
290.683508
182.980895
85.833669
40.806532
13.869405
##ZVALUE=400
0.162721
0.079870
0.222921
0.146627
0.014901
0.136495
0.093579
0.131726
0.253916
0.165701
0.142455
0.106692
0.092983
0.124574
0.204444
0.333786
0.258684
0.045896
0.077486
0.155568
0.118613
0.275970
0.263453
0.124574
0.303984
0.243783
0.173450
0.166893
0.181794
0.314713
0.208616
0.205636
0.284910
0.241995
0.274777
0.195503
0.299811
0.267625
0.324845
0.234842
0.166893
0.168681
0.240803
0.188947
0.299811
0.264645
0.360608
0.241995
0.210404
0.340939
0.403523
0.167489
0.353456
0.314713
0.371933
0.179410
0.240803
0.267625
0.295639
0.394583
0.257492
0.411868
0.433922
0.456572
0.442863
0.666976
0.438690
0.501871
0.530481
0.709891
0.715852
0.577569
0.630617
0.717640
0.716448
0.688434
0.744462
0.682473
0.824928
0.985861
1.063943
3.402829
11.952519
44.401884
95.384717
214.613676
341.112018
527.739525
651.468635
743.199587
747.093558
645.897985
523.336530
339.987874
220.276713
109.384656
##END
