##TITLE=FQP00651
##FORMAT=SPECTACLE-ASCII V-1.2
##DATA TYPE=ULTRAVIOLET SPECTRUM
##SECOND TYPE=ULTRAVIOLET SPECTRUM
##DATE=02/05/18
##TIME=14:14:24
##SPECTROMETER/DATA SYSTEM=SPECTACLE
##XUNITS=NM EM
##YUNITS=ENERGY
##YFACTOR=1
##FIRSTX=220
##LASTX=410
##NPOINTS=96
##3DDATA=Equidistant
##ZUNITS=NM EX
##FIRSTZ=210
##LASTZ=400
##ZPOINTS=39
##XYDATA=(Y..Y)
##ZVALUE=210
1.993775
2.100468
2.237558
1.989603
2.216697
2.519488
1.799464
2.494454
2.425909
2.530813
2.684593
2.484918
2.840757
2.615452
2.122521
2.820492
2.274513
2.622604
2.345443
3.111959
2.899766
2.741814
3.655553
3.629923
3.433824
3.311634
4.393458
4.274845
4.184842
4.626513
5.473495
5.080700
5.916953
5.608797
5.587935
4.827976
6.189942
5.444884
4.575849
5.850792
5.191565
5.182624
5.560517
4.677773
5.686879
5.362630
4.573464
5.864501
6.107688
5.175471
5.193949
5.413890
4.881620
5.247593
4.937649
5.729795
4.325509
5.587935
5.132556
5.654693
5.339980
5.249977
5.050898
6.124973
5.667806
6.055832
6.044507
5.539656
7.156730
8.102655
8.593798
9.634495
10.900497
11.770725
14.289618
13.731718
13.188720
15.065670
14.685988
13.205409
11.806488
10.195971
11.038780
9.507537
8.052588
7.020831
5.160570
5.715489
5.545616
4.800558
4.675984
5.094409
6.045699
5.024672
5.475879
5.345941
##ZVALUE=215
7.359982
6.697774
6.179810
5.303621
4.145503
3.825426
4.697442
4.892945
5.019903
4.321933
4.577637
4.411936
3.930926
3.026724
3.389716
3.034472
2.904534
3.076792
2.860427
2.722740
2.791882
3.304482
3.370643
3.543496
3.730655
4.481673
4.408956
4.496574
5.457997
5.298853
5.587935
6.294847
6.394982
6.934404
6.863475
6.559491
5.896688
6.626844
6.418824
6.488562
5.835891
5.572438
6.326437
5.889535
6.640553
6.102920
6.347895
6.117821
5.809665
6.950498
5.985498
5.968809
6.482601
5.771518
5.801916
5.248785
4.850626
5.958676
5.077720
6.359816
6.249547
5.950928
5.777478
6.178617
5.221963
5.603433
6.812811
6.323457
7.123947
8.684993
8.695722
9.608865
11.944771
13.173819
13.712645
13.536811
14.028549
14.245510
13.998747
14.206767
11.608601
10.755658
9.543896
9.399652
7.776618
8.139610
6.499887
6.036758
5.178452
5.338788
5.091429
4.868507
4.158616
5.540848
5.154610
4.827976
##ZVALUE=220
22.295713
22.307634
24.743676
22.643805
21.513700
17.908812
14.262795
10.365844
9.038448
10.006428
11.027455
11.507869
10.950565
10.729432
8.737445
6.443858
6.130934
4.188418
3.906488
2.917647
3.527999
3.384948
3.476739
3.706813
4.615784
4.650950
4.956722
5.616546
6.572604
6.618500
8.449554
7.743835
9.169579
9.148717
8.685589
8.567572
9.367466
9.520650
9.253621
8.670688
9.524822
8.766651
8.085966
8.294582
8.445978
7.802844
7.595420
7.354617
7.328987
6.595850
8.297563
7.166862
7.049441
7.269979
6.733537
6.624460
6.821752
6.869435
5.886555
7.117987
7.370710
6.187558
6.221533
6.820560
5.772710
6.610751
7.530451
7.358789
7.237792
8.917451
10.763407
12.373924
13.126731
13.463497
16.410947
15.071630
14.828444
15.240908
14.207959
13.477802
12.465715
12.815595
10.824800
10.513663
10.234714
10.115504
7.134676
6.769896
5.872846
5.758405
7.071495
6.148815
5.362630
6.101727
6.515980
5.646944
##ZVALUE=225
38.190484
38.603544
52.193999
67.595840
74.352622
74.358582
69.146752
53.668618
40.870905
29.729605
23.263693
23.168921
23.342967
24.956465
24.019480
23.970604
18.755794
16.691685
11.480451
8.374453
5.784631
4.707575
4.508495
5.035996
4.289746
6.763935
6.548762
7.372499
8.431673
9.537935
9.632707
11.571646
10.597706
12.414455
12.502670
13.578534
12.578964
12.897849
11.979938
12.622476
11.101961
10.953546
10.999441
9.972453
10.067821
10.131598
9.735823
10.075569
10.190606
8.406639
9.115934
8.338690
8.348823
7.369518
7.549524
8.659959
8.288622
8.204579
8.430481
8.313656
7.952452
8.689761
7.399917
8.806586
7.764697
8.125901
7.469654
8.362532
10.568500
9.515882
11.014938
12.458563
14.412999
14.977455
15.085936
17.481446
16.392469
16.594529
15.450716
14.740825
13.384819
12.605786
12.510419
13.096929
11.157990
9.941459
9.341836
9.201765
7.577538
8.094907
7.430911
8.209944
8.280873
8.057952
8.279681
7.456541
##ZVALUE=230
38.321614
36.805868
67.752600
99.912882
137.175918
164.134502
184.760690
185.475945
164.260864
136.932731
96.273422
70.878863
54.243803
43.597817
45.444965
46.178699
49.423575
47.001839
45.477748
34.216642
27.986765
18.981695
13.115406
8.988976
6.897449
6.087422
7.045865
8.048415
9.338856
9.850860
11.108518
11.354685
11.863708
11.812449
12.696981
12.512803
13.554692
11.762977
13.102889
12.887716
11.945963
12.095571
12.748837
12.297630
11.459589
10.717511
10.928512
11.304617
10.627508
11.261702
9.941459
9.886622
8.981824
9.681582
10.693669
9.402633
9.481907
10.641813
8.459687
9.542704
9.271502
9.134412
10.053515
10.509491
10.351539
10.807514
10.338426
10.416508
11.915565
13.114810
15.203953
15.369654
16.394854
18.175840
18.170476
18.476844
20.652413
20.408630
19.337535
18.695593
17.882586
17.413497
16.604662
14.811754
13.640523
13.887882
11.950731
12.226701
12.285709
11.801720
11.513829
11.716485
11.983514
11.041760
11.185408
10.750890
##ZVALUE=235
15.768409
20.179749
36.830902
85.338950
135.485530
210.610628
273.652673
346.978903
380.334854
377.380848
340.299606
260.511637
192.797780
126.591921
100.452900
80.561638
69.708824
79.381466
79.768896
80.658793
76.410770
64.672828
51.153898
35.655499
24.495721
16.693473
11.624694
9.661913
9.048581
9.939671
10.574460
12.675524
11.083484
12.402534
12.273788
12.697577
11.581779
12.152791
12.486577
11.441708
11.611581
11.426806
12.897849
11.910796
10.303855
12.121797
11.197925
11.470914
10.716915
11.406541
10.712743
9.885430
10.082722
9.933710
10.830760
9.071827
11.773705
10.596514
11.066794
11.641979
12.369752
11.797547
12.750626
12.438893
11.685491
12.754798
12.674928
13.121963
15.007854
16.027689
18.535852
19.725561
20.762682
21.789670
23.039579
23.611784
25.645494
25.862455
23.206472
24.284720
21.941662
21.525621
19.612908
18.722415
17.610788
17.486811
17.761588
17.122626
16.348958
16.633868
16.654730
15.242696
15.554428
15.764832
15.163422
13.990998
##ZVALUE=240
2.119541
2.644658
10.975599
27.910471
72.317719
121.308565
231.309533
328.503847
462.271571
542.509556
600.743890
584.761500
543.560982
423.429012
326.342583
216.512680
160.086751
109.335780
101.715922
103.873610
113.666654
121.346712
115.358829
102.863908
82.490444
67.526698
47.245622
33.101439
22.687912
17.038584
13.283491
11.580586
12.092590
11.774898
10.764599
12.682676
12.056828
11.376739
11.656880
12.038946
12.458563
12.307763
12.199879
10.976791
12.279749
11.662841
10.844469
10.996461
12.687445
10.909438
9.892583
11.088848
11.591911
11.172891
10.622740
11.467934
11.106730
12.575984
11.533499
11.496544
11.125803
12.514591
11.808872
13.174415
13.025999
14.163852
14.367700
16.003847
16.206503
18.122792
18.043518
22.502542
21.869540
23.421645
26.160479
27.330518
28.092861
25.704503
25.530457
26.784539
25.931001
24.923682
23.105741
22.987723
22.554994
22.393465
22.177696
21.816492
18.752813
19.954443
21.159649
19.575953
20.041466
19.384623
19.597411
18.611550
##ZVALUE=245
1.482964
1.675487
2.293587
1.944900
5.655885
16.216636
54.922700
110.235810
227.325559
341.890454
512.489676
635.996461
710.057616
750.088692
715.768933
597.117543
481.998920
323.700905
225.635767
138.249993
106.090903
102.031827
115.108490
129.694939
132.227540
128.615499
112.398863
103.202462
72.129965
57.873726
38.319826
26.790500
19.975901
14.544725
15.015602
13.479590
13.127923
13.581514
13.523698
12.394786
12.516975
13.736486
12.528896
11.890531
12.211800
11.448860
13.007522
13.613701
10.987520
11.280775
11.200905
9.391904
10.897517
11.241436
11.358857
9.999871
10.000467
11.051893
9.971857
11.402965
9.753704
11.070967
10.571480
12.491941
11.937618
13.478994
13.087988
15.243888
14.916658
17.192960
17.169714
19.168854
20.007491
21.267533
22.609830
24.443865
24.805665
25.591850
24.473667
23.292899
23.174882
24.199486
22.617579
22.857785
20.893812
21.394491
20.439625
19.791722
19.440651
19.555688
19.806623
20.051599
18.060803
18.673539
18.843412
19.428730
##ZVALUE=250
1.397729
1.439452
1.242757
1.439452
1.450777
1.713634
2.557635
7.851720
31.895638
69.497824
168.940425
286.965966
425.681472
635.351539
761.774778
870.181918
853.248835
760.856867
641.111732
436.546803
301.963687
191.300511
117.039680
97.831488
106.905699
121.726990
137.305856
145.691633
139.719844
126.447678
112.060905
83.303452
64.697862
40.791631
30.779839
19.787550
16.329885
14.494658
14.482737
12.638569
13.342500
13.194680
12.709498
13.852715
12.469888
13.092756
11.859536
12.548566
11.382699
11.154413
10.454655
11.395812
10.246634
9.464622
9.330511
9.836555
10.964870
9.462833
10.689497
9.429455
10.089874
9.313822
9.873509
9.815693
9.904504
9.932518
12.096763
12.138486
13.216734
13.832450
14.927983
16.241670
17.847419
19.985437
19.666553
21.457672
20.968914
20.863414
21.308661
21.483898
19.896626
20.018816
19.791722
20.286441
19.809604
19.955635
19.764900
18.275976
18.801689
17.981529
18.860698
19.723773
18.730760
18.260479
18.511415
18.491745
##ZVALUE=255
1.290441
1.397729
1.296997
1.335740
1.135468
1.608729
1.619458
1.573563
2.103448
5.274415
26.359558
63.630939
123.743415
267.304778
410.684943
634.827018
799.721479
962.416530
1013.515592
974.296927
848.463774
680.412650
428.617001
271.418691
138.540864
99.172592
92.445612
105.780959
129.623413
143.455863
150.790811
145.011544
137.919784
110.966563
90.715885
61.222911
44.841766
29.403567
20.839572
16.243458
14.050603
14.185905
14.656782
14.020801
14.123917
13.622642
12.190938
12.399554
12.189746
11.710525
11.126995
10.567904
10.054708
11.108518
9.996891
8.595586
10.038614
9.166598
9.076595
9.212494
8.567572
8.611679
8.338690
9.041429
9.125471
9.450912
10.705590
10.202527
10.716915
11.874437
12.054443
13.284683
14.422536
15.163422
16.697645
17.278790
17.958879
18.001795
18.556714
17.590523
18.137693
17.690659
17.932653
17.087460
15.997887
16.828775
16.774535
17.170906
15.315413
17.352700
17.564893
16.003847
17.271638
17.362833
17.136931
17.645955
##ZVALUE=260
1.296997
0.945926
1.077652
1.203418
0.968575
1.305938
1.143813
1.327991
1.349449
1.815557
1.634955
3.105402
12.191534
51.110983
107.773542
236.951709
375.055671
615.925789
816.791654
1015.888453
1015.888453
1015.888453
1015.888453
851.323009
562.080741
375.321507
208.381414
126.075745
87.790489
88.722706
113.309622
130.769610
150.661469
159.204006
154.852867
140.926838
120.211840
89.432597
67.603588
45.844913
32.732487
21.757483
17.410517
14.368892
14.298558
13.184547
12.812614
12.862682
11.814833
11.377931
11.168718
11.318922
10.676980
11.021495
9.161830
9.089708
9.407997
8.824468
9.040833
8.407831
8.395910
8.168817
8.054972
8.570552
8.769631
8.811951
8.981824
9.939671
9.874701
10.178685
10.885596
11.443496
12.622476
14.050603
14.787912
15.128851
15.623569
15.882850
15.709996
16.579628
15.431643
15.696883
15.299916
15.620589
15.085936
14.982820
15.010834
14.508963
14.764667
16.303658
15.228987
15.133619
15.514493
14.990568
15.462637
15.550852
##ZVALUE=265
0.929832
0.781417
0.957847
1.127720
1.055598
1.035929
1.120567
0.982881
1.211762
1.082420
1.739860
1.502633
1.606941
1.943707
5.781651
31.406879
76.430440
178.105831
302.380919
548.448563
763.592720
980.137587
1015.888453
1015.888453
1015.888453
985.056758
726.782680
510.166883
276.538730
165.746808
106.682777
80.698729
88.278651
118.302703
139.273405
159.626007
162.967443
158.379674
140.698552
112.753510
90.899467
64.292550
48.649907
31.514764
22.276640
16.184449
13.803840
12.943745
12.761950
12.052655
10.861754
10.875463
10.336637
10.122657
9.842515
9.316802
8.507967
9.043813
8.863807
7.916689
8.305907
8.042455
8.352995
8.229613
8.224845
8.570552
7.729530
8.714795
9.416938
9.560585
9.990931
10.700822
11.380911
12.300611
12.596846
12.601614
12.715459
11.359453
12.388825
12.877584
13.205409
12.522936
12.858510
13.230443
12.983680
13.674498
13.687611
13.167858
13.094544
13.790727
13.845563
13.513565
14.107823
14.187694
14.671683
14.413595
##ZVALUE=270
0.757575
0.588894
1.067519
0.843406
0.850558
1.028776
0.833869
0.802875
1.002550
1.019835
1.021624
1.055598
0.957847
1.523495
1.480579
1.736879
2.508759
13.176799
40.283799
120.968819
232.110620
373.625755
643.173456
850.417018
1015.888453
1015.888453
1015.888453
995.149016
776.813626
591.975451
353.151560
217.584968
129.393935
74.092746
70.654750
94.244480
116.066933
143.412948
157.702565
163.231492
158.286691
139.568448
118.785501
86.431503
65.362453
41.373968
28.767586
18.741488
14.242530
11.857748
10.707974
10.297894
10.403991
9.223819
9.706616
8.951426
8.692741
8.595586
8.111596
8.143783
8.150935
8.030534
7.935762
8.028746
8.062720
7.915497
7.109642
8.169413
8.202791
9.346604
9.348989
9.641647
10.552406
10.970831
11.125803
11.073947
11.166930
11.536479
11.201501
11.438727
11.694431
11.976957
11.492968
11.226535
11.594892
12.141466
12.005568
11.697412
12.059808
12.668967
12.536645
12.177825
12.179613
12.921691
12.893677
13.005733
##ZVALUE=275
1.140833
1.034737
1.109838
1.095533
1.148582
0.927448
1.232624
1.094937
1.192689
1.363754
1.310706
1.596808
1.405478
1.628995
1.688600
1.559854
1.765490
1.909733
2.289414
4.879832
17.879605
51.199794
152.660012
283.080935
525.470972
716.940761
945.675969
1016.243696
1016.243696
1016.243696
997.358561
750.438571
538.918972
289.791822
166.506767
81.834793
59.698820
65.099001
84.127784
113.132000
134.110451
154.742599
159.712434
154.227614
139.774680
108.784437
88.261962
62.496662
45.415759
27.698874
19.473433
12.196898
10.648966
9.054542
9.272695
8.986592
8.392930
8.334517
8.182526
8.072853
8.526444
7.786751
8.326769
8.205771
7.883906
8.025765
8.126497
8.386970
8.542538
9.221435
9.734631
10.145903
10.864735
11.769533
10.932684
11.508465
11.567473
12.014508
11.186600
11.091828
11.472702
10.845661
11.925697
11.721849
11.608601
11.648536
11.840463
12.118816
12.409687
11.755824
12.365580
11.373758
12.425780
11.724830
12.542605
12.037754
##ZVALUE=280
0.659823
0.619888
0.650883
0.617504
0.819564
0.619888
0.817776
0.705719
0.709891
0.878572
0.875592
0.890493
0.713468
0.892878
0.996590
1.099706
1.075864
1.078844
1.384616
1.456738
1.600981
2.089739
11.417866
37.691593
120.406747
222.901702
421.487689
630.042553
926.143527
1015.889645
1015.889645
1015.889645
1015.889645
902.912617
654.879808
363.211632
213.282704
94.320774
55.078864
46.082735
58.024526
84.762573
107.181668
133.998990
146.096945
153.159499
145.929456
131.063461
110.321641
80.803633
59.722662
37.517548
26.012659
15.878677
11.281967
8.305907
7.712841
7.559657
7.381439
6.988645
7.053614
7.726550
7.480979
7.723570
7.927418
8.004904
7.879734
8.483529
8.579493
8.993745
9.086728
10.173917
10.099411
10.342598
10.713935
10.875463
10.984540
10.517836
10.833740
10.938644
10.545850
10.777712
11.452436
10.727644
10.777712
11.436939
10.750890
11.683702
11.246800
11.248589
10.821819
11.491776
11.760592
11.562705
11.149645
10.667443
##ZVALUE=285
0.539422
0.483990
0.539422
0.799894
0.552535
0.744462
0.666976
0.627637
0.768900
0.653863
0.687838
0.722408
0.803471
0.913739
1.068711
1.011491
1.058578
1.136661
1.070499
1.138449
1.371503
1.227856
1.452565
1.601577
5.564690
19.137859
67.876577
137.712955
303.203464
480.786562
691.269636
972.978473
1015.888453
1015.888453
1015.888453
983.649492
776.468515
482.605696
297.271609
137.573481
72.170496
35.732985
36.061406
53.493977
74.386001
104.321837
123.324990
142.042637
145.907998
140.096545
130.162835
106.705427
85.996985
59.444904
41.362643
24.127960
15.908480
10.518432
8.584857
7.254481
7.420778
7.518530
7.655621
7.284880
8.089542
8.267760
8.164644
8.487701
9.136796
8.955598
9.301901
10.192990
10.119677
10.374784
10.645986
10.420680
11.177659
10.893941
10.795593
10.792613
11.017919
11.010766
11.417866
11.119843
10.935664
10.991693
11.403561
10.802746
10.948777
10.913610
10.508895
10.928512
11.000633
10.911822
10.803938
10.637641
##ZVALUE=290
0.524521
0.414848
0.447631
0.352859
0.376701
0.502467
0.554919
0.559688
0.714660
0.647902
0.592470
0.689626
0.659823
0.819564
0.834465
0.740886
0.703931
0.848770
0.881553
1.013875
0.913739
1.035929
1.237988
1.275539
1.507998
1.650453
2.194643
7.858872
37.969947
87.061524
206.933618
355.335474
613.219738
832.062960
1015.889645
1015.889645
1015.889645
1015.889645
811.581612
606.792569
356.572866
207.727551
88.549852
43.944716
26.577711
33.184886
50.806403
68.014860
95.862746
116.331577
136.642456
144.149661
138.708949
127.400756
104.336739
82.644820
55.794716
40.516853
24.555922
17.062426
11.017919
8.886456
7.968545
7.371902
7.567406
7.846951
8.064508
8.489490
9.040833
8.840561
9.546876
10.403991
10.171533
10.554790
10.272861
10.864735
11.008978
10.368824
10.773540
10.747910
10.985732
10.531545
10.816455
11.207461
10.952950
10.579824
10.467768
10.905862
11.056662
10.536909
10.751486
10.605454
10.430813
10.677576
10.450482
10.249615
##ZVALUE=295
0.487566
0.335574
0.414848
0.389814
0.504851
0.517964
0.428557
0.553727
0.547767
0.718832
0.401735
0.461936
0.756979
0.562668
0.717640
0.700951
0.636578
0.750422
0.854731
0.775456
0.700951
0.861883
0.960827
1.016855
1.122952
1.115799
1.337528
1.295805
1.548529
2.931952
16.519427
47.361851
137.549639
262.300968
504.806638
714.013577
977.113843
1015.888453
1015.888453
1015.888453
983.006954
704.497695
491.805673
256.127715
138.708949
51.584840
26.740432
22.709966
29.441714
41.842461
65.650940
85.756779
111.365914
127.094984
135.965943
133.834481
120.489597
102.893710
77.363849
59.557557
38.700700
27.454495
16.513467
11.566877
9.264946
8.590817
8.099675
8.507967
8.954406
9.055734
9.673834
9.533763
9.860992
10.325909
10.876656
10.784864
11.196733
10.421872
11.443496
10.795593
10.781884
10.958910
11.175871
10.992885
11.208653
11.072755
10.945797
10.827780
11.105537
11.020899
10.942817
10.936856
11.090636
10.616779
10.392666
10.437965
##ZVALUE=300
0.459552
0.558496
0.380874
0.465512
0.446439
0.561476
0.442863
0.364780
0.316501
0.557899
0.527501
0.595450
0.700951
0.627637
0.753999
0.441670
0.592470
0.591874
0.782609
0.681877
0.824928
0.902414
0.907779
0.971556
0.886917
1.062751
0.947714
1.162887
1.463890
1.355410
1.587868
2.019405
7.601976
27.320981
92.772841
184.330940
385.381579
591.525435
879.641771
1015.888453
1015.888453
1015.888453
1015.066504
855.966806
570.171475
372.002721
186.576843
100.496411
37.428737
19.035935
19.415617
26.791692
41.568875
57.545900
82.250834
101.771951
121.879578
128.748417
124.753714
118.106604
97.491741
79.479814
56.714416
41.638613
25.221705
18.469691
12.184978
10.327697
8.953810
9.277463
9.481907
10.040998
9.700656
9.945631
10.563731
10.706782
10.829568
10.580420
10.767579
11.304617
11.137724
11.163950
11.455417
11.327863
11.104941
11.089444
11.234879
11.324883
11.158586
11.340976
11.004806
10.554790
10.844469
10.636449
10.888577
10.957718
##ZVALUE=305
0.452995
0.451803
0.508428
0.421405
0.496507
0.494719
0.441670
0.523925
0.457764
0.582933
0.438690
0.335574
0.351667
0.535846
0.591874
0.500679
0.393987
0.660419
0.618696
0.496507
0.495911
0.698566
0.788569
0.837445
0.864863
0.872612
0.791550
0.921488
1.028776
1.144409
1.281500
1.286864
1.457930
1.639724
3.170967
18.745661
51.961541
149.410963
273.002982
510.270596
718.336701
986.870527
1015.888453
1015.888453
1015.888453
917.502642
707.620382
434.525609
271.474719
127.442479
62.030554
21.998882
13.502836
16.897917
25.165677
40.549636
56.785941
80.143809
96.451640
114.450455
122.347474
120.954514
112.791657
94.435811
77.900887
54.320693
40.160418
24.839640
18.029809
12.723804
11.271834
9.872913
10.190606
10.233521
10.531545
10.527968
10.251999
10.567904
11.186600
10.733604
10.812879
11.489987
11.560917
11.654496
11.601448
11.100769
11.376739
11.611581
11.230707
11.120439
10.781884
10.935664
10.556579
10.775924
11.236668
10.701418
##ZVALUE=310
0.386834
0.390410
0.500679
0.552535
0.467896
0.415444
0.450611
0.499487
0.384450
0.613928
0.555515
0.409484
0.396967
0.593662
0.717640
0.441670
0.354648
0.689626
0.552535
0.608563
0.525713
0.726581
0.570416
0.642538
0.670552
0.690818
0.792742
0.709891
0.927448
0.926852
0.933409
1.058578
1.204610
1.272559
1.318455
1.488924
1.935959
7.869601
25.583506
88.514686
177.673697
376.799703
586.766005
882.364511
1015.900970
1015.900970
1015.900970
1015.900970
879.863501
592.547655
392.067432
193.856955
102.230906
35.950541
15.950799
11.382699
15.053749
23.095608
33.461452
52.102804
69.425702
90.666413
104.156733
115.204453
115.235448
105.830431
94.499588
74.134469
57.886839
38.431883
27.780533
19.242764
14.424920
11.999607
10.721684
10.435581
10.602474
10.617971
10.377765
11.393428
11.127591
11.558533
11.373758
11.428595
11.500716
10.987520
11.503696
11.297464
11.373758
11.019707
11.137724
10.935664
10.783672
10.940433
10.909438
10.834932
##ZVALUE=315
0.426769
0.372529
0.366569
0.372529
0.420809
0.391603
0.349879
0.334978
0.361800
0.346899
0.451803
0.500679
0.466704
0.529885
0.366569
0.492930
0.484586
0.481606
0.471473
0.561476
0.561476
0.489950
0.507832
0.587702
0.438690
0.719428
0.684857
0.680685
0.841618
0.818968
0.786781
0.960827
0.931621
0.875592
1.088977
1.301765
1.213551
1.376867
1.578927
3.474951
13.551712
56.407452
124.201775
285.935998
471.433997
759.806037
950.441957
1015.888453
1015.888453
1015.888453
947.767496
685.105920
484.179854
257.493854
137.438774
50.857663
21.348596
10.762811
10.370612
14.305711
20.265579
33.154488
45.218468
66.519976
83.283782
100.235939
108.770728
110.484958
104.146600
87.685585
73.279738
54.111481
40.145516
26.181936
19.255877
14.254451
12.030602
10.686517
10.431409
10.685921
10.671616
11.326671
11.299849
11.028647
11.490583
11.590719
11.802912
11.546612
11.106730
11.423826
11.151433
11.319518
11.130571
10.689497
10.780692
10.944605
##ZVALUE=320
0.296831
0.353456
0.477433
0.359416
0.359416
0.283718
0.421405
0.240803
0.285506
0.374913
0.382662
0.389814
0.475645
0.403523
0.387430
0.533462
0.407696
0.458956
0.522733
0.646710
0.434518
0.317693
0.489950
0.592470
0.431538
0.529885
0.612736
0.540614
0.816584
0.688434
0.788569
0.887513
0.867844
0.831485
0.972748
0.879765
1.060963
1.131892
1.244545
1.212955
1.418591
1.768470
7.608533
25.710464
91.789961
181.074739
372.166634
556.437969
826.897025
1001.006961
1015.888453
1015.888453
997.277498
827.271938
561.407804
366.555452
168.272853
87.784529
33.153892
14.544725
9.244680
9.550452
13.122559
18.554926
29.793978
41.336417
60.689449
75.674653
94.449520
101.482868
103.580952
97.541809
84.892511
70.320964
51.982999
39.709806
26.679635
19.642711
14.031529
12.320876
11.457801
11.077523
10.674596
11.069775
10.978580
11.089444
11.293888
11.047721
11.545420
11.242628
11.333823
10.993481
10.648966
10.866523
10.752678
10.551810
##ZVALUE=325
0.260472
0.362992
0.257492
0.347495
0.321865
0.345707
0.424981
0.264645
0.353456
0.292659
0.380874
0.330806
0.435710
0.340939
0.425577
0.340939
0.513792
0.567436
0.230670
0.332594
0.546575
0.603795
0.497699
0.440478
0.506639
0.591874
0.484586
0.594854
0.577569
0.636578
0.638962
0.505447
0.686646
0.843406
0.793934
0.684857
0.728965
1.114607
0.907779
1.106858
1.333952
1.230836
1.457930
1.411438
3.311634
20.513535
54.054856
144.024491
262.911916
495.794415
698.595643
953.084826
1015.888453
1015.888453
1015.888453
860.770941
653.584599
402.056575
245.031714
106.368661
50.149560
16.528964
9.645820
8.460879
9.351969
12.664795
18.325448
28.284788
41.786432
60.576797
73.902607
90.127587
96.561909
96.865892
91.997981
78.292489
65.452456
48.421621
36.683679
24.807453
18.799901
14.191866
12.364984
11.683702
11.330843
11.037588
10.560751
11.133552
11.008978
11.067986
10.867715
10.826588
11.065602
10.821819
10.636449
10.620952
##ZVALUE=330
0.299811
0.282526
0.351667
0.271797
0.283718
0.286698
0.349879
0.427961
0.490546
0.368953
0.217557
0.403523
0.446439
0.419617
0.382662
0.417829
0.435710
0.508428
0.373721
0.278950
0.404716
0.535846
0.456572
0.523925
0.570416
0.717640
0.473857
0.407696
0.542998
0.651479
0.762939
0.573993
0.560880
0.621676
0.726581
0.656843
0.849962
0.768900
0.732541
0.822544
0.828505
0.973940
1.030564
1.170635
1.301765
1.414418
1.836419
8.938909
28.640628
95.194578
185.152888
378.134847
562.765598
828.532577
995.517969
1015.888453
1015.888453
932.393670
753.570795
488.721728
317.084789
147.425532
73.535442
26.352406
12.082458
8.115768
7.849932
9.643435
12.193918
18.807650
26.935935
41.174889
53.813457
72.445869
83.379745
92.010498
92.840791
85.591674
76.597929
59.851408
46.641827
33.025742
25.751591
18.513799
15.132427
12.307763
11.652708
10.780692
10.702610
10.410547
10.210872
10.456443
10.375977
10.353923
10.386705
10.645986
##ZVALUE=335
0.221729
0.285506
0.078678
0.267625
0.377893
0.277758
0.401735
0.376701
0.361800
0.366569
0.359416
0.411868
0.517964
0.372529
0.400543
0.179410
0.330806
0.412464
0.378489
0.291467
0.328422
0.449419
0.343919
0.328422
0.471473
0.424981
0.421405
0.552535
0.493526
0.358820
0.417829
0.409484
0.435710
0.608563
0.555515
0.605583
0.655651
0.613928
0.517964
0.660419
0.790954
0.746846
0.849962
0.916719
0.990629
1.049638
1.096725
1.374483
1.434684
3.943443
13.943911
57.410598
122.382641
277.425647
450.067520
719.558001
907.743573
1015.889645
1015.889645
987.845659
832.683444
573.757887
390.467644
204.378963
107.129812
36.786795
15.873909
8.679628
8.203983
8.313656
9.226799
12.437701
16.900897
27.346611
37.556887
54.098964
65.963864
78.877807
85.591674
86.884499
82.155466
68.633556
58.443546
45.909882
35.938621
25.117993
19.390583
14.687777
12.710690
11.178851
10.349751
10.083914
10.055900
9.821653
10.290742
10.130405
##ZVALUE=340
0.250936
0.365973
0.485778
0.252724
0.283718
0.307560
0.244975
0.360608
0.260472
0.198483
0.484586
0.279546
0.264645
0.218749
0.382662
0.303984
0.327826
0.163913
0.349879
0.488758
0.432730
0.262856
0.364780
0.443459
0.351667
0.247955
0.552535
0.314713
0.474453
0.359416
0.504851
0.360608
0.502467
0.605583
0.430942
0.606775
0.533462
0.426769
0.771880
0.803471
0.598431
0.694990
0.562668
0.764728
0.809431
0.780821
0.793934
0.910759
1.057982
1.193881
1.304746
2.295971
6.995797
35.055876
86.400509
216.173530
367.544889
604.991913
792.787671
993.725657
1015.888453
1008.950472
891.042948
662.098527
474.971533
257.052779
139.934421
52.241683
22.059679
9.569526
8.138418
7.997751
8.333921
9.855628
12.037754
17.672777
24.956465
36.708713
47.746897
64.063668
73.563457
80.762506
82.122684
75.563788
68.978667
56.359768
45.684576
33.379793
25.808811
18.565655
14.638901
11.691451
10.759830
10.191798
9.669662
9.677410
##ZVALUE=345
0.266433
0.169873
0.206828
0.202656
0.210404
0.249743
0.326633
0.152588
0.218749
0.238419
0.364780
0.343919
0.186563
0.138879
0.422597
0.310540
0.344515
0.409484
0.245571
0.244975
0.329614
0.416636
0.436902
0.373721
0.457764
0.228882
0.328422
0.478625
0.293851
0.363588
0.340939
0.485778
0.377893
0.510812
0.422597
0.487566
0.380874
0.488758
0.687838
0.550747
0.485778
0.534654
0.526905
0.613928
0.663996
0.511408
0.786781
0.847578
0.884533
0.927448
1.101494
0.958443
1.235604
1.443624
2.929568
18.497705
55.251718
150.630474
265.597701
480.163693
663.800836
893.623829
1004.644632
1015.888453
950.185657
736.351609
551.427007
328.959823
186.425447
73.130727
33.734441
12.408495
8.531809
8.115768
7.914901
8.200407
8.946657
11.126995
15.639663
23.313761
32.952428
46.337843
56.630969
67.388415
73.460937
75.403452
73.226690
65.027475
56.652427
43.809414
34.253001
23.707747
18.528700
13.596416
11.428595
10.135770
##ZVALUE=350
0.313520
0.208616
0.181794
0.197887
0.370741
0.249743
0.223517
0.117421
0.245571
0.191927
0.282526
0.152588
0.322461
0.296831
0.336766
0.262856
0.295639
0.203848
0.486970
0.306964
0.202656
0.430942
0.286698
0.308752
0.505447
0.394583
0.373721
0.428557
0.410676
0.329614
0.375509
0.405908
0.395775
0.426769
0.436902
0.364780
0.629425
0.428557
0.551939
0.542998
0.587702
0.639558
0.397563
0.767708
0.593662
0.612736
0.693798
0.865459
0.801682
0.836849
0.823736
0.705719
1.050830
1.019835
1.165867
1.287460
1.799464
9.719729
30.586720
99.352598
190.862417
384.320617
559.871793
790.202618
931.696892
1015.888453
970.660448
807.620883
622.776747
371.357799
228.226781
105.040669
48.702955
14.952421
8.711815
7.704496
7.566810
7.381439
7.496476
8.595586
10.457635
15.005469
20.503998
30.243993
39.186478
51.600933
59.802532
67.100525
68.760514
66.967607
61.337948
50.684810
42.612553
32.105446
25.036931
18.198490
##ZVALUE=355
0.249743
0.271797
0.342727
0.201464
0.213981
0.384450
0.310540
0.163913
0.218749
0.241995
0.381470
0.321865
0.266433
0.384450
0.264645
0.388622
0.286698
0.220537
0.296831
0.236630
0.416636
0.354648
0.411868
0.218749
0.233650
0.339746
0.332594
0.390410
0.517964
0.328422
0.353456
0.496507
0.443459
0.463724
0.465512
0.462532
0.482798
0.449419
0.447631
0.447631
0.575781
0.496507
0.552535
0.501871
0.554919
0.604987
0.560880
0.670552
0.665784
0.911951
0.715852
0.745654
0.867844
1.018643
0.834465
1.058578
1.206994
1.114607
1.350641
4.493594
16.722679
64.577460
132.619739
285.355449
451.302528
699.442625
855.739713
975.630879
976.624489
840.778947
682.696700
452.601910
289.622545
127.923489
61.720610
19.955635
9.777546
7.414818
6.973743
6.846786
6.969571
7.452965
8.162856
10.091662
12.491941
18.940568
24.913549
34.996867
43.782592
53.740740
59.708953
62.963963
61.809421
56.463480
48.559904
39.398670
##ZVALUE=360
0.283718
0.161529
0.159740
0.284910
0.263453
0.145435
0.157952
0.282526
0.314713
0.284910
0.463724
0.451803
0.309944
0.391603
0.493526
0.304580
0.413656
0.389814
0.395775
0.554919
0.320673
0.270605
0.283718
0.484586
0.368953
0.380874
0.514984
0.380874
0.291467
0.360608
0.496507
0.426769
0.437498
0.475645
0.405908
0.440478
0.444651
0.449419
0.288486
0.491738
0.530481
0.539422
0.352859
0.440478
0.635982
0.584722
0.619888
0.542998
0.637770
0.585914
0.782609
0.765920
0.696778
0.875592
1.019835
0.922680
0.707507
1.031756
1.118779
1.199841
1.427531
2.271533
6.885529
33.506751
83.802938
212.052464
353.502631
580.494404
767.550468
951.196551
1004.631519
941.183567
809.952617
562.935472
380.522609
190.280676
101.171732
38.116574
15.643835
7.266998
6.688833
6.921887
6.582737
6.608963
6.724000
7.423759
8.034706
11.222959
14.619827
20.961761
28.167963
38.581491
45.495629
53.103566
56.365728
57.001710
##ZVALUE=365
0.125766
0.130534
0.074506
0.187755
0.213981
0.147820
0.249743
0.151992
0.280738
0.222921
0.176430
0.233650
0.072718
0.063777
0.082850
0.215769
0.087619
0.113845
0.223517
0.356436
0.225902
0.074506
0.250936
0.078678
0.283718
0.073910
0.355840
0.327826
0.189543
0.164509
0.167489
0.224710
0.289679
0.252724
0.402927
0.217557
0.339746
0.254512
0.310540
0.209808
0.232458
0.304580
0.438690
0.400543
0.411868
0.562668
0.442863
0.420809
0.412464
0.374913
0.454783
0.589490
0.472665
0.626445
0.527501
0.647902
0.689626
0.818968
0.957847
0.785589
1.073480
1.233816
1.349449
1.301765
3.206730
18.433928
50.540566
137.482882
257.338881
482.594967
660.011768
863.034725
957.105756
932.281017
824.585557
626.026988
447.417498
237.551928
130.637884
48.068762
19.669533
7.400513
6.409883
6.203651
6.209612
6.168485
5.738735
6.016493
6.021857
7.007718
8.619428
13.173819
17.012954
24.940968
31.762719
40.454865
##ZVALUE=370
-0.249743
0.066757
0.106692
-0.188947
-0.059605
-0.022650
-0.126958
-0.094771
-0.026822
-0.039935
-0.023842
-0.036955
0.042915
0.020862
-0.067949
-0.046492
0.066757
0.053644
0.088811
0.049472
0.069737
0.121593
0.105500
0.026822
0.177622
-0.039935
0.049472
0.232458
0.077486
0.050664
0.151992
0.205636
0.132918
0.146627
0.135899
0.058413
0.020862
0.114441
0.229478
0.265837
0.169873
0.232458
0.078678
0.236630
0.285506
0.289679
0.244975
0.287890
0.348687
0.215769
0.278950
0.152588
0.185966
0.265837
0.339746
0.434518
0.502467
0.377893
0.355840
0.491738
0.451803
0.704527
0.641942
0.883937
1.009703
1.010895
1.630783
8.786917
30.427575
102.239847
192.747712
369.617939
541.918874
771.981478
888.854861
929.366946
865.703821
688.295960
511.837006
289.245844
163.562894
64.557791
29.646754
10.580420
6.445646
5.757809
5.448461
5.319715
5.072951
5.225539
5.247593
5.509853
6.230474
8.204579
10.301471
15.331507
##ZVALUE=375
0.210404
0.223517
0.300407
0.313520
0.164509
0.187755
0.203848
0.324845
0.278950
0.247955
0.271797
0.138879
0.212789
0.298619
0.189543
0.201464
0.205636
0.225902
0.227690
0.207424
0.245571
0.283718
0.309944
0.333786
0.288486
0.276566
0.267625
0.245571
0.229478
0.250936
0.386834
0.267625
0.356436
0.201464
0.398755
0.340939
0.301600
0.505447
0.423789
0.244975
0.302792
0.299811
0.337958
0.351667
0.571609
0.392795
0.307560
0.551939
0.466704
0.218749
0.384450
0.408888
0.457764
0.356436
0.599623
0.466704
0.577569
0.534654
0.542998
0.423789
0.533462
0.740886
0.791550
0.844598
0.962615
0.923872
0.908971
1.223683
1.526475
4.377961
16.076565
60.877800
130.868554
294.161439
457.320809
687.806010
828.611851
921.638608
902.962685
759.359598
599.086881
370.846987
231.647491
106.811523
53.145885
17.809868
8.137822
5.489588
5.294681
5.247593
4.869699
5.106926
4.964471
4.875660
5.266666
5.697608
##ZVALUE=380
0.162721
0.197887
0.236630
0.313520
0.131726
0.290871
0.367761
0.257492
0.169873
0.294447
0.324845
0.183582
0.139475
0.245571
0.260472
0.192523
0.128746
0.284910
0.254512
0.241995
0.248551
0.219941
0.293851
0.189543
0.317693
0.096560
0.405908
0.257492
0.229478
0.232458
0.183582
0.331998
0.307560
0.342727
0.514984
0.176430
0.280738
0.210404
0.303984
0.282526
0.279546
0.303984
0.432730
0.279546
0.248551
0.221729
0.539422
0.258684
0.382662
0.421405
0.404716
0.388622
0.384450
0.515580
0.558496
0.401735
0.614524
0.729561
0.472665
0.527501
0.664592
0.565648
0.776649
0.727773
0.694990
0.872612
0.757575
0.846982
1.152754
1.230836
1.426935
2.280474
11.057854
34.675598
107.337832
200.581551
388.460755
567.410588
787.130594
892.406702
906.962752
826.705694
647.905469
488.383770
286.496878
169.715881
70.812702
32.508969
10.235906
5.651712
5.006790
4.722476
4.853606
4.491806
4.637837
4.736781
##ZVALUE=385
0.159740
0.222921
0.218749
0.189543
0.199676
0.144839
0.264645
0.303984
0.116825
0.234842
0.290871
0.278950
0.086427
0.185966
0.156760
0.301600
0.134706
0.199676
-0.004768
0.343919
0.322461
0.377893
0.229478
0.206828
0.250936
0.350475
0.325441
0.204444
0.314713
0.274777
0.313520
0.206828
0.266433
0.221729
0.302792
0.323653
0.350475
0.246763
0.328422
0.328422
0.197887
0.264645
0.482798
0.335574
0.322461
0.357628
0.451803
0.416636
0.416636
0.367761
0.324845
0.361800
0.461936
0.342727
0.514984
0.332594
0.321865
0.403523
0.393987
0.373721
0.403523
0.379682
0.624657
0.458956
0.780821
0.652671
0.778437
0.711679
0.846982
0.916719
1.025796
1.313686
1.300573
1.703501
4.096627
23.648739
61.759949
158.958435
283.918977
509.071946
687.809587
872.536898
932.333469
882.737637
766.457915
559.132695
394.881964
215.821862
121.265650
50.368905
20.206571
6.466508
4.618764
4.386902
4.290938
4.405975
##ZVALUE=390
0.350475
0.307560
0.145435
0.046492
0.135899
0.171661
0.134706
0.212789
0.278950
0.198483
0.170469
0.224710
0.138879
0.141859
0.224710
0.261664
0.308752
0.075698
0.045896
0.232458
0.161529
0.143647
0.231862
0.177622
0.315905
0.273585
0.218749
0.181794
0.290871
0.123978
0.328422
0.368953
0.446439
0.345707
0.241995
0.248551
0.338554
0.370741
0.282526
0.210404
0.249743
0.289679
0.223517
0.274777
0.316501
0.354648
0.207424
0.279546
0.291467
0.325441
0.472665
0.447631
0.310540
0.372529
0.436902
0.304580
0.303984
0.393987
0.436902
0.393987
0.524521
0.485778
0.554919
0.549555
0.565648
0.524521
0.694990
0.512600
0.738502
0.899434
1.038909
1.092553
1.051426
1.339912
1.249909
1.246929
2.053976
12.874007
39.149523
120.348930
229.713917
435.143709
602.751970
793.188810
902.803540
940.584540
869.882703
686.532855
521.451831
313.111544
182.009935
73.518753
32.665730
9.596944
5.030632
4.059672
##ZVALUE=395
0.202656
0.268817
0.178814
0.274777
0.226498
0.226498
0.229478
0.348687
0.156760
0.180602
0.305772
0.097752
0.096560
0.189543
0.256896
0.222921
0.282526
0.056624
0.131726
0.156760
0.282526
0.140667
0.447631
0.167489
0.080466
0.293851
0.119805
0.171661
0.062585
0.220537
0.322461
0.334978
0.207424
0.284910
0.258684
0.292659
0.245571
0.252724
0.133514
0.398755
0.267625
0.219941
0.189543
0.331998
0.404716
0.278950
0.368953
0.358820
0.344515
0.383854
0.411868
0.363588
0.182986
0.418425
0.440478
0.422597
0.317693
0.495911
0.528693
0.543594
0.382662
0.502467
0.492930
0.503659
0.424981
0.421405
0.590682
0.587702
0.841618
0.757575
0.767708
0.826716
1.117587
1.034737
0.996590
1.017451
1.011491
1.120567
1.562834
6.627440
25.183558
88.089705
169.125795
324.360728
488.244891
720.718503
867.734551
966.669917
944.233537
801.895857
630.787015
386.655927
239.606500
102.823973
48.107505
15.708804
##ZVALUE=400
0.168681
0.174642
0.305772
0.055432
0.318885
0.236630
0.125766
0.227690
0.018477
0.189543
0.145435
0.085831
0.208616
0.210404
0.183582
0.156760
0.215769
0.381470
0.228882
0.289679
0.345707
0.283718
0.302792
0.307560
0.194907
0.296831
0.318885
0.247955
0.348687
0.239611
0.262856
0.284910
0.241995
0.299811
0.368953
0.398755
0.364780
0.383854
0.231862
0.484586
0.353456
0.208616
0.285506
0.425577
0.269413
0.271797
0.450611
0.367761
0.334978
0.367761
0.391603
0.302792
0.369549
0.288486
0.356436
0.499487
0.399947
0.496507
0.287890
0.445843
0.453591
0.338554
0.549555
0.624657
0.447631
0.525713
0.539422
0.686646
0.691414
0.839829
0.811815
0.854731
0.808835
0.849962
0.935793
0.865459
0.882745
0.933409
1.039505
1.219511
1.299977
3.706813
13.117790
47.624707
105.215907
243.778825
396.009684
627.656579
787.096620
927.081704
953.511596
846.514702
694.448948
455.935597
296.349525
147.286654
##END
