##TITLE=FQP00301
##FORMAT=SPECTACLE-ASCII V-1.2
##DATA TYPE=ULTRAVIOLET SPECTRUM
##SECOND TYPE=ULTRAVIOLET SPECTRUM
##DATE=02/05/18
##TIME=14:29:59
##SPECTROMETER/DATA SYSTEM=SPECTACLE
##XUNITS=NM EM
##YUNITS=ENERGY
##YFACTOR=1
##FIRSTX=220
##LASTX=410
##NPOINTS=96
##3DDATA=Equidistant
##ZUNITS=NM EX
##FIRSTZ=210
##LASTZ=400
##ZPOINTS=39
##XYDATA=(Y..Y)
##ZVALUE=210
2.814531
2.290606
2.053976
1.938939
2.234578
2.225637
2.849698
2.645850
1.811981
2.170801
2.723932
2.478957
2.602935
3.141761
3.029704
2.801418
3.298521
2.903938
3.020763
3.284812
3.877878
4.104972
4.108548
4.202724
4.450679
5.362630
4.838705
5.235672
6.771684
6.052852
5.415678
6.595850
6.579757
6.742477
7.281899
6.807446
6.682873
6.432533
8.178949
7.711649
7.995963
7.448792
7.629991
7.348657
8.752942
8.304715
7.827878
7.810593
7.682443
7.292628
8.187890
8.127689
8.065701
7.312894
8.196831
8.715987
8.236766
7.426739
7.554889
8.743405
7.917881
8.070469
7.828474
8.245707
8.617640
8.051991
9.849668
9.951591
11.330843
13.705492
16.011000
18.353462
21.866560
25.045872
26.153922
27.355552
29.609799
28.589964
28.454661
27.538538
25.449991
21.922588
18.729568
16.562939
15.320778
12.480617
9.264946
8.362532
7.839799
7.722974
9.133816
8.097887
7.347465
8.240938
8.391738
7.695556
##ZVALUE=215
6.620884
6.770492
5.644560
5.430579
6.007552
4.505515
5.226731
4.896522
4.918575
4.506707
5.007982
4.248619
4.077554
3.505945
3.388524
2.997518
3.138781
2.942681
3.848672
3.580451
3.493428
3.320575
3.994703
3.758669
4.487634
4.870892
4.624724
6.221533
6.277561
6.619692
6.551743
7.846951
8.264780
8.567572
7.122755
7.776618
7.716417
9.757876
7.676482
8.430481
9.861588
8.136630
8.286834
8.517504
8.045435
7.196665
7.661581
7.608533
8.138418
6.949902
7.465482
7.999539
8.615851
6.802678
6.875992
7.571578
7.377863
7.588863
7.131696
7.822514
7.611513
7.542968
6.724596
7.810593
7.637739
8.467436
8.206964
8.564591
9.580851
10.008812
12.797713
14.048815
14.946461
17.582774
20.114779
20.553470
20.390749
20.245910
20.103455
18.814802
18.467903
16.703606
15.046597
13.430715
11.943579
10.030866
10.546446
7.916689
6.911755
6.222725
6.395578
7.280707
7.157922
7.689595
6.961823
7.102489
##ZVALUE=220
24.955869
24.888515
27.069449
25.498867
22.689700
17.430782
15.609860
11.793971
10.712743
11.497736
11.493564
11.988878
10.750890
10.454655
9.326935
7.319450
5.657673
4.254580
4.328489
4.514456
3.936887
4.474521
4.032850
4.525781
4.913807
4.904866
6.536841
7.111430
7.958412
9.261966
10.331869
10.844469
11.230707
12.663603
11.409521
13.147593
12.667775
12.762547
12.278557
12.401938
11.446476
11.328459
10.937452
11.311769
10.353923
11.200905
11.288524
10.720491
10.651946
10.886788
10.551810
10.045767
9.893775
9.600520
8.589625
9.154677
10.558963
10.058880
9.820461
11.133552
9.453893
9.307861
10.339618
9.764433
9.779930
10.486841
11.034608
10.848641
12.375712
13.581514
14.000535
17.815828
21.215677
22.999644
24.177432
25.528669
26.933551
24.102926
23.085475
23.607612
23.057461
18.959641
17.338991
16.929507
13.603568
12.426972
11.670589
11.427999
10.033846
9.915829
10.875463
10.399818
10.184646
9.794831
9.888411
9.679794
##ZVALUE=225
47.548413
52.078962
69.186687
88.318586
100.127459
95.880628
88.184476
71.335435
55.174828
40.982962
30.332804
25.512576
24.378896
26.616454
26.773810
25.337934
20.830631
16.464591
13.945699
9.814501
7.251501
6.678700
6.332994
4.957914
6.444454
7.635951
7.912517
9.852648
10.160804
11.407733
12.708902
13.639927
12.896657
15.204549
15.948415
16.116500
15.592575
15.992522
16.367435
15.496612
16.011000
15.638471
14.370680
13.753772
15.373826
13.027787
12.029409
12.924671
12.911558
12.364984
11.994839
12.270808
13.453960
10.885596
11.658669
11.834502
11.374950
12.086630
12.866855
11.645555
11.249781
12.100935
11.775494
11.348724
11.367798
12.120605
13.673902
14.164448
15.285611
16.558766
17.844439
19.268990
21.067858
24.799705
23.674965
25.245547
27.158856
24.880767
24.575591
24.996996
23.696423
21.128654
20.315647
17.701983
16.681552
16.249418
14.901757
13.606548
13.903975
13.513565
13.644695
12.199879
12.533665
13.305545
12.183785
13.261437
##ZVALUE=230
45.338869
52.576661
81.582665
137.178898
173.694491
211.006999
229.853988
222.898722
198.437572
163.581967
111.223459
77.134967
52.096844
48.112869
43.700933
48.529506
49.714446
50.790906
45.282841
36.811829
30.184984
17.679930
12.741685
9.139776
7.840991
7.458925
9.263754
9.960532
11.039972
10.445714
11.523962
12.765527
12.660623
14.668703
16.541481
15.720725
15.354753
15.780926
15.843511
15.634894
15.393496
15.248656
14.487505
14.462471
13.303757
14.348626
13.310909
14.995933
14.157891
12.194514
11.912584
13.085604
12.585521
11.493564
13.376474
13.755560
13.509989
13.222694
14.216900
13.960600
14.195442
15.456676
14.276505
15.236735
14.608502
15.796423
17.344952
18.792748
19.624829
19.839406
22.091866
24.644732
28.840899
30.624866
30.325651
31.843781
29.955506
31.618476
30.967593
32.328963
31.086802
28.469563
28.413534
25.161505
25.030971
24.405718
23.747683
22.408962
21.405816
20.584464
20.455718
20.574927
19.940734
20.757914
19.898415
18.809438
##ZVALUE=235
16.639829
20.160675
42.442679
109.712481
177.936554
294.536948
389.360785
490.936637
531.812906
511.770844
421.130657
326.589942
218.629837
157.607794
103.715658
78.671575
75.069666
76.601505
81.484914
82.355738
76.824427
63.718557
52.191615
36.109686
26.688576
17.442703
14.525652
11.164546
10.292530
10.697842
11.897683
11.974573
12.853742
13.274550
13.327599
14.277697
14.625788
15.978813
14.886856
15.190840
15.048981
14.618635
13.999939
15.290976
12.343526
13.659596
13.525486
14.452934
14.665723
14.868975
13.170838
14.828444
13.755560
14.760494
13.761520
16.292930
16.210675
14.986992
15.867949
15.160441
17.696619
17.946959
17.629862
18.950701
17.669797
20.559430
20.838976
21.729469
23.425817
25.774837
27.603507
30.535460
32.158494
34.604669
37.158728
37.756562
38.060546
36.553741
40.039420
38.574934
38.101673
38.888454
35.439730
35.245419
33.347607
33.684969
30.551553
29.179454
29.119849
29.398799
27.995706
30.071735
29.644966
29.917955
26.096702
30.615926
##ZVALUE=240
2.180934
1.979470
7.152557
21.775961
61.659813
116.428733
221.532583
329.332948
479.421616
568.253994
635.829568
612.092614
566.871762
441.090465
337.692499
209.717751
152.164698
102.394819
95.994473
99.106431
114.240646
117.373466
115.466714
100.173950
80.874562
68.983436
47.275424
35.794973
23.790598
16.541481
14.128685
12.735724
12.070537
12.691617
12.116432
13.208985
14.100671
12.460947
11.825562
12.944937
13.156533
12.644529
13.785958
13.558865
12.572408
14.231801
13.723969
13.821721
11.461973
13.013482
12.666583
13.026595
13.232827
13.251901
12.886524
13.743639
13.190508
13.360977
13.785958
16.011596
15.120506
14.328957
16.191602
16.516447
17.971992
19.446611
20.225644
20.681620
21.673441
23.969412
25.793910
28.088689
29.865503
31.523705
34.342408
34.666657
36.268830
37.538409
36.313534
36.941767
37.713647
36.545992
37.121773
35.129786
37.135482
36.297441
36.194921
35.601854
36.286712
33.616424
33.818483
34.434795
34.830570
34.229755
33.035874
33.249855
##ZVALUE=245
1.403689
1.600981
1.869798
2.026558
4.458427
12.843609
45.231581
105.447769
238.262415
363.786817
558.974743
686.968565
772.495866
792.521834
728.831887
595.723987
460.388660
301.131606
207.662582
134.946704
104.206800
103.790760
114.502907
129.947662
130.032897
129.932761
113.388896
99.428892
75.642467
57.647824
42.469501
26.550889
20.260811
15.784502
13.961792
14.103651
13.506413
13.511777
13.597608
12.950897
14.129877
12.928843
13.417602
12.304783
14.168620
14.038682
12.027621
12.511611
11.964440
11.957884
13.084412
12.166500
12.162924
12.243986
12.610555
12.083650
13.916492
13.020635
12.891889
13.141632
13.982654
14.330745
15.065670
15.173554
16.902685
16.463995
17.879605
19.156933
21.052957
22.523999
23.216605
25.574565
28.861761
29.447675
31.985641
33.683777
35.067797
36.017895
35.662651
34.751892
34.500957
35.720468
35.227537
37.176609
35.919547
34.767985
34.856796
35.234690
34.607649
34.118891
34.156442
35.804510
35.238862
34.164786
34.423470
32.894611
##ZVALUE=250
1.290441
1.297593
1.581907
1.749992
1.542568
1.927614
2.473593
9.516478
28.746724
73.796511
194.069743
339.825749
573.174953
729.565620
883.842707
938.301682
895.453691
791.542530
656.480789
441.575646
293.214917
162.879825
115.358829
99.321008
103.095770
126.642585
139.222741
146.446824
142.536759
127.129555
106.896758
81.329942
64.693689
43.235421
32.072663
22.120476
16.992688
15.630722
15.782714
14.267564
16.291738
14.628768
15.326738
14.882684
14.113784
13.832450
13.989806
13.265610
14.969707
12.499690
13.344884
13.205409
13.093948
12.273788
11.407733
13.760924
12.144446
12.564659
12.355447
12.723804
13.204813
14.605522
14.217496
14.310479
14.871955
15.371442
17.469525
18.118620
19.293427
21.691918
23.389459
23.699999
26.295781
30.241609
31.005740
30.821562
31.551719
30.612946
33.945441
32.847524
33.104420
32.902956
33.330917
32.883883
33.401847
32.169819
33.495426
32.819510
34.118891
32.804608
33.805966
31.958818
32.840967
33.041835
33.577681
35.205483
##ZVALUE=255
1.244545
1.245737
1.522899
1.350641
1.152754
1.863837
1.682639
1.621842
2.421737
4.750490
22.588968
64.685941
138.211846
315.120816
501.445532
788.352489
994.357467
1015.889645
1015.889645
1015.889645
990.582705
780.248642
481.245518
302.299857
152.794719
106.036663
94.282627
110.495687
133.764744
146.080852
154.717565
151.442885
138.691664
113.955736
89.844465
64.565539
49.523711
32.155514
23.648739
19.244552
19.445419
17.549992
17.651916
16.576648
16.463995
15.565753
15.761852
15.213490
15.058517
14.624596
13.400912
13.936758
14.044642
13.159513
14.209747
13.207793
13.689995
13.191700
12.781620
13.185740
13.266802
13.612509
14.192462
14.285445
14.536977
15.235543
16.501546
16.666651
16.766787
18.808842
21.118522
23.252964
23.155808
25.231838
27.120709
28.391480
29.695630
29.987693
31.860471
30.756593
30.738711
31.575561
30.542612
31.890869
30.955672
30.946732
30.808449
31.614900
30.813813
32.205582
32.233000
31.161904
31.223893
31.119585
31.080842
31.711459
##ZVALUE=260
1.278520
1.249909
0.996590
1.100898
1.207590
1.373887
1.472831
1.562834
1.708865
1.925826
2.179742
2.778769
11.432767
34.363866
109.687448
221.025944
460.605025
677.775741
918.710828
1015.888453
1015.888453
1015.888453
1015.888453
1015.888453
866.544843
531.212687
339.021683
185.338855
124.737620
103.808641
115.036964
140.143633
155.841708
164.916515
160.810947
142.061710
124.264956
92.699528
73.316693
49.890876
36.901832
26.358962
21.728873
18.948913
18.984675
18.754601
18.012524
16.984940
17.320514
15.978813
15.670657
15.220642
15.175939
14.943480
13.944507
13.907552
13.308525
13.160706
13.791919
13.189912
13.141632
13.806820
13.240576
13.633966
13.801455
14.745593
15.640855
15.340447
16.160607
16.926527
18.139482
20.206571
21.191835
22.070408
23.679733
24.470687
24.828911
25.507808
25.241971
25.910735
26.444793
26.901960
27.276874
27.854443
26.772618
27.985573
28.495789
27.710795
28.239489
29.191971
29.001832
29.407740
27.113557
28.306842
29.115677
29.221773
##ZVALUE=265
0.950694
0.957847
0.999570
1.119971
0.951886
1.160502
1.212955
1.217723
1.177788
1.243949
1.189709
1.403689
1.653433
2.286434
4.586577
25.398731
61.502457
166.018605
292.021632
541.515946
755.451918
958.094001
1015.888453
1015.888453
1007.179022
867.613554
640.288591
445.285439
249.034762
153.023601
99.702477
80.347657
92.355609
122.104883
144.569874
163.430572
168.078542
159.895420
149.735808
120.396614
98.577738
69.095492
52.755475
36.675930
26.596785
20.894408
18.579960
18.365979
16.598701
17.164946
15.368462
15.288591
14.657974
14.450550
13.938546
13.018847
13.089776
12.469888
13.446808
12.744665
12.568831
12.923479
12.736917
12.827516
12.840629
13.512969
13.784766
15.239716
14.273524
15.669465
17.095804
17.191768
18.043518
19.202828
21.311641
21.205544
22.053719
22.943616
22.753477
23.072958
23.212433
23.869872
23.910999
23.964643
24.879575
25.443435
25.537610
25.237799
26.581883
26.734471
26.899576
26.979446
26.548505
26.934743
27.615428
27.275681
##ZVALUE=270
0.697970
0.649691
0.960827
0.927448
0.780821
0.901818
0.709891
1.007915
1.309514
0.913739
1.184940
1.601577
1.219511
1.624823
1.508594
1.729727
2.291799
10.809898
31.161904
103.170872
208.368897
367.573500
649.929643
875.278711
1015.888453
1015.888453
1015.888453
1015.888453
901.152492
686.437488
477.073789
258.661509
146.561861
77.934861
75.479746
98.455548
121.955872
148.887634
163.383484
170.617700
164.916515
147.301555
125.141740
94.846487
72.904825
48.149824
36.449432
25.911927
20.806789
18.488765
16.329885
15.996695
15.471578
14.416575
14.174581
13.522506
13.566613
13.128519
13.430715
13.255477
13.132691
12.691617
12.912750
12.493730
13.212562
13.231635
13.735890
14.788508
14.663935
16.284585
16.687512
17.926693
18.052459
20.300746
19.738674
19.781590
21.650791
21.549463
21.751523
22.191405
22.807717
22.631884
23.295879
25.420785
23.245811
24.354458
24.119616
25.472641
24.001598
24.952888
23.658872
25.564432
25.204420
24.885535
25.682449
26.129484
##ZVALUE=275
0.804663
0.714660
0.758767
1.036525
0.876784
0.871420
0.749826
0.645518
0.883937
1.033545
0.932813
1.088977
1.035929
1.336932
1.190901
1.455545
1.387596
1.584888
1.906753
4.773736
18.179417
52.277446
153.745413
288.998485
535.375476
734.323859
988.772511
1015.888453
1015.888453
1015.888453
1015.888453
941.240788
669.587851
357.528925
203.526616
88.929534
62.166452
72.568655
90.716481
121.517777
140.361786
161.028504
165.655613
157.760978
145.233870
115.456581
96.163750
68.670511
51.634908
32.059550
24.975538
19.051433
15.487671
14.541745
14.870763
13.140440
13.901591
13.074875
13.350844
13.097525
13.817549
13.061762
13.125539
13.413429
14.224648
14.035702
14.358759
15.039444
15.124679
16.181469
16.632676
17.103553
18.681884
18.982887
20.263791
20.213723
20.505786
22.136569
22.551417
22.290945
22.887588
22.651553
23.050904
22.243857
23.440719
23.587942
24.122000
23.678541
24.496913
23.942590
23.163557
24.242997
24.450421
24.550557
23.658872
24.914742
##ZVALUE=280
0.780821
0.937581
0.690818
0.685453
0.761747
0.624657
0.725985
0.901818
0.865459
0.830889
0.852942
0.818968
0.983477
0.975728
1.009703
1.173615
1.189709
1.186728
1.269579
1.424551
1.899600
2.541542
13.263822
41.082501
122.659802
225.698948
420.005918
612.486005
881.066918
1015.888453
1015.888453
1015.888453
1015.888453
975.558758
743.986368
436.808467
268.190503
120.823979
64.331889
50.656796
63.032508
88.523626
113.416910
138.776898
154.470801
158.194900
154.092908
134.789944
115.608573
87.634921
65.282583
44.621825
31.926632
20.811558
16.303658
13.350844
12.308955
12.163520
12.170672
12.469888
12.538433
13.240576
13.148785
13.866425
13.226867
13.695955
14.450550
14.868975
15.386939
15.785694
16.710758
17.311573
17.806888
18.925667
19.772649
19.664764
20.283461
20.257831
20.767450
21.668673
21.564960
21.924973
22.514462
22.545457
22.742748
22.744536
23.269653
23.201704
23.138523
22.732615
23.212433
23.356676
22.936463
23.933649
23.755431
24.197698
##ZVALUE=285
0.610948
0.580549
0.735521
0.679493
0.703931
0.661612
0.921488
0.829697
0.745654
0.782609
0.800490
0.780821
0.920892
0.848770
0.922680
0.822544
0.908971
1.133680
1.069903
1.192689
1.404881
1.469851
1.528859
1.853704
5.973577
19.513965
67.511797
141.002536
307.698846
479.988456
676.012635
936.623812
1016.000509
1016.000509
1016.000509
893.017650
693.261027
431.177616
269.995928
127.962828
69.765449
37.902594
38.922429
58.446527
78.126788
108.055472
128.738880
144.369602
150.373578
145.813823
134.911537
109.766722
89.262724
62.678456
45.325756
28.309822
20.456910
15.573502
12.953877
11.923909
12.101531
12.499690
12.421608
12.921691
13.352633
13.786554
14.697909
15.254617
15.375614
15.295744
16.220808
18.097758
18.071532
18.770695
19.072890
19.998550
20.316839
21.123886
20.898581
21.489859
21.976829
22.229552
23.072958
22.836924
22.236705
22.512674
23.277998
22.827983
22.586584
22.988915
22.903681
22.634864
23.812652
22.277832
23.175478
23.481846
##ZVALUE=290
0.573993
0.451803
0.631809
0.616908
0.626445
0.679493
0.595450
0.654459
0.511408
0.618696
0.711679
0.752807
0.679493
0.694990
0.643730
0.761747
0.768900
0.886917
0.896454
1.037717
0.990629
1.207590
1.201630
1.408458
1.451969
1.541972
2.361536
7.788539
38.424730
89.735985
211.658478
367.771983
573.229790
868.721008
1015.888453
1015.888453
1015.888453
1001.331806
824.760795
552.361608
362.451673
180.327892
94.025731
38.414001
27.779937
35.681725
48.514605
74.769855
94.819665
120.932460
133.706927
144.087672
141.264796
127.185583
110.279918
82.856417
61.979890
39.674640
29.392838
19.581914
15.927553
12.615919
12.460947
12.160540
12.903810
13.428926
13.517737
14.639497
15.150905
16.533732
16.936660
17.344952
18.774867
18.861890
19.358993
20.584464
20.153522
21.537542
21.143556
20.809770
22.241473
22.858977
23.118854
22.961497
23.257732
23.252964
22.904873
23.253560
23.634434
23.224950
22.809505
22.459626
23.533702
23.084879
22.479892
23.135543
##ZVALUE=295
0.389814
0.663996
0.729561
0.687838
0.458956
0.550747
0.520945
0.387430
0.579953
0.605583
0.561476
0.523925
0.626445
0.607967
0.664592
0.605583
0.805855
0.616908
0.798702
0.733733
0.888705
0.895858
0.930429
1.130700
1.338720
1.304746
1.363754
1.597404
1.638532
3.389716
12.395978
55.433512
125.715733
294.634700
473.634005
753.186941
943.175554
1015.888453
1015.888453
1015.888453
908.612609
645.588636
447.191596
237.203836
130.061507
49.464703
26.237965
22.380948
29.446483
49.077868
66.592693
91.467500
111.225843
131.488442
137.441754
135.672688
124.060512
102.113485
83.044767
59.144497
44.965744
28.860569
21.235943
16.138554
13.719797
13.757944
13.387799
14.858842
14.614463
15.712976
17.070770
17.613769
18.053651
19.102693
19.209981
20.085573
20.580888
20.716786
21.518469
21.725893
22.417903
23.004413
22.631884
22.653937
23.266673
23.481846
23.357868
23.237467
23.523569
23.496747
23.515821
23.047924
22.913814
22.958517
22.812486
22.874475
##ZVALUE=300
0.514984
0.555515
0.538826
0.489950
0.507832
0.414848
0.494719
0.659823
0.637770
0.379682
0.590682
0.520945
0.549555
0.502467
0.682473
0.580549
0.682473
0.583529
0.679493
0.818968
0.819564
0.822544
1.078844
1.022816
0.895858
0.990629
1.123548
1.246929
1.370907
1.242757
1.515746
1.789927
8.114576
27.463436
95.464587
187.595487
387.216806
586.632490
858.049989
1005.651951
1015.889645
1015.889645
978.245735
805.867910
532.886982
350.993872
176.004767
93.804002
35.139918
19.341707
18.785000
27.271509
43.026805
59.934855
86.057782
104.208589
123.831630
129.523873
130.064487
120.475888
100.960732
83.317757
60.456991
45.800805
30.167699
22.925735
17.673969
15.502572
15.687943
15.518665
16.814470
17.534494
18.445849
18.801689
19.901991
20.055771
20.628572
21.294951
21.999478
22.452474
23.336411
23.368001
23.445487
23.185611
23.812652
24.309754
24.074912
24.085641
23.810863
23.361444
23.981929
23.182631
23.144484
23.424625
23.027658
23.137927
##ZVALUE=305
0.407696
0.582933
0.567436
0.344515
0.296831
0.298619
0.442863
0.526905
0.535846
0.652671
0.388622
0.424981
0.546575
0.500679
0.382662
0.606775
0.591874
0.555515
0.672936
0.702739
0.689626
0.761747
0.707507
0.713468
0.860691
0.917912
0.892878
1.078844
0.999570
1.169443
1.005530
1.211762
1.518726
1.577735
4.093647
15.333891
63.020587
139.353871
310.512781
485.677719
753.330588
948.104858
1015.888453
1015.888453
1015.888453
892.840624
637.546778
447.918773
237.792730
128.230453
48.773885
22.980571
14.093518
16.880631
26.635528
38.274527
60.504675
78.603625
101.617575
115.118623
124.529600
124.627948
114.473701
100.443959
78.575611
58.150887
45.256615
28.043985
24.344921
18.793941
17.711520
18.168688
18.559694
19.318461
20.455718
20.148754
20.904541
21.914840
22.729635
22.265911
24.092793
23.832917
24.418831
24.176836
24.474859
24.755597
24.456978
24.694800
24.512410
24.605989
24.326444
24.331808
23.472905
23.979545
24.102926
23.406744
##ZVALUE=310
0.365973
0.399947
0.451803
0.380874
0.373721
0.385642
0.467896
0.451803
0.451803
0.537634
0.511408
0.437498
0.556707
0.345707
0.400543
0.479817
0.473857
0.435710
0.531673
0.563860
0.551939
0.701547
0.575781
0.709891
0.709891
0.870824
0.534654
0.905991
0.934601
0.901818
0.941753
0.888705
1.176000
1.039505
1.451969
1.427531
2.040863
6.555915
33.742785
95.193982
182.632804
374.571681
577.129722
1015.888453
1015.888453
1015.888453
1015.888453
968.109965
800.287724
421.420932
351.442695
118.246675
90.783834
34.559965
16.439557
12.302995
16.063452
34.736991
36.121607
53.640604
70.118904
92.806816
106.594563
119.983554
119.845867
104.264617
99.219680
80.062747
64.560771
35.360456
33.988953
23.055673
21.950603
20.528436
19.932985
19.895434
21.000504
21.730661
22.554994
22.475719
24.048686
23.962855
24.909973
25.078654
25.607944
25.004745
26.018620
25.666952
25.365949
25.982857
25.246739
25.009513
24.772882
23.832917
24.508834
23.915768
##ZVALUE=315
0.397563
0.357628
0.487566
0.353456
0.426769
0.327826
0.411868
0.344515
0.527501
0.383854
0.431538
0.503659
0.460744
0.585914
0.598431
0.375509
0.439882
0.348687
0.567436
0.449419
0.419617
0.544786
0.529885
0.715852
0.547767
0.511408
0.663996
0.739694
0.816584
0.706911
0.661612
0.868440
0.882745
0.966787
1.030564
1.043677
1.116991
1.493692
1.831651
3.527999
13.525486
57.971478
129.918456
295.145512
478.651524
759.139657
933.148861
1015.888453
1015.888453
1015.888453
897.911787
644.079447
453.456640
237.849951
128.094554
47.181845
20.749569
11.301637
11.487603
15.785694
21.973848
35.119653
49.000978
68.232417
85.187554
105.261803
114.141703
114.738941
109.133720
94.559789
80.118775
61.936975
48.720837
35.316944
29.063821
24.166703
22.568703
22.872686
22.458434
22.743940
23.775697
24.402738
24.589896
26.041865
25.317669
25.596619
25.663972
25.712848
26.176572
26.065707
25.916696
25.264621
24.939775
25.272965
25.161505
24.017692
##ZVALUE=320
0.339746
0.311732
0.179410
0.338554
0.383854
0.301600
0.242591
0.400543
0.423789
0.451803
0.395775
0.337958
0.603795
0.433922
0.516772
0.628829
0.468493
0.501871
0.405908
0.562668
0.502467
0.457764
0.443459
0.535846
0.705719
0.561476
0.787973
0.756979
0.742674
0.744462
0.786781
0.720620
0.724792
0.754595
0.752807
0.910759
1.038909
1.150966
1.090765
1.188517
1.417994
2.142787
6.170869
32.859445
85.817575
224.257708
369.951725
610.268712
808.831453
1013.023853
1015.888453
1015.888453
990.317464
753.327012
550.422668
306.502581
176.193714
76.090693
35.139918
13.039708
10.362864
11.440516
15.135407
21.770597
29.947758
48.020482
62.846541
84.410906
98.520517
109.112859
110.854506
105.405450
95.302463
77.225566
62.159896
46.889782
37.247539
30.198693
26.692748
24.616718
24.301410
24.330616
24.541616
25.431514
25.745630
25.637746
25.603771
25.524497
26.076436
25.435686
25.980473
25.314689
25.497675
25.107861
24.840832
25.240779
##ZVALUE=325
0.316501
0.126958
0.309944
0.380874
0.266433
0.268817
0.309944
0.426769
0.364780
0.310540
0.409484
0.348687
0.503659
0.365973
0.498891
0.485778
0.530481
0.299811
0.457764
0.403523
0.338554
0.449419
0.552535
0.636578
0.513792
0.483990
0.570416
0.594854
0.711679
0.688434
0.724792
0.645518
0.791550
0.659823
0.912547
0.829697
0.768900
0.921488
0.865459
0.908971
1.184940
1.309514
1.204610
1.642704
3.209710
21.153688
56.240559
147.637725
265.939832
500.804782
696.613789
934.779644
1015.886664
1015.886664
1010.834575
810.898542
615.383983
375.904441
228.501558
99.409819
48.019886
17.333627
10.849833
10.639429
12.028813
16.235709
21.746755
33.084750
45.508742
65.527558
81.326962
96.679926
104.716420
107.100606
102.319717
88.618994
75.805783
58.661699
47.310591
36.336780
30.735731
26.838779
25.643706
25.607944
25.410652
25.490522
25.920868
26.007891
25.677681
25.948882
25.526881
25.601983
24.954677
25.077462
24.592876
24.459958
##ZVALUE=330
0.166893
0.297427
0.423789
0.296831
0.390410
0.218749
0.328422
0.118613
0.278950
0.277758
0.277758
0.293851
0.498891
0.327826
0.490546
0.434518
0.259876
0.476837
0.344515
0.319481
0.343919
0.433922
0.408888
0.458956
0.524521
0.477433
0.547767
0.657439
0.615716
0.577569
0.478625
0.613928
0.615716
0.669956
0.567436
0.728965
0.857711
0.696778
0.728965
0.918508
0.954866
0.839829
0.922680
1.154542
1.197457
1.455545
1.884699
8.851886
30.015707
98.932981
193.524957
385.054946
574.155450
830.625892
983.895659
1015.877724
1015.877724
883.093476
705.905557
453.134775
291.879773
135.945678
69.884658
26.362538
13.743639
10.528564
10.917783
12.935996
16.095638
23.184419
31.621456
46.412945
59.842467
79.368949
91.318488
101.303458
101.935863
96.128583
87.175965
72.079897
58.893561
45.871735
38.175583
32.056570
29.043555
26.718974
25.540590
25.587678
25.232434
25.092959
24.779439
25.074482
24.782419
24.571419
24.934411
24.606586
##ZVALUE=335
0.304580
0.163913
0.320673
0.192523
0.375509
0.390410
0.364780
0.328422
0.342727
0.441670
0.220537
0.455976
0.307560
0.325441
0.426769
0.484586
0.429749
0.307560
0.248551
0.330806
0.373721
0.377893
0.360608
0.360608
0.353456
0.421405
0.434518
0.495911
0.438690
0.412464
0.641942
0.508428
0.600815
0.552535
0.528693
0.594854
0.684857
0.632405
0.667572
0.515580
0.777841
0.619888
0.762939
0.993609
0.956655
0.966787
1.123548
1.292825
1.504421
3.889799
14.690757
59.398413
125.524402
284.568667
454.657674
716.646910
894.056559
1015.888453
1015.888453
939.287543
786.540508
532.696843
361.842513
189.988613
100.646615
35.609603
17.131567
11.061430
11.031628
11.723638
13.164878
17.115474
22.049546
33.191442
44.467449
61.466694
74.283481
88.648796
95.360875
97.530484
92.314482
80.835819
71.017742
57.852864
47.814846
37.920475
32.623410
27.945638
25.971532
24.265647
24.439692
23.993850
24.078488
23.553967
23.449659
23.541451
##ZVALUE=340
0.342727
0.167489
0.345707
0.307560
0.272989
0.244975
0.116825
0.267625
0.382662
0.366569
0.167489
0.120997
0.400543
0.251532
0.340939
0.293851
0.437498
0.306964
0.398755
0.474453
0.402927
0.333786
0.323653
0.351667
0.351667
0.299811
0.424981
0.408888
0.350475
0.439882
0.431538
0.616908
0.659823
0.537634
0.578761
0.556707
0.628829
0.521541
0.654459
0.597835
0.590682
0.653863
0.672936
0.712872
0.758767
0.879765
0.800490
0.987649
1.028776
1.204610
1.263618
2.135634
7.489920
36.547780
89.558959
221.216679
372.071862
606.763959
790.953636
967.752934
1015.881896
963.937640
836.938024
617.618561
435.763597
224.879980
123.824477
50.875545
22.390485
11.789799
11.211634
11.859536
12.660623
14.503598
17.574430
24.084449
31.811595
45.113564
55.994987
73.229671
82.996488
91.407895
91.541409
87.080002
80.274940
68.142414
57.150722
45.638680
38.386583
30.625463
27.228594
24.741888
23.449659
22.904873
22.211671
22.994876
##ZVALUE=345
0.123978
0.183582
0.041723
0.224710
0.235438
0.139475
-0.019670
0.181794
0.105500
0.131726
0.083447
0.154972
0.129938
0.178814
0.340939
0.315905
0.182986
0.191927
0.303984
0.153780
0.285506
0.138879
0.200868
0.225902
0.254512
0.180602
0.187755
0.254512
0.418425
0.300407
0.039935
0.411868
0.356436
0.428557
0.408888
0.466704
0.380874
0.468493
0.328422
0.428557
0.475645
0.447631
0.629425
0.561476
0.426769
0.593662
0.614524
0.704527
0.577569
0.907779
0.914931
1.048446
1.231432
1.264811
3.086925
20.372868
55.696964
149.172544
266.737938
484.651923
665.501952
877.099037
974.790454
985.097885
897.066593
685.947537
507.724881
298.031569
167.330503
67.643523
32.101870
14.543533
11.619925
11.721849
12.232661
12.721419
14.386773
17.351508
21.900535
31.484962
41.273832
56.423545
65.332651
77.166557
82.954764
86.368918
83.674788
75.686574
67.110658
54.996610
46.260953
35.498738
29.685497
25.036931
23.447871
22.074580
##ZVALUE=350
0.328422
0.442863
0.358820
0.427961
0.428557
0.402927
0.600815
0.397563
0.238419
0.370741
0.344515
0.501871
0.314713
0.438690
0.511408
0.446439
0.425577
0.559688
0.543594
0.409484
0.382662
0.484586
0.502467
0.391603
0.471473
0.466704
0.591874
0.454783
0.430942
0.349879
0.597835
0.472665
0.559688
0.488758
0.635982
0.546575
0.621676
0.577569
0.610948
0.603795
0.751615
0.686646
0.577569
0.646710
0.681877
0.692606
0.871420
0.858903
0.824928
0.958443
0.913739
1.014471
1.182556
1.099706
1.261830
1.423955
2.085567
10.010600
32.331944
103.376508
195.550919
387.773514
560.438633
778.697729
911.831856
982.387662
937.609673
773.533583
595.708489
353.258848
215.582848
99.627972
47.134757
17.370582
11.952519
11.452436
11.687875
12.209415
12.802482
14.493465
16.872883
22.810698
28.112531
37.468672
46.860576
59.433579
68.144798
77.375770
79.080462
77.793002
72.061419
61.981678
53.309798
42.911768
35.426617
28.533936
##ZVALUE=355
0.335574
0.212789
0.325441
0.441670
0.204444
0.237823
0.371933
0.344515
0.238419
0.332594
0.317693
0.421405
0.414848
0.314713
0.505447
0.432730
0.326633
0.548959
0.492930
0.274777
0.338554
0.443459
0.428557
0.398755
0.669956
0.509620
0.438690
0.418425
0.531673
0.493526
0.532866
0.438690
0.530481
0.559688
0.584722
0.573993
0.420809
0.488758
0.526905
0.516772
0.397563
0.571609
0.552535
0.568628
0.604987
0.773668
0.690818
0.607967
0.687838
0.754595
0.787973
0.945926
0.710487
1.022816
1.030564
0.956655
1.196861
1.356602
1.669526
5.009770
17.573833
69.151521
140.626431
289.666653
453.855991
704.856515
851.541758
959.627032
951.159596
808.948874
651.018620
430.378914
274.359584
122.129917
60.702562
21.333694
12.480617
10.556579
10.698438
11.162758
11.653900
12.391806
13.206601
15.634894
18.495917
25.212765
31.973720
43.081641
51.905513
61.748624
68.667531
72.226524
70.599914
64.892769
57.818890
48.510432
##ZVALUE=360
0.417829
0.385642
0.578761
0.469685
0.452995
0.475645
0.380874
0.310540
0.205636
0.378489
0.278950
0.373721
0.371933
0.570416
0.487566
0.403523
0.488758
0.440478
0.483990
0.554919
0.409484
0.556707
0.493526
0.424981
0.612736
0.554919
0.487566
0.367761
0.410676
0.698566
0.610948
0.599623
0.505447
0.519753
0.579953
0.509620
0.503659
0.662804
0.678897
0.817776
0.520945
0.675917
0.658631
0.598431
0.618696
0.631809
0.787973
0.689626
0.660419
0.870824
0.857711
0.851750
0.844598
0.956655
0.836849
0.966787
1.109838
1.151562
1.193881
1.377463
1.474619
2.534986
7.791519
35.871863
86.627603
214.390755
355.992913
572.468638
750.025511
908.917785
943.315029
863.786936
728.406906
494.775772
330.324769
161.507726
86.170435
33.262968
15.841722
10.008812
10.146499
10.201931
10.525584
10.992885
11.601448
12.387633
13.550520
16.786456
20.743608
27.598739
34.969449
45.349002
53.671598
61.786771
64.418912
64.547658
##ZVALUE=365
0.300407
0.278950
0.424981
0.336766
0.170469
0.415444
0.313520
0.340939
0.426769
0.307560
0.324845
0.313520
0.260472
0.351667
0.427961
0.317693
0.329614
0.338554
0.435710
0.300407
0.475645
0.323653
0.299811
0.418425
0.414848
0.426769
0.388622
0.421405
0.472665
0.419617
0.540614
0.450611
0.400543
0.417829
0.392795
0.485778
0.479817
0.478625
0.491738
0.632405
0.555515
0.569820
0.443459
0.591874
0.521541
0.593662
0.521541
0.584722
0.418425
0.561476
0.716448
0.596642
0.567436
0.704527
0.893474
0.875592
0.872612
0.860691
0.880957
0.843406
1.016855
1.171827
1.204610
1.638532
3.483891
20.862818
55.672526
143.803954
262.151957
477.433801
641.015768
820.207596
899.604559
881.294012
776.275992
568.022728
404.435992
223.630667
122.657418
46.559572
20.554662
9.817481
9.396672
9.345412
9.428859
9.762645
10.017753
10.168552
10.821819
12.042522
14.478564
18.294454
22.550821
31.054616
37.969947
47.427416
##ZVALUE=370
0.340939
0.212789
0.271797
0.276566
0.157952
0.183582
0.210404
0.169873
0.270605
0.298619
0.195503
0.316501
0.381470
0.269413
0.379682
0.247955
0.210404
0.342727
0.378489
0.203848
0.367761
0.475645
0.336766
0.345707
0.392795
0.489950
0.485778
0.353456
0.354648
0.492930
0.400543
0.308752
0.284910
0.372529
0.391603
0.209808
0.375509
0.388622
0.284910
0.477433
0.458956
0.533462
0.417829
0.390410
0.484586
0.526905
0.515580
0.541806
0.587702
0.570416
0.485778
0.559688
0.568628
0.532866
0.542998
0.732541
0.738502
0.857711
0.672936
0.759959
0.805855
1.037717
1.001954
0.971556
1.084805
1.279712
1.837611
9.899735
34.158826
108.090639
199.544430
372.061729
538.114905
755.997896
860.351920
885.877013
812.657475
636.748672
472.698808
262.199640
147.805810
59.503913
29.018521
12.561679
8.718967
8.311868
8.146763
8.686781
8.646846
8.957982
9.039640
10.194778
10.765791
12.932420
15.774965
20.656586
##ZVALUE=375
0.168681
0.141859
0.261664
0.363588
0.363588
0.111461
0.110865
0.280738
0.176430
0.309944
0.187755
0.180602
0.190735
0.226498
0.229478
0.219941
0.409484
0.440478
0.258684
0.176430
0.217557
0.267625
0.345707
0.221729
0.245571
0.294447
0.333786
0.262856
0.424981
0.284910
0.289679
0.291467
0.454783
0.298619
0.365973
0.330806
0.314713
0.312924
0.372529
0.391603
0.513792
0.195503
0.345707
0.466704
0.428557
0.386834
0.428557
0.374913
0.425577
0.601411
0.402927
0.409484
0.343919
0.515580
0.474453
0.473857
0.554919
0.575781
0.530481
0.651479
0.664592
0.823736
0.757575
0.761747
0.905991
0.809431
1.002550
1.160502
1.419783
5.307794
19.126534
68.321824
144.649744
311.435461
472.424626
692.997575
820.773840
898.111463
871.595740
721.021891
554.364920
335.630774
211.382508
104.204416
53.576827
19.184947
9.669662
7.522702
7.639527
7.784963
7.694960
7.904768
8.520484
8.460879
8.508563
9.765625
##ZVALUE=380
0.126958
0.240803
0.304580
0.131726
0.217557
0.086427
0.307560
0.047684
0.215769
0.217557
0.392795
0.304580
0.291467
0.217557
0.335574
0.240803
0.324845
0.270605
0.306964
0.224710
0.137687
0.303984
0.257492
0.138879
0.445843
0.180602
0.253916
0.369549
0.390410
0.291467
0.493526
0.221729
0.277758
0.172853
0.172853
0.372529
0.467896
0.350475
0.367761
0.354648
0.354648
0.364780
0.360608
0.469685
0.298619
0.542998
0.379682
0.340939
0.347495
0.348687
0.386834
0.424981
0.414848
0.339746
0.271797
0.330806
0.508428
0.517964
0.462532
0.640750
0.593662
0.702739
0.549555
0.550747
0.627637
0.702739
0.852942
0.877976
1.220703
1.176000
1.392961
2.389550
9.581447
48.151612
110.587478
252.964497
403.160453
622.063875
782.219768
908.874869
912.114978
788.049698
642.600656
447.870493
299.638510
148.561001
75.936913
27.415752
12.464523
7.575750
6.861687
6.977916
7.177591
7.328987
7.604957
7.785559
##ZVALUE=385
0.244975
0.243783
0.301600
0.318885
0.324845
0.103712
0.157952
0.277758
0.278950
0.276566
0.235438
0.263453
0.308752
0.116825
0.372529
0.157952
0.234842
0.381470
0.289679
0.344515
0.373721
0.375509
0.267625
0.381470
0.377893
0.466704
0.322461
0.472665
0.394583
0.412464
0.635982
0.434518
0.252724
0.453591
0.499487
0.254512
0.382662
0.479817
0.333786
0.468493
0.310540
0.452995
0.292659
0.416636
0.457764
0.530481
0.349879
0.389814
0.522733
0.424981
0.472665
0.460744
0.536442
0.407696
0.476837
0.537634
0.474453
0.542998
0.495911
0.543594
0.709891
0.555515
0.557899
0.528693
0.633597
0.843406
0.758767
0.793934
0.911951
1.124740
1.158714
1.263618
1.473427
1.761913
4.520416
26.083589
67.961812
172.979832
302.269459
525.792837
694.987774
850.630999
894.637704
841.640830
736.997724
547.993779
389.452577
211.798549
121.167898
49.608946
21.098852
7.943511
6.455779
6.127954
6.597638
6.754994
##ZVALUE=390
0.270605
0.258684
0.169873
0.283718
0.231862
0.195503
0.017881
0.313520
0.440478
0.217557
0.245571
0.112653
0.225902
0.226498
0.340939
0.267625
0.286698
0.200868
0.145435
0.144839
0.379682
0.074506
0.178814
0.297427
0.444651
0.206828
0.321865
0.371933
0.386834
0.230670
0.331998
0.246763
0.248551
0.240803
0.256896
0.305772
0.327826
0.298619
0.460744
0.271797
0.225902
0.246763
0.378489
0.348687
0.417829
0.333786
0.519753
0.501871
0.426769
0.524521
0.459552
0.360608
0.330806
0.414848
0.547767
0.445843
0.311732
0.352859
0.403523
0.370741
0.454783
0.480413
0.485778
0.417829
0.611544
0.627637
0.607967
0.702739
0.727773
0.793934
0.890493
0.940561
0.968575
1.021624
1.206994
1.239777
2.555847
11.003613
50.641894
116.078854
268.164873
417.012572
619.446635
759.119987
874.203444
877.887011
781.115890
651.232004
440.889597
294.480920
151.428580
77.983737
27.682781
11.760592
6.301999
6.060600
##ZVALUE=395
0.236630
0.094771
0.047684
0.120997
0.248551
0.254512
0.242591
0.030994
0.249743
0.215769
0.347495
0.329614
0.220537
0.247955
0.146627
0.318885
0.263453
0.104904
0.126958
0.177622
0.261664
0.012517
0.146627
0.153780
0.393987
0.367761
0.266433
0.239611
0.319481
0.378489
0.211596
0.308752
0.319481
0.331998
0.236630
0.406504
0.384450
0.201464
0.263453
0.237823
0.472665
0.320673
0.353456
0.566840
0.427961
0.241995
0.404716
0.282526
0.333786
0.313520
0.459552
0.238419
0.286698
0.501871
0.406504
0.211596
0.358820
0.447631
0.423789
0.355840
0.336766
0.521541
0.611544
0.582933
0.598431
0.527501
0.521541
0.716448
0.629425
0.853539
0.853539
0.875592
0.782609
0.953674
0.893474
0.966787
0.967979
1.060963
1.576543
7.479787
27.091503
93.699694
182.684660
355.796814
521.831512
742.110014
870.196819
939.822793
901.418924
751.535892
581.390858
351.088643
221.479535
104.940534
50.930977
17.517805
##ZVALUE=400
0.201464
0.252724
0.130534
0.259876
0.275970
0.282526
0.179410
0.120997
0.169873
0.281930
0.165701
0.155568
0.168681
0.306964
0.269413
0.176430
0.176430
0.156760
0.162721
0.236630
0.225902
0.296831
0.325441
0.198483
0.385642
0.307560
0.234842
0.364780
0.300407
0.204444
0.195503
0.312924
0.349879
0.482798
0.303984
0.434518
0.331998
0.207424
0.263453
0.283718
0.444651
0.373721
0.392795
0.334978
0.223517
0.305772
0.270605
0.287890
0.146627
0.432730
0.307560
0.506639
0.439882
0.434518
0.491738
0.438690
0.359416
0.433922
0.256896
0.323653
0.398755
0.454783
0.461936
0.599623
0.530481
0.484586
0.465512
0.659823
0.714660
0.640750
0.788569
0.855923
0.861883
0.849962
0.850558
0.869632
0.812411
0.838637
0.985861
1.115799
1.149774
3.905892
14.443994
53.234696
114.157796
253.160000
401.436687
621.219873
767.808557
885.374546
896.482468
787.249804
643.283725
419.481993
272.692442
134.835839
##END
