##TITLE=QP00301
##FORMAT=SPECTACLE-ASCII V-1.2
##DATA TYPE=ULTRAVIOLET SPECTRUM
##SECOND TYPE=ULTRAVIOLET SPECTRUM
##DATE=02/05/18
##TIME=14:22:20
##SPECTROMETER/DATA SYSTEM=SPECTACLE
##XUNITS=NM EM
##YUNITS=ENERGY
##YFACTOR=1
##FIRSTX=220
##LASTX=410
##NPOINTS=96
##3DDATA=Equidistant
##ZUNITS=NM EX
##FIRSTZ=210
##LASTZ=400
##ZPOINTS=39
##XYDATA=(Y..Y)
##ZVALUE=210
2.777576
2.349615
2.150536
2.638698
2.442598
2.042651
2.490878
2.418756
2.654791
2.312660
2.698898
2.683997
2.070665
2.745986
2.427697
3.017783
2.958775
2.987981
3.595948
3.225803
3.682971
3.708601
3.249645
4.507899
3.984571
5.178452
3.994703
4.303455
5.403757
4.366636
5.183816
5.342960
5.670786
5.168915
4.785657
4.866719
5.682707
6.340742
6.135702
6.418824
6.769896
6.656647
7.162690
6.717443
7.111430
6.598830
8.022785
6.984472
8.241534
7.133484
7.340908
8.510947
9.865761
8.329749
7.419586
7.616878
7.941723
7.375479
8.577704
8.604527
8.683801
8.142591
8.498430
8.845925
9.459853
8.807778
10.053515
11.458993
12.229681
14.676452
17.047524
20.204782
23.611784
27.254820
28.833747
30.059814
29.065609
30.039549
26.049614
25.028586
23.342967
22.662878
19.282699
16.589761
13.924837
11.234879
9.429455
10.493994
9.319782
9.377599
8.747578
8.613467
7.915497
9.738803
8.228421
8.569956
##ZVALUE=215
7.440448
8.004904
7.442832
6.315708
4.846454
4.277825
4.135966
4.862547
4.405975
5.298853
5.328655
5.091429
4.171729
3.394485
3.441572
3.561974
3.240705
2.917647
3.393888
3.884435
3.499985
3.705621
4.084706
3.892779
4.911423
5.094409
4.938841
4.386902
5.741715
5.492568
5.822778
6.182790
6.784797
6.584525
5.749464
6.249547
6.355643
7.808805
6.469488
7.245541
6.642938
7.355809
6.780624
7.067919
7.028580
7.406473
7.511973
8.815527
7.831454
7.098913
7.780790
8.717775
7.659793
7.982850
7.955432
8.762479
8.529425
8.562803
8.973479
8.157492
8.515716
9.005666
9.245872
9.024739
9.230971
9.220839
10.009408
11.115670
11.745691
15.799999
16.862750
18.643737
21.801591
24.162531
26.269555
28.984547
28.130412
27.232766
26.164651
24.041533
23.001432
19.783974
18.245578
15.386939
13.653636
13.395548
11.997819
8.916855
9.152889
8.678436
9.985566
10.037422
8.711815
8.758903
8.795857
9.182692
##ZVALUE=220
24.790764
27.422905
28.108954
28.396845
26.855469
21.215677
17.836690
12.723804
11.493564
11.838675
11.974573
11.899471
11.678934
10.989904
9.362698
8.612871
5.856752
4.687905
4.229546
3.684759
3.487468
3.865957
3.917813
5.365610
5.214810
4.844666
6.005764
5.517602
5.763769
6.570816
6.840825
7.030964
6.818771
6.588697
7.525682
7.588863
7.836819
7.626414
7.041693
7.432699
8.668900
8.292794
7.688999
8.771420
7.907748
8.094907
10.353923
8.465648
7.511973
8.287430
9.427667
8.264780
8.740425
9.270906
9.744763
9.789467
8.189678
9.281635
9.938478
9.508729
10.605454
10.419488
10.966659
10.386705
9.273887
10.785460
10.759830
11.105537
12.407899
16.556978
17.288923
21.169782
25.082827
26.180744
25.804639
27.008653
28.453469
28.237700
27.279854
27.165413
25.790930
21.246672
20.037889
18.122792
15.920997
13.633966
12.610555
11.028647
10.408759
10.079741
10.206699
9.882450
10.202527
10.434985
10.600686
9.579659
##ZVALUE=225
48.478842
51.637888
65.868497
81.300735
89.750886
88.627934
81.273913
65.849423
53.233504
37.687421
27.762651
23.627877
22.172928
25.658607
24.906993
25.382638
21.633506
18.708706
14.828444
9.164810
7.208586
4.948974
6.102920
4.890561
5.096793
7.032752
6.392598
5.836487
5.586743
6.569624
6.833673
7.478595
7.641912
7.631779
7.775426
8.695722
9.012818
8.963943
8.970499
8.419752
8.599758
9.591579
8.864999
9.441972
9.217858
9.507537
9.848475
10.183454
9.788871
10.007620
10.201931
9.046793
10.832548
9.574890
11.138916
11.322498
10.626912
11.281967
10.846853
12.129545
12.051463
11.483431
11.809468
11.679530
11.485815
12.640953
14.085770
12.788773
15.069842
18.502474
20.442605
23.717880
24.891496
28.768778
28.171539
29.440522
28.964877
29.003620
26.650429
28.031468
24.215579
21.888614
20.363927
19.589663
18.745661
16.846657
15.750527
14.075637
15.008450
14.352798
15.030503
14.002919
14.104843
14.268756
13.918877
14.035702
##ZVALUE=230
40.165782
44.017434
69.685578
121.836662
159.835815
204.666853
229.432583
230.575800
212.316513
174.421668
120.895505
84.490776
53.135753
44.510961
45.249462
48.227906
51.006675
48.873425
42.772889
33.898950
28.875470
19.643903
14.554858
7.651448
7.239580
6.678700
7.106662
7.143617
6.560683
8.606911
8.528829
8.218884
8.804798
7.836819
9.054542
9.345412
9.452701
9.180903
9.681582
10.943413
9.782910
11.037588
10.194778
9.855628
10.237694
10.653734
9.958744
11.424422
11.448860
10.995865
10.646582
12.353659
11.965632
10.615587
12.199879
13.031960
13.946891
12.086630
12.767911
12.784600
13.461709
14.912486
14.633536
13.936758
15.943646
16.552806
16.299486
18.157959
18.992424
20.305514
22.206903
27.244687
28.976798
30.719638
30.627847
32.886863
33.358932
31.282902
29.651523
29.768944
27.868748
26.279688
26.250482
22.619963
23.482442
21.268725
22.047758
19.990802
21.994710
20.133853
20.063519
20.380616
20.984411
21.039844
18.935800
20.688772
##ZVALUE=235
15.325546
17.435551
35.392642
81.446767
140.485764
232.645869
304.337740
408.006907
457.077622
456.108451
408.483744
337.232947
231.411457
165.182948
107.944608
83.235502
72.637796
74.166656
83.081722
79.855919
81.661940
65.891743
51.114559
35.352707
27.203560
17.203689
14.184713
9.513497
8.808970
8.841753
9.679794
9.984970
9.942651
10.175705
10.984540
12.175441
10.663867
10.545850
11.118650
10.579824
10.195971
10.783672
12.112856
12.337565
11.875629
11.319518
10.696650
10.947585
11.339784
10.469556
11.646748
12.290478
12.432933
12.653470
11.978745
13.823509
13.393760
11.979938
14.661551
14.535785
16.055703
15.606880
16.154647
15.778542
16.956925
19.208789
19.773841
21.040440
23.827553
24.684668
28.035641
29.375553
32.411814
37.867427
37.424564
39.866567
38.987994
38.993955
37.176609
34.251809
37.601590
33.685565
34.509897
32.018423
31.724572
30.382872
29.700994
29.514432
29.923916
29.580593
31.258464
29.537678
26.777983
28.469563
27.081966
27.322769
##ZVALUE=240
2.032518
2.449751
6.458759
18.843412
57.424903
104.957819
224.062800
337.768793
512.919426
626.797676
723.998547
728.244781
686.298609
550.591946
429.845452
266.871452
188.550949
123.892426
100.475550
104.847550
111.286640
115.652680
112.852454
105.330944
85.324645
68.550706
49.637556
35.591722
22.651553
16.481876
15.143752
11.761785
12.342930
12.476444
12.042522
12.035966
12.295842
11.317730
12.898445
11.069775
11.006594
11.182427
10.399818
11.516809
11.297464
11.706948
13.586879
10.989904
12.526512
11.452436
12.056828
12.059808
12.717843
11.228919
13.789535
12.743473
13.618469
14.673471
14.619827
14.705658
16.118884
16.585588
17.238855
17.824769
18.711686
21.404624
21.312833
23.192763
25.348663
28.802752
29.844642
32.582879
36.625862
40.083528
42.677522
43.307543
43.772459
44.565797
44.605732
44.081807
42.064786
42.008758
41.157603
38.830638
40.129423
39.169788
37.665963
37.061572
36.274791
36.422610
36.291480
35.967827
35.447478
35.922527
33.997893
33.587813
##ZVALUE=245
1.624823
2.044439
1.909733
1.940727
5.149841
15.679002
52.765608
108.271837
239.237547
371.878743
605.825782
742.032528
851.541758
930.424929
885.523558
749.269724
596.098900
406.464934
283.381939
158.109665
119.534731
102.447867
118.141770
126.678944
128.829479
129.682422
114.813447
98.884702
76.913834
55.968761
44.166446
28.320551
20.524859
16.193986
12.563467
11.718869
12.942553
12.915730
11.351705
11.659861
11.792779
10.790825
10.605454
10.757446
10.617971
11.283755
10.574460
9.460449
11.082888
10.737777
9.828806
10.710955
10.803938
10.814667
11.291504
11.864901
12.519956
11.986494
12.301803
12.632608
13.659000
14.588833
14.810562
15.087724
15.731454
16.439557
18.611550
20.867586
21.455884
25.678873
28.673410
30.489564
33.473969
34.372807
37.716627
38.718581
40.420890
39.628744
40.012598
39.609671
38.694739
37.034750
39.093494
35.652518
35.720468
34.484863
37.633777
37.951469
36.162734
36.677718
34.687519
35.514832
34.592748
35.747886
34.087896
35.647750
##ZVALUE=250
1.615882
1.644492
1.659989
1.545548
1.853704
2.008677
3.167987
9.979606
42.525530
91.025829
223.369002
373.033881
546.872616
789.394975
954.450965
1015.888453
1015.888453
970.459580
818.625689
570.607781
385.755897
252.540708
139.925480
110.422969
109.145641
121.930838
136.984587
142.855644
136.099458
124.595761
110.836625
83.253980
64.709783
39.161444
28.723478
17.961860
14.721751
12.087822
11.561513
10.854602
10.873675
10.610819
10.523796
10.498762
9.628534
10.087490
10.205507
9.843707
9.898543
9.665489
10.351539
10.349751
10.247827
9.422898
11.299849
10.717511
10.712743
10.727644
11.328459
11.811852
11.542439
13.773441
13.595819
14.461875
14.660954
15.540719
17.488599
18.786788
20.202994
22.270679
23.272634
27.173758
28.785467
33.625960
33.217669
35.049915
34.323931
36.498904
35.096407
34.011602
34.970641
33.652782
34.069419
34.218431
34.361482
34.848452
33.717752
32.130480
33.634901
32.662749
34.656525
33.170581
33.236742
32.016635
34.278631
35.337806
##ZVALUE=255
1.351833
1.275539
1.314878
1.364946
1.750588
1.650453
1.496673
1.842976
2.606511
5.382895
28.724670
72.499514
151.386857
324.988961
508.714914
792.047977
987.536907
1015.905738
1015.905738
1015.905738
1006.376743
820.046663
522.765517
333.566666
175.083876
119.230747
97.494721
108.965635
127.967000
145.911574
149.104595
143.874884
132.503510
106.459856
85.682869
57.882667
40.254593
25.805831
17.738938
12.604594
10.392666
10.224581
9.753704
9.344816
9.632707
9.885430
8.887649
9.293556
9.253621
9.118915
10.007620
8.623600
9.066463
8.968711
9.551644
9.378791
9.560585
10.793805
10.683537
10.727644
10.573864
10.828972
11.099577
12.310743
13.080835
14.741421
14.626980
16.742945
17.181635
19.608736
21.515489
23.162961
24.841428
28.560758
29.417872
29.073954
27.496815
30.105710
31.149983
28.947592
29.469728
30.641556
30.544996
30.525923
29.394627
29.788613
30.859709
30.374527
31.449795
30.061603
31.718612
31.278729
30.863881
30.430555
31.645894
32.277703
##ZVALUE=260
1.240969
1.261830
1.051426
1.232624
1.213551
1.429915
1.283884
1.671910
1.753569
2.005696
2.264977
3.122687
11.692643
48.094988
109.559894
270.472765
444.893837
734.113455
975.467563
1015.888453
1015.888453
1015.888453
1015.888453
1005.735993
692.324638
471.471548
263.850689
161.796808
96.126795
88.425875
103.483796
131.295919
147.489905
155.595541
147.999525
132.811666
111.162663
80.840588
59.527755
37.455559
26.719570
15.957952
11.476874
9.457469
8.582473
8.621812
9.610653
8.487701
8.877516
8.756518
8.725524
8.338690
8.448958
8.865595
8.836985
8.343458
9.848475
9.324551
9.330511
9.781718
9.606481
10.516644
10.760427
11.234879
11.602640
12.203455
12.866855
13.653636
15.722513
17.392635
18.540621
19.992590
21.203756
22.514462
23.559928
24.855733
24.975538
26.387572
25.941730
27.014613
27.673841
27.116537
26.261806
26.989579
25.880933
28.051734
26.966929
28.998852
28.024912
28.293729
27.934909
28.662682
28.008819
29.247999
29.178858
29.898882
##ZVALUE=265
1.211762
1.321435
1.054406
1.112819
1.150966
1.193881
1.249909
1.368523
1.535416
1.357794
1.832843
1.828671
1.975894
2.307892
6.248951
31.924844
80.466866
206.628442
364.705920
690.165758
972.672701
1015.888453
1015.888453
1015.888453
1015.888453
1015.889049
931.859016
664.169788
371.590853
217.036605
127.691627
81.405640
84.912777
115.656853
132.832527
154.138803
156.257749
151.130557
134.121776
107.642412
85.164905
56.502819
40.145516
23.573637
15.602708
10.588765
9.201765
8.557439
7.969737
8.213520
8.606911
8.649826
8.111596
8.431673
8.664727
8.942485
8.833408
8.715987
9.283423
9.285808
10.037422
9.670854
10.497570
10.458827
11.706948
11.410713
12.425780
13.562441
14.545918
15.236735
17.815828
18.541813
19.261837
21.256804
22.001863
21.615624
22.268891
23.395419
24.023652
24.284720
23.350716
24.773479
24.088621
24.812818
25.199652
24.454594
25.709867
25.991797
25.919676
25.704503
26.438832
26.793480
27.334690
27.267933
26.874542
28.423667
##ZVALUE=270
0.981688
0.939965
0.837445
0.952482
1.013875
1.131892
1.073480
1.101494
1.339912
1.354814
1.403689
1.450777
1.707673
1.897812
2.138615
1.910925
3.076792
15.266538
45.034885
152.198672
299.184918
522.447824
934.088826
1015.888453
1015.888453
1015.888453
1015.888453
1015.888453
1015.888453
881.899595
602.087975
308.398604
170.219541
80.198646
68.697929
88.210702
109.874606
138.028860
151.069760
156.610608
152.836442
132.867694
113.155842
83.308816
59.804916
36.994815
26.174784
16.615987
11.669993
9.214878
8.902550
8.351803
9.049773
8.751750
8.957982
8.978844
9.126663
9.345412
10.543466
10.276437
9.976625
10.240674
10.692477
11.202693
10.942817
11.774898
12.340546
13.256669
14.585853
15.471578
16.597509
18.915534
19.979477
20.436645
21.251440
21.897554
22.812486
23.396611
22.576451
21.971464
23.311973
23.188591
22.706985
22.893548
24.496913
23.851991
24.847984
24.371743
25.106668
24.669766
24.855733
25.609732
24.557710
25.567412
25.959611
26.026964
##ZVALUE=275
0.795722
0.861883
0.814795
1.070499
1.140833
0.910759
1.035929
1.194477
1.251698
1.294613
1.149774
1.209974
1.188517
1.531839
1.466870
1.617670
1.637936
2.042651
2.414584
7.661581
28.649569
104.115605
237.408876
451.564789
846.813917
1015.888453
1015.888453
1015.888453
1015.888453
1015.888453
1015.888453
1015.889049
746.437907
458.301902
209.606886
110.769868
60.157776
61.981678
85.570812
108.634830
136.910677
149.604678
159.329772
154.882669
132.479668
110.556483
82.754493
62.896609
39.870739
27.014613
16.807914
12.885928
9.741783
9.550452
9.214878
9.606481
9.354949
9.604692
9.922981
9.999871
10.078549
10.639429
11.408925
11.338592
11.688471
12.296438
12.846589
14.233589
14.075637
15.026927
16.755462
18.120408
20.066500
20.720959
21.508932
21.780729
21.890998
22.861958
22.134781
22.896528
22.924542
23.470521
22.540689
22.972822
22.307634
22.491813
22.678971
23.189783
23.704767
23.796558
24.536848
24.236441
24.096966
24.645925
24.344921
24.089813
##ZVALUE=280
0.777841
0.737906
0.804663
0.939965
0.934601
0.866652
0.998974
0.818968
0.945926
1.097918
1.064539
1.017451
1.074672
1.101494
1.261830
1.732707
1.397729
1.724958
1.900792
2.254844
2.282858
3.203750
18.168688
60.485601
193.301439
357.905626
666.429996
974.591970
1015.887856
1015.887856
1015.887856
1015.887856
1015.887856
1015.887856
980.618596
569.498539
328.132510
138.759613
71.247816
47.992468
58.206916
83.708763
105.751753
133.573413
147.003531
153.185725
147.022605
130.985975
111.557841
81.887841
61.564445
39.147735
27.351975
17.095804
12.882948
10.637641
9.931922
9.552836
9.938478
10.415912
10.773540
10.850430
11.254549
11.892915
12.732744
12.705922
13.035536
13.924837
15.087724
15.721917
16.882420
18.357635
19.025803
20.221472
21.144748
21.648407
22.054911
22.165775
21.595955
21.821856
22.874475
21.796823
21.916628
22.317767
22.642612
22.856593
22.469759
22.698641
22.932887
23.029447
22.529960
22.692680
23.285747
23.189783
23.376942
23.322701
##ZVALUE=285
0.774860
0.783801
0.877976
0.844598
0.791550
0.800490
0.786781
1.087785
1.039505
0.956655
1.033545
0.836849
1.126528
1.096725
1.062751
1.089573
1.166463
1.408458
1.540780
1.785755
1.669526
1.924634
2.539754
2.637506
8.927584
32.438636
112.706423
236.866474
510.819554
814.755559
1015.895009
1015.895009
1015.895009
1015.895009
1015.895009
1015.895009
1015.895009
796.653628
490.736961
223.715901
107.253790
46.525002
39.380789
57.633519
76.050758
107.692480
124.234557
142.883658
147.373676
143.168569
129.631758
107.950568
89.014769
59.997439
44.387579
27.087927
19.040704
13.842583
11.370778
10.713935
10.843873
10.504723
11.404753
11.403561
12.228489
13.608932
13.727546
14.486909
15.925765
15.901923
17.215610
18.194914
19.515753
20.540953
21.205544
20.850897
21.336675
21.395683
21.161437
21.877885
21.806955
21.965504
21.638870
21.959543
22.270679
22.069812
22.852421
22.620559
22.848845
22.852421
23.167729
22.340417
23.110509
22.779703
22.306442
22.395849
##ZVALUE=290
0.679493
0.675917
0.675917
0.735521
0.753999
0.692606
0.854731
0.721812
0.833869
0.989437
0.860691
0.738502
1.013875
1.100898
1.256466
1.092553
0.922680
1.052618
1.404881
1.370907
1.476407
1.659989
1.847744
2.046824
2.284646
2.359748
3.803968
12.709498
63.661933
155.519843
313.958526
656.448603
988.234878
1015.870571
1015.870571
1015.870571
1015.870571
1015.870571
1015.870571
990.774632
674.344897
330.140591
167.998672
60.807467
32.465458
37.791729
51.734447
74.093938
94.547868
120.755434
136.478543
143.933892
142.450929
125.925541
108.222961
81.554651
61.684847
41.146874
28.953552
18.717647
15.025735
12.375712
11.787415
12.301803
12.702942
13.266802
13.599992
14.457703
15.336871
16.880631
17.187595
18.315911
18.712878
20.009875
20.815730
21.017790
21.170974
21.397471
20.767450
21.397471
21.211505
22.219419
21.404624
22.190809
22.344589
21.981597
21.882653
22.704601
23.217797
22.725463
22.382736
22.606850
22.413731
21.958947
23.016930
22.361875
##ZVALUE=295
0.587702
0.673532
0.693798
0.759959
0.796914
0.738502
0.674725
0.801682
0.821948
0.683665
0.721812
0.896454
0.948906
0.908971
1.115799
0.983477
1.143813
1.167655
0.974536
1.304746
1.207590
1.300573
1.488924
1.776814
1.933575
2.061725
2.239943
2.492666
2.815723
5.884767
23.582578
105.775595
245.105028
575.538874
936.546922
1015.888453
1015.888453
1015.888453
1015.888453
1015.888453
1015.888453
1015.888453
862.622857
458.403826
242.650509
85.523725
38.429499
25.677681
31.996965
49.157739
66.210628
91.374516
110.063553
130.133629
138.583779
134.840608
124.004483
103.544593
83.572865
59.213638
43.420792
28.209686
20.901561
16.063452
14.064908
13.638735
13.887882
14.440417
15.247464
16.712546
18.086433
18.530488
19.435883
20.302534
20.638704
21.062493
21.264553
21.354556
22.108555
21.637678
21.569729
22.457838
22.300482
22.415519
22.558570
21.765828
22.545457
22.561550
22.547841
22.557974
22.587776
21.922588
21.632910
21.713972
22.060871
22.512674
##ZVALUE=300
0.619888
0.584722
0.673532
0.699759
0.656843
0.648499
0.660419
0.722408
0.983477
0.944734
0.895858
0.701547
0.901818
0.801682
1.022816
0.830889
1.228452
0.992417
0.983477
1.136661
1.202822
1.275539
1.349449
1.290441
1.605749
1.390576
1.818538
1.596808
2.214909
2.332926
2.619624
3.299713
13.685822
55.364966
197.368860
394.407511
815.014839
1015.888453
1015.888453
1015.888453
1015.888453
1015.888453
1015.888453
1015.888453
1005.485654
688.382387
338.390470
176.499486
57.553649
25.900602
21.283627
28.461814
45.260787
60.715675
84.989667
104.534626
124.469995
132.071972
131.837726
121.639967
102.540851
84.087849
59.225559
45.016408
30.596852
23.257732
17.771721
16.031861
15.726686
16.438961
18.277764
18.271804
19.530654
19.843578
20.758510
20.892620
21.342635
21.880865
22.102594
23.006797
22.541881
22.375584
22.902489
23.578405
23.281574
23.513436
23.203492
23.182631
23.167729
23.576617
22.837520
22.979975
22.733808
23.026466
22.313595
22.055507
##ZVALUE=305
0.384450
0.378489
0.526905
0.488758
0.623465
0.457764
0.393987
0.537634
0.615716
0.564456
0.527501
0.581741
0.506639
0.653863
0.691414
0.741482
0.512600
0.677705
0.807643
0.686646
1.008511
1.039505
0.901818
1.043677
0.974536
1.213551
1.291633
1.297593
1.509786
1.648664
1.659989
2.182722
2.515912
2.989769
5.882978
39.004683
114.524961
337.757468
623.925924
1015.708447
1015.708447
1015.708447
1015.708447
1015.708447
1015.708447
1015.708447
1015.708447
824.321508
507.415533
233.249664
109.213591
34.689903
17.783642
19.710660
27.796626
43.645501
59.283972
82.710981
99.624991
117.721558
124.390721
124.043822
116.852522
97.869635
81.778765
58.371425
45.005679
31.764507
24.799705
19.732714
19.058585
19.340515
19.384623
20.189881
20.595789
20.678639
20.998716
21.747947
22.570491
22.918582
22.923946
22.965670
23.708940
23.792982
23.680925
24.037957
23.918748
24.413466
23.658872
23.639798
23.698807
22.671819
23.191571
23.069978
23.095608
22.992492
##ZVALUE=310
0.740886
0.510812
0.611544
0.642538
0.701547
0.767708
0.649691
0.650883
0.708699
0.658631
0.672936
0.734925
0.576973
0.644922
0.869632
0.811815
0.825524
0.840425
0.864863
0.933409
1.016855
0.911951
0.991821
0.982881
0.995994
1.445413
1.441836
1.424551
1.593828
1.639724
1.714826
1.613498
1.805425
2.048612
2.374649
2.796650
3.296733
16.256571
58.516860
212.756991
438.135862
925.169587
1015.884876
1015.884876
1015.884876
1015.884876
1015.884876
1015.884876
1015.884876
1015.884876
775.395036
377.060771
196.929574
64.385533
25.225878
15.264750
18.342733
27.419925
36.874413
57.012439
72.459579
93.680620
108.573437
118.591785
119.808912
112.932920
99.288821
80.567002
64.028502
46.339631
35.720468
27.920604
24.211407
21.796823
21.655560
21.830797
22.236705
21.326542
21.865964
22.761822
22.720695
23.978949
24.326444
24.583936
24.390817
24.617910
24.732947
25.178790
25.564432
24.583936
24.252534
24.111867
24.073720
24.005771
23.497939
23.493767
##ZVALUE=315
0.539422
0.610948
0.554919
0.629425
0.837445
0.628829
0.641942
0.759959
0.653863
0.654459
0.685453
0.632405
0.668764
0.704527
0.962615
0.818968
0.910759
0.851750
0.899434
0.984669
0.878572
0.887513
0.975728
1.017451
1.046658
1.238585
1.116991
1.343489
1.315475
1.289845
1.482964
1.457930
1.580715
1.676679
1.836419
2.191663
2.256632
2.719760
3.054738
6.082654
35.552979
108.064413
334.905386
642.460585
1015.888453
1015.888453
1015.888453
1015.888453
1015.888453
1015.888453
1015.888453
1015.888453
903.436542
553.357601
249.322653
113.093853
31.207800
15.807748
14.250875
17.150640
24.945736
35.046935
52.438974
68.156719
90.100765
103.055835
113.772750
115.341544
106.986761
95.583797
77.679753
64.011812
47.750473
38.201809
29.433966
25.813580
23.394823
22.867918
23.032427
22.909641
23.473501
24.031997
24.298429
24.315715
25.078654
25.221705
25.551915
25.661588
25.248528
24.864674
24.899840
24.861693
24.276972
24.468899
24.539828
24.166703
##ZVALUE=320
0.639558
0.567436
0.497699
0.658631
0.395775
0.633597
0.584722
0.688434
0.475645
0.621676
0.623465
0.741482
0.708699
0.637770
0.804663
0.720620
0.720620
0.753999
0.861883
0.700951
0.864863
0.924468
0.929832
0.987649
0.981688
0.959635
1.018643
1.148582
1.127720
1.165867
1.355410
1.655817
1.668930
1.509786
1.535416
1.890659
1.752973
2.087951
2.250671
2.505779
2.908707
3.974438
12.952685
74.945688
201.475620
556.571484
949.457884
1015.888453
1015.888453
1015.888453
1015.888453
1015.888453
1015.888453
1015.888453
1015.888453
658.873916
371.456742
153.637528
65.713525
20.096898
13.139844
14.312863
17.171502
23.550987
32.537580
49.187541
64.474940
85.083842
98.297596
109.519958
114.159584
105.602741
96.454620
77.515841
64.493418
47.481656
38.762689
30.583739
27.156472
25.076866
24.532676
24.251938
24.780631
24.855733
24.906993
25.340915
25.005937
25.739670
25.436878
25.562644
25.749803
25.063753
25.280714
24.880767
24.983883
24.239421
##ZVALUE=325
0.533462
0.567436
0.581741
0.634789
0.597835
0.613928
0.460744
0.503659
0.414848
0.541806
0.595450
0.685453
0.595450
0.617504
0.560880
0.745654
0.543594
0.636578
0.552535
0.812411
0.756979
0.843406
0.859499
0.799894
0.784993
0.908971
1.064539
0.974536
1.120567
1.301765
1.174808
1.167655
1.107454
1.378655
1.347661
1.346469
1.482964
1.732707
1.841784
2.171993
2.306700
2.401471
2.823472
3.198981
8.166432
55.958629
146.942735
390.107632
705.757737
1015.889645
1015.889645
1015.889645
1015.889645
1015.889645
1015.889645
1015.889645
1015.889645
841.948390
515.881777
231.579542
107.260942
30.083656
14.939904
12.580752
14.134645
17.726421
23.187995
34.618974
46.951771
67.075491
81.824660
97.634792
106.224418
108.621716
102.994442
88.768601
76.383948
59.662461
48.549771
36.987662
30.911565
26.492476
25.717616
25.501847
25.066733
24.523735
24.944544
25.569797
25.219917
25.511980
25.004745
25.686622
25.274754
25.301576
24.961829
24.631619
##ZVALUE=330
0.505447
0.650883
0.510812
0.544786
0.611544
0.547767
0.522733
0.461936
0.574589
0.580549
0.589490
0.581741
0.425577
0.561476
0.654459
0.639558
0.658631
0.625849
0.612736
0.726581
0.755787
0.745654
0.795722
0.985861
0.857711
0.760555
0.936985
1.123548
0.968575
0.968575
1.004934
1.051426
1.028776
0.961423
1.144409
1.490712
1.177788
1.490712
1.589656
1.718998
1.765490
1.884699
2.084970
2.239943
2.552867
3.016591
4.157424
23.737550
82.034469
265.788436
509.746671
986.253023
1015.888453
1015.888453
1015.888453
1015.888453
1015.888453
1015.888453
1015.888453
1013.869047
686.793923
310.984850
153.369904
49.846768
20.127892
12.837648
13.269782
15.056729
18.007755
25.241971
33.612847
48.432946
62.349439
82.132816
93.623996
102.218986
102.739930
95.754862
87.975860
72.760582
59.012771
45.963526
38.120747
31.099916
28.506517
26.679635
24.900436
25.033951
25.140643
24.739504
25.258660
24.482608
24.637580
24.700761
24.928451
25.511980
##ZVALUE=335
0.562668
0.516772
0.363588
0.498891
0.445843
0.533462
0.553727
0.677705
0.729561
0.535846
0.548959
0.607967
0.463724
0.457764
0.318885
0.708699
0.666976
0.686646
0.581741
0.688434
0.712872
0.642538
0.511408
0.597835
0.761747
0.749826
0.781417
0.788569
0.874996
0.873804
0.808835
0.944734
1.047850
1.119971
1.026988
0.928640
1.002550
1.091957
1.176596
1.395941
1.467466
1.435876
1.585484
1.794696
1.960993
2.249479
2.452731
2.867579
3.199577
9.580851
39.187670
163.576007
342.596769
754.622817
1015.888453
1015.888453
1015.888453
1015.888453
1015.888453
1015.888453
1015.888453
1015.888453
870.052576
444.129705
224.441886
70.827603
28.567910
14.186502
13.542771
14.164448
15.403628
19.388795
25.112629
35.979748
45.823455
61.747432
75.184703
88.919997
95.704794
96.563697
92.619658
81.568956
71.848631
58.511496
48.504472
38.333535
32.807589
28.003454
26.150942
24.939775
24.596453
24.258494
24.623871
24.635792
24.469495
24.893880
##ZVALUE=340
0.450611
0.422597
0.304580
0.451803
0.344515
0.488758
0.361800
0.427961
0.461936
0.457764
0.616908
0.482798
0.477433
0.702739
0.584722
0.548959
0.565648
0.644922
0.541806
0.653863
0.491738
0.616908
0.470877
0.595450
0.739694
0.618696
0.661612
0.747442
0.899434
0.817776
0.795722
1.019835
0.855923
0.797510
0.806451
0.861883
1.045465
1.058578
1.004934
0.986457
1.172423
1.354814
1.400709
1.511574
1.646876
1.668930
1.756549
2.226830
2.189875
2.343655
2.926588
5.816817
23.429990
115.963817
270.397663
616.044998
967.854857
1015.888453
1015.888453
1015.888453
1015.888453
1015.888453
1015.888453
1015.888453
1007.182002
542.040467
290.808678
110.691786
42.042732
15.723705
13.896823
14.052987
14.893413
16.451478
19.319654
25.577545
32.985806
45.861602
57.963729
73.948503
84.834695
92.069507
92.379451
88.242888
81.264973
67.606568
57.775974
45.191646
38.605928
31.157732
27.985573
25.185943
24.478436
24.448633
24.884939
25.047660
##ZVALUE=345
0.531673
0.575781
0.482798
0.500679
0.448823
0.424981
0.459552
0.471473
0.573993
0.382662
0.491738
0.469685
0.484586
0.460744
0.403523
0.464916
0.556707
0.653863
0.561476
0.506639
0.543594
0.537634
0.683665
0.663996
0.444651
0.697970
0.767708
0.702739
0.779629
0.843406
0.923872
0.797510
0.619888
0.942945
0.895858
0.947714
0.693798
0.680685
0.898838
1.278520
1.220703
1.215935
1.351833
1.277924
1.436472
1.339912
1.435876
1.439452
1.723766
1.826882
2.125502
2.474785
2.761483
3.396869
12.614727
87.528825
222.374797
516.367555
840.929747
1015.890837
1015.890837
1015.890837
1015.890837
1015.890837
1015.890837
1015.890837
1015.890837
742.753744
410.229564
151.416659
63.513517
21.645427
14.859438
14.180541
14.968514
15.135407
15.940666
18.506646
23.180842
31.940937
41.818619
56.872964
66.924691
77.602863
83.172917
85.807443
83.666444
75.598955
67.567825
55.524707
46.930909
36.794543
31.890869
28.332472
26.367903
25.436878
##ZVALUE=350
0.680685
0.676513
0.707507
0.660419
0.702739
0.644922
0.708699
0.435710
0.680685
0.698566
0.613928
0.523925
0.747442
0.797510
0.784993
0.662804
0.801682
0.656843
0.471473
0.635982
0.791550
0.726581
0.713468
0.850558
0.792742
0.648499
0.717640
0.912547
0.767708
0.833869
0.835657
0.906587
0.833869
0.997782
0.957847
0.942945
0.963807
1.024604
1.120567
1.100898
1.164675
1.170635
1.291633
1.230836
1.340508
1.358986
1.566410
1.509786
1.731515
1.828671
1.874566
2.008677
2.384782
2.453923
2.670884
3.331900
5.040765
37.932992
132.523775
415.006876
743.484497
1016.016603
1016.016603
1016.016603
1016.016603
1016.016603
1016.016603
1016.016603
1016.016603
901.897550
547.668934
243.245959
105.171800
28.331876
15.404820
13.567805
13.418794
13.912916
14.317632
15.794635
18.170476
23.516417
29.253960
38.299561
47.520995
60.913563
69.161654
77.608824
79.482794
78.446865
73.814988
63.252449
55.575967
45.308471
38.878918
33.503771
##ZVALUE=355
0.520945
0.600815
0.437498
0.556707
0.433922
0.399947
0.486970
0.550747
0.482798
0.418425
0.532866
0.613928
0.631809
0.576973
0.520945
0.515580
0.490546
0.434518
0.648499
0.665784
0.705719
0.692606
0.710487
0.607967
0.657439
0.753999
0.769496
0.693798
0.661612
0.725985
0.791550
0.566840
0.700951
0.653863
0.920892
0.850558
0.991821
1.023412
0.796914
0.729561
1.089573
0.895858
1.186728
1.018643
1.047850
1.174808
1.222491
1.344681
1.339912
1.557469
1.491904
1.631975
1.772642
1.936555
2.279878
2.437830
2.743602
2.966523
3.565550
17.172694
65.121055
244.879723
497.142673
954.957604
1015.888453
1015.888453
1015.888453
1015.888453
1015.888453
1015.888453
1015.888453
995.959640
663.400888
297.962427
144.365430
42.719841
17.790794
12.799501
12.539625
12.915730
12.804866
13.737679
14.735460
17.280579
19.725561
26.559830
33.264756
43.069720
52.643418
62.175989
68.303943
72.906613
71.378946
66.324472
59.833527
50.564408
##ZVALUE=360
0.634789
0.548959
0.385642
0.480413
0.494719
0.514984
0.503659
0.582933
0.414848
0.534654
0.588894
0.594854
0.536442
0.589490
0.772476
0.622869
0.617504
0.530481
0.575781
0.553727
0.679493
0.692606
0.572801
0.514984
0.749826
0.720620
0.779629
0.827909
0.805855
0.678897
0.829697
0.798702
0.839829
0.791550
0.789762
0.858903
0.817776
0.968575
0.805855
0.899434
1.013875
0.962615
1.026988
1.189709
1.095533
1.230836
1.107454
1.323819
1.391768
1.537800
1.483560
1.615882
1.660585
1.927614
1.951456
2.194643
2.302527
2.501607
2.713799
3.187656
3.707409
7.198453
28.577447
139.404535
318.938494
729.766488
1015.888453
1015.888453
1015.888453
1015.888453
1015.888453
1015.888453
1015.888453
1015.888453
774.003863
365.799665
185.192823
63.672662
25.582910
12.762547
12.165904
12.025833
12.116432
12.014508
12.632608
13.384819
14.524460
17.503500
21.546483
28.303862
35.475492
45.606494
53.579807
61.350465
64.534545
65.319538
##ZVALUE=365
0.391603
0.433922
0.437498
0.588894
0.494719
0.478625
0.498891
0.542998
0.492930
0.496507
0.610948
0.423789
0.631809
0.668764
0.579953
0.491738
0.575781
0.568628
0.630617
0.576973
0.601411
0.722408
0.685453
0.727773
0.701547
0.746846
0.529885
0.587702
0.711679
0.674725
0.714660
0.813603
0.853539
0.719428
0.824928
0.888705
0.905991
0.819564
0.861883
1.008511
1.008511
0.884533
1.016855
0.902414
1.071692
1.124740
1.138449
1.204610
1.168847
1.249909
1.222491
1.251698
1.275539
1.444817
1.413822
1.923442
1.733899
2.004504
2.120733
2.336502
2.369881
2.860427
3.281832
4.039407
8.748770
56.350827
165.249705
453.913808
837.736726
1015.888453
1015.888453
1015.888453
1015.888453
1015.888453
1015.888453
1015.888453
965.015888
528.957844
280.481577
96.956491
36.656857
13.110638
11.042953
10.889769
10.682940
11.089444
10.937452
11.145473
11.563897
12.798905
14.800429
18.671751
23.317933
31.557679
38.709641
48.013926
##ZVALUE=370
0.456572
0.321865
0.419617
0.502467
0.427961
0.580549
0.573993
0.395775
0.379682
0.439882
0.495911
0.529885
0.406504
0.602603
0.464916
0.424981
0.505447
0.568628
0.567436
0.482798
0.481606
0.581741
0.687838
0.695586
0.570416
0.492930
0.494719
0.504851
0.485778
0.624657
0.639558
0.511408
0.663996
0.644922
0.738502
0.719428
0.750422
0.876784
0.742674
0.704527
0.820756
0.772476
0.883937
0.883937
0.852942
0.932813
0.897646
0.965595
0.966787
1.020432
0.896454
0.820756
1.173615
1.215935
1.116991
1.368523
1.388788
1.359582
1.496673
1.547933
1.734495
2.064705
2.173781
2.452731
2.626777
3.363490
4.694462
25.611520
86.553693
288.999677
548.750758
994.321704
1015.883684
1015.883684
1015.883684
1015.883684
1015.883684
1015.883684
1015.883684
652.029514
359.068513
135.884881
60.631633
19.808412
11.207461
9.977818
9.874701
9.775758
9.830594
9.697676
10.036826
10.628700
11.189580
13.446808
16.065836
21.343827
##ZVALUE=375
0.432730
0.490546
0.435710
0.304580
0.280738
0.375509
0.335574
0.400543
0.375509
0.481606
0.344515
0.489950
0.363588
0.407696
0.404716
0.461936
0.527501
0.385642
0.676513
0.535846
0.482798
0.588894
0.433922
0.470877
0.497699
0.432730
0.492930
0.584722
0.506639
0.564456
0.517964
0.631809
0.723600
0.805855
0.619888
0.547767
0.576973
0.739694
0.647902
0.625849
0.765920
0.751615
0.776649
0.692606
0.738502
0.883937
0.742674
0.802875
0.797510
0.791550
0.980496
0.856519
0.935793
0.870824
1.020432
1.100898
1.192689
1.327991
1.222491
1.414418
1.323819
1.551509
1.642704
1.915693
1.991987
2.254844
2.527833
2.937913
3.640652
13.498664
49.848557
183.927417
399.433970
890.887976
1015.880704
1015.880704
1015.880704
1015.880704
1015.880704
1015.880704
1015.880704
853.836536
526.244640
251.826644
121.833682
36.887527
14.415979
9.330511
9.041429
9.246469
9.065866
9.196997
9.182692
9.246469
10.023713
10.415912
##ZVALUE=380
0.240803
0.237823
0.260472
0.212789
0.331998
0.305772
0.242591
0.289679
0.153780
0.371933
0.387430
0.219941
0.208616
0.370741
0.245571
0.338554
0.180602
0.485778
0.305772
0.274777
0.277758
0.492930
0.345707
0.286698
0.417829
0.308752
0.181794
0.355840
0.358820
0.305772
0.261664
0.386834
0.290871
0.367761
0.459552
0.411868
0.382662
0.337958
0.419617
0.444651
0.567436
0.474453
0.589490
0.623465
0.756979
0.601411
0.579953
0.650883
0.531673
0.547767
0.728965
0.742674
0.784993
0.791550
0.722408
1.022816
0.884533
0.874996
0.964999
1.001954
0.881553
1.102686
1.024604
1.221895
1.498461
1.444817
1.751781
2.040863
2.282858
2.687573
3.103614
6.088614
23.387671
116.975904
281.953812
686.103702
1015.738845
1015.738845
1015.738845
1015.738845
1015.738845
1015.738845
1015.738845
1015.738845
742.541552
354.431868
176.132917
56.760907
21.399856
9.510517
8.111000
7.996559
7.836819
8.097887
8.347631
8.318424
##ZVALUE=385
0.225902
0.140667
0.203848
0.198483
0.275970
0.175834
0.284910
0.218749
0.273585
0.028610
0.181794
0.213981
0.296831
0.177622
0.029802
0.357628
0.254512
0.232458
0.327826
0.337958
0.373721
0.279546
0.290871
0.298619
0.150800
0.179410
0.279546
0.276566
0.274777
0.280738
0.528693
0.171661
0.262856
0.293851
0.384450
0.380874
0.245571
0.318885
0.307560
0.298619
0.362992
0.434518
0.513792
0.432730
0.542998
0.534654
0.415444
0.491738
0.463724
0.409484
0.520945
0.512600
0.595450
0.600815
0.696778
0.665784
0.864863
0.843406
0.727773
0.916719
0.679493
0.942945
0.973940
1.033545
1.161695
1.222491
1.321435
1.666546
1.776814
2.154708
2.237558
2.678633
2.802610
3.646612
10.122657
60.165524
159.120560
417.282581
759.853721
1015.737653
1015.737653
1015.737653
1015.737653
1015.737653
1015.737653
1015.737653
945.478678
498.011708
274.152756
106.729865
40.395856
11.313558
7.575750
7.505417
7.214546
7.280707
##ZVALUE=390
0.343919
0.338554
0.252724
0.283718
0.397563
0.354648
0.303984
0.275970
0.276566
0.306964
0.313520
0.280738
0.396967
0.429749
0.350475
0.435710
0.197887
0.495911
0.419617
0.398755
0.426769
0.439882
0.315905
0.407696
0.496507
0.348687
0.348687
0.452995
0.289679
0.487566
0.296831
0.530481
0.515580
0.388622
0.434518
0.516772
0.550747
0.496507
0.527501
0.344515
0.429749
0.533462
0.572801
0.504851
0.596642
0.478625
0.499487
0.659823
0.654459
0.669956
0.520945
0.764728
0.673532
0.751615
0.728965
0.677705
0.841618
0.805855
0.839829
0.841618
0.972748
0.965595
0.880957
1.031756
1.284480
1.354814
1.267791
1.359582
1.814961
1.979470
2.046824
2.229810
2.312660
2.409816
2.666712
2.913475
5.172491
32.125711
101.992488
313.676596
598.400831
1015.888453
1015.888453
1015.888453
1015.888453
1015.888453
1015.888453
1015.888453
1015.888453
735.500455
419.371724
163.357854
69.139600
17.307997
8.483529
7.175803
##ZVALUE=395
0.236630
0.289679
0.347495
0.383854
0.187755
0.235438
0.312924
0.145435
0.241995
0.209808
0.321865
0.246763
0.243783
0.294447
0.299811
0.443459
0.334978
0.498891
0.382662
0.299811
0.356436
0.359416
0.283718
0.193715
0.406504
0.351667
0.452995
0.298619
0.322461
0.434518
0.283718
0.463724
0.445843
0.396967
0.235438
0.443459
0.511408
0.447631
0.400543
0.590682
0.548959
0.511408
0.435710
0.673532
0.466704
0.519753
0.486970
0.561476
0.620484
0.602603
0.630617
0.647902
0.620484
0.689626
0.567436
0.700951
0.648499
0.690818
0.763535
0.813603
0.953674
0.992417
0.982881
0.895858
0.978708
1.161695
1.202822
1.407862
1.593828
1.675487
1.904964
2.086759
2.157688
2.143979
2.079606
2.228618
2.282858
2.712607
3.458858
18.652678
70.514679
244.655609
464.711785
874.491930
1015.870571
1015.870571
1015.870571
1015.870571
1015.870571
1015.870571
1015.870571
919.094682
557.161570
235.382915
107.961893
31.646490
##ZVALUE=400
0.322461
0.321865
0.316501
0.358820
0.264645
0.317693
0.254512
0.291467
0.273585
0.353456
0.370741
0.314713
0.350475
0.364780
0.261664
0.322461
0.204444
0.379682
0.342727
0.462532
0.370741
0.280738
0.363588
0.332594
0.440478
0.408888
0.300407
0.367761
0.496507
0.412464
0.460744
0.461936
0.499487
0.553727
0.410676
0.434518
0.548959
0.331998
0.388622
0.526905
0.430942
0.569820
0.413656
0.637770
0.570416
0.391603
0.591874
0.494719
0.539422
0.597835
0.451803
0.727773
0.678897
0.554919
0.808835
0.632405
0.757575
0.779629
0.840425
0.940561
0.874996
0.803471
0.873804
0.844598
0.859499
0.941753
1.198649
1.497865
1.475811
1.690984
1.712441
1.790524
1.712441
1.743436
1.813769
1.720786
1.979470
1.859665
2.148747
2.388954
2.980828
9.003878
34.884810
128.400922
278.900862
632.450581
983.068943
1015.886664
1015.886664
1015.886664
1015.886664
1015.886664
1015.886664
1015.886664
736.219883
361.239910
##END
