##TITLE=QP00651
##FORMAT=SPECTACLE-ASCII V-1.2
##DATA TYPE=ULTRAVIOLET SPECTRUM
##SECOND TYPE=ULTRAVIOLET SPECTRUM
##DATE=02/05/18
##TIME=14:08:02
##SPECTROMETER/DATA SYSTEM=SPECTACLE
##XUNITS=NM EM
##YUNITS=ENERGY
##YFACTOR=1
##FIRSTX=220
##LASTX=410
##NPOINTS=96
##3DDATA=Equidistant
##ZUNITS=NM EX
##FIRSTZ=210
##LASTZ=400
##ZPOINTS=39
##XYDATA=(Y..Y)
##ZVALUE=210
1.521707
1.942515
2.347827
2.221465
2.703667
2.695918
3.332496
2.559423
2.564788
3.200769
2.745986
2.333522
2.787709
3.001690
2.893806
2.683997
3.505945
2.932549
2.965927
3.183484
2.841949
3.777742
3.421903
3.682971
4.265904
3.642440
3.935695
4.425645
3.870726
4.352927
4.821420
4.806519
4.646778
5.588531
5.928874
5.888939
5.313754
5.455613
5.376935
5.143881
6.838441
5.750656
4.715919
5.169511
5.753636
5.958676
5.991459
6.681681
5.225539
6.015897
6.084442
6.438494
7.375479
7.082820
6.472468
7.623434
7.118583
7.169843
6.872416
7.532835
7.402897
8.145571
7.437468
7.105470
7.392764
7.987618
8.618832
10.386705
10.915995
12.891889
16.088486
18.639565
20.289421
21.688938
24.732947
25.992990
26.962757
25.167465
21.887422
22.006631
20.451546
18.382668
16.415715
13.584495
12.214780
10.643601
9.349585
8.563995
8.352995
7.982850
7.839799
8.068681
8.555651
8.021593
7.249713
7.808805
##ZVALUE=215
7.253885
6.683469
6.288886
5.769730
5.636811
4.476905
3.981590
4.439950
5.128980
5.017519
5.084872
4.623532
3.700852
4.018545
2.905726
3.438592
3.128648
3.519654
3.128648
2.969503
3.537536
4.052520
3.434420
4.141927
4.085898
4.113913
4.390478
4.178882
4.640818
5.052686
4.383922
5.254745
5.167723
5.626678
5.945563
5.770922
5.348921
5.532503
6.144643
5.813837
5.944967
6.235838
6.572604
6.046891
6.445646
7.130504
6.768703
5.802512
6.826520
7.071495
6.713867
6.722808
6.645918
6.460547
6.237626
7.759929
7.313490
7.479787
6.699562
7.061958
7.423759
7.785559
6.988645
7.740855
7.810593
8.420944
8.348823
9.207726
10.420680
12.012720
15.074611
16.324520
19.489527
19.130707
21.006465
21.104813
22.976995
24.546981
22.501945
20.384789
18.249750
17.225742
14.182925
14.016628
10.515451
10.082722
8.217692
8.744597
7.948875
7.656813
7.715821
6.580949
7.620454
7.074475
7.066727
6.082654
##ZVALUE=220
23.607612
22.161603
26.349425
24.423599
22.894740
19.060969
14.447570
11.943579
10.227561
10.437965
11.082888
11.116862
11.840463
10.339618
9.265542
6.925464
5.797744
4.797578
3.722906
3.658533
4.226565
3.995895
3.465414
4.162788
3.862977
3.953576
3.982782
4.704595
4.281998
4.510880
5.108714
5.346537
6.074905
5.724430
5.368590
6.446838
6.154776
6.086826
5.657673
6.439686
6.499887
6.978512
6.188750
6.242990
5.881786
6.418824
5.536675
6.593466
6.620884
7.396936
7.419586
7.565618
7.398725
6.676912
7.120967
7.230639
7.518530
7.028580
7.727742
7.484555
7.599592
6.918907
7.258654
7.184744
7.891655
8.312464
9.705424
9.048581
10.427833
12.556911
14.443994
15.152693
18.384457
18.438697
21.350980
22.409558
22.156835
22.615790
24.196506
20.511746
19.602776
19.143820
16.299486
14.412999
11.662841
10.904670
9.421706
8.214712
8.202791
7.437468
8.982420
7.678866
7.306933
8.220673
6.919503
6.807446
##ZVALUE=225
38.831830
40.085912
55.433512
66.795945
74.544549
75.519681
69.900751
58.033466
44.374466
34.074783
26.268959
23.799539
24.003983
23.636818
23.707747
24.544597
19.893646
15.775561
13.235807
8.637905
6.659627
5.123615
5.085468
4.621744
4.808903
5.218983
4.674792
5.509853
4.886985
5.207658
5.497932
6.057620
6.899834
6.547570
5.881786
7.206798
6.482601
6.252527
6.266832
7.414818
6.977916
6.359816
6.227493
7.253885
7.511973
7.242560
6.427765
7.585883
8.184910
8.060932
7.745624
7.490516
8.588433
7.682443
6.980896
8.349419
8.811951
7.451773
7.987618
7.698536
9.000897
8.165836
8.103848
8.168817
8.634925
8.612871
8.959770
10.278821
11.969805
13.186932
14.877915
16.539693
17.572641
19.245744
21.223426
22.325516
22.537708
21.595955
20.853877
19.155741
17.840862
16.161799
15.552640
12.610555
13.343692
11.158586
10.762811
11.477470
9.274483
9.720922
9.517670
8.631945
9.780526
9.018779
8.289814
9.198785
##ZVALUE=230
33.485889
39.067864
63.824654
103.677511
136.885643
173.877478
193.048716
202.657580
180.832744
144.633651
104.914904
76.970458
55.982471
45.525432
45.380592
48.727989
49.147606
47.651529
45.239925
39.011836
26.751757
18.818974
11.154413
8.661747
5.452633
6.197691
6.299615
6.028414
6.233454
7.090569
6.415844
6.746650
7.319450
6.983876
8.508563
7.589459
7.424951
7.379651
7.302761
7.302761
7.841587
8.148551
6.454587
8.460879
6.988645
7.802844
8.231997
7.048845
8.569956
8.229613
8.332729
9.462833
9.273887
8.764863
9.121895
9.455681
9.417534
8.770823
9.826422
9.967685
9.919405
9.428859
9.858608
10.032654
10.551810
10.867715
10.860562
13.526678
13.869405
14.243722
16.926527
19.263625
21.210909
23.265481
23.581982
26.249886
24.459958
24.981499
21.662712
21.729469
20.342469
18.383861
17.119646
16.252995
16.061664
13.936758
13.294816
12.982488
12.953877
12.422800
11.746883
13.402700
12.487769
11.721849
11.647940
12.466908
##ZVALUE=235
12.298822
11.968613
32.445788
65.466762
127.667785
187.471509
272.985697
345.605612
389.732718
396.863818
348.056555
294.793844
221.013427
144.418478
104.931593
77.009797
74.105859
78.401566
83.965659
82.431436
76.678991
66.836476
51.049590
38.757920
24.455786
16.975999
11.435747
9.622574
8.695722
8.272529
8.556843
8.316636
8.788705
8.092523
7.497668
8.460879
7.825494
8.460879
8.421540
8.060932
7.616878
8.220673
8.407831
8.395910
8.005500
9.135604
8.945465
9.307861
8.809566
8.185506
8.842945
9.345412
9.035468
8.965731
8.076429
9.728670
10.249615
10.237694
11.030436
10.657907
11.079907
12.314916
11.916757
11.805892
11.614561
13.112426
13.899803
15.029907
15.033484
18.553734
18.800497
21.390915
25.142431
25.759935
28.222799
28.262734
27.721524
25.143623
25.486946
24.734735
21.663904
21.252632
21.516681
19.770861
20.622611
18.139482
18.837452
16.346574
17.826557
16.312599
16.389489
16.035438
17.379522
14.821887
15.582442
16.174912
##ZVALUE=240
1.779795
1.696944
6.172657
15.858412
46.736598
96.331835
185.193419
288.999677
434.851646
532.056689
618.739724
612.929463
581.912994
476.396680
362.354517
233.713984
168.578625
114.389658
97.452998
103.366971
107.050538
116.232634
113.309622
104.072690
82.450509
67.527890
47.714710
34.914613
22.254586
14.833808
13.339520
9.874701
9.359717
9.851456
10.980964
10.323524
9.365678
9.331703
10.453463
8.973479
9.260774
8.806586
8.974671
8.980632
8.620620
8.432865
8.773804
8.402467
8.878708
10.012984
9.761453
9.324551
9.166598
9.078979
9.962916
10.208488
9.462833
11.312962
10.454655
10.519624
11.318922
12.460947
11.482835
11.717677
12.855530
12.158751
14.900565
16.719699
16.012788
19.695759
19.814968
24.152994
24.701953
26.929975
28.351545
31.013489
30.330420
28.219819
30.553937
28.434992
25.720000
26.086569
26.250482
23.033619
24.114847
22.405982
22.940636
21.478534
21.324754
19.231439
19.752979
20.625591
19.595623
18.839836
18.387437
19.013882
##ZVALUE=245
1.744628
1.516938
1.822710
1.461506
4.553795
12.560487
42.184591
88.306665
204.013586
313.747525
490.985513
627.864599
725.309849
776.541829
759.165883
625.185966
507.354736
345.151424
238.581896
143.692493
110.435486
102.881789
113.976002
128.178000
134.055614
129.438639
113.282800
98.719001
76.284409
56.952834
42.417645
24.673939
18.167496
12.809634
11.777878
10.667443
11.115670
11.116862
9.701848
9.826422
8.397698
8.517504
8.775592
8.864999
9.055734
7.789731
8.795857
7.417798
7.797480
8.133650
8.562803
9.027719
8.851886
8.680820
8.795857
9.241700
10.182858
9.742975
9.904504
10.146499
10.904670
10.800958
11.540651
11.702776
12.286901
13.307929
12.701750
15.922785
15.050769
18.989444
20.036697
22.766590
24.544001
26.756525
28.311610
30.186772
28.172731
27.626753
26.885867
27.480721
24.653673
23.426414
22.807717
22.423863
22.091866
21.247864
20.617843
20.600557
20.319819
20.333529
20.787716
19.766688
21.563768
21.693707
19.875765
19.764900
##ZVALUE=250
1.467466
1.387596
1.595616
1.676679
1.851916
1.543760
4.829764
19.482970
71.670413
143.661499
306.298733
465.480685
643.097758
846.914649
970.513821
1015.888453
1001.879573
865.151882
721.530914
496.600866
338.420868
220.799446
127.609968
104.913712
106.567740
123.209953
138.594508
142.907500
135.511756
124.744773
108.897686
82.165599
63.346624
39.178729
27.623773
15.283823
13.237596
10.072589
9.641647
9.795427
8.002520
9.325743
8.218884
8.048415
8.549690
7.961988
8.070469
7.745624
7.938743
7.446408
7.407665
8.101463
7.601976
8.652806
7.976890
8.298755
8.720756
8.446574
8.367896
8.908510
9.363890
9.466410
9.615421
10.232925
10.480881
11.172891
11.935830
12.693405
14.663935
16.189814
18.122792
20.148754
22.206903
23.335814
24.257898
24.523735
26.320815
25.618672
25.354624
23.390651
22.799969
22.153854
21.313429
21.488667
19.087791
19.202828
19.844770
19.419789
19.603968
18.462539
18.380880
19.201636
19.021630
19.008517
18.845797
18.005967
##ZVALUE=255
1.152754
1.165867
1.593828
1.486540
1.604557
1.431704
1.814961
2.451539
2.520680
8.537769
52.473545
131.863952
255.195498
500.922799
731.675625
1006.904840
1015.888453
1015.888453
1015.888453
1015.888453
949.184895
727.716684
448.129773
281.302929
151.250958
108.969808
97.024441
108.835697
131.720901
144.538879
148.793459
145.954490
133.179426
108.654499
86.598992
57.851672
38.410425
23.609996
16.250610
10.882616
8.508563
8.621812
7.801652
7.712841
8.363724
8.349419
7.064939
7.196665
6.561875
7.326603
7.413626
7.852912
7.275939
7.360578
7.305741
7.409453
6.445646
8.037686
8.159876
7.991791
8.338690
8.670688
8.712411
9.714961
9.359717
8.899570
9.946823
11.453629
11.880994
12.804866
14.520884
16.794801
19.194484
19.328594
19.715428
20.474792
21.042824
20.580888
20.736456
19.209981
19.224882
19.062757
17.427802
17.435551
17.689466
17.066598
16.817451
17.715693
17.106533
17.597675
16.528964
15.473962
16.877651
16.905665
17.556548
17.267466
##ZVALUE=260
1.313686
1.361966
1.400709
1.190901
1.341701
1.376867
1.573563
1.608729
1.634955
1.822710
1.919866
2.959967
9.511709
42.847991
102.999806
270.285606
458.074808
753.569007
984.292030
1015.983820
1015.983820
1015.983820
1015.983820
955.716968
623.677969
422.289968
232.493877
142.218471
88.072419
86.524487
110.544562
127.735734
144.820809
150.778890
150.831938
133.075714
112.217665
83.435774
61.693788
38.845539
24.732947
14.516711
9.288788
7.654428
7.144809
6.970763
6.658435
6.491542
6.331801
6.622672
6.316900
6.128550
6.487966
6.443858
6.276965
6.778836
6.669760
6.720424
7.049441
6.988645
7.178783
6.504655
7.787943
6.730556
7.860661
8.514524
8.616447
9.109974
9.901524
11.305809
11.541843
13.140440
14.417768
15.266538
16.546845
16.379952
15.727878
16.353726
15.874505
16.052723
16.420484
15.168786
14.961958
15.778542
15.387535
14.953613
15.417933
15.422702
14.649630
15.590787
16.003847
15.034676
15.380979
15.406609
15.703440
14.814734
##ZVALUE=265
0.978708
1.214743
1.039505
1.214743
1.191497
1.113415
1.263618
1.407862
1.275539
1.409650
1.346469
1.552701
1.603961
2.160668
6.387830
21.924973
79.302788
156.340003
280.728936
541.759729
777.267814
1015.888453
1015.888453
1015.888453
1015.888453
1015.888453
844.757557
544.766784
353.559852
179.939866
106.091499
75.870752
83.655715
112.919807
131.248832
151.237845
155.931711
149.223804
135.083795
105.758905
82.457662
52.982569
36.847591
22.387505
13.643503
7.628798
6.765723
5.807877
5.684495
5.839467
5.993843
6.206632
6.013513
6.246567
5.284548
6.173849
5.752444
5.782843
6.094575
6.371737
6.348491
6.545782
6.194711
6.726980
6.949902
8.072853
7.294416
8.456707
9.695888
10.079741
11.548996
11.581779
12.069941
14.317632
13.738871
14.141798
14.788508
14.135838
13.395548
13.969541
14.018416
13.207793
13.162494
13.173819
13.269782
13.536811
12.703538
14.215708
14.012456
14.432669
14.572740
14.474988
13.583899
13.810992
14.403462
14.194846
##ZVALUE=270
0.796914
0.693798
0.879765
0.860691
0.879765
0.928640
0.971556
1.151562
1.091957
0.980496
1.213551
1.337528
1.246929
1.589656
1.723766
1.782775
2.618432
13.311505
40.050745
124.084949
251.896977
433.802605
766.453743
1004.278660
1015.897989
1015.897989
1015.897989
1015.897989
994.291902
755.773783
525.842905
271.140933
149.469972
73.636770
65.769553
85.641742
109.150410
135.856867
148.789883
155.546665
150.732994
132.154822
110.861659
78.668594
57.957768
34.702420
23.278594
13.639927
9.013414
6.845593
6.034970
6.094575
5.994439
5.929470
6.133914
6.077886
6.009936
6.365776
6.595850
6.235838
6.305575
6.557703
6.559491
6.924868
6.682873
7.182956
7.772446
7.683635
8.067489
9.762645
10.652542
11.550784
12.182593
13.212562
12.731552
13.148785
12.929440
12.821555
13.349652
13.063550
12.730956
12.588501
11.807680
11.843443
12.548566
11.809468
11.845827
12.009740
12.470484
12.888908
12.643933
12.265444
13.023615
12.655854
12.667775
12.825727
##ZVALUE=275
0.822544
0.799894
0.844598
0.923872
0.819564
0.956655
1.031756
1.021624
1.112819
1.160502
0.985861
1.148582
1.018643
1.142621
1.546741
1.418591
1.784563
1.735687
1.969934
4.888773
20.773411
85.764527
183.765888
407.896042
658.516884
994.260907
1015.888453
1015.888453
1015.888453
1015.888453
1015.888453
957.857966
677.672625
368.396044
209.257007
92.437863
58.787465
59.754848
80.245733
110.666752
130.614638
150.562525
153.214931
145.909786
132.999420
106.059909
82.352757
56.446791
39.279461
22.631884
15.427470
9.031892
6.898642
6.159544
6.057620
5.723834
5.990863
6.536841
5.903840
6.211996
6.233454
6.726980
7.041693
6.627440
6.583929
6.938577
7.786751
8.101463
8.529425
9.588599
10.645986
10.596514
11.913776
12.351871
12.523532
13.069510
12.935996
12.032986
12.078881
11.879802
12.293458
11.488795
11.599660
10.791421
11.257529
11.555552
11.076927
11.274815
11.323690
11.247993
11.020899
11.130571
11.261702
11.258721
12.112856
11.610985
##ZVALUE=280
0.732541
0.888705
0.957847
0.769496
0.702739
0.942945
0.949502
0.837445
0.766516
1.068711
0.985861
0.842810
0.937581
1.177788
1.194477
1.466870
1.649857
1.603961
1.510978
1.833439
1.888871
2.585649
14.438629
49.614906
155.610442
294.334888
560.710430
825.569034
1015.879512
1015.879512
1015.879512
1015.879512
1015.879512
1015.880108
875.676870
501.096845
296.928883
122.862458
61.868429
44.064522
55.621862
82.463622
103.889704
130.843520
145.762563
152.179599
145.710707
127.941966
107.102990
78.854561
58.658719
36.520958
23.922920
14.112592
9.266734
6.562471
5.905628
6.023645
6.217957
6.168485
6.010532
6.337762
6.592870
6.291866
6.976724
7.232428
7.398725
7.405877
8.153915
8.720756
9.880662
10.070801
10.477901
10.939837
12.282729
11.470914
11.775494
10.677576
11.357665
10.993481
10.463595
10.164976
10.817647
10.990500
10.462999
10.708570
10.440946
10.947585
10.696650
10.667443
10.714531
10.582805
10.190606
10.613799
10.796785
11.056662
##ZVALUE=285
0.661612
0.597835
0.627637
0.644922
0.563860
0.710487
0.652671
0.701547
0.696778
0.800490
0.897646
0.979900
0.808835
0.729561
0.905991
0.996590
1.075864
1.147985
1.378655
1.384616
1.442432
1.451969
1.624823
1.970530
7.218719
25.433898
87.276697
184.140801
406.703949
658.050776
946.637988
1015.775800
1015.775800
1015.775800
1015.775800
1015.775800
1015.585661
664.191842
416.296721
190.997720
94.203949
38.987994
36.453605
55.213571
73.665977
106.042624
122.841597
140.980482
144.593716
142.442584
129.968524
104.646683
84.997416
57.668686
40.276647
22.210479
14.411807
9.691715
7.087588
6.427765
5.912781
6.206632
6.428957
6.269813
6.627440
6.465912
6.658435
7.318854
7.416606
8.215904
8.620620
9.938478
10.363460
10.410547
10.951757
11.382699
11.055470
11.155605
10.587573
10.317564
10.196567
10.061860
10.458827
10.249615
10.127425
9.632707
9.630919
10.146499
10.395646
10.317564
10.072589
9.942651
10.135770
9.998679
10.204911
9.684563
##ZVALUE=290
0.537634
0.585914
0.405908
0.713468
0.651479
0.811815
0.568628
0.754595
0.613928
0.799894
0.729561
0.795722
0.891685
0.796914
0.980496
0.849962
0.904799
1.001954
1.013875
1.064539
1.155734
1.408458
1.532435
1.691580
1.803637
2.072453
3.401637
10.314584
52.359700
123.786926
246.616602
518.378615
805.530548
1015.861034
1015.861034
1015.861034
1015.861034
1015.861034
1015.861034
851.706862
570.291877
284.589529
146.832466
54.047704
29.629469
35.173893
48.666000
71.841478
92.547536
118.601918
133.927464
141.919851
138.626695
126.394629
107.381940
77.782869
59.013963
38.444996
24.895668
14.594793
10.038614
7.284880
7.196665
6.540418
6.709695
7.091761
6.998777
7.242560
7.374883
8.512735
8.914471
9.099841
10.152459
10.060668
10.975599
10.222793
10.143518
10.317564
10.308623
10.060668
9.802580
9.681582
9.885430
10.209680
9.719729
10.268688
9.590983
10.332465
10.540485
10.145903
10.106564
9.890795
10.115504
10.503531
9.923577
9.991527
##ZVALUE=295
0.651479
0.520945
0.419617
0.462532
0.517964
0.429749
0.495911
0.426769
0.511408
0.529885
0.525713
0.456572
0.733733
0.731945
0.760555
0.764728
0.837445
0.762939
0.785589
0.851750
0.630617
0.948906
0.998974
0.983477
1.226664
1.297593
1.599789
1.918674
2.130866
4.567504
17.894506
80.864429
182.653666
429.822803
689.861774
1015.727520
1015.727520
1015.727520
1015.727520
1015.727520
1015.727520
984.953642
697.817802
372.633934
203.896761
75.575709
35.256743
22.576451
29.564500
47.256947
65.125823
91.103911
108.770728
128.420591
135.527849
130.255818
119.528770
98.747611
80.660582
54.365993
39.320588
23.995638
16.067624
10.572672
8.354783
7.150769
7.207990
7.334948
7.539988
8.075833
8.632541
9.341836
9.614825
10.601878
10.461807
10.536909
10.499954
9.659529
9.692907
10.409951
9.836555
10.138750
10.018945
9.674430
9.702444
10.277629
9.576678
9.932518
10.304451
9.619594
10.107756
9.970665
9.434819
9.673834
9.529591
9.392500
##ZVALUE=300
0.519753
0.570416
0.588894
0.627637
0.602603
0.591874
0.678897
0.706911
0.622869
0.691414
0.739694
0.563860
0.804663
0.630617
0.807643
0.692606
0.735521
0.837445
0.955462
0.990629
0.942945
0.874996
1.014471
1.030564
1.254678
1.250505
1.529455
1.430511
1.656413
1.933575
2.052784
2.799630
7.921457
48.918724
126.443505
328.989029
564.152598
960.975885
1015.889645
1015.889645
1015.889645
1015.889645
1015.889645
1015.889645
852.328539
474.199653
278.466940
118.287802
52.684546
20.465851
18.469691
28.068423
39.652586
62.249899
80.704689
106.230974
119.675994
128.635764
126.293898
114.688873
101.067424
75.265765
57.880878
39.685965
26.403666
16.038418
12.002587
9.459853
8.700490
9.005666
8.992553
9.509921
9.841919
10.168552
10.359883
10.385513
10.392666
10.101795
10.240674
10.121465
10.371804
10.182858
10.373592
9.733438
10.153651
10.187626
10.418892
10.282993
9.954572
10.209680
10.207891
9.707808
9.550452
9.292960
9.726882
9.818673
##ZVALUE=305
0.693798
0.549555
0.522733
0.611544
0.667572
0.463724
0.377893
0.589490
0.668764
0.641942
0.553727
0.804663
0.611544
0.602603
0.759959
0.866652
0.866652
0.846982
0.815988
0.762939
0.935793
0.668764
0.948906
0.810623
0.951886
1.071692
1.258850
1.184940
1.385808
1.580715
1.669526
2.001524
2.071857
2.411604
5.963445
24.312735
99.739432
219.334960
508.440733
801.236629
1015.888453
1015.888453
1015.888453
1015.888453
1015.888453
1015.888453
998.120904
720.417500
374.321938
197.009444
69.601536
29.016733
14.899969
17.559528
26.496649
38.680434
60.375929
77.350736
98.164678
112.378597
121.773481
121.793747
110.052824
95.768571
73.861480
57.096481
38.110614
26.653409
17.186999
12.759566
10.276437
10.219812
10.125637
9.929538
9.843707
10.212660
10.428429
10.006428
10.515451
10.522604
10.391474
10.649562
10.437965
10.937452
10.451674
10.618567
10.684729
10.417700
10.031462
9.905696
10.203719
9.810925
9.940863
10.238886
9.816885
9.579659
##ZVALUE=310
0.508428
0.669956
0.619888
0.662804
0.540614
0.370741
0.684857
0.729561
0.628829
0.745654
0.589490
0.803471
0.508428
0.702739
0.641942
0.709891
0.631809
0.761747
0.741482
0.711679
0.885725
0.788569
0.851750
0.874996
1.074672
1.043677
1.138449
1.145601
1.099706
1.294613
1.364946
1.451969
1.489520
1.926422
1.864433
2.315640
2.751946
12.758970
44.411421
153.815746
306.770802
637.639761
957.093835
1015.888453
1015.888453
1015.888453
1015.888453
1015.888453
1015.888453
898.023844
602.715611
295.376778
151.485801
48.710704
19.066930
12.655854
15.465617
24.089813
34.264922
52.982569
69.568753
91.244578
105.745792
114.443898
116.588473
106.777549
92.916489
73.925853
56.599975
37.723780
27.902722
19.305944
14.701486
11.795759
11.165738
10.757446
10.568500
10.395646
9.799600
10.451674
10.380745
10.225773
10.509491
10.587573
10.677576
10.480881
10.554790
10.416508
10.215640
10.439754
10.163784
10.186434
10.319948
9.941459
9.679794
9.915829
##ZVALUE=315
0.638962
0.403523
0.578761
0.660419
0.501871
0.443459
0.315905
0.549555
0.494719
0.577569
0.506639
0.537634
0.699759
0.530481
0.745654
0.670552
0.608563
0.598431
0.685453
0.637770
0.776649
0.798702
0.744462
0.818968
0.838637
0.795722
1.083612
1.036525
1.028776
1.190901
1.043677
1.185536
1.357794
1.549721
1.618862
1.741648
1.900792
2.290606
2.418756
5.954504
23.683906
102.629662
235.242844
540.930629
860.798955
1015.888453
1015.888453
1015.888453
1015.888453
1015.888453
1015.888453
1015.888453
763.337016
391.687751
206.169486
71.654916
27.554631
12.128949
11.666417
14.931560
21.036863
34.242868
46.845675
66.435933
83.235502
100.566745
108.861923
109.544992
103.125572
87.399483
72.498918
53.496957
39.899945
26.215911
19.632578
14.385581
12.154579
10.991693
10.018945
10.249615
10.268688
10.538697
10.398626
10.311604
10.224581
10.702610
10.717511
10.803938
10.606647
10.380745
10.421872
10.701418
10.192990
9.869933
10.051727
9.936690
##ZVALUE=320
0.510812
0.522733
0.321865
0.540614
0.465512
0.311732
0.577569
0.441670
0.504851
0.571609
0.498891
0.465512
0.664592
0.515580
0.657439
0.480413
0.594854
0.545979
0.725985
0.589490
0.731945
0.659823
0.783801
0.658631
0.738502
0.930429
0.895858
0.923872
0.891685
0.936985
0.987649
1.182556
1.247525
1.284480
1.352429
1.370907
1.450777
1.650453
1.991987
1.982450
2.348423
3.287792
11.309981
64.279437
159.999728
406.193733
667.776465
1015.888453
1015.888453
1015.888453
1015.888453
1015.888453
1015.888453
1015.888453
982.465744
553.945899
308.643579
126.551986
53.508878
15.918612
10.281801
10.911822
13.305545
20.054579
28.988719
44.711828
59.485435
79.347491
93.225837
103.875995
105.003715
99.959970
89.742541
69.799423
54.264665
36.943555
27.351975
18.903613
14.662743
11.671782
10.646582
10.567904
10.548830
10.412931
10.475516
10.350943
10.780692
10.826588
10.281801
10.311604
10.138750
10.279417
10.196567
10.004640
10.168552
9.845495
##ZVALUE=325
0.340939
0.406504
0.379682
0.492930
0.341535
0.481606
0.541806
0.501871
0.587702
0.579953
0.488758
0.541806
0.632405
0.570416
0.569820
0.531673
0.608563
0.632405
0.521541
0.734925
0.611544
0.597835
0.622869
0.793934
0.850558
0.823736
0.732541
0.728965
0.973940
0.855923
1.047850
0.968575
1.247525
1.103878
1.197457
1.381636
1.074672
1.376867
1.573563
1.487732
1.725554
2.016425
2.136827
2.678633
6.186962
40.662885
108.282566
284.876823
503.813624
940.991640
1015.895605
1015.895605
1015.895605
1015.895605
1015.895605
1015.895605
1015.895605
716.255903
435.046554
186.896920
84.995627
24.867654
11.865497
9.709001
10.437965
13.760924
18.794537
30.128956
41.917562
60.248971
74.806809
90.816617
98.339915
99.988580
92.715621
79.005957
65.948963
48.622489
36.675930
24.958849
18.823743
13.975501
11.921525
11.344552
10.632873
10.223985
10.189414
10.468960
10.560751
10.424852
9.933710
10.104775
9.870529
9.996891
9.723902
9.930730
##ZVALUE=330
0.446439
0.373721
0.417829
0.538826
0.451803
0.606775
0.428557
0.551939
0.313520
0.428557
0.383854
0.516772
0.411868
0.428557
0.499487
0.506639
0.679493
0.666976
0.657439
0.595450
0.631809
0.806451
0.536442
0.493526
0.816584
0.646710
0.634789
0.740886
0.478625
0.745654
0.686646
0.780821
0.886917
1.021624
0.755787
1.007915
0.983477
1.189709
1.067519
1.382828
1.333952
1.525879
1.601577
1.816750
2.095699
2.251863
3.261566
18.133521
59.200525
195.857882
381.734967
762.325525
1015.889645
1015.889645
1015.889645
1015.889645
1015.889645
1015.889645
1015.889645
857.707858
555.966496
261.606574
129.903555
43.329597
16.667843
9.549856
9.641647
10.567904
13.409853
20.076632
27.728677
41.868687
55.871606
73.256493
84.846616
92.733502
95.449686
87.674856
77.189803
59.999824
47.028661
33.319592
25.366545
18.325448
14.807582
12.313724
10.976791
10.132790
10.093451
10.046959
9.830594
9.449720
9.728670
9.567738
9.488463
9.433627
##ZVALUE=335
0.375509
0.434518
0.208616
0.323653
0.367761
0.364780
0.270605
0.640750
0.422597
0.477433
0.463724
0.409484
0.505447
0.595450
0.527501
0.511408
0.488758
0.544786
0.564456
0.584722
0.420809
0.460744
0.394583
0.510812
0.524521
0.625849
0.665784
0.771880
0.661612
0.721812
0.703931
0.683665
0.975728
0.861883
1.029968
0.858903
0.982881
0.988841
1.069903
1.094937
1.146793
1.173615
1.292825
1.460910
1.488924
1.810789
1.971722
2.138615
2.296567
7.904768
30.969977
119.670630
250.275731
552.786589
895.756483
1015.888453
1015.888453
1015.888453
1015.888453
1015.888453
1015.888453
974.556804
662.410855
338.027477
173.125863
54.994822
21.354556
10.517836
9.332895
9.651780
10.757446
13.661981
18.507838
28.466582
38.263798
54.391623
66.262484
79.647899
86.123943
87.223649
82.525611
71.010590
59.681535
44.891834
35.308599
24.813414
18.636584
13.815761
12.330413
10.280609
9.838939
9.904504
9.547472
9.439588
9.124875
9.304881
##ZVALUE=340
0.433922
0.299811
0.424981
0.376701
0.274777
0.389814
0.483990
0.474453
0.474453
0.456572
0.466704
0.514984
0.407696
0.493526
0.375509
0.409484
0.501871
0.496507
0.501871
0.549555
0.378489
0.347495
0.536442
0.380874
0.475645
0.537634
0.533462
0.693798
0.590682
0.623465
0.788569
0.857711
0.703931
0.748634
0.764728
0.634789
0.837445
0.889897
0.987649
0.902414
0.702739
1.013875
1.000762
1.271963
1.298785
1.160502
1.605749
1.701713
1.934767
2.043843
2.271533
3.311634
18.705726
62.659979
199.282765
388.666391
788.982511
1015.889645
1015.889645
1015.889645
1015.889645
1015.889645
1015.889645
1015.889645
779.562593
480.562449
215.953588
100.055933
27.471781
12.401938
9.555817
9.699464
9.540915
10.903478
13.221502
17.187595
26.319623
35.328865
50.678849
63.151717
75.649619
80.809593
82.192421
78.574419
68.537593
58.535933
43.825507
34.537911
24.216771
18.232465
13.861656
11.523962
9.925961
9.621978
9.397864
9.195805
##ZVALUE=345
0.255704
0.338554
0.469685
0.438690
0.416636
0.248551
0.213981
0.390410
0.314713
0.324845
0.423789
0.275970
0.580549
0.351667
0.399947
0.430942
0.468493
0.438690
0.463724
0.516772
0.446439
0.584722
0.472665
0.425577
0.501871
0.635982
0.559688
0.522733
0.599623
0.820756
0.704527
0.724792
0.734925
0.654459
0.706911
0.726581
0.575781
0.730753
0.696778
0.736713
1.085997
0.996590
1.196861
1.085997
1.180768
1.148582
1.350641
1.543760
1.503825
1.703501
1.661777
2.090931
2.187490
2.667904
6.960630
43.962598
118.895769
314.705372
561.684966
980.522633
1015.888453
1015.888453
1015.888453
1015.888453
1015.888453
1015.889049
953.135490
554.898977
307.775736
117.453933
50.959587
16.970634
10.710955
9.566545
9.360909
9.199977
9.989738
12.249947
16.034842
24.421811
33.554435
47.593713
58.129430
68.029761
73.732734
75.701475
72.604418
64.770579
56.056976
44.011474
34.500957
23.249984
17.920732
13.631582
11.388659
9.785891
##ZVALUE=350
0.384450
0.405908
0.353456
0.349879
0.420809
0.380874
0.425577
0.399947
0.298619
0.435710
0.461936
0.397563
0.353456
0.403523
0.446439
0.530481
0.465512
0.485778
0.409484
0.614524
0.566840
0.428557
0.578761
0.367761
0.515580
0.645518
0.479817
0.607967
0.546575
0.586510
0.590682
0.718832
0.612736
0.533462
0.597835
0.566840
0.814795
0.795722
0.570416
0.905991
0.725985
0.921488
0.766516
0.983477
0.721812
1.087785
0.970960
1.314878
1.157522
1.432896
1.507998
1.741648
1.780987
1.799464
2.260804
2.502799
4.072785
27.631521
85.760951
257.031918
469.123721
892.910957
1015.889645
1015.889645
1015.889645
1015.889645
1015.889645
1015.889645
1015.889645
690.890551
419.207811
190.925002
84.419847
23.003817
11.513829
9.517670
8.864999
8.662939
8.554459
9.571910
11.580586
16.122460
21.527410
30.808449
39.128661
51.984787
60.478449
67.584515
69.595575
67.708492
62.198639
51.339865
42.704940
30.961633
24.036765
17.057657
##ZVALUE=355
0.562668
0.486970
0.573993
0.489950
0.423789
0.456572
0.623465
0.493526
0.414848
0.587702
0.545979
0.519753
0.575781
0.535846
0.459552
0.541806
0.647902
0.522733
0.490546
0.576973
0.571609
0.456572
0.536442
0.511408
0.562668
0.486970
0.631809
0.585914
0.684857
0.651479
0.656843
0.717640
0.807643
0.596642
0.606775
0.807643
0.660419
0.765920
0.748634
0.828505
0.890493
0.842810
0.859499
1.020432
0.973940
1.125932
1.115799
1.186728
1.385808
1.379848
1.236796
1.498461
1.393557
1.609921
1.700521
2.070665
2.301931
2.534986
3.016591
14.160872
60.528517
229.691863
449.748635
876.944661
1015.883684
1015.883684
1015.883684
1015.883684
1015.883684
1015.883684
1015.883684
831.238031
516.999960
221.146941
103.126764
29.936433
12.745857
8.779764
8.379817
8.103848
8.166432
8.386970
8.732677
10.904670
13.361573
19.060969
25.473833
36.149621
44.304729
54.321885
60.223937
64.008832
62.608719
57.068467
49.553514
40.293932
##ZVALUE=360
0.484586
0.346899
0.546575
0.538826
0.583529
0.405908
0.589490
0.405908
0.462532
0.404716
0.479817
0.600815
0.395775
0.631809
0.472665
0.667572
0.600815
0.567436
0.564456
0.648499
0.436902
0.677705
0.627637
0.580549
0.700951
0.696778
0.621676
0.640750
0.530481
0.806451
0.971556
0.714660
0.656843
0.717640
0.652671
0.777841
0.759959
0.891685
0.979900
0.866652
1.008511
0.856519
0.945926
1.061559
1.032948
1.013875
1.099706
1.096725
1.118779
1.200438
1.383424
1.308918
1.456738
1.597404
1.478791
1.699924
1.849532
1.850724
2.142787
2.412796
2.995729
4.265904
24.635792
85.198879
284.159780
553.433895
1010.212898
1015.888453
1015.888453
1015.888453
1015.888453
1015.888453
1015.888453
1015.888453
648.486018
375.818610
146.101713
60.040951
16.555786
9.571910
8.238554
8.153915
7.754564
7.704496
7.428527
7.971525
9.097457
10.993481
16.024709
21.249652
30.505657
38.325787
48.400760
53.590536
57.431459
57.265759
##ZVALUE=365
0.427961
0.488758
0.525713
0.345707
0.338554
0.501871
0.547767
0.439882
0.488758
0.311732
0.418425
0.389814
0.435710
0.385642
0.340939
0.577569
0.542998
0.579953
0.511408
0.611544
0.626445
0.590682
0.586510
0.519753
0.592470
0.657439
0.643730
0.741482
0.712872
0.756979
0.685453
0.718832
0.615716
0.839829
0.537634
0.623465
0.685453
0.694990
0.788569
0.847578
0.925660
0.918508
0.897646
0.837445
0.859499
0.879765
0.969768
0.872612
1.000762
1.127720
1.171827
1.219511
1.267791
1.405478
1.543760
1.563430
1.450777
1.688600
1.716614
2.001524
2.111793
2.577901
2.819896
3.371835
9.827614
37.362576
147.458911
324.009657
739.549994
1015.888453
1015.888453
1015.888453
1015.888453
1015.888453
1015.888453
1015.888453
908.496380
548.765659
228.047967
101.591945
26.421547
11.591911
8.201599
7.718801
7.179976
7.163882
6.726980
6.909966
7.248521
7.728934
9.556413
12.768507
18.451810
24.472475
33.753514
40.080547
##ZVALUE=370
0.604987
0.442863
0.361800
0.646710
0.451803
0.514984
0.547767
0.523925
0.505447
0.633597
0.604987
0.533462
0.486970
0.536442
0.508428
0.544786
0.565648
0.567436
0.679493
0.557899
0.668764
0.634789
0.588894
0.761747
0.626445
0.703931
0.628829
0.710487
0.635982
0.860691
0.808835
0.745654
0.705719
0.893474
0.887513
0.679493
0.720620
0.743866
0.884533
0.729561
0.869632
0.803471
0.865459
0.880957
1.071692
0.936985
1.106858
0.899434
1.043677
1.015663
1.032948
1.087785
1.077652
1.117587
1.096725
1.372695
1.349449
1.456738
1.567602
1.589656
1.573563
1.830459
2.216697
2.408624
2.301931
2.834797
4.199743
22.031665
75.513721
253.551602
479.089618
924.035907
1016.001701
1016.001701
1016.001701
1016.001701
1016.001701
1016.001701
993.909836
555.756688
300.074816
113.380551
51.063895
16.688704
8.774996
7.156730
7.044673
6.525517
6.467700
6.072521
6.066561
6.271601
7.068515
8.641481
10.976791
15.847683
##ZVALUE=375
0.263453
0.384450
0.450611
0.349879
0.415444
0.567436
0.495911
0.544786
0.373721
0.336766
0.335574
0.382662
0.394583
0.231862
0.245571
0.416636
0.418425
0.515580
0.287890
0.313520
0.433922
0.474453
0.527501
0.492930
0.614524
0.461936
0.549555
0.475645
0.483990
0.525713
0.464916
0.489950
0.523925
0.405908
0.601411
0.538826
0.517964
0.520945
0.607967
0.740886
0.564456
0.654459
0.627637
0.639558
0.682473
0.567436
0.770688
0.782609
0.669956
0.672936
0.784993
0.683665
0.765920
0.826716
0.866652
1.009703
1.024604
0.985861
1.118779
1.033545
1.049638
1.198649
1.360774
1.488924
1.631975
1.840591
1.962781
2.382994
2.808571
9.698868
35.392642
138.771534
318.330526
724.632740
1015.889645
1015.889645
1015.889645
1015.889645
1015.889645
1015.889645
1015.889645
680.520535
424.171686
205.555558
99.776983
29.365420
11.417866
6.753802
6.374717
6.112456
6.036758
5.748868
5.400777
5.403757
5.681515
6.072521
##ZVALUE=380
0.391603
0.397563
0.242591
0.389814
0.179410
0.398755
0.416636
0.383854
0.254512
0.492930
0.309944
0.208616
0.183582
0.328422
0.280738
0.289679
0.410676
0.437498
0.357628
0.371933
0.355840
0.430942
0.287890
0.345707
0.366569
0.472665
0.352859
0.467896
0.520945
0.281930
0.495911
0.385642
0.557899
0.486970
0.560880
0.431538
0.409484
0.673532
0.521541
0.454783
0.581741
0.470877
0.651479
0.629425
0.579953
0.631809
0.618696
0.668764
0.847578
0.652671
0.713468
0.854731
0.840425
0.686646
0.735521
0.798702
0.809431
0.825524
0.862479
0.937581
0.980496
1.159906
1.071692
1.126528
1.392961
1.271963
1.656413
1.713634
2.059937
2.575517
3.012419
5.225539
18.796921
94.850659
223.863721
551.491976
901.857615
1015.888453
1015.888453
1015.888453
1015.888453
1015.888453
1015.888453
934.096575
603.270531
285.277963
142.711997
46.956539
17.888546
7.196665
6.001592
5.644560
5.436540
5.314946
5.249977
5.156994
##ZVALUE=385
0.328422
0.309944
0.200868
0.359416
0.249743
0.277758
0.273585
0.498891
0.200868
0.182986
0.450611
0.411868
0.226498
0.411868
0.359416
0.274777
0.315905
0.430942
0.317693
0.406504
0.418425
0.443459
0.396967
0.390410
0.348687
0.503659
0.368953
0.410676
0.407696
0.368953
0.497699
0.452995
0.315905
0.374913
0.491738
0.497699
0.474453
0.571609
0.413656
0.483990
0.531673
0.443459
0.431538
0.464916
0.620484
0.509620
0.479817
0.432730
0.566840
0.605583
0.505447
0.701547
0.650883
0.667572
0.693798
0.750422
0.827909
0.802875
0.843406
0.933409
0.653863
0.988841
0.931621
1.097918
0.933409
1.054406
1.494884
1.569986
1.750588
1.932979
2.319813
2.304912
2.602935
3.418922
9.026527
53.390861
141.998529
367.369652
670.127869
1015.888453
1015.888453
1015.888453
1015.888453
1015.888453
1015.888453
1015.888453
880.955458
459.538698
248.590708
96.154809
36.163926
9.437799
6.083846
5.261898
5.163550
5.053878
##ZVALUE=390
0.533462
0.621676
0.368953
0.572801
0.587702
0.418425
0.476837
0.682473
0.454783
0.495911
0.511408
0.563860
0.423789
0.428557
0.581741
0.572801
0.530481
0.515580
0.484586
0.430942
0.647902
0.412464
0.673532
0.385642
0.565648
0.572801
0.624657
0.592470
0.586510
0.683665
0.663996
0.535846
0.617504
0.473857
0.569820
0.631809
0.637770
0.689626
0.634789
0.670552
0.692606
0.653863
0.649691
0.724792
0.654459
0.730753
0.766516
0.820756
0.758767
0.817776
0.803471
0.860691
0.723600
0.751615
0.830889
0.736713
0.920892
0.991821
0.870824
0.855923
0.951886
1.105666
1.131892
1.174808
1.303554
1.218915
1.368523
1.571774
1.710653
2.006888
2.063513
2.254844
2.246499
2.486706
2.640486
2.921820
4.606843
29.050708
94.944835
306.462049
586.775541
1016.070843
1016.070843
1016.070843
1016.070843
1016.070843
1016.070843
1016.070843
1016.070843
679.379702
378.519893
144.032836
60.737729
15.419722
7.150769
5.575418
##ZVALUE=395
0.225902
0.120997
0.282526
0.366569
0.201464
0.234842
0.239611
0.194907
0.423789
0.399947
0.240803
0.396967
0.383854
0.292659
0.372529
0.409484
0.334978
0.308752
0.395775
0.430942
0.382662
0.271797
0.167489
0.450611
0.348687
0.473857
0.453591
0.351667
0.313520
0.352859
0.530481
0.314713
0.407696
0.450611
0.463724
0.426769
0.484586
0.427961
0.565648
0.642538
0.618696
0.543594
0.568628
0.435710
0.582933
0.510812
0.525713
0.538826
0.623465
0.601411
0.653863
0.574589
0.579953
0.648499
0.688434
0.557899
0.750422
0.747442
0.778437
0.792742
0.804663
0.802875
0.827909
0.848770
0.959635
1.104474
1.218915
1.286864
1.493692
1.550913
1.742840
1.751781
1.940727
1.921654
1.930594
2.062917
2.263784
2.395511
3.251433
15.334487
60.516000
220.361948
424.445868
826.367736
1015.888453
1015.888453
1015.888453
1015.888453
1015.888453
1015.888453
1015.888453
831.556916
504.632592
212.681890
96.000433
28.452873
##ZVALUE=400
0.297427
0.262856
0.252724
0.328422
0.150800
0.252724
0.312924
0.246763
0.194907
0.331998
0.168681
0.348687
0.203848
0.239611
0.411868
0.303984
0.385642
0.233650
0.413656
0.258684
0.230670
0.465512
0.278950
0.383854
0.311732
0.283718
0.415444
0.418425
0.362992
0.337958
0.396967
0.442863
0.424981
0.275970
0.284910
0.250936
0.344515
0.397563
0.469685
0.488758
0.436902
0.309944
0.329614
0.452995
0.502467
0.464916
0.473857
0.408888
0.533462
0.688434
0.491738
0.642538
0.547767
0.508428
0.582933
0.599623
0.518560
0.484586
0.651479
0.674725
0.744462
0.843406
0.722408
0.816584
0.786781
1.014471
1.057982
1.080632
1.467466
1.439452
1.580715
1.602769
1.721978
1.651645
1.563430
1.773834
1.869798
2.108812
2.120733
2.393723
2.869964
8.668900
31.705499
122.267604
276.497602
658.388734
1008.960009
1015.843749
1015.843749
1015.843749
1015.843749
1015.843749
1015.843749
985.093713
648.920536
312.815905
##END
