##TITLE=QP00601
##FORMAT=SPECTACLE-ASCII V-1.2
##DATA TYPE=ULTRAVIOLET SPECTRUM
##SECOND TYPE=ULTRAVIOLET SPECTRUM
##DATE=02/05/18
##TIME=13:56:18
##SPECTROMETER/DATA SYSTEM=SPECTACLE
##XUNITS=NM EM
##YUNITS=ENERGY
##YFACTOR=1
##FIRSTX=220
##LASTX=410
##NPOINTS=96
##3DDATA=Equidistant
##ZUNITS=NM EX
##FIRSTZ=210
##LASTZ=400
##ZPOINTS=39
##XYDATA=(Y..Y)
##ZVALUE=210
1.936555
2.754927
1.827478
2.673864
2.661943
2.206564
2.763867
3.077984
2.494454
3.226995
3.302693
3.062487
4.187822
2.836585
3.989935
3.981590
4.492998
4.798770
4.628897
5.449653
4.865527
5.950928
6.529689
7.220507
8.093715
7.796884
7.016659
8.282661
9.301901
9.440780
9.494424
10.319948
9.936690
10.233521
10.867715
11.349916
11.626482
12.502670
11.679530
13.745427
12.787580
13.737679
12.890697
14.589429
14.143586
14.763474
15.166998
16.579628
17.380714
17.471910
17.231703
16.919971
20.509958
19.720793
21.643639
18.660426
19.570589
19.947886
20.446777
20.468831
21.405816
21.841526
22.566915
23.186803
24.511814
25.951862
26.770830
31.301975
35.833716
42.589903
52.154660
62.981844
68.004727
85.722804
84.580779
91.362000
91.801882
90.421438
84.424615
82.279444
74.417591
69.357753
56.954622
48.859715
42.845607
33.584833
30.397773
27.212501
24.102926
24.372935
22.283792
23.291707
24.395585
22.129416
24.336576
23.103952
##ZVALUE=215
9.397864
7.902980
9.209514
6.516576
5.982518
4.954934
4.565716
4.662871
5.183816
5.787611
5.477667
5.053878
5.316734
4.231930
3.931522
3.681779
4.584789
4.965663
4.918575
4.950762
5.766749
6.076694
6.923676
7.046461
7.265806
7.926822
9.480715
8.023977
8.696914
9.676814
9.281635
10.845661
11.007786
10.711551
9.866953
10.721684
12.025833
11.912584
12.367964
12.072921
12.550950
13.337731
13.023615
14.050603
13.427734
14.439821
16.109943
14.995933
14.707446
15.228987
14.899969
16.311407
17.328858
16.972423
18.275976
17.565489
18.222928
18.634796
18.591881
18.053651
19.192696
20.730495
20.427704
20.644665
19.560456
22.565722
21.028519
25.506616
29.168725
35.303831
40.971637
47.500730
54.038763
61.137676
66.165924
72.390437
74.837804
73.085427
71.526766
68.867803
63.592792
54.682493
49.104691
42.655468
34.051538
30.740499
27.718544
24.019480
23.878813
18.716455
20.565987
19.111633
19.913912
18.762946
17.953515
18.783808
##ZVALUE=220
32.040477
32.043457
33.979416
33.596754
32.592416
26.163459
21.870732
15.609860
15.066862
12.906790
11.378527
12.142658
12.680888
11.336803
11.031628
8.414984
6.695986
6.071925
4.861951
6.027818
5.897880
6.965995
6.799698
7.903576
7.974505
7.951856
8.915663
8.513927
8.900762
8.719563
8.996725
10.238886
10.044575
10.966659
11.040568
11.384487
12.439489
12.708902
12.742877
13.246536
13.844967
13.613701
13.789535
15.662909
14.739633
17.130971
14.425516
16.130805
16.881824
17.540455
15.641451
18.405914
18.483996
17.476678
18.664598
17.188787
19.241571
18.584728
20.848513
20.464659
20.143986
19.084811
22.016764
19.411445
22.582412
21.051764
25.689602
28.265715
29.842854
35.849810
42.476654
52.150488
56.707859
65.136552
68.828464
71.040988
74.290633
76.923966
70.899725
67.162514
65.333843
60.127974
54.451823
45.888424
40.472746
35.505891
29.697418
26.869774
21.686554
22.410750
19.612908
20.490885
20.574927
19.776821
21.399856
21.350980
##ZVALUE=225
65.132976
68.512559
90.139508
116.367936
125.979781
134.494901
129.260421
101.107955
76.454878
55.369735
35.072565
24.990439
26.685596
27.814507
26.709437
25.939941
20.331740
17.716885
15.899539
11.036992
10.454655
7.679462
8.577704
9.211898
9.751916
8.463860
9.432435
10.345578
9.748936
11.893511
11.243820
12.185574
11.878610
12.190938
13.081431
13.100505
14.060736
14.846921
14.978647
14.114976
14.328957
15.289783
16.737580
15.162826
16.024709
15.039444
17.190576
17.970800
17.836690
18.311739
17.998815
17.693639
18.116832
20.539761
20.149946
21.351576
21.967888
22.112727
22.633672
22.111535
22.332668
20.660758
22.652745
23.671985
25.287867
25.757551
27.557611
29.780865
32.656789
38.175583
42.429566
48.775673
55.342913
64.071417
66.233873
69.486499
72.253942
70.716739
67.834854
62.916875
59.494972
53.649545
49.403906
44.829845
41.017532
35.125613
31.704903
29.322505
28.331876
26.343465
24.831891
24.945736
26.309490
24.441481
23.646951
24.043918
##ZVALUE=230
62.352419
71.678758
116.510987
202.623606
261.640549
335.277915
364.237428
369.776487
340.551734
277.370811
176.353455
116.300583
72.091818
53.827763
47.123432
50.071478
50.303936
48.193932
47.349930
38.798451
29.955506
21.574497
15.262961
12.768507
11.090636
10.920763
11.686683
11.737943
11.788607
13.129711
12.151599
12.225509
13.411641
14.852881
14.564991
14.180541
14.233589
16.150475
15.850663
16.078949
17.152429
17.004609
17.073750
18.078685
19.079447
18.769503
20.667911
19.173622
21.392703
20.541549
20.359755
21.281838
20.228624
22.532940
21.510720
22.077560
23.664832
22.331476
25.872588
26.293993
25.498867
25.458932
27.229786
27.259588
29.238462
29.045939
29.934645
34.853816
39.423704
43.706894
48.424602
59.512854
61.847568
69.694519
71.586967
75.604916
73.772669
75.374842
73.521733
64.011812
63.209534
57.893991
51.688552
47.143698
42.064786
39.400458
38.456917
35.892725
33.268929
34.542680
34.435987
32.538772
30.034781
33.846498
32.165647
30.317903
##ZVALUE=235
23.108721
27.254820
61.714649
152.024627
250.790715
406.099558
536.862016
687.198639
766.122937
778.517723
701.872706
545.144677
405.931473
243.757963
158.782005
108.054876
81.276894
79.368949
83.922744
90.403557
82.054734
75.428486
53.387880
43.199658
29.352903
22.404790
17.884970
15.758872
13.744831
13.446808
14.044642
15.803576
16.508698
16.028881
17.460585
16.775727
17.294884
17.540455
19.558668
17.890930
18.702745
18.556714
19.689798
19.908547
20.013452
20.069480
20.115972
21.286607
21.624565
23.935437
21.792650
21.772981
24.109483
23.563504
23.798943
23.509860
23.962855
24.020672
26.549697
26.656985
27.237535
28.567910
27.448535
29.422641
30.253530
33.026934
34.407973
37.101507
41.105747
46.142936
51.940680
59.958696
63.268542
70.881844
74.923635
78.505874
78.812838
73.014498
70.323944
66.138506
60.764551
58.839917
54.960847
48.460960
47.670603
44.913888
41.505694
41.112900
42.306781
40.761828
39.496422
38.771629
39.243698
39.102435
37.754774
39.195418
##ZVALUE=240
2.265573
3.095865
8.347631
34.485459
76.485872
189.808607
338.735580
625.813603
873.560905
1015.888453
1015.888453
1015.888453
1015.888453
1015.889049
764.165521
507.430434
280.718803
182.339549
126.757622
106.589794
109.624863
122.002959
116.967559
109.804869
90.551972
69.161654
54.442883
36.773682
30.791759
22.282600
18.713474
18.423796
17.346740
17.953515
16.362667
18.196702
17.517805
16.705990
18.000603
18.136501
18.217564
19.394755
18.757582
17.356873
19.374490
18.401742
20.340681
19.778609
20.877719
21.339655
21.901727
22.442937
21.508932
21.484494
24.065971
22.240877
23.160577
24.695992
24.372935
25.542974
24.586916
27.587414
26.968718
28.680563
29.249787
33.251643
35.542846
36.843419
42.442679
46.579838
52.732825
61.954856
66.806674
73.029995
76.506734
75.141788
77.480674
76.630712
70.752501
66.821575
63.471794
60.560703
57.189465
53.227544
50.122738
48.335791
46.747923
47.826767
48.595667
46.067834
43.237805
46.316981
46.661496
44.373870
41.789412
41.248798
##ZVALUE=245
2.662539
2.212524
3.045797
2.863407
7.157922
22.440553
79.769492
179.823041
439.772606
706.355572
1016.478539
1016.478539
1016.478539
1016.478539
1016.478539
1016.478539
1016.478539
755.293965
506.549478
263.849497
168.212652
125.144720
122.916698
137.784481
138.768554
133.782625
120.166540
106.653571
79.337955
60.217977
43.737888
31.953454
26.002526
19.660592
18.322468
18.420815
16.878843
16.955733
18.451810
17.452836
17.023683
17.568469
18.014908
17.163754
17.401576
18.976927
18.040538
17.099977
18.543601
19.349456
19.518733
19.309521
20.078421
19.869804
19.157529
20.617843
22.433996
23.148656
23.086667
23.101568
24.313927
23.561716
25.341511
26.327968
26.364923
27.080774
29.749870
34.975410
34.951568
40.774941
46.192408
51.607490
55.995584
62.717795
63.290000
63.099861
63.392520
61.251521
58.669448
57.875514
56.686997
51.326752
50.036907
47.339797
46.173930
44.801831
45.977831
44.209957
44.342875
41.916966
43.578744
42.651892
41.322708
42.532682
41.077733
41.752458
##ZVALUE=250
1.687407
1.888871
2.181530
1.750588
2.380610
1.990795
3.619790
13.626814
58.703423
133.110881
352.884531
597.115755
907.499790
1015.888453
1015.888453
1015.888453
1015.888453
1015.888453
1015.888453
942.069888
627.899766
399.272442
201.933980
133.630633
114.785433
128.098726
143.014789
148.519874
143.053532
130.984783
113.150477
86.181760
66.286922
43.545961
31.562448
23.207664
16.605854
15.244484
14.933944
14.725924
15.219450
15.340447
14.106631
15.389919
15.275478
14.030933
14.921427
15.817881
14.750957
14.904737
15.288591
15.862584
16.270876
16.082525
16.515851
16.339421
16.999841
17.388463
18.007755
17.915964
18.887520
19.710660
20.084977
22.359490
21.697879
23.569465
24.797916
27.120709
31.231642
32.695532
38.884878
42.317510
47.046542
51.136613
52.767992
54.345727
54.884553
54.648519
51.712990
50.341487
49.587488
46.565533
45.718551
43.038726
39.594769
42.278767
38.702488
39.382577
39.704442
40.221810
39.477944
38.662553
38.929582
40.043592
39.192438
39.762855
##ZVALUE=255
1.312494
1.080632
1.296997
1.409650
1.833439
1.819730
1.770854
2.271533
2.635717
6.467700
36.561489
92.400908
203.789473
466.283560
752.308965
1015.761495
1015.761495
1015.761495
1015.761495
1015.761495
1015.761495
1015.761495
783.165693
481.899977
234.982967
148.885846
107.675791
113.251805
132.841468
148.305893
150.801539
148.814917
135.779977
111.390948
89.413524
61.562657
44.870973
28.024912
19.719601
15.299916
14.761686
13.616681
12.929440
13.664961
14.066696
14.047623
14.247894
13.896823
14.793873
13.902783
14.961958
14.432669
14.218688
13.938546
15.134811
14.639497
15.356541
14.985800
16.466975
17.936826
16.331673
18.105507
18.382668
18.898845
19.435883
21.348596
23.001432
24.476647
26.146770
30.235648
33.772588
37.589669
41.748881
44.623613
45.544505
46.667457
46.296716
46.369433
44.291615
43.222904
40.996671
41.183829
37.360787
37.457943
36.670566
36.748648
37.496686
35.540462
35.469532
37.483573
35.898685
35.058856
35.756826
35.226941
35.361648
36.357641
##ZVALUE=260
1.682639
1.341701
1.758933
1.691580
1.725554
1.662970
1.848936
2.166629
2.305508
2.343655
2.752542
4.376769
13.861656
60.537457
142.415762
378.112793
648.573637
1015.888453
1015.888453
1015.888453
1015.888453
1015.888453
1015.888453
1015.888453
1015.888453
979.660749
546.099544
306.347609
135.912895
99.633932
107.191801
135.485530
149.561763
162.093639
153.784752
138.128996
118.534565
86.906552
66.668987
43.575764
32.298565
20.839572
17.202497
14.201999
13.862848
13.807416
13.910532
13.804436
14.051795
14.717579
14.559627
13.969541
14.568567
14.591813
15.057921
14.846921
16.011000
15.230775
15.584826
15.656948
16.316772
16.745925
16.853809
17.679930
18.226504
18.515587
20.244718
22.365451
24.214983
27.138591
28.723478
32.798648
36.586523
40.100813
41.463971
41.265488
41.904449
40.182471
40.928721
39.982796
37.615895
36.743879
35.395622
33.873916
32.926798
32.041669
31.290650
32.329559
32.709837
31.602979
31.760931
32.481551
33.161640
31.230450
34.025908
33.651590
##ZVALUE=265
1.584888
1.551509
1.493692
1.560450
1.607537
1.654625
1.785755
1.834631
2.125502
2.127886
2.416968
3.073812
2.680421
3.191829
8.160472
43.207407
108.422637
286.269784
523.665547
987.494588
1015.888453
1015.888453
1015.888453
1015.888453
1015.888453
1015.888453
1015.889049
1015.888453
736.598969
416.933894
221.926570
108.489990
93.372464
119.180679
138.437748
157.637000
165.525675
155.719519
142.477751
114.380717
90.216994
62.753558
44.809580
28.325915
20.249486
14.844537
13.822913
13.509989
12.945533
13.333559
13.225675
13.588667
13.714433
14.624596
13.944507
14.654994
14.609694
14.095902
13.963580
14.784932
14.309883
14.732480
15.308857
14.741421
16.519427
17.453432
17.833710
19.567609
21.207929
23.025870
24.630427
29.272437
30.102730
31.911731
33.240914
34.483671
33.634901
33.245683
32.575727
31.579733
31.305552
29.739738
30.075908
29.372573
27.475953
28.368831
28.072000
27.444959
28.852820
28.506517
29.114485
29.603839
29.144883
29.190779
29.726624
30.425787
##ZVALUE=270
1.155734
1.612902
1.372695
1.271963
1.343489
1.388788
1.489520
1.549721
1.838803
2.064705
1.879930
1.831651
2.280474
2.219677
2.368689
2.625585
3.766418
19.021630
60.938001
197.733641
403.294563
726.022720
1015.992761
1015.992761
1015.992761
1015.992761
1015.992761
1015.992761
1015.992761
1015.992761
938.194990
464.977026
238.917470
99.184513
75.154901
91.876984
112.536550
140.820742
155.795813
159.923434
155.935884
139.300823
116.978884
86.258650
64.798594
41.411519
30.312538
20.295978
16.109943
14.370680
14.262795
13.377666
13.055801
13.649464
13.585687
14.018416
13.085604
14.466643
14.585853
14.828444
14.624000
15.348792
15.488863
14.499426
16.003847
17.085671
17.509460
18.125772
20.279884
21.783710
24.344921
26.103854
27.943850
30.708909
31.053424
31.109452
31.159520
30.754805
30.646920
28.783679
29.378533
27.056932
27.265549
26.375651
27.350783
26.540756
26.356578
26.979446
27.073622
27.049780
27.554631
27.154684
27.696490
27.283430
27.599931
27.284622
##ZVALUE=275
1.154542
1.111627
1.055598
1.058578
0.940561
1.202822
1.244545
1.319647
1.562834
1.557469
1.426935
1.654625
1.776814
1.893640
1.929998
2.277493
2.159476
2.790689
3.179908
10.255575
40.224791
117.582679
343.640447
646.473765
1015.888453
1015.888453
1015.888453
1015.888453
1015.888453
1015.888453
1015.888453
1015.888453
1015.889049
667.306781
361.971855
139.394999
76.920986
67.066550
86.516738
114.963651
135.814548
153.564811
161.908865
155.817866
139.881968
113.452673
92.275739
64.535737
46.646595
30.495524
22.525787
16.793609
14.260411
13.876557
13.873577
13.508797
13.554692
13.960600
13.825893
14.709830
15.573502
14.933944
15.511513
15.646815
15.518665
16.444921
16.808510
18.723607
18.955469
21.859407
22.917986
24.680495
27.057528
29.346943
29.953718
29.732585
29.192567
28.159618
28.142929
27.768612
26.957989
25.901794
25.002956
24.854541
25.251508
24.635792
24.940968
25.473833
24.974942
25.327802
24.841428
24.908781
24.766922
25.252700
25.856495
26.325583
##ZVALUE=280
0.987649
0.872612
1.147985
0.881553
1.039505
1.141429
1.057982
1.133680
1.216531
1.438856
1.400709
1.343489
1.413822
1.361966
1.675487
1.850724
2.009869
2.395511
2.552867
2.837777
3.139973
4.328489
30.947924
104.142427
318.811536
581.015944
1002.987623
1015.888453
1015.888453
1015.888453
1015.888453
1015.888453
1015.888453
1015.888453
1015.888453
802.727938
468.157530
202.340484
97.538829
54.397583
61.830878
87.995529
110.160708
136.196613
150.718689
156.746507
149.324536
132.867694
113.244653
85.469484
65.301657
44.153929
30.766726
20.137429
16.144514
13.302565
13.125539
12.867451
13.151765
13.340712
14.344454
14.334917
15.075803
14.950633
15.304685
16.088486
16.117692
17.510653
18.330812
20.005703
21.292567
22.576451
24.410486
25.452971
27.255416
26.125908
26.157498
26.304722
26.034713
25.697947
24.999976
24.219751
24.109483
23.988485
23.979545
23.263693
24.215579
23.474693
23.597479
24.335980
23.421645
24.522543
24.336576
23.585558
23.797750
23.526549
##ZVALUE=285
0.718832
1.023412
0.902414
1.154542
1.054406
1.080632
0.990629
0.936985
1.274943
1.345873
1.264811
1.137853
1.336932
1.594424
1.519918
1.793504
1.667738
1.831651
1.932979
1.912713
2.255440
2.381802
3.004670
3.327727
11.784434
43.386817
157.476664
343.863964
764.510036
1015.888453
1015.888453
1015.888453
1015.888453
1015.888453
1015.888453
1015.888453
1015.888453
1015.889049
702.337027
315.128565
154.803991
58.314800
43.190718
58.056712
77.946782
107.780695
125.883818
145.033002
150.718689
147.828460
135.607719
112.769604
90.475678
64.089894
46.982765
29.185414
21.196604
15.968680
14.071465
13.152957
13.075471
13.201833
14.008880
14.680624
14.460683
15.431643
15.719533
16.681552
18.729568
18.920898
20.637512
21.928549
22.767782
24.716854
25.308728
25.075674
25.502443
24.775863
24.337769
24.182796
23.301840
24.113655
23.426414
22.956729
23.281574
23.196936
22.821426
23.770928
23.398995
22.987723
22.850633
23.340583
22.782683
23.202896
23.052692
22.658706
##ZVALUE=290
0.806451
1.048446
0.956655
0.875592
1.024604
0.816584
1.029968
1.113415
1.110435
1.079440
0.998974
1.193881
1.384616
1.295805
1.418591
1.324415
1.589656
1.779795
1.808405
1.916885
1.891851
1.967549
2.458692
2.511740
2.986789
3.358722
4.442930
22.323728
74.023008
243.673921
491.585732
987.660885
1015.888453
1015.888453
1015.888453
1015.888453
1015.888453
1015.888453
1015.888453
1015.888453
972.214937
492.935777
249.503851
86.994767
40.461421
40.245652
52.964687
74.911714
96.240640
122.552514
136.588812
145.742893
143.563747
127.989650
111.367702
83.651543
63.720942
44.400692
32.110810
21.629930
17.906427
14.973879
14.482737
14.178753
14.466643
15.161633
15.662909
16.542673
18.094778
19.580722
20.114779
21.949410
23.175478
23.881793
23.907423
24.238825
23.566484
23.589730
23.358464
23.322701
23.184419
23.063421
23.019910
23.320913
22.807717
22.202730
22.547841
23.154616
22.289753
22.744536
23.308992
22.524595
21.710992
22.465587
22.267699
22.068620
##ZVALUE=295
0.731945
0.965595
0.850558
0.876784
0.759959
0.913739
0.813603
1.137853
0.891685
1.054406
1.077652
1.076460
1.297593
1.053810
1.106858
1.283884
1.278520
1.371503
1.582503
1.330972
1.546741
1.685619
1.905560
1.868606
2.320409
2.705455
2.680421
3.142953
3.740788
6.870627
29.538870
135.074854
314.698815
756.622553
1015.888453
1015.888453
1015.888453
1015.888453
1015.888453
1015.888453
1015.888453
1015.888453
1015.889049
674.785972
349.533558
115.792751
49.833655
28.422475
33.648610
51.404834
69.835782
95.184445
110.586882
131.338835
138.336420
135.220885
124.288797
103.875995
84.936619
60.949922
45.839548
30.482411
23.191571
17.746687
15.763640
15.287995
15.769601
15.994906
17.506480
18.474460
19.749999
20.744801
21.783710
23.519993
22.925735
23.595691
23.057461
22.935867
22.975802
22.140741
22.343993
23.102760
22.777915
22.475719
23.027658
22.893548
22.770762
22.452474
23.072958
22.693872
22.809505
21.821856
21.995902
22.299886
21.711588
21.858811
##ZVALUE=300
0.841618
0.817776
0.777841
0.852942
0.655651
0.979900
0.826716
0.884533
0.965595
1.040697
0.947714
1.044869
1.227856
1.035929
1.066923
0.888705
1.043677
1.196861
1.365542
1.221895
1.440644
1.332760
1.406670
1.918674
1.902580
2.148747
2.340674
2.207756
2.644658
3.079772
3.416538
4.447699
20.588636
76.429844
268.118382
530.195832
1006.988883
1015.888453
1015.888453
1015.888453
1015.888453
1015.888453
1015.888453
1015.888453
1015.888453
1015.889049
540.465713
276.761651
90.427995
35.676956
24.917722
32.040477
47.096610
63.139796
87.376833
106.849670
124.634504
132.354498
131.259561
122.223496
102.673769
86.076856
62.585473
47.595501
32.709837
24.936795
19.912720
18.388629
17.493963
18.380880
20.377636
21.647811
22.743940
23.419857
23.637414
23.791790
23.920536
23.349524
22.845864
22.602677
23.106933
23.196936
22.814870
23.548603
23.000836
22.995472
23.415685
24.093986
23.293495
23.007989
22.498965
22.815466
22.238493
21.904707
21.986961
21.578670
##ZVALUE=305
0.951886
0.835657
0.813603
0.842810
0.899434
0.952482
1.108646
0.933409
0.769496
0.967979
0.985861
0.968575
1.064539
0.940561
0.889897
0.986457
1.216531
1.219511
1.200438
1.338720
1.366735
1.288652
1.345873
1.643896
1.709461
1.875758
2.052784
2.183914
2.349615
2.462864
2.537966
3.202558
3.616810
4.272461
9.483695
72.234869
203.899741
546.248555
945.378542
1015.888453
1015.888453
1015.888453
1015.888453
1015.888453
1015.888453
1015.888453
1015.888453
1015.888453
952.391624
423.990488
192.044973
52.215457
23.682714
23.772717
30.387640
46.335459
61.463714
84.816813
101.517439
120.224953
127.729774
126.828551
117.864609
100.154877
84.014535
60.448647
46.576858
32.859445
26.450753
22.633672
21.888614
21.500587
22.039413
22.511482
22.942424
23.150444
23.274422
23.357868
22.955537
23.369789
23.594499
23.620725
23.426414
23.677945
23.521781
23.264885
22.936463
22.810698
23.260713
23.128986
23.126602
22.567511
22.852421
22.495985
23.011565
22.996664
##ZVALUE=310
0.728965
0.836849
0.846982
0.818968
0.831485
0.873804
0.847578
0.870824
0.899434
0.864863
0.890493
0.872612
0.911951
0.806451
0.908971
1.000762
1.203418
1.015663
1.235604
1.191497
1.332760
1.410842
1.379848
1.488924
1.417994
1.750588
1.512766
1.743436
2.067685
2.058744
2.249479
2.368689
2.748966
3.042817
3.053546
3.870726
4.705787
27.047396
98.406672
328.679681
641.741753
1015.886664
1015.886664
1015.886664
1015.886664
1015.886664
1015.886664
1015.886664
1015.886664
1015.886664
1015.886664
654.034615
344.581008
111.460686
38.283467
17.947555
20.163655
28.889775
38.870573
57.071447
73.518753
96.354485
110.814571
119.471550
121.862888
113.955736
101.700425
83.335638
65.962672
48.156977
38.324594
30.050874
25.936961
23.632646
23.159981
23.008585
22.727847
22.715926
22.603869
23.179650
23.205876
23.626685
23.376942
23.667812
23.957491
23.767948
24.324656
24.077892
24.426579
23.713708
23.817420
23.614764
23.178458
23.230910
23.068786
22.749901
##ZVALUE=315
0.790954
0.834465
0.825524
0.753999
0.866652
0.776649
0.784993
0.769496
0.921488
0.908971
0.727773
0.923872
0.897646
0.914931
0.830889
1.066923
1.017451
0.871420
1.121759
1.105666
1.013875
1.174808
1.176000
1.284480
1.421571
1.580715
1.510978
1.477599
1.552701
1.715422
2.136827
2.068877
2.408624
2.480745
2.703667
3.043413
3.192425
4.093647
4.698634
13.851523
60.018897
256.750584
547.182560
1015.888453
1015.888453
1015.888453
1015.888453
1015.888453
1015.888453
1015.888453
1015.888453
1015.888453
1015.888453
890.773535
475.683808
161.817670
57.547688
19.814968
17.056465
20.831823
26.617646
38.882494
52.060485
72.231889
87.512732
106.294751
114.714503
117.567778
112.055540
97.195506
82.901716
65.350533
52.198768
39.140582
32.374859
26.262999
24.387836
23.067594
22.537708
23.084879
23.529530
23.496747
24.070740
24.030805
24.069548
24.262667
24.257898
24.277568
24.255514
24.449825
24.510622
24.335980
23.565888
23.678541
23.602843
23.306608
##ZVALUE=320
0.748634
0.657439
0.774860
0.840425
0.731945
0.793934
0.807643
0.765920
0.809431
0.896454
0.937581
0.822544
0.923872
0.878572
0.842810
1.005530
1.024604
0.989437
0.965595
1.051426
1.240969
1.129508
1.407862
1.225471
1.322627
1.404881
1.608729
1.627803
1.594424
1.595616
1.738667
1.977682
1.926422
2.153516
2.245903
2.720952
2.802610
3.164411
3.546476
3.998876
4.451871
6.609559
28.335452
168.340802
413.788557
957.876444
1015.888453
1015.888453
1015.888453
1015.888453
1015.888453
1015.888453
1015.888453
1015.888453
1015.888453
1015.888453
647.733808
259.907842
109.510422
29.192567
17.024875
16.828775
19.485950
26.145577
35.271645
51.605701
66.192746
86.170435
100.581646
112.644434
113.898516
109.925866
98.675489
80.357790
66.225529
49.853921
39.470792
31.297803
27.322769
25.112629
23.843646
24.102926
23.968816
23.796558
24.582744
24.602413
24.248958
24.550557
24.322867
24.897456
24.234653
23.899674
23.184419
24.132729
23.410916
22.750497
##ZVALUE=325
0.761747
0.807643
0.688434
0.877976
0.640750
0.912547
0.806451
0.789762
0.935793
0.873804
0.988841
0.850558
0.815988
0.844598
0.969768
0.750422
0.947714
0.900626
0.934601
0.956655
1.192689
1.054406
1.321435
1.288652
1.307726
1.543760
1.192689
1.207590
1.521707
1.552701
1.644492
1.770854
1.986623
1.887679
2.023578
2.309680
2.423525
2.592802
2.961755
3.170967
3.531575
4.108548
4.268885
5.346537
12.768507
96.939802
267.997980
700.299740
1015.887856
1015.887856
1015.887856
1015.887856
1015.887856
1015.887856
1015.887856
1015.887856
1015.887856
1015.887856
934.364796
387.164950
170.104504
45.369864
20.299554
16.842484
17.057657
20.624995
25.941730
37.562847
49.316883
70.522428
84.686875
99.971890
108.892918
111.003518
104.433894
90.924501
78.347921
61.750412
49.212575
37.880540
31.442642
26.639700
25.662780
24.658442
24.358630
24.115443
23.994446
24.078488
23.978949
24.282932
23.758411
24.024844
24.122596
23.563504
23.978949
23.614764
##ZVALUE=330
0.597835
0.512600
0.840425
0.729561
0.809431
0.700951
0.809431
0.743866
0.722408
0.577569
0.897646
0.725985
0.880957
0.766516
0.913739
0.638962
0.725985
0.988841
0.888705
0.779629
0.979900
0.967979
0.957847
1.019835
1.045465
1.213551
1.312494
1.291633
1.224875
1.372695
1.378655
1.449585
1.367927
1.578927
1.751781
1.761913
2.052784
1.964569
2.275705
2.448559
2.686977
3.058910
3.115535
3.638864
4.064441
4.778504
6.742477
35.547614
126.267672
444.774628
866.495967
1015.879512
1015.879512
1015.879512
1015.879512
1015.879512
1015.879512
1015.879512
1015.879512
1015.879512
1015.879512
573.989749
275.082588
80.619454
29.350519
16.789436
15.906692
17.448664
20.323992
27.786493
35.693645
49.717426
64.998865
83.581805
95.480680
103.639960
104.617476
98.921657
88.377595
71.690679
59.239864
45.327544
38.023591
31.664968
28.181672
25.308728
24.519563
24.060607
23.854971
23.015738
23.662448
22.996664
23.029447
23.499727
23.274422
23.145676
##ZVALUE=335
0.629425
0.706911
0.599623
0.507832
0.617504
0.628829
0.647902
0.754595
0.653863
0.804663
0.802875
0.757575
0.682473
0.795722
0.674725
0.656843
0.827909
0.747442
0.881553
0.868440
0.944734
0.821948
1.092553
1.183748
1.245737
1.217723
1.299977
1.190901
1.428723
1.219511
1.353621
1.301765
1.475811
1.710653
1.598597
1.797676
1.701713
1.726747
1.919866
2.116561
2.294779
2.331734
2.732873
2.938509
3.169775
3.516674
3.945827
4.872680
5.383492
16.192794
63.355565
267.027617
585.069656
1015.892625
1015.892625
1015.892625
1015.892625
1015.892625
1015.892625
1015.892625
1015.892625
1015.892625
1015.892625
802.452564
407.324433
131.026506
45.524836
18.299818
17.133951
18.294454
19.137859
22.474527
27.379990
38.324594
48.626661
64.467788
77.879429
89.348555
96.892715
98.061562
93.993545
82.042813
70.893764
57.235956
47.069788
37.477612
32.191873
27.938485
25.927424
24.317503
24.143457
23.322701
23.505688
23.405552
23.762584
23.840666
##ZVALUE=340
0.610948
0.560880
0.607967
0.623465
0.747442
0.651479
0.723600
0.768900
0.862479
0.764728
0.702739
0.818968
0.684857
0.777841
0.828505
0.788569
0.673532
0.777841
0.774860
0.818968
0.828505
0.979900
0.899434
1.046658
0.874996
1.057982
1.261830
1.367927
1.149774
1.206994
1.185536
1.204610
1.343489
1.537800
1.440644
1.411438
1.748800
1.751781
1.739860
1.721978
1.890659
1.988411
2.172589
2.451539
2.604723
2.940893
2.918839
3.586411
3.870726
4.616976
5.175471
8.011460
30.743480
167.950392
416.594744
980.448723
1015.888453
1015.888453
1015.888453
1015.888453
1015.888453
1015.888453
1015.888453
1015.888453
1015.888453
995.759964
574.715734
207.058787
72.668791
22.026896
18.178821
18.595457
18.931627
20.445585
21.731853
28.035641
34.349561
46.748519
59.334636
73.746443
83.583593
92.338920
92.578530
88.852644
81.012845
68.853498
58.295727
46.541691
38.527846
31.561852
27.496815
24.502873
23.985505
24.230480
24.628639
25.267601
##ZVALUE=345
0.672936
0.675917
0.647902
0.734925
0.566840
0.770688
0.648499
0.609756
0.678897
0.770688
0.710487
0.686646
0.764728
0.794530
0.894666
0.724792
0.657439
0.716448
0.713468
0.827909
0.897646
0.872612
1.030564
0.784993
0.876784
0.880957
0.951886
0.779629
0.980496
1.003742
1.083612
1.180768
1.199841
1.180768
1.270771
1.417994
1.646876
1.605749
1.697540
1.739860
1.501441
1.685619
1.927614
2.015829
2.361536
2.357960
2.730489
2.680421
3.177524
3.208518
3.773570
4.083514
4.550815
5.560517
17.423630
76.893568
344.439745
722.493529
1015.888453
1015.888453
1015.888453
1015.888453
1015.888453
1015.888453
1015.888453
1015.888453
1015.888453
1015.888453
655.283928
305.043459
88.499784
34.869909
19.898415
19.109845
18.035769
18.171668
18.455982
20.165443
25.124550
32.120943
44.510961
54.340959
68.137646
76.959729
84.390640
86.969733
83.676577
77.621937
65.614581
56.649446
45.008659
38.335919
31.505823
28.676987
27.285814
27.182698
##ZVALUE=350
0.738502
0.628829
0.547767
0.619888
0.794530
0.788569
0.935793
0.745654
0.830889
0.835657
0.744462
0.779629
0.757575
0.881553
0.715852
0.739694
0.872612
0.829697
0.833869
0.983477
0.839829
0.976920
0.873804
1.080632
1.101494
0.962615
1.067519
1.170635
1.123548
1.035929
0.986457
1.075864
0.923872
1.259446
1.315475
1.296997
1.518726
1.516938
1.453757
1.596808
1.519918
1.661777
1.724958
1.950860
1.996756
1.865625
2.274513
2.364516
2.521873
2.695918
3.080964
3.404617
3.642440
4.087687
4.311800
5.290508
7.551908
44.426918
151.946545
510.870814
959.692001
1015.888453
1015.888453
1015.888453
1015.888453
1015.888453
1015.888453
1015.888453
1015.888453
1015.888453
1000.915766
492.808819
213.219523
48.555732
22.071600
17.575622
16.796589
16.451478
16.641617
17.664433
20.007491
24.794936
29.701591
38.965940
48.483610
60.409904
69.330931
76.825619
80.372691
78.789592
73.709488
63.718557
56.024790
46.488643
41.005611
36.809444
##ZVALUE=355
0.775456
0.863671
0.849962
0.867844
0.862479
0.963807
1.016855
0.992417
1.030564
1.008511
0.996590
0.916719
1.007915
0.915527
0.928640
1.068711
0.813603
0.982881
0.945926
0.896454
1.035929
1.100898
1.045465
0.929832
1.032948
0.999570
1.090765
1.158714
1.162887
1.172423
1.170635
1.307726
1.279712
1.180768
1.188517
1.284480
1.467466
1.319647
1.515746
1.450777
1.469851
1.619458
1.649857
1.908541
1.840591
1.983643
2.053976
2.304912
2.202988
2.386570
2.525449
2.860427
2.801418
3.287792
3.572702
4.095435
4.361868
5.079508
5.987883
21.849871
86.044669
339.016914
707.035661
1015.888453
1015.888453
1015.888453
1015.888453
1015.888453
1015.888453
1015.888453
1015.888453
1015.888453
1015.888453
522.988439
241.881609
66.523552
25.579929
16.614795
16.134977
15.334487
15.031695
15.599728
15.907884
18.377900
21.194816
27.216673
33.834577
43.876767
52.242875
62.140822
68.823695
72.904825
71.240664
66.343546
59.365630
49.657822
##ZVALUE=360
0.851750
0.927448
0.827909
0.893474
0.884533
0.885725
1.002550
1.074672
1.048446
1.102686
1.072884
0.963807
0.902414
0.937581
0.939965
1.036525
1.104474
1.051426
1.090765
1.112819
1.125932
1.037717
1.261830
1.254678
1.210570
1.139641
1.221895
1.207590
1.322627
1.272559
1.326799
1.356602
1.342893
1.496673
1.350641
1.440644
1.534820
1.581907
1.632571
1.716614
1.700521
1.822710
2.055764
1.915693
2.201796
2.036691
2.291799
2.294779
2.516508
2.494454
2.677441
2.702475
3.024936
3.189445
3.425479
3.549457
3.799796
4.447699
4.799962
5.469918
6.165504
10.693669
39.927959
199.011564
489.640832
1016.005874
1016.005874
1016.005874
1016.005874
1016.005874
1016.005874
1016.005874
1016.005874
1016.005874
1016.005874
718.321800
354.502797
118.469596
42.495728
17.290711
15.480518
14.984608
14.656782
14.650822
14.702678
14.994740
16.055703
19.018650
22.242665
29.159784
36.670566
46.125650
54.409504
61.669946
64.725876
65.079927
##ZVALUE=365
0.798702
0.741482
0.763535
0.918508
0.795722
0.881553
0.659823
0.761747
0.829697
0.920892
0.892878
0.787973
0.800490
0.902414
0.930429
0.817776
0.884533
1.021624
0.964999
0.845790
0.959635
1.268983
1.097918
1.136661
1.173615
0.995994
1.185536
1.241565
1.381636
1.270771
1.216531
1.171827
1.260638
1.380444
1.366735
1.432896
1.394749
1.322627
1.323819
1.490712
1.360774
1.549721
1.579523
1.675487
1.806617
1.840591
1.727939
1.933575
2.165437
2.171993
2.273917
2.369881
2.465844
2.621412
2.735853
3.146529
2.955794
3.524423
3.520846
4.034638
4.604459
5.193949
6.075501
7.210970
15.411377
101.861954
310.677886
896.888971
1015.888453
1015.888453
1015.888453
1015.888453
1015.888453
1015.888453
1015.888453
1015.888453
1015.888453
960.004926
514.999628
172.854662
63.657761
19.274950
14.324784
13.919473
13.451576
13.094544
12.995601
13.289452
13.161898
14.340878
15.766621
19.737482
24.061799
31.084418
38.821697
47.410727
##ZVALUE=370
0.769496
0.699759
0.826716
0.739694
0.696778
0.777841
0.623465
0.813603
0.736713
0.783801
0.873804
0.936985
0.983477
0.863671
0.862479
0.778437
0.895858
0.822544
0.844598
0.900626
0.926852
0.858903
0.916719
1.016855
0.863671
1.011491
1.087785
1.014471
1.072884
1.034737
1.218915
1.258850
1.271963
1.256466
1.265407
1.010895
1.102686
1.256466
1.261830
1.353621
1.303554
1.389980
1.487732
1.599789
1.556873
1.520514
1.561642
1.710653
1.819730
1.832843
1.745820
1.846552
1.915693
1.980662
2.221465
2.374649
2.639890
2.569556
2.780557
3.056526
3.254414
3.815889
3.980994
4.820824
5.445480
6.193519
9.332895
55.159926
190.459490
633.713603
1015.889645
1015.889645
1015.889645
1015.889645
1015.889645
1015.889645
1015.889645
1015.889645
1015.889645
1015.889645
666.552782
240.709782
102.887750
31.420588
15.404820
12.730956
12.062788
11.981726
11.684895
11.592507
11.573434
11.780858
12.643933
14.298558
16.927719
21.766424
##ZVALUE=375
0.621676
0.826716
0.607967
0.665784
0.677705
0.742674
0.739694
0.821948
0.662804
0.793934
0.748634
0.648499
0.775456
0.711679
0.821948
0.849962
0.790954
0.777841
0.934601
0.801682
0.918508
0.722408
0.901818
1.021624
0.879765
0.928640
0.951886
0.850558
0.814795
0.830889
0.965595
0.973940
1.028776
0.971556
0.862479
1.092553
1.090765
1.183748
1.262426
1.188517
1.229644
1.322627
1.316667
1.245737
1.133680
1.355410
1.468658
1.470447
1.347661
1.376867
1.444817
1.478791
1.633763
1.802444
1.851916
1.839995
2.088547
2.307892
2.432466
2.458692
2.737641
2.727509
3.032684
3.215671
3.501773
4.039407
4.597902
5.762577
7.033944
25.939941
102.630854
397.366881
862.568021
1015.888453
1015.888453
1015.888453
1015.888453
1015.888453
1015.888453
1015.888453
1015.888453
1015.888453
978.071690
447.703600
206.813812
57.123899
20.711422
12.290478
11.804700
10.992885
10.849833
10.621548
10.720491
10.787845
10.930896
11.356473
##ZVALUE=380
0.579953
0.655651
0.490546
0.745654
0.758767
0.766516
0.548959
0.522733
0.482798
0.670552
0.625849
0.612736
0.707507
0.779629
0.710487
0.543594
0.659823
0.765920
0.644922
0.570416
0.605583
0.635982
0.740886
0.752807
0.852942
0.703931
0.694990
0.734925
0.722408
0.728965
0.856519
0.975728
0.950694
0.881553
1.040697
0.853539
1.059771
0.915527
1.052618
0.878572
1.050830
0.843406
1.138449
1.301765
1.273751
1.092553
1.267791
1.078844
1.250505
1.361966
1.234412
1.270771
1.357794
1.470447
1.494884
1.656413
1.720786
1.641512
1.796484
2.005696
2.180934
2.151728
2.444983
2.527833
2.882481
3.085732
3.421903
4.069805
4.897714
5.591512
7.048845
11.630654
67.343712
220.998526
687.359571
1015.889645
1015.889645
1015.889645
1015.889645
1015.889645
1015.889645
1015.889645
1015.889645
1015.889645
1015.889645
777.655840
300.512910
126.221776
29.966831
13.592839
11.090636
10.627508
10.472536
9.894967
9.797812
10.011792
##ZVALUE=385
0.485778
0.573993
0.609756
0.684857
0.578761
0.386834
0.414848
0.588894
0.702739
0.683665
0.640750
0.650883
0.635982
0.625849
0.387430
0.713468
0.594854
0.650883
0.474453
0.590682
0.693798
0.722408
0.576973
0.677705
0.689626
0.619888
0.700951
0.795722
0.726581
0.627637
0.665784
0.732541
0.719428
0.682473
0.761747
0.854731
0.711679
0.799894
0.890493
0.847578
0.814795
0.785589
1.024604
0.964999
0.989437
0.975728
0.947714
1.041889
1.200438
1.228452
1.192689
1.202822
1.345873
1.421571
1.452565
1.419783
1.437664
1.661777
1.737475
1.841784
1.766682
2.026558
2.170801
2.312660
2.450943
2.632737
3.019571
3.603697
3.738999
4.570484
5.042553
5.684495
6.307960
7.955432
25.980473
169.682503
441.175699
1010.999680
1015.888453
1015.888453
1015.888453
1015.888453
1015.888453
1015.888453
1015.888453
1015.888453
1015.889049
1004.359722
609.536767
240.338445
87.583661
19.334555
11.232495
10.102987
9.673834
9.226799
##ZVALUE=390
0.538826
0.508428
0.445843
0.585914
0.376701
0.470877
0.458956
0.501871
0.486970
0.567436
0.519753
0.385642
0.557899
0.601411
0.602603
0.511408
0.505447
0.644922
0.532866
0.660419
0.612736
0.763535
0.623465
0.662804
0.698566
0.515580
0.755787
0.574589
0.720620
0.652671
0.643730
0.769496
0.649691
0.845790
0.772476
0.811815
0.893474
0.915527
0.964999
0.946522
0.924468
0.918508
0.925660
0.953674
0.864863
0.930429
1.139641
0.967979
1.236796
1.149774
1.158714
1.054406
1.246929
1.300573
1.281500
1.378655
1.439452
1.481771
1.601577
1.613498
1.669526
1.804829
1.949668
2.110600
2.189875
2.364516
2.665520
3.105998
3.487468
3.969669
4.417896
4.824996
4.824996
5.339980
5.555749
6.448627
12.156963
85.168481
272.237659
831.698775
1015.886664
1015.886664
1015.886664
1015.886664
1015.886664
1015.886664
1015.886664
1015.886664
1015.886664
1015.886664
868.517756
335.244536
146.784782
38.928986
14.121532
10.082722
##ZVALUE=395
0.517964
0.547767
0.398755
0.440478
0.667572
0.636578
0.604987
0.584722
0.465512
0.496507
0.510812
0.535846
0.568628
0.483990
0.611544
0.525713
0.549555
0.505447
0.658631
0.486970
0.685453
0.686646
0.757575
0.687838
0.642538
0.705719
0.561476
0.680685
0.605583
0.576973
0.698566
0.619888
0.730753
0.825524
0.707507
0.725985
0.810623
0.815988
0.737906
0.933409
0.802875
0.741482
1.072884
0.999570
0.911951
1.035929
0.956655
1.145601
1.058578
1.157522
1.128912
1.166463
1.167655
1.107454
1.208782
1.409650
1.341701
1.518726
1.552701
1.589656
1.624823
1.759529
1.789927
2.074838
2.224445
2.208948
2.456903
2.734661
3.111959
3.591776
3.735423
3.950000
4.013777
4.169941
4.261732
4.369617
4.895926
5.501509
7.259846
43.402910
172.787905
614.274740
1015.888453
1015.888453
1015.888453
1015.888453
1015.888453
1015.888453
1015.888453
1015.888453
1015.888453
1015.888453
1015.888453
534.835458
241.264701
68.555474
##ZVALUE=400
0.462532
0.600815
0.385642
0.374913
0.467896
0.424981
0.378489
0.479817
0.492930
0.540614
0.489950
0.474453
0.344515
0.481606
0.409484
0.466704
0.394583
0.565648
0.502467
0.483990
0.501871
0.615716
0.358820
0.542998
0.514984
0.623465
0.719428
0.634789
0.596642
0.539422
0.589490
0.732541
0.524521
0.625849
0.750422
0.694990
0.652671
0.706911
0.763535
0.752807
0.867844
0.803471
0.801682
0.971556
0.841618
0.980496
0.922680
0.986457
0.974536
1.076460
1.062751
1.164675
1.133680
1.153946
1.281500
1.348853
1.306534
1.238585
1.326799
1.469851
1.511574
1.592636
1.597404
1.602769
1.774430
2.056956
2.154708
2.356768
2.668500
3.138781
3.319979
3.306866
3.540516
3.488660
3.421903
3.574491
3.693700
3.941655
4.390478
5.013943
5.877614
19.873977
80.543756
326.553583
699.846745
1015.886664
1015.886664
1015.886664
1015.886664
1015.886664
1015.886664
1015.886664
1015.886664
1015.886664
1015.886664
737.969875
##END
