##TITLE=QP00602
##FORMAT=SPECTACLE-ASCII V-1.2
##DATA TYPE=ULTRAVIOLET SPECTRUM
##SECOND TYPE=ULTRAVIOLET SPECTRUM
##DATE=02/05/18
##TIME=13:52:26
##SPECTROMETER/DATA SYSTEM=SPECTACLE
##XUNITS=NM EM
##YUNITS=ENERGY
##YFACTOR=1
##FIRSTX=220
##LASTX=410
##NPOINTS=96
##3DDATA=Equidistant
##ZUNITS=NM EX
##FIRSTZ=210
##LASTZ=400
##ZPOINTS=39
##XYDATA=(Y..Y)
##ZVALUE=210
2.375841
1.734495
2.084970
1.625419
1.837611
2.732873
2.333522
2.546906
2.582669
2.626777
3.278852
2.461672
2.945662
3.321767
3.651977
4.506707
4.331470
3.267527
4.034638
3.832579
4.659891
5.901456
5.961657
5.913973
6.720424
6.713867
6.794930
6.908774
7.555485
7.033944
8.108616
9.485483
9.128451
9.619594
10.129809
9.844899
10.823607
9.706616
11.172891
11.490583
10.805726
10.917783
11.097789
12.836456
13.032556
12.433529
12.453794
13.037920
13.504624
14.558434
16.037822
16.048551
14.563799
14.323592
15.624762
16.214848
16.282797
15.280843
17.335415
16.672611
16.036630
17.654896
16.433001
19.844770
18.600821
18.824935
20.221472
23.231506
28.683543
33.839941
41.696429
47.940612
59.081912
64.605474
67.243576
76.419711
76.490641
78.704953
75.833797
69.730878
61.743855
56.414604
48.999786
43.042898
33.528805
28.957725
23.180842
20.094514
19.196868
18.563867
17.302632
17.029643
16.725659
17.561913
17.368793
16.287565
##ZVALUE=215
8.134842
8.131862
8.405447
6.100535
6.339550
4.810691
4.653931
4.473925
4.661679
5.178452
4.521608
5.219579
4.283786
4.074574
3.754497
4.141927
4.352927
3.813505
4.524589
5.027652
4.570484
5.596876
5.746484
5.732775
7.093549
6.858706
6.775856
7.572770
8.147955
8.645654
9.014606
8.246899
8.551478
8.461475
8.934736
9.875894
10.100603
10.252595
11.107922
11.008978
12.165904
10.813475
12.455583
13.070703
12.904406
13.494492
13.430715
13.268590
13.796687
14.369488
13.949871
14.937520
15.911460
15.161633
16.775727
14.793873
16.363859
15.786886
16.511679
17.983913
16.605854
16.069412
17.398596
17.581582
18.513799
17.694831
19.146800
21.704435
24.239421
29.228926
32.854676
41.048527
47.561526
53.674579
60.662627
61.364770
64.341426
65.063834
61.318874
55.967569
53.546429
45.907497
42.383671
34.451485
30.214787
24.267435
21.242499
18.818974
16.783476
18.377900
17.861724
16.026497
16.641617
16.028881
15.260577
16.718507
##ZVALUE=220
27.883649
26.146770
30.579567
29.668808
28.990507
24.862885
18.706918
14.911890
12.135506
10.643601
12.157559
13.446808
11.839867
10.995865
10.368824
8.256435
6.841421
6.200671
5.779862
5.721450
5.219579
5.597472
5.860925
5.714893
7.408857
6.651878
7.075667
8.065701
8.498430
8.520484
8.443594
10.037422
9.747744
10.524988
9.317994
10.943413
10.990500
11.136532
11.692643
11.298656
12.036562
12.321472
12.445450
12.475848
12.365580
14.015436
14.429688
14.393926
14.499426
16.119480
14.488697
15.587807
15.800595
15.457869
14.896989
15.169978
16.217828
16.992688
15.244484
16.749501
16.012788
17.720461
18.835664
20.099878
19.233823
19.514561
20.561814
21.258593
24.345517
31.126738
33.564568
40.580630
45.254827
53.450465
56.867599
57.232976
57.009459
57.117939
58.390498
56.486726
51.486492
45.712590
42.111874
36.411881
30.437708
25.356412
23.664832
20.242929
18.938780
18.639565
18.791556
18.488765
17.662644
18.385649
17.450452
16.059875
##ZVALUE=225
52.227974
54.936409
69.964528
92.027783
101.109743
106.374621
94.870925
80.506802
59.567690
37.316680
29.653907
23.840666
25.019646
26.313663
28.432608
23.977757
20.915866
18.287897
14.011860
11.759996
7.725954
6.934404
6.089807
6.642938
6.749630
8.150935
8.553863
7.772446
9.434819
8.753538
9.303689
9.064674
9.599924
11.621714
10.159612
12.039542
11.716485
12.819767
12.632608
12.486577
13.507605
13.644695
14.165640
13.534427
13.682842
15.171766
15.580654
15.184879
15.623569
16.211867
15.766621
16.987920
17.064810
17.666817
17.430782
16.872883
16.276836
17.426610
18.190742
17.903447
17.705560
20.212531
20.972490
19.556880
19.792914
21.377802
22.749901
23.593903
26.613474
31.655431
36.047697
41.374564
45.949817
53.639412
55.313706
56.938529
58.313608
53.444505
53.741932
48.791766
41.983724
41.997433
39.721727
34.998655
32.128692
27.114749
28.079748
24.941564
24.128556
23.386478
23.142695
22.976995
22.153854
20.703673
21.867752
21.312833
##ZVALUE=230
46.812892
55.419803
88.273883
148.921609
202.641487
265.043974
293.759704
294.921994
268.068910
235.193968
159.667730
106.239915
66.025853
54.103732
47.696829
47.254562
52.225590
49.899817
44.301748
40.185452
30.974746
20.086765
15.751719
11.274815
9.461641
9.010434
9.141564
9.355545
9.766817
10.816455
9.783506
12.042522
12.435913
13.364553
11.880994
12.727976
13.583899
15.465617
13.746619
15.176535
15.215874
14.908910
14.908910
14.283657
16.088486
15.406609
16.052723
15.486479
17.289519
17.039776
17.046928
16.818643
18.363595
18.659830
17.366409
20.749569
18.472672
19.867420
20.607710
22.070408
21.289587
21.825433
21.121502
21.927953
22.761822
24.755597
25.253892
29.114485
31.783581
36.523938
41.419864
46.087503
53.043962
61.428547
61.386824
66.101551
62.157512
62.356591
60.061812
55.327415
51.871538
43.708682
40.472746
39.682984
37.554502
33.330917
29.651523
31.428933
29.224753
30.199885
28.288960
27.905703
27.928948
28.546453
27.784705
27.704835
##ZVALUE=235
19.007921
19.411445
54.340959
107.249618
217.139721
304.822922
453.943610
567.739010
631.697774
632.324815
551.518798
447.566509
329.876542
201.986432
137.555599
90.487003
79.223514
82.988739
87.087750
87.020993
82.653761
69.683790
53.323507
41.536689
27.467608
18.944740
15.141964
13.046861
12.778640
12.063980
12.014508
13.371706
13.249516
12.279749
13.310909
15.960932
15.275478
14.175773
15.744567
16.392469
15.108585
17.140508
17.356873
16.175508
16.886592
18.323660
16.826987
18.155575
18.596649
19.127727
19.197464
19.249916
21.571517
21.673441
21.485686
21.085739
21.508932
21.889806
23.297668
24.993420
22.816658
26.074648
26.951432
27.242899
29.243827
29.726624
31.188726
34.943819
38.556457
44.766665
50.015450
54.957867
57.989955
66.998601
69.713593
72.843432
70.523620
69.765449
69.161654
64.292550
59.545636
55.663586
50.635934
48.024654
45.101643
42.591691
41.684508
39.253831
37.156940
40.509701
36.022663
37.836432
37.214756
37.133694
35.057664
37.270784
##ZVALUE=240
2.483726
2.692938
8.218884
23.086667
76.758862
151.405931
317.245722
510.556698
777.378678
951.501727
1015.888453
1015.888453
1002.664566
792.107582
608.731508
365.378857
236.425996
142.863989
111.197829
107.986927
117.575526
120.601654
114.446878
105.995536
84.874630
71.175694
53.399801
39.034486
25.959611
20.077825
18.666983
15.332699
15.560985
16.356707
16.520619
16.040802
16.107559
15.510917
16.071796
15.796423
15.502572
17.102957
17.183423
15.816689
19.593835
17.348528
18.200874
19.065738
18.472672
19.658804
18.078685
19.917488
19.563437
19.967556
20.519495
21.053553
22.400618
21.134615
24.159551
25.388598
25.766492
23.861527
25.047660
26.455522
29.350519
28.777719
33.916831
34.269691
37.231445
44.374466
49.230456
55.327415
63.062906
67.870617
68.938732
72.284937
73.542595
69.325566
68.988800
64.844489
62.704682
57.305694
54.973960
53.260922
48.135519
46.331882
44.249892
45.761466
45.963526
41.789412
44.169426
42.124987
42.233467
41.592717
43.730736
41.671991
##ZVALUE=245
1.396537
1.583695
1.710653
2.208948
4.524589
20.385981
54.787993
157.594681
285.407901
540.764928
763.612986
1015.889645
1015.889645
1015.889645
1015.889645
996.506810
794.132948
527.081490
341.466665
185.991526
127.849579
110.633969
118.049979
130.560994
134.838820
132.207870
117.210746
100.515485
74.913502
60.530901
39.345622
29.040575
21.853447
18.507838
16.316772
14.451742
14.671683
14.814734
14.287829
14.422536
15.114546
16.520619
14.789701
15.307665
13.837814
13.794899
14.310479
15.275478
14.852881
16.541481
15.507936
15.131831
15.965700
14.863610
16.713738
16.746521
17.289519
16.808510
18.364787
16.830564
19.116998
20.024776
19.770861
22.782683
21.967888
24.769902
24.680495
28.600693
31.052828
36.981702
37.944913
44.702888
47.150850
53.255558
55.390000
58.657527
57.722926
55.429935
56.832433
52.684546
51.895976
50.349832
48.745871
46.034455
44.409633
43.562651
41.625500
42.357445
41.143894
38.903952
39.606690
39.605498
40.064454
39.200783
38.101673
39.061904
##ZVALUE=250
1.633763
1.636744
1.744628
1.882911
1.816750
1.911521
3.540516
11.688471
51.892400
118.324757
308.030844
518.739820
775.139928
1015.888453
1015.888453
1015.888453
1015.888453
1015.888453
1015.889049
761.373639
512.251854
316.985846
167.077780
116.368532
111.708641
128.876567
141.617656
146.728754
138.462782
127.435923
110.696554
83.287954
64.871907
39.862990
31.035542
19.727945
15.316606
14.752746
14.075637
13.574958
13.267994
13.608932
13.975501
13.694763
12.509823
13.667941
13.948679
12.917519
14.051795
14.149547
13.573766
13.723969
13.666749
14.881492
14.808774
14.869571
15.439987
14.856458
15.948415
17.360449
16.647577
17.929673
17.575622
18.555522
19.466877
21.393895
22.983551
24.354458
26.150942
29.452443
33.682585
36.520958
39.985776
45.674443
49.253702
49.655437
50.120950
48.010945
48.535466
43.382645
43.718815
42.293668
41.152835
39.468408
39.698482
38.957000
36.829710
36.007762
36.146641
37.602782
33.814907
38.609505
37.785769
36.708713
35.211444
36.988854
##ZVALUE=255
1.524687
1.249909
1.859665
1.587868
1.763701
1.644492
1.640916
1.954436
2.621412
6.358624
36.033988
89.337826
192.906857
431.380868
688.791871
1015.888453
1015.888453
1015.888453
1015.888453
1015.888453
1015.889049
1015.889049
728.824735
458.498001
227.141976
141.757727
105.434656
110.645890
133.816004
144.381523
149.929523
147.598982
135.075450
108.838677
88.722706
60.248971
42.915940
27.709603
19.897819
14.600754
13.463497
12.136698
11.711717
12.963414
13.170838
12.128949
11.793971
13.045669
12.385845
12.134910
12.195706
12.859702
12.980700
12.344718
12.863874
13.540983
13.131499
13.796687
14.480948
14.122725
14.701486
14.875531
15.432835
16.124845
16.803741
18.424988
18.591881
22.344589
22.830963
25.882721
28.143525
31.874776
33.882856
38.683414
38.980842
40.354729
40.947795
39.989948
39.902925
36.673546
37.846565
36.221743
34.679770
34.430623
32.293797
34.345984
33.909678
32.400489
32.428503
31.988621
33.720732
32.920837
33.098459
32.657981
32.896996
33.408999
##ZVALUE=260
1.585484
1.262426
1.169443
1.548529
1.532435
1.558661
1.917481
1.618862
2.178550
2.091527
2.538562
4.151464
13.083816
59.306622
138.362646
337.426066
555.826426
921.988487
1016.061902
1016.061902
1016.061902
1016.061902
1016.061902
1016.061902
984.600782
702.967048
400.741696
242.397785
124.722719
96.807480
106.422901
132.467747
146.682858
156.203508
150.673985
135.214925
117.492676
88.257790
63.231587
41.901469
28.163791
18.521547
14.137626
12.670755
12.817979
11.111498
11.957884
12.284517
12.661815
11.692643
11.785626
12.276769
12.276769
12.167692
11.801720
12.447834
12.721419
13.260841
13.560653
13.399720
14.164448
13.468862
13.995767
15.394688
15.404820
17.680526
16.855597
18.523932
20.443797
23.095608
25.247931
26.984811
29.828548
32.258630
32.521486
34.142733
34.215450
32.987595
32.130480
32.402873
30.703545
32.017827
30.005574
29.174685
30.147433
29.178858
29.655695
29.541850
31.441450
29.843450
30.203462
30.352473
31.333566
31.185746
31.777620
30.192733
##ZVALUE=265
1.297593
1.315475
1.274943
1.273751
1.390576
1.351833
1.427531
1.561642
1.926422
2.023578
1.974702
2.239943
2.273917
2.741814
7.276535
41.007996
109.198689
287.984610
525.919795
990.189910
1015.896797
1015.896797
1015.896797
1015.896797
1015.896797
1015.896797
1015.896797
904.211998
494.153500
286.611915
163.196921
90.045929
87.865591
114.991665
138.555765
156.178474
157.478452
151.270628
136.619806
109.541416
87.839961
60.002804
43.187737
26.240945
18.923879
13.738871
12.238622
11.834502
11.936426
11.426806
11.834502
12.133718
11.781454
11.866689
12.010932
12.476444
12.445450
12.729764
12.604594
12.956858
13.075471
13.552904
14.047623
14.402866
14.113784
16.040802
16.620755
17.867684
19.812584
21.540523
24.591684
25.521517
28.431416
29.838681
32.019615
32.596588
32.052994
30.318499
29.760599
29.872656
29.734969
29.675961
28.064847
27.896762
28.137565
27.184486
28.851628
27.386546
28.651953
27.602911
27.955770
26.926994
28.608441
27.130842
28.500557
28.028488
##ZVALUE=270
1.032948
1.147985
1.014471
1.169443
1.428723
1.489520
1.558661
1.557469
1.669526
1.463890
1.574755
1.907945
1.825690
2.077818
2.416968
2.648830
3.598928
18.913746
57.657957
191.881657
395.523906
724.862814
1015.889645
1015.889645
1015.889645
1015.889645
1015.889645
1015.889645
1015.889645
1015.889645
875.684619
440.092683
240.013003
102.264881
75.132847
90.608001
112.052560
139.063597
153.816938
159.475803
156.314969
137.600899
114.966631
87.071657
63.215494
40.189624
28.651953
19.838810
15.380979
12.958646
12.418628
12.203455
12.011528
12.734532
12.431741
12.525916
13.042688
13.391972
12.786984
13.427734
13.288856
14.190674
13.992786
13.727546
14.791489
15.977621
16.202927
17.227530
18.699765
19.855499
21.897554
24.343729
25.680661
27.772784
29.670000
29.033422
29.098988
28.098822
26.769638
26.958585
26.740432
25.863647
25.480986
24.996996
25.569797
24.676919
24.935603
26.364923
26.078820
25.972724
25.805831
26.353598
26.585460
26.342869
25.628805
26.728511
##ZVALUE=275
0.924468
0.932813
1.051426
0.967979
0.985861
1.177788
1.185536
1.179576
1.344681
1.341701
0.917912
1.436472
1.477599
1.487732
1.730919
1.681447
1.976490
2.153516
2.808571
8.630753
36.612749
104.935765
309.396386
586.486459
1015.888453
1015.888453
1015.888453
1015.888453
1015.888453
1015.888453
1015.888453
1015.888453
973.030925
525.471568
298.841596
126.687884
71.829557
66.230893
84.183812
112.768412
133.401752
153.369904
159.881711
152.593851
138.134956
109.021664
88.173747
61.709881
45.027733
29.328465
20.628572
14.887452
12.604594
12.076497
11.944771
11.469722
12.037754
12.220740
12.584925
13.033748
12.411475
13.310909
13.589859
13.529658
13.730526
14.838576
14.920831
16.406775
17.676950
18.731952
20.502806
22.914410
24.587512
25.117993
26.135445
26.588440
26.280880
26.240945
25.739670
25.248528
25.271773
23.833513
23.355484
23.499727
23.608804
23.517609
23.413897
24.839640
23.595691
23.976564
24.385452
24.413466
24.299622
24.486780
24.495721
24.557710
##ZVALUE=280
0.900626
0.968575
0.941753
1.027584
0.839829
1.079440
0.945926
1.089573
1.171827
1.074672
1.275539
1.498461
1.382828
1.466870
1.304746
1.590848
1.637936
2.096891
2.257824
2.324581
2.849698
3.959537
28.472543
91.788769
215.274096
528.104901
882.840753
1015.888453
1015.888453
1015.888453
1015.888453
1015.888453
1015.888453
1015.888453
1015.888453
697.400570
406.967402
174.453855
88.046789
52.338839
59.864521
86.731911
108.418465
132.904649
149.178505
153.944492
150.258541
131.331682
112.441778
84.045529
64.598918
41.148663
30.293465
20.736456
15.289783
12.810826
12.352467
12.485981
12.195706
12.547970
12.794733
13.286471
13.518929
14.013648
14.089942
14.886856
15.572906
16.781688
16.681552
17.983913
19.660592
21.872520
22.691488
24.331808
24.648905
25.462508
25.120974
24.527907
24.093986
23.682714
24.343729
22.902489
22.770762
22.244453
22.357702
22.426844
22.662878
23.204684
22.823811
23.287535
23.252964
23.336411
23.249984
22.957921
23.377538
22.729635
##ZVALUE=285
0.885725
0.903606
0.870824
0.838637
0.898838
0.892878
1.020432
0.924468
1.166463
1.126528
1.153946
1.270771
1.238585
1.264811
1.412630
1.459718
1.732707
1.536608
1.729727
2.038479
1.970530
2.254844
2.763867
3.149509
11.750460
44.953823
169.574618
363.422036
775.391459
1015.888453
1015.888453
1015.888453
1015.888453
1015.888453
1015.888453
1015.888453
1015.888453
951.882005
588.794947
270.683765
132.336617
52.392483
41.939616
59.737563
78.648925
105.955601
126.701593
144.729614
150.796771
145.167708
132.289529
111.010671
90.271831
62.564611
45.065880
28.616786
20.351410
14.457703
12.963414
12.312531
12.445450
12.498498
13.116598
14.093518
13.422966
14.108419
14.849901
15.555620
16.269684
18.530488
19.585490
20.488501
22.569895
23.273826
23.722649
23.550987
24.353862
23.397803
22.771955
22.801757
22.459626
22.606850
21.712780
22.397637
22.654533
21.539927
22.509694
22.362471
22.494793
22.355914
22.046566
21.859407
22.982955
21.376610
22.033453
21.444559
##ZVALUE=290
1.026988
0.915527
0.991821
0.873804
0.881553
0.943542
0.967979
0.944734
0.989437
0.934601
0.941753
1.042485
1.224875
1.247525
1.209974
1.149774
1.214743
1.458526
1.512766
1.761913
1.797676
1.877546
2.031922
2.473593
2.707839
2.901554
5.118847
17.791986
87.485909
221.078396
445.892811
946.011543
1015.885472
1015.885472
1015.885472
1015.885472
1015.885472
1015.885472
1015.885472
1015.886068
886.173844
428.539515
213.828683
72.895885
37.889481
39.755702
52.915812
76.628923
95.175505
120.975971
136.348605
144.331455
142.499804
127.519965
110.232830
82.303882
63.008666
42.180419
30.347705
20.569563
16.562939
13.922453
13.254881
13.341904
13.582706
14.114976
14.799833
16.071796
16.829967
18.118620
19.505620
20.746589
21.716952
22.389889
22.779703
22.573471
22.838712
22.493601
22.177696
22.606850
22.159815
21.743774
22.002459
22.447705
22.424459
21.722913
22.574663
22.865534
22.596717
21.964908
22.282600
21.830797
22.390485
21.618605
21.908879
22.021532
##ZVALUE=295
0.700951
0.746846
0.788569
0.738502
0.949502
0.831485
0.856519
0.903606
0.997782
0.916719
0.858903
1.140833
1.037717
0.926852
1.156926
1.061559
1.366735
1.184940
1.422763
1.563430
1.515746
1.692772
1.709461
1.884699
2.278686
2.490878
3.059506
3.252625
3.953576
7.674694
29.954910
139.486790
330.229998
804.795623
1015.877724
1015.877724
1015.877724
1015.877724
1015.877724
1015.877724
1015.877724
1015.877724
1015.877724
614.268780
327.341557
112.164617
48.515797
27.495623
33.707619
52.020550
68.072677
93.869567
110.807419
131.690502
139.238834
136.130452
125.364661
103.828907
85.252523
60.702562
45.715570
29.854774
23.003817
16.948581
15.073419
14.734864
14.861822
15.996695
17.054677
18.301606
19.057989
20.727515
21.632910
22.585988
22.696853
23.051500
22.845864
23.357868
22.197962
21.768808
22.866726
22.871494
21.945834
22.820830
22.005439
22.501945
22.071600
21.987557
22.380948
22.059679
22.067428
21.884441
21.479726
21.387935
21.518469
21.940470
##ZVALUE=300
0.940561
0.957847
0.856519
0.889897
0.880957
0.718832
0.806451
0.846982
0.903606
1.036525
0.932813
1.018643
1.009703
1.112819
1.061559
1.107454
1.143813
1.171827
1.216531
1.518726
1.386404
1.567602
1.764894
1.878738
2.152920
2.048612
2.424717
2.359748
2.925992
3.001690
3.598928
4.434586
20.817518
81.874728
288.686752
582.525730
1015.888453
1015.888453
1015.888453
1015.888453
1015.888453
1015.888453
1015.888453
1015.888453
1015.889049
951.364636
467.845798
237.015486
75.304508
31.407475
24.108887
30.758977
46.881437
63.464642
85.933805
106.260777
124.490857
132.469535
131.078959
123.772621
102.938414
85.179806
61.584711
47.307611
32.485723
24.281740
19.277930
17.324686
17.456412
18.235445
19.761920
20.383000
22.249818
22.383928
22.608638
22.837520
23.000836
22.468567
22.616982
22.705793
22.703409
22.570491
23.035407
22.062659
22.871494
23.258924
22.562742
23.249984
22.711754
23.091435
22.153854
22.627711
22.031665
21.839738
21.958947
21.782517
##ZVALUE=305
0.829697
1.001954
0.751615
0.741482
0.767708
0.904799
0.872612
0.772476
0.846982
0.863671
0.934601
0.908971
1.070499
1.086593
0.985861
1.028776
0.948906
1.136661
1.075864
1.164675
1.239777
1.331568
1.262426
1.635551
1.798868
1.757741
2.039671
2.078414
2.074838
2.354980
2.732873
3.305674
3.487468
4.081726
8.908510
63.098669
181.458592
514.808893
932.163596
1015.888453
1015.888453
1015.888453
1015.888453
1015.888453
1015.888453
1015.888453
1015.889049
1015.888453
725.224018
313.373804
145.709515
42.852759
21.629930
22.010803
29.201508
45.296550
61.325431
84.353685
100.841522
119.902492
127.334595
124.450922
117.555857
98.574758
83.083510
60.039759
45.886636
33.236742
26.613474
21.713972
20.428896
21.153688
21.687746
22.451878
22.675991
22.890568
22.419691
22.498965
22.717714
21.977425
23.042560
22.657514
23.221970
23.360848
23.502707
23.531914
23.685694
23.054481
23.943782
22.684932
22.226572
22.230744
22.605658
22.295713
22.068620
21.732450
##ZVALUE=310
0.882745
0.958443
0.967979
0.829697
0.928640
0.865459
0.895858
1.053810
0.960827
1.129508
1.230836
1.091957
1.034737
1.321435
1.201630
0.973940
1.097918
1.177788
1.258850
1.148582
1.401901
1.584888
1.482964
1.375675
1.673698
1.579523
1.981854
1.944900
2.067685
1.889467
2.689958
2.689958
2.642870
3.269911
3.273487
4.257560
5.295873
31.392574
109.011531
354.778767
687.278509
1016.017795
1016.017795
1016.017795
1016.017795
1016.017795
1016.017795
1016.017795
1016.017795
1016.017795
1016.017795
548.175573
278.205872
90.475678
32.422543
18.399954
20.705462
29.195547
39.245486
57.748556
73.428750
95.775723
110.039711
121.122599
122.573972
113.458633
100.642443
82.336664
65.794587
47.368407
38.343668
29.696822
26.530623
24.269819
23.090839
22.948980
22.489429
22.995472
22.536516
22.577643
23.143888
23.457408
23.772717
23.788810
24.400949
24.352670
24.323463
24.279952
24.379492
23.263693
22.893548
22.851825
22.882819
22.669435
22.460818
22.906661
##ZVALUE=315
0.816584
0.791550
0.952482
0.726581
0.761747
0.737906
0.691414
0.927448
0.930429
0.904799
1.007915
0.908971
0.870824
1.036525
1.050830
1.036525
0.944734
1.073480
1.156926
1.185536
1.027584
1.081824
1.258850
1.266599
1.359582
1.484752
1.398921
1.488924
1.801848
1.912713
1.834631
1.922846
2.223849
2.592802
2.464652
2.824664
3.301501
3.905892
4.326701
13.258457
65.899491
282.161832
579.395890
1015.886664
1015.886664
1015.886664
1015.886664
1015.886664
1015.886664
1015.886664
1015.886664
1015.886664
1015.886664
798.579454
416.891575
140.944719
52.514672
19.390583
16.752481
20.427704
25.664568
38.592815
51.862001
71.572661
88.183880
105.815530
115.012527
117.184520
110.822916
96.254945
83.122849
64.965487
51.345825
38.874745
31.696558
26.161671
23.898482
22.735596
22.807717
22.681952
23.223758
23.214817
23.637414
23.601651
23.962855
24.618506
24.502873
23.997426
24.131536
23.240447
23.809671
23.416877
23.202896
23.400784
23.049712
22.881627
##ZVALUE=320
0.720620
0.752807
0.589490
0.659823
0.755787
0.749826
0.847578
0.800490
0.771880
0.726581
0.818968
0.781417
0.704527
0.834465
0.993609
1.010895
1.043677
0.903606
0.941753
0.938773
0.981688
1.097918
1.249909
1.163483
1.137853
1.404881
1.352429
1.579523
1.761913
1.580715
1.592636
1.783967
1.943707
2.065897
2.335906
2.351999
2.587438
2.971888
3.145933
3.783703
4.464984
6.089807
25.684834
164.256692
410.900712
961.415768
1015.864015
1015.864015
1015.864015
1015.864015
1015.864015
1015.864015
1015.864015
1015.864015
1015.864015
991.302729
568.375587
214.664936
89.414716
26.886463
16.442537
16.330481
18.454790
24.992824
33.795834
51.309466
65.747499
85.512996
98.617673
111.284852
113.090873
106.838942
97.272992
78.676939
65.582991
49.535632
38.847923
31.119585
26.790500
24.225712
23.530722
24.055839
23.602843
23.355484
23.426414
24.269819
24.054646
24.476647
23.684502
23.610592
23.988485
23.569465
23.008585
23.226738
23.474693
23.478866
##ZVALUE=325
0.703931
0.757575
0.712872
0.783801
0.684857
0.831485
0.786781
0.656843
0.825524
0.647902
0.691414
0.664592
0.831485
0.835657
0.998974
0.864863
0.853539
0.829697
1.095533
1.086593
0.950694
1.171827
0.957847
1.185536
1.085997
1.135468
1.305938
1.201630
1.305938
1.369715
1.539588
1.512766
1.430511
1.884699
1.926422
1.981854
2.252460
2.259612
2.560616
2.849698
3.123879
3.165603
4.144907
4.475713
13.833642
60.957074
252.118707
558.127761
1015.888453
1015.888453
1015.888453
1015.888453
1015.888453
1015.888453
1015.888453
1015.888453
1015.888453
1015.888453
747.078657
392.496586
135.186911
50.018430
17.930865
15.209913
16.399622
18.750429
25.492907
34.977794
51.666498
66.388845
87.182522
98.605752
107.214451
109.565854
103.874803
92.728734
75.960755
63.084960
46.687722
38.271546
29.617548
26.642680
24.777651
23.919940
23.794770
24.036765
24.162531
23.811460
23.923516
23.785830
23.657680
23.321509
23.088455
23.024678
23.046732
22.636652
##ZVALUE=330
0.690818
0.653863
0.535846
0.673532
0.778437
0.677705
0.627637
0.725985
0.594854
0.753999
0.754595
0.760555
0.835657
0.809431
0.913739
0.797510
0.792742
0.854731
0.675917
0.861883
0.968575
0.892878
1.060963
1.081824
1.050830
1.242757
0.972748
1.196861
1.390576
1.249909
1.457930
1.394749
1.530647
1.418591
1.632571
1.649857
1.951456
1.944900
2.050996
2.212524
2.330542
2.638698
3.018975
3.302693
3.920794
4.594922
7.110834
28.671622
164.284706
395.134687
938.502550
1015.888453
1015.888453
1015.888453
1015.888453
1015.888453
1015.888453
1015.888453
1015.888453
1015.888453
978.044868
566.611886
211.482644
83.427429
23.452640
16.188622
15.501976
16.615987
20.481944
26.139617
38.659573
48.416853
65.500736
79.821944
95.864534
100.500584
103.760958
97.735524
84.902644
74.289441
56.988001
47.300458
36.888719
31.502843
27.158856
25.282502
24.182796
23.908615
23.371577
23.479462
23.077726
22.930503
22.564530
22.578835
22.349954
22.466779
##ZVALUE=335
0.623465
0.638962
0.745654
0.799894
0.667572
0.464916
0.709891
0.682473
0.586510
0.714660
0.523925
0.547767
0.708699
0.669956
0.870824
0.716448
0.677705
0.935793
0.842810
0.792742
0.976920
0.892878
0.939965
0.999570
0.993609
1.049638
1.113415
0.994802
1.100898
1.057982
1.369715
1.346469
1.365542
1.299977
1.472831
1.573563
1.600981
1.750588
1.799464
2.052784
2.351999
2.288818
2.333522
2.739429
2.916455
3.525615
3.561974
4.216433
5.055666
15.656948
66.179633
278.072953
591.315627
1015.888453
1015.888453
1015.888453
1015.888453
1015.888453
1015.888453
1015.888453
1015.888453
1015.888453
1015.888453
763.359070
378.767848
113.686919
40.850639
17.524958
16.079545
17.299652
18.114448
21.950603
26.737452
36.494732
47.175884
63.586831
75.407624
88.210702
95.843673
97.059608
91.916919
80.631971
70.618987
57.904720
48.203468
37.699938
31.348467
27.063489
24.836659
23.158789
23.138523
22.562742
22.110939
21.837950
21.458864
22.059679
##ZVALUE=340
0.607967
0.637770
0.663996
0.688434
0.665784
0.507832
0.590682
0.611544
0.647902
0.775456
0.724792
0.754595
0.716448
0.622869
0.761747
0.668764
0.777841
0.834465
0.651479
0.739694
0.644922
0.771880
0.939965
0.915527
0.966787
1.017451
0.977516
1.093745
1.152754
1.087785
1.136661
1.112819
1.125932
1.322627
1.347661
1.532435
1.544952
1.489520
1.764894
1.779795
1.666546
2.031922
2.067685
2.400875
2.444983
2.641678
2.788901
3.327727
3.507733
4.369617
4.840493
7.596612
28.420687
166.670084
432.319641
1003.033519
1015.882492
1015.882492
1015.882492
1015.882492
1015.882492
1015.882492
1015.882492
1015.882492
1015.882492
893.215537
479.710698
182.542801
66.348910
20.562410
17.575622
17.857552
18.058419
19.453764
21.599531
27.254820
34.079552
45.696497
57.134628
73.630810
83.108544
91.288686
92.318654
88.136792
80.919862
67.996979
58.118701
45.255423
37.557483
30.216575
26.355982
23.170710
22.220612
21.162629
21.464825
21.202564
##ZVALUE=345
0.557899
0.653863
0.527501
0.681877
0.579953
0.702739
0.685453
0.759959
0.597835
0.645518
0.644922
0.414848
0.709891
0.693798
0.745654
0.720620
0.789762
0.774860
0.676513
0.825524
0.895858
0.863671
0.838637
0.709891
0.702739
0.801682
0.998974
0.814795
0.940561
1.075864
1.004934
1.066923
1.157522
1.153946
1.243949
1.330972
1.301765
1.366735
1.503825
1.784563
1.490712
2.006888
1.904964
1.925826
2.069473
2.272725
2.283454
2.597570
2.858639
3.290772
3.676414
4.030466
4.626513
5.718470
13.962984
95.060468
265.737772
710.453987
1015.889645
1015.889645
1015.889645
1015.889645
1015.889645
1015.889645
1015.889645
1015.889645
1015.889645
1015.889645
695.219040
253.083706
106.840730
32.426715
20.061731
18.407702
17.769933
17.784834
18.347502
20.895600
24.204850
32.947659
41.734576
56.313872
66.400766
76.962709
83.297491
85.192919
83.653927
74.993968
66.737533
54.892898
45.386553
35.229921
29.356480
24.267435
22.296906
20.776987
##ZVALUE=350
0.636578
0.546575
0.691414
0.530481
0.750422
0.686646
0.675917
0.638962
0.733733
0.714660
0.737906
0.835657
0.854731
0.774860
0.696778
0.806451
0.827909
0.797510
0.691414
0.706911
0.696778
0.712872
0.835657
0.945926
0.975728
0.968575
1.092553
0.890493
1.160502
1.068711
1.041889
1.084805
1.167655
1.068711
1.330972
1.239777
1.240969
1.236796
1.382828
1.317859
1.354814
1.454949
1.923442
1.854897
1.827478
1.981854
2.051592
2.226830
2.492666
2.665520
2.727509
3.138781
3.420711
3.747940
4.200935
4.756451
9.116530
40.027499
191.889405
441.135764
978.663564
1015.888453
1015.888453
1015.888453
1015.888453
1015.888453
1015.888453
1015.888453
1015.888453
1015.888453
786.679983
404.493809
143.675804
51.033497
20.271540
17.372966
16.233921
15.888810
15.942454
16.833544
19.296408
22.985935
29.917955
37.137866
49.077868
58.370829
70.369840
75.880885
79.052448
77.321529
68.827868
61.550736
49.876571
42.015910
33.729672
28.673410
##ZVALUE=355
0.790954
0.771880
0.721812
0.696778
0.828505
0.810623
0.809431
0.895858
0.797510
0.819564
0.769496
0.827909
0.909567
0.909567
0.860691
0.826716
0.811815
0.793934
0.936985
0.896454
0.902414
0.758767
0.869632
1.019835
0.893474
1.076460
0.985861
1.011491
1.032948
1.068711
1.178980
1.135468
1.391768
1.253486
1.469851
1.370907
1.432896
1.399517
1.206994
1.449585
1.529455
1.576543
1.581907
1.598597
1.734495
1.866817
2.100468
2.107620
2.443790
2.324581
2.722740
2.825856
3.005862
3.205538
3.289580
3.802776
4.433990
4.939437
6.303787
15.614629
110.095739
312.789679
826.970935
1015.888453
1015.888453
1015.888453
1015.888453
1015.888453
1015.888453
1015.888453
1015.888453
1015.888453
1015.889049
598.198771
208.245516
81.126690
23.376942
16.364455
15.184879
15.088916
14.907718
14.969707
15.933514
17.834902
21.420717
26.115775
34.269691
42.427778
54.022670
61.833858
69.445968
71.647763
70.357919
66.360831
57.134628
49.556494
##ZVALUE=360
0.736713
0.753999
0.758767
0.751615
0.850558
0.933409
0.677705
0.763535
0.877976
0.875592
0.692606
0.787973
0.814795
0.559688
0.824928
0.749826
0.855923
0.756979
0.838637
1.011491
0.965595
0.949502
0.961423
0.929832
0.901818
1.025796
1.002550
1.041889
1.258850
1.071692
0.957847
1.034737
1.164675
0.914931
1.199841
1.241565
1.261830
1.353621
1.468658
1.488924
1.439452
1.509786
1.493692
1.483560
1.605749
1.996756
1.807809
1.829863
2.083778
2.137423
2.175570
2.317429
2.587438
2.777576
2.888441
2.949834
3.204942
3.670454
4.143715
4.618764
5.394816
9.245872
33.465028
167.402625
418.702960
975.728035
1015.888453
1015.888453
1015.888453
1015.888453
1015.888453
1015.888453
1015.888453
1015.888453
1015.888453
691.210032
339.276791
113.932490
40.428638
15.906692
14.343858
14.106631
13.945699
13.960600
13.864636
14.653802
15.788674
18.330812
21.829605
28.555989
35.100579
45.233965
53.011775
60.315728
63.678622
64.270496
##ZVALUE=365
0.610948
0.586510
0.597835
0.580549
0.747442
0.842810
0.706911
0.773668
0.801682
0.749826
0.764728
0.847578
0.894666
0.916719
0.782609
0.754595
0.830889
0.943542
0.989437
0.863671
0.937581
0.909567
0.997782
0.902414
0.989437
0.892878
1.119971
1.104474
1.149774
1.097918
1.142621
1.129508
1.105666
1.252890
1.209974
1.205802
1.285672
1.209974
1.251698
1.331568
1.229644
1.552701
1.477599
1.682639
1.414418
1.707673
1.629591
1.698732
1.837611
1.928806
1.980662
1.886487
2.127886
2.201796
2.406836
2.664924
2.943873
3.081560
3.447533
3.935695
4.143715
4.873872
5.464554
6.636977
14.691949
93.600750
270.745754
758.273005
1015.888453
1015.888453
1015.888453
1015.888453
1015.888453
1015.888453
1015.888453
1015.888453
1015.888453
967.946053
540.309548
184.447765
69.164634
19.075871
14.025569
13.323426
12.884736
12.769699
12.374520
12.724996
12.885928
14.169812
15.633702
19.345880
24.008751
31.053424
38.200617
47.108531
##ZVALUE=370
0.651479
0.918508
0.666976
0.642538
0.767708
0.787973
0.655651
0.812411
0.638962
0.743866
0.638962
0.759959
0.693798
0.597835
0.777841
0.931621
0.923872
0.778437
0.780821
0.788569
0.973940
1.006722
0.984669
0.966787
0.975728
0.841618
0.970960
0.863671
0.923872
0.909567
0.926852
1.019835
1.184940
1.179576
1.068711
1.073480
0.981688
1.098514
1.106858
1.057982
1.154542
1.223683
1.343489
1.440644
1.296997
1.316667
1.416802
1.548529
1.626611
1.555681
1.682639
1.747608
2.022982
2.015829
2.131462
2.081990
2.465844
2.426505
2.615452
2.859831
3.257990
3.526807
4.028678
4.447699
4.978776
5.476475
8.186698
49.297810
168.292522
544.817448
972.827673
1015.888453
1015.888453
1015.888453
1015.888453
1015.888453
1015.888453
1015.888453
1015.888453
1015.888453
696.718693
251.618624
105.713606
30.751824
14.762878
12.498498
11.902452
11.763573
11.735559
11.255741
11.374950
11.483431
12.455583
14.256835
16.703606
21.863580
##ZVALUE=375
0.607967
0.602603
0.673532
0.462532
0.527501
0.611544
0.639558
0.586510
0.513792
0.542998
0.862479
0.657439
0.745654
0.740886
0.770688
0.708699
0.714660
0.628829
0.696778
0.553727
0.710487
0.734925
0.774860
0.716448
0.656843
0.838637
0.746846
0.877976
0.786781
0.805855
0.884533
0.840425
0.921488
0.898838
0.927448
1.066923
1.070499
1.047850
1.057982
1.176000
1.195669
0.982881
1.082420
1.206994
1.119971
1.169443
1.250505
1.199841
1.266599
1.503825
1.455545
1.431704
1.440644
1.779795
1.704693
1.927614
1.846552
1.825690
1.900792
2.202988
2.395511
2.524853
2.897978
3.045797
3.317595
3.885627
4.319549
5.208850
6.510615
25.669932
102.763772
377.970934
795.189738
1015.865803
1015.865803
1015.865803
1015.865803
1015.865803
1015.865803
1015.865803
1015.865803
1015.865803
974.716544
439.581871
203.394890
56.532621
20.599961
12.283921
11.675954
11.064410
10.715723
10.677576
10.674596
10.594726
10.646582
10.926723
##ZVALUE=380
0.597835
0.624657
0.524521
0.677705
0.664592
0.619888
0.499487
0.664592
0.310540
0.737906
0.652671
0.675917
0.606775
0.563860
0.639558
0.869632
0.712872
0.640750
0.640750
0.557899
0.548959
0.758767
0.665784
0.667572
0.668764
0.636578
0.780821
0.937581
0.678897
0.760555
0.794530
0.872612
0.749826
0.995994
0.821948
0.814795
1.004934
0.916719
0.957847
0.958443
1.081824
1.077652
1.055598
1.270771
1.066923
1.152754
1.083612
1.221895
1.433492
1.282692
1.305938
1.378655
1.361966
1.452565
1.539588
1.438856
1.650453
1.767874
1.810789
2.172589
2.104640
2.278686
2.193451
2.415776
2.514720
2.935529
3.318787
4.056692
4.381537
5.184412
6.246567
11.021495
46.034455
240.101814
557.756424
1015.918851
1015.918851
1015.918851
1015.918851
1015.918851
1015.918851
1015.918851
1015.918851
1015.918851
1015.918851
715.021491
349.702835
108.309984
37.158728
13.419986
10.927916
10.345578
9.963512
9.803772
9.881854
9.624958
##ZVALUE=385
0.601411
0.519753
0.598431
0.746846
0.600815
0.460744
0.634789
0.496507
0.528693
0.603795
0.569820
0.633597
0.505447
0.621676
0.571609
0.617504
0.723600
0.657439
0.716448
0.719428
0.865459
0.639558
0.827909
0.492930
0.758767
0.658631
0.853539
0.808835
0.744462
0.716448
0.674725
0.686646
0.745654
0.779629
0.830889
0.964999
0.734925
0.851750
0.818968
0.850558
0.837445
0.989437
0.923872
1.024604
0.766516
0.989437
1.030564
1.263618
0.961423
1.156926
1.104474
1.334548
1.120567
1.438856
1.500845
1.418591
1.524687
1.537800
1.668930
1.719594
1.773834
2.006888
1.891851
1.991987
2.330542
2.489686
2.782941
3.098845
3.694892
4.198551
4.626513
5.221963
5.783439
6.664991
23.990870
93.259811
369.607806
807.546973
1015.965939
1015.965939
1015.965939
1015.965939
1015.965939
1015.965939
1015.965939
1015.965939
1015.965939
1015.965939
521.942973
249.030590
73.197484
22.829771
10.478497
9.859800
9.249449
8.925796
##ZVALUE=390
0.584722
0.558496
0.360608
0.517964
0.461936
0.511408
0.516772
0.517964
0.527501
0.461936
0.472665
0.468493
0.421405
0.474453
0.472665
0.567436
0.466704
0.485778
0.441670
0.500679
0.554919
0.501871
0.663996
0.565648
0.554919
0.607967
0.671744
0.545979
0.465512
0.514984
0.552535
0.649691
0.685453
0.707507
0.644922
0.822544
0.799894
0.932813
0.914931
0.779629
0.891685
0.755787
0.797510
0.869632
1.013875
0.901818
1.097918
1.060963
1.110435
1.048446
1.040697
1.114607
1.131892
1.234412
1.313686
1.299977
1.238585
1.444817
1.402497
1.496673
1.687407
1.605749
1.820922
1.904964
1.996756
2.025962
2.376437
2.768636
3.355742
3.718734
3.935695
4.293919
4.339814
4.836917
5.086660
5.444884
12.138486
54.313540
263.066888
625.382662
1015.888453
1015.888453
1015.888453
1015.888453
1015.888453
1015.888453
1015.888453
1015.888453
1015.888453
1015.888453
795.819759
394.471884
122.270584
39.384961
11.438727
9.612441
##ZVALUE=395
0.391603
0.454783
0.490546
0.348687
0.423789
0.476837
0.262856
0.562668
0.349879
0.651479
0.548959
0.528693
0.586510
0.594854
0.612736
0.676513
0.448823
0.601411
0.549555
0.583529
0.439882
0.587702
0.477433
0.740886
0.647902
0.540614
0.563860
0.747442
0.691414
0.567436
0.647902
0.698566
0.698566
0.671744
0.748634
0.834465
0.728965
0.807643
0.731945
0.812411
0.796914
0.761747
0.772476
0.901818
0.859499
0.956655
0.822544
0.931621
0.904799
1.030564
0.912547
0.985861
1.240969
1.143813
1.142621
1.246929
1.380444
1.362562
1.466870
1.396537
1.452565
1.532435
1.598597
1.766682
1.978874
2.391934
2.386570
2.753735
2.988577
3.555417
3.579855
3.814697
3.822446
4.111528
4.005432
4.226565
4.880428
5.451441
7.851720
30.334592
177.982450
447.325706
996.627808
1015.888453
1015.888453
1015.888453
1015.888453
1015.888453
1015.888453
1015.888453
1015.888453
1015.888453
992.815495
561.386943
190.150738
72.714686
##ZVALUE=400
0.421405
0.340939
0.289679
0.493526
0.486970
0.449419
0.329614
0.335574
0.431538
0.535846
0.490546
0.388622
0.372529
0.433922
0.430942
0.453591
0.372529
0.463724
0.536442
0.425577
0.549555
0.546575
0.550747
0.609756
0.450611
0.563860
0.672936
0.504851
0.604987
0.535846
0.581741
0.492930
0.614524
0.758767
0.539422
0.660419
0.650883
0.758767
0.743866
0.739694
0.685453
0.705719
0.791550
0.757575
0.940561
0.920892
0.949502
0.854731
0.927448
1.021624
0.995994
0.978708
0.980496
1.068711
1.266599
1.231432
1.235604
1.190901
1.211762
1.216531
1.496673
1.422763
1.458526
1.601577
1.613498
2.036691
2.063513
2.383590
2.578497
3.070831
3.214478
3.376603
3.335476
3.414750
3.247857
3.369451
3.692508
3.867745
4.279613
4.842877
5.650520
18.881559
71.664453
272.590518
608.696938
1015.888453
1015.888453
1015.888453
1015.888453
1015.888453
1015.888453
1015.888453
1015.888453
1015.888453
1015.888453
665.254593
##END
