##TITLE=QP00352
##FORMAT=SPECTACLE-ASCII V-1.2
##DATA TYPE=ULTRAVIOLET SPECTRUM
##SECOND TYPE=ULTRAVIOLET SPECTRUM
##DATE=02/05/18
##TIME=14:40:36
##SPECTROMETER/DATA SYSTEM=SPECTACLE
##XUNITS=NM EM
##YUNITS=ENERGY
##YFACTOR=1
##FIRSTX=220
##LASTX=410
##NPOINTS=96
##3DDATA=Equidistant
##ZUNITS=NM EX
##FIRSTZ=210
##LASTZ=400
##ZPOINTS=39
##XYDATA=(Y..Y)
##ZVALUE=210
2.004504
2.680421
2.343655
2.675653
2.499819
2.937913
3.200769
2.279878
2.584457
2.726912
2.298951
2.494454
2.595782
2.745986
2.649426
3.013611
3.211498
2.865791
3.589988
3.929734
3.552437
4.329681
4.101992
4.006624
3.829598
4.522800
4.592538
5.081892
5.133748
5.045533
5.089641
5.976558
4.979968
5.369782
6.541610
5.582571
7.014871
6.669760
7.095933
6.121993
6.122589
6.982684
6.915927
7.164478
7.342696
7.374883
7.446408
7.819533
7.289648
8.345842
7.990599
7.955432
7.615685
7.174611
8.241534
7.338524
8.139610
8.349419
8.351803
7.607937
8.388758
9.210706
8.497834
8.563995
8.526444
9.051561
11.830926
12.973547
12.908578
15.974641
17.707944
21.906495
26.318431
27.657747
32.079816
35.221577
35.957694
36.119819
39.295554
37.342906
37.020445
31.823516
27.942657
22.862554
19.161701
15.405416
11.305809
10.766983
8.960962
7.683635
8.422732
8.363724
8.083582
9.155869
9.044409
9.069443
##ZVALUE=215
7.240772
7.007718
6.324649
5.479455
3.971457
4.847646
4.041791
4.669428
5.359650
5.083680
5.048513
4.908442
4.798770
3.217459
3.821850
3.353953
3.486872
3.129840
3.943443
3.853440
4.471540
3.199577
3.749728
4.374981
4.648566
4.727840
4.306436
5.351901
5.623698
5.764961
5.877614
6.919503
6.297827
7.183552
6.526709
6.005764
5.729795
6.294847
7.039905
6.494522
7.078648
7.071495
6.332994
6.919503
6.640553
7.501841
6.520748
7.325411
7.506609
7.889867
7.402897
6.731749
7.897615
7.230639
7.706881
6.828904
8.280873
8.618832
7.596612
7.521510
8.552670
7.327795
7.782578
8.861423
7.661581
8.705854
8.879900
9.964705
10.344982
11.895895
13.362765
16.241670
19.042492
19.713640
24.668574
25.515556
27.098656
26.430488
27.195811
23.535490
23.649931
20.850897
19.474626
15.870929
14.568567
11.997819
10.448694
9.551644
8.432865
7.882714
7.269979
7.712841
7.079840
7.341504
8.012652
8.137822
##ZVALUE=220
26.078820
27.690530
28.430820
27.315617
25.313497
22.841692
17.148852
14.046431
11.952519
10.528564
11.551976
11.305809
12.147427
11.181831
9.029508
7.197857
6.250739
4.881620
4.743934
4.404783
4.477501
4.530549
4.580617
4.291534
4.546642
5.298853
5.585551
5.274415
5.416870
5.614758
5.817413
6.677508
5.939603
6.340742
6.440878
6.747842
6.118417
6.905794
6.135702
6.952882
7.894635
7.138848
7.812977
7.384419
7.805824
8.710623
7.028580
7.993579
6.747842
7.651448
8.673668
8.289814
8.158684
8.460879
8.155704
9.412766
7.945895
8.584857
8.717775
8.017421
8.766651
9.379983
9.473562
8.730888
9.089708
8.767843
10.561943
11.718869
11.403561
13.889670
14.607906
17.615557
20.396709
22.268891
25.742650
29.717684
27.631521
28.506517
28.799772
28.483868
26.008487
23.147464
21.014810
18.058419
16.102791
13.441443
12.281537
10.277629
8.840561
8.704662
7.782578
7.730722
8.535981
8.447766
8.703470
8.925796
##ZVALUE=225
47.474504
52.042603
66.611767
83.380938
91.221929
96.186996
87.221861
71.997643
48.406720
37.079453
27.650595
25.413632
23.415685
26.545525
24.734735
23.585558
21.640658
17.182827
12.746453
8.750558
6.653666
5.682707
5.467534
5.323887
5.584955
5.388856
5.440712
5.665421
6.390810
7.017851
6.614923
5.873442
7.067919
7.376671
7.209778
6.739497
7.820725
7.255673
7.685423
6.550550
8.732677
8.149743
7.622838
8.364916
8.786917
8.170605
8.827448
7.495880
7.332563
9.197593
9.866953
8.951426
9.444952
8.794665
9.398460
10.165572
10.405779
9.056926
9.265542
10.458827
10.174513
8.997917
10.434985
10.343790
11.100769
11.503696
10.493994
11.924505
14.455914
15.139580
16.947985
19.703507
20.948648
22.466779
25.855899
24.393797
25.491714
28.217435
25.805831
24.637580
22.428632
19.949675
18.175840
16.877651
14.936924
12.807846
12.868643
10.553598
10.756850
10.990500
11.395812
9.508729
10.683537
10.782480
9.517670
10.335445
##ZVALUE=230
42.637587
46.912432
80.807805
114.240646
150.296688
191.788673
213.192701
204.791427
192.791820
151.938796
117.041469
78.577995
59.238672
46.980977
47.608614
50.150752
50.822496
48.535466
42.230487
36.551952
27.895570
18.211603
12.649894
9.425879
6.946921
7.062554
6.734729
6.309748
6.713867
7.625818
6.730556
7.287860
6.978512
7.859468
8.927584
9.089708
7.931590
8.152723
8.896589
8.852482
8.303523
8.094907
8.882880
8.760691
8.683801
9.221435
8.937716
8.883476
8.173585
8.985996
8.958578
9.758472
9.399652
9.052753
9.891987
9.900928
9.458661
10.199547
10.371804
11.574626
11.496544
11.256933
10.908842
11.183619
12.058616
12.712479
13.326406
12.981892
14.568567
16.359687
19.936562
20.286441
22.780895
25.420785
26.967525
27.630925
26.233792
25.362968
25.011897
23.995638
22.069812
20.318627
17.645955
18.416643
15.577674
13.587475
14.315844
13.197660
13.996959
13.267994
12.943745
13.866425
12.915730
12.850761
13.344884
12.351871
##ZVALUE=235
15.184879
17.244816
36.986470
85.584521
140.423775
230.205655
298.337936
387.215018
425.547957
425.686836
367.731452
300.252438
203.076601
142.121911
93.930960
75.534582
74.194670
75.070858
81.845522
83.397627
80.307722
64.917803
52.974820
36.717653
26.032925
15.159845
13.453960
10.320544
8.850694
8.969903
8.803606
9.696484
8.929968
8.617640
8.501410
8.106828
9.396672
9.468794
8.006692
8.372664
7.736683
8.359551
9.738803
8.894801
8.319616
8.593798
9.624958
9.779930
9.627938
9.288788
10.054708
10.149479
9.789467
10.856986
10.810494
12.445450
11.325479
11.240840
12.500882
13.047457
12.654662
13.563633
13.092756
14.162660
13.489723
13.284683
14.500618
16.836524
16.927719
19.039512
20.525455
24.093986
25.962591
30.127764
30.374527
30.805469
32.618642
32.834411
33.399463
30.768514
29.060841
25.445819
24.534464
22.810698
20.329952
19.823909
19.987822
18.163919
18.022656
17.781854
17.436743
17.187595
17.424822
17.339587
16.002655
16.418695
##ZVALUE=240
2.100468
2.527833
8.449554
25.056601
73.468685
135.114789
264.074802
390.165448
575.709939
689.496994
757.087469
739.169717
660.380721
509.020686
370.166898
221.591592
158.398747
110.587478
100.027919
105.230808
111.173987
123.099685
118.650794
106.495619
84.879994
68.175793
48.422813
37.749410
25.965571
17.567873
12.937784
11.305809
10.812879
11.498928
11.886954
12.575984
10.529757
10.877848
10.509491
11.510849
10.454655
11.438727
10.590553
8.743405
9.744763
11.663437
10.601878
10.418892
11.997819
10.645986
9.332895
11.267662
10.351539
11.440516
11.200905
13.123751
11.729598
12.965798
11.971593
12.816787
13.888478
13.539791
14.835000
14.606714
15.476942
14.688969
17.022491
18.136501
20.143986
21.729469
25.000572
30.310750
30.573606
35.519600
37.412643
38.755536
40.136576
38.699508
41.228533
35.939813
35.400987
33.195615
29.324889
28.477907
23.877621
22.106767
21.478534
20.729899
20.459890
20.584464
21.277666
21.129847
20.201802
21.294951
19.885898
20.905733
##ZVALUE=245
1.754761
1.681447
1.975894
2.059937
4.770756
19.544959
53.575635
147.706866
269.322991
416.497588
646.726489
809.060931
916.500688
902.639627
806.162953
689.339638
480.377674
343.405008
238.424540
141.839981
108.429790
103.128552
116.174817
133.818984
137.480497
126.383901
117.813945
96.680522
75.003505
54.414868
40.166974
26.468635
20.160675
14.114976
12.265444
11.497736
10.995865
9.833574
9.896755
9.952784
10.924935
10.186434
9.785891
8.780956
9.059906
8.656979
10.137558
9.188652
10.301471
9.079576
9.861588
9.201765
8.912683
10.144711
9.285808
11.126995
9.489655
11.340976
11.290908
12.189746
11.552572
12.405515
11.577606
12.781620
14.283657
15.293956
16.274452
15.886426
15.943646
18.522739
20.240545
22.672415
26.303530
28.887987
28.524995
28.966665
30.085444
29.590726
27.383566
27.058721
26.401877
26.099682
24.166703
23.893714
22.883415
22.091866
21.690726
19.858479
19.934773
20.149946
19.317865
19.900799
19.245744
18.517971
19.038916
18.579960
##ZVALUE=250
1.389980
1.509786
1.477599
1.791716
1.769662
2.060533
2.754927
9.790659
42.827725
101.827979
269.811749
461.489558
688.172579
967.665911
1015.889645
1015.889645
1015.889645
949.775577
766.053796
486.941934
315.949917
196.789503
117.150545
101.304650
109.878778
127.314925
140.196681
143.276453
136.524439
127.350688
110.562444
82.025528
62.375665
39.567947
25.632977
18.063784
13.320446
11.126995
10.136962
9.992719
9.373426
9.659529
9.024739
8.923411
8.277893
8.983612
8.269548
8.296967
8.789897
8.186698
7.661581
8.898973
9.011626
9.074807
8.750558
9.545684
9.347796
9.502769
9.964705
9.743571
9.744763
10.127425
10.607839
12.321472
11.408925
13.043880
12.982488
14.542937
14.153719
16.364455
17.652512
19.695759
21.179914
25.723577
24.498701
25.670528
25.814772
25.101900
25.493503
25.326610
24.249554
24.497509
23.168921
21.673441
21.723509
19.704700
18.658638
18.317699
19.853711
19.303560
19.290447
18.834472
19.515753
16.290545
18.228889
17.162561
##ZVALUE=255
1.488924
1.239777
1.168847
1.334548
1.750588
1.627803
1.423955
1.784563
1.878738
4.563928
26.085973
65.103769
145.773888
331.587791
513.847470
780.010819
967.333913
1015.888453
1015.888453
997.627974
838.541985
637.502670
385.980010
242.586732
127.634406
96.043944
94.315410
107.052922
130.649805
141.479969
150.299668
146.372914
135.346651
106.662512
84.801912
56.922436
39.172769
23.446679
15.193820
9.727478
7.808805
7.329583
7.259846
7.347465
6.916523
7.072687
6.886721
6.681681
6.509423
6.863475
6.623864
6.778836
6.613731
6.564856
7.527471
7.138848
7.034540
7.098913
6.940961
7.749796
7.508993
8.281469
7.961988
8.079410
7.729530
8.261800
9.130836
9.405613
10.950565
11.997819
12.729764
14.813542
15.350580
15.852451
17.033815
17.012954
18.202662
17.413497
16.582608
16.075969
17.329454
15.813708
15.009642
16.529560
16.176701
16.014576
14.934540
15.301704
15.270710
15.388727
14.808774
15.532970
16.280413
15.806556
15.876889
15.458465
##ZVALUE=260
1.146793
1.426935
1.297593
1.111627
1.180768
1.239777
1.541972
1.498461
1.493692
2.075434
2.448559
2.847910
10.143518
46.185851
111.525655
295.971632
505.833626
848.400593
1015.888453
1015.888453
1015.888453
1015.888453
1015.888453
935.544968
558.486581
364.775658
203.312635
125.944614
85.292459
86.093545
103.199482
131.053925
146.720409
156.378746
150.548816
133.884549
113.087893
83.042979
59.743524
35.869479
24.250746
12.928843
9.992719
7.144809
6.636977
6.042719
6.770492
6.378889
6.410480
6.125569
6.827712
6.716847
6.099939
6.706715
6.506443
6.411672
6.540418
7.314682
6.859899
7.179976
6.824732
7.019639
8.021593
7.600784
7.437468
8.493662
8.666515
9.330511
10.294914
11.186600
11.063814
12.881756
14.267564
16.327500
16.230941
15.341640
16.626716
16.175508
15.890598
16.465783
14.269948
14.782548
15.148520
13.965964
13.560653
13.307929
14.265776
13.948679
14.597774
14.099479
13.854504
14.799833
14.408827
15.130639
14.449954
15.029907
##ZVALUE=265
1.160502
1.069903
1.145601
1.071692
1.407862
1.256466
1.115799
1.330972
1.285672
1.820922
1.725554
2.120733
2.013445
2.349615
5.791783
30.560493
77.351928
209.635496
401.455760
804.881454
1015.888453
1015.888453
1015.888453
1015.888453
1015.888453
1015.888453
813.470483
536.963940
281.446576
159.508586
98.338723
73.851943
83.972812
111.833811
131.275654
150.186419
154.605508
147.363544
135.677457
106.871724
85.189939
56.345463
37.551522
20.984411
13.757944
7.906556
6.551743
6.579757
6.128550
6.260872
6.609559
6.176829
6.457567
6.566644
6.120801
6.297827
7.036924
7.378459
6.404519
6.834865
7.046461
7.191896
7.315874
7.475615
7.376671
7.935762
8.473992
8.756518
9.688735
10.271668
10.866523
12.121797
14.168620
14.926791
14.535785
14.231801
14.517903
14.380813
13.364553
13.907552
13.572574
13.116598
13.100505
12.179613
12.578964
12.175441
13.072491
12.393594
12.545586
12.691617
12.613535
12.534857
13.776422
13.275743
12.688637
13.523698
##ZVALUE=270
0.988841
0.798702
0.790954
0.689626
1.059771
1.041889
0.907779
1.164675
1.184940
1.203418
1.165867
1.138449
1.196861
1.471639
1.839995
1.838803
2.452731
11.979938
39.853454
141.224861
275.163054
469.046831
792.275667
999.580622
1015.888453
1015.888453
1015.888453
1015.888453
821.170807
602.869987
408.328772
208.905935
117.127895
65.483451
63.012838
83.556771
109.217763
133.404732
150.336623
157.379508
150.897503
130.351782
110.465884
79.701543
56.875944
33.613443
23.147464
13.133883
8.872747
6.782413
6.156564
5.673766
5.870461
5.959868
5.749464
6.077886
5.957484
6.145835
6.977916
6.599426
6.744862
6.529689
5.985498
6.630421
6.700754
7.277727
7.039905
7.676482
7.954836
8.910894
9.816885
10.439754
10.045767
11.113882
11.801720
11.732578
11.685491
11.619925
11.374950
11.226535
11.411905
11.349916
11.072755
11.074543
11.302829
10.891557
11.222959
11.071563
10.969639
11.262894
11.398792
11.037588
11.708736
12.089610
11.337996
11.691451
##ZVALUE=275
0.764728
0.785589
0.657439
0.625849
0.764728
0.810623
0.783801
0.704527
0.858903
0.901818
1.043677
0.944734
1.188517
1.291633
1.198649
1.514554
1.331568
1.678467
1.822710
5.370975
20.284653
59.452653
176.639557
325.692892
607.878566
828.405023
1015.888453
1015.888453
1015.888453
1015.888453
1015.888453
769.993663
540.424585
282.132626
159.692764
72.640777
50.493479
59.034824
77.729821
108.805895
129.845738
148.782730
153.472424
148.029923
132.424831
104.879737
82.560778
56.140423
40.949583
22.424459
14.453530
8.782744
7.013679
6.355643
5.803704
5.884767
5.582571
6.404519
6.209612
6.444454
6.717443
6.445646
6.699562
6.999969
6.886721
7.393956
7.134676
7.189512
8.046627
8.948445
8.333921
10.277629
10.619760
10.812879
10.856986
11.302829
11.021495
10.402799
11.028647
11.090636
10.319948
10.307431
9.963512
10.070801
10.195971
10.109544
10.020733
11.093616
10.649562
10.431409
10.410547
9.990931
10.318756
10.207891
10.020733
10.782480
##ZVALUE=280
0.667572
0.642538
0.613928
0.805855
0.790954
1.053810
0.771880
0.579953
0.724792
0.670552
0.792742
1.051426
0.992417
0.965595
1.091957
1.221895
1.132488
1.539588
1.322627
1.703501
1.820922
2.592802
14.582872
52.519441
161.058903
298.398733
535.123944
768.584013
1015.841961
1015.841961
1015.841961
1015.841961
1015.841961
910.938978
670.706630
377.872586
221.311450
98.287463
52.691698
42.508841
53.552985
80.746412
104.013681
129.140615
143.456459
149.526596
146.622658
127.688646
107.943416
79.546571
59.478879
37.825704
24.092793
14.574528
9.870529
7.541776
6.585717
6.285906
6.170869
6.708503
6.917715
6.688833
7.075667
6.962419
7.297993
7.338524
7.990599
8.134842
8.245707
8.773804
9.218454
9.817481
9.659529
10.654926
10.769963
10.532737
10.621548
10.775924
10.733604
10.237694
10.271668
9.764433
9.560585
10.040998
9.741783
9.714961
9.949803
9.992719
9.693503
9.642839
9.599924
10.165572
9.927750
9.969473
9.520650
9.849668
##ZVALUE=285
0.741482
0.657439
0.692606
0.802875
0.834465
0.535846
0.764728
0.567436
0.795722
0.780821
0.853539
0.960827
0.887513
0.984669
0.870824
1.155734
1.263618
1.244545
1.360774
1.356602
1.397729
1.726747
1.848936
2.176762
6.959438
27.522445
118.578672
253.966451
527.018905
795.173645
1015.886664
1015.886664
1015.886664
1015.886664
1015.886664
1015.886664
829.155445
523.231626
326.922536
154.681802
77.901483
36.084652
35.961866
53.073764
74.789524
104.442835
123.029947
139.530897
147.535801
143.232942
131.595731
106.675625
85.557699
58.509707
41.488409
24.316907
15.872717
10.506511
8.287430
7.159710
7.596612
7.262826
7.460713
7.513762
7.748604
7.807612
8.072853
8.247495
7.892847
9.037852
9.564757
10.188818
10.393858
10.446906
11.074543
11.049509
11.145473
10.520816
10.477901
10.491610
10.504723
9.749532
9.566545
9.935498
9.715557
9.590983
9.643435
9.543896
9.395480
10.183454
9.244680
10.107756
9.411573
9.363890
9.466410
9.724498
##ZVALUE=290
0.527501
0.637770
0.727773
0.553727
0.602603
0.692606
0.673532
0.854731
0.585914
0.712872
0.814795
0.853539
0.820756
0.803471
0.875592
1.025796
1.181960
1.033545
1.312494
1.083612
1.292825
1.113415
1.580715
1.509786
1.864433
2.142787
3.169775
9.254813
46.796799
119.755864
244.216919
511.278510
770.726800
1015.886664
1015.886664
1015.886664
1015.886664
1015.886664
924.689770
613.680482
402.904749
202.572942
104.261637
41.407943
26.573539
34.637451
48.993826
72.034597
92.376471
118.722916
133.879781
142.524838
139.452815
126.522779
107.225776
77.786446
59.442520
38.602948
25.999546
15.375614
11.651516
8.644462
7.785559
7.706881
7.475615
8.085966
7.772446
8.291602
8.536577
9.051561
9.966493
10.072589
9.993911
10.098815
10.284781
10.084510
10.422468
9.753704
9.921789
9.821653
9.654760
9.467602
10.393858
9.621978
9.513497
9.311438
9.295940
9.596944
9.228587
9.552836
9.394884
9.324551
9.294748
9.649992
9.128451
9.205937
##ZVALUE=295
0.658631
0.586510
0.561476
0.607967
0.743866
0.668764
0.711679
0.778437
0.542998
0.594854
0.643730
0.499487
0.476837
0.808835
0.661612
0.752807
0.685453
0.733733
0.931621
0.922680
0.912547
1.061559
1.159906
1.147985
1.143813
1.515746
1.616478
1.802444
2.007484
4.173517
15.649796
68.818927
160.559416
394.882560
640.463829
990.257859
1015.880704
1015.880704
1015.880704
1015.880704
1015.880704
753.392577
512.058735
265.515447
142.286420
52.470565
26.882887
21.870732
29.224753
47.396421
65.193772
93.001723
110.184550
129.583478
136.570930
135.819912
122.471452
101.961493
81.909895
57.264566
41.004419
24.789572
17.711520
11.439919
9.641647
8.885860
7.967949
8.591413
8.478761
8.868575
9.494424
9.756684
10.624528
10.356903
10.167956
10.644794
10.272861
9.714961
10.156631
10.064840
10.109544
9.962916
9.608865
9.729862
9.371638
9.950995
9.114742
9.533763
9.839535
9.253621
9.251833
9.344816
9.216666
9.036660
9.477735
9.373426
##ZVALUE=300
0.585914
0.489950
0.487566
0.559688
0.464916
0.614524
0.596642
0.805855
0.717640
0.578761
0.589490
0.667572
0.754595
0.694990
0.692606
0.809431
0.647902
0.650883
0.972748
0.838637
0.744462
0.863671
1.131892
0.969768
1.030564
1.153946
1.306534
1.244545
1.378655
1.624823
1.631975
2.429485
6.970763
44.417977
115.724802
304.088593
525.825620
909.906030
1015.888453
1015.888453
1015.888453
1015.888453
1015.888453
958.809853
674.538612
362.636447
207.646489
87.470412
40.736794
17.958879
18.883944
29.215813
40.768981
62.120557
82.802773
106.383562
121.961832
131.150484
130.110979
116.879940
101.796985
77.451468
60.311556
40.015578
29.012561
17.585754
12.947917
10.214448
9.757876
9.436607
9.642839
9.785891
10.482669
10.519624
10.287762
10.545850
10.321736
10.237694
10.147691
9.742975
9.876490
9.859800
10.140538
10.008812
9.796619
9.475946
9.680986
9.303689
9.643435
9.301901
9.394884
8.901954
9.362698
9.536743
9.180903
8.783937
##ZVALUE=305
0.450611
0.451803
0.380874
0.317693
0.491738
0.425577
0.572801
0.451803
0.564456
0.463724
0.478625
0.630617
0.472665
0.661612
0.438690
0.597835
0.699759
0.549555
0.587702
0.589490
0.689626
0.883937
0.872612
0.773668
0.935793
1.053810
0.911951
1.012683
1.150966
1.306534
1.304746
1.400709
1.756549
1.951456
4.050732
25.906563
73.568821
211.640000
385.776758
717.800856
988.587737
1015.800834
1015.800834
1015.800834
1015.800834
1015.800834
902.903080
552.047491
334.369540
150.933862
70.595741
24.113655
15.296936
18.626451
25.923848
41.586757
57.716966
81.830621
98.913908
116.052628
123.972893
121.378899
112.775564
94.495416
77.590942
54.971576
39.479733
26.237965
18.498898
12.679696
11.036992
10.067821
10.276437
10.134578
10.082722
10.152459
10.502934
9.938478
9.997487
9.555817
9.822845
9.722710
9.993911
10.018945
9.733438
10.110736
9.669662
10.107756
9.539723
9.412766
9.291768
9.117723
9.053946
9.230971
9.042621
9.224415
##ZVALUE=310
0.362992
0.426769
0.506639
0.471473
0.428557
0.436902
0.584722
0.412464
0.335574
0.540614
0.504851
0.576973
0.409484
0.690818
0.565648
0.554919
0.553727
0.622869
0.841618
0.740886
0.623465
0.666976
0.913739
0.624657
0.757575
0.840425
0.898838
0.942945
0.817776
0.984669
1.091957
1.226664
1.259446
1.557469
1.506805
1.860857
2.194643
10.636449
36.246777
129.511952
264.242887
552.702546
836.362839
1015.888453
1015.888453
1015.888453
1015.888453
1015.888453
1015.889049
774.189830
507.459044
241.443515
123.777986
41.538477
17.693639
12.811422
15.973449
25.015473
34.902692
53.683519
69.882870
92.073679
106.916428
114.993453
117.252469
107.459426
96.690655
74.630976
57.643652
37.878752
28.135777
18.817782
14.585853
11.564493
10.222793
9.875894
10.092854
9.422898
9.612441
9.457469
9.589791
9.733438
9.595752
10.286570
9.658933
9.731650
9.982586
9.599924
9.167790
9.809732
9.231567
9.056926
9.418726
9.176731
8.833408
9.070635
##ZVALUE=315
0.495911
0.334978
0.373721
0.424981
0.545979
0.506639
0.465512
0.361800
0.467896
0.659823
0.507832
0.473857
0.541806
0.637770
0.561476
0.634789
0.487566
0.615716
0.471473
0.701547
0.655651
0.607967
0.738502
0.737906
0.746846
0.871420
0.989437
0.763535
1.032948
0.838637
1.238585
1.118779
1.192689
1.383424
1.168847
1.368523
1.546741
1.744628
1.776814
4.680753
17.537475
77.341795
173.969865
404.667854
659.554005
1009.895802
1015.886664
1015.886664
1015.886664
1015.886664
1015.886664
929.674506
658.510923
348.249674
183.696747
64.612627
25.604963
11.902452
11.536479
15.789866
21.862984
34.029484
47.094822
67.154765
84.208846
101.557970
110.090971
109.854937
104.203820
88.238716
74.189901
54.237843
40.165782
25.581717
18.923879
13.588667
11.274815
10.405779
9.726882
9.581447
9.387732
9.321570
9.253621
9.782910
9.631515
9.874701
9.515882
9.569526
9.579659
9.086728
9.537935
9.218454
9.333491
9.444952
9.036660
9.208918
##ZVALUE=320
0.422597
0.389814
0.478625
0.438690
0.360608
0.484586
0.463724
0.439882
0.530481
0.504851
0.581741
0.388622
0.454783
0.471473
0.461936
0.496507
0.339746
0.493526
0.362992
0.537634
0.597835
0.263453
0.574589
0.743866
0.705719
0.726581
0.683665
0.624657
0.808835
0.874996
1.004934
0.954866
0.977516
1.195669
1.246929
1.233816
1.033545
1.305938
1.372695
1.489520
1.718998
2.382994
9.768605
33.967495
124.509931
256.785750
525.348783
774.188638
1015.888453
1015.888453
1015.888453
1015.888453
1015.888453
1015.888453
763.047934
493.093729
223.503709
112.365484
38.463473
16.490817
9.568930
9.913445
13.584495
19.229650
30.757785
42.307973
61.360002
75.895786
94.706416
103.150606
103.935003
97.850561
84.499717
70.795417
51.422715
38.717985
25.832653
18.351674
13.532639
10.856986
9.511709
9.656549
9.489655
9.376407
9.495616
9.678602
9.583831
9.528995
9.167790
8.992553
9.327531
9.155869
9.057522
9.081960
8.743405
9.034872
##ZVALUE=325
0.407696
0.275970
0.316501
0.415444
0.359416
0.363588
0.406504
0.401735
0.207424
0.607967
0.359416
0.486970
0.429749
0.452995
0.527501
0.560880
0.451803
0.313520
0.410676
0.447631
0.481606
0.423789
0.502467
0.529885
0.620484
0.582933
0.598431
0.589490
0.810623
0.814795
0.714660
0.796914
0.894666
0.845790
0.924468
0.887513
0.953674
1.120567
0.963807
1.237988
1.362562
1.581907
1.816750
2.121925
4.708767
29.873848
80.037713
211.239457
386.026502
714.237690
985.281467
1015.888453
1015.888453
1015.888453
1015.888453
1015.888453
834.787488
503.824949
299.621820
128.995776
60.314536
19.492507
10.464787
9.099841
9.860992
12.934804
18.670559
29.651523
42.317510
60.489774
74.850917
90.646744
97.680688
98.118782
92.961788
78.398585
64.935684
48.025846
35.750866
23.730993
17.462969
12.766719
11.159778
9.907484
9.416938
9.485483
9.412766
9.261966
9.227991
9.228587
9.224415
8.988976
8.920431
8.764863
8.960962
8.794665
##ZVALUE=330
0.301600
0.396967
0.318885
0.201464
0.425577
0.335574
0.310540
0.496507
0.269413
0.540614
0.457764
0.538826
0.406504
0.512600
0.428557
0.428557
0.498891
0.507832
0.665784
0.506639
0.546575
0.733733
0.700951
0.473857
0.446439
0.500679
0.538826
0.636578
0.472665
0.592470
0.504851
0.796914
0.762939
0.878572
0.807643
0.834465
0.847578
0.890493
0.827909
1.090765
1.083612
1.297593
1.169443
1.280904
1.469851
1.826882
2.725720
9.118915
47.664642
118.161440
297.167897
505.670905
874.104500
1015.888453
1015.888453
1015.888453
1015.888453
1015.888453
953.851938
690.968037
379.768610
217.617750
88.964701
37.686825
11.847615
8.699894
8.729696
9.611845
13.043880
18.241405
29.901862
39.920807
56.597590
70.195794
84.535480
91.977715
93.646646
86.803436
74.237585
62.566996
44.700503
34.234524
23.891926
18.149614
12.992620
10.910630
9.839535
9.668469
8.837581
8.857846
8.607507
8.925796
8.843541
8.874536
8.784533
8.637905
##ZVALUE=335
0.323653
0.325441
0.339746
0.367761
0.365973
0.452995
0.368953
0.344515
0.396967
0.254512
0.466704
0.425577
0.360608
0.380874
0.454783
0.441670
0.232458
0.634789
0.534654
0.377893
0.420809
0.414848
0.406504
0.417829
0.544786
0.527501
0.552535
0.572801
0.711679
0.573993
0.369549
0.602603
0.593662
0.750422
0.523925
0.653863
0.847578
0.655651
0.811815
0.715852
0.857711
0.924468
1.053810
1.050830
1.210570
1.377463
1.501441
1.640916
1.946688
4.379749
25.718808
71.360469
199.971795
360.832810
669.080019
960.758924
1015.889645
1015.889645
1015.889645
1015.889645
1015.889645
836.890936
479.172468
282.835960
120.378733
53.457618
16.241670
9.510517
8.431673
8.609891
10.058880
12.418628
17.907619
25.864840
39.066672
51.194429
67.360997
78.592896
86.259842
86.201429
79.496503
71.111917
57.589412
46.382546
32.866597
24.961829
16.818643
13.533831
10.736585
9.727478
9.242892
8.436441
8.775592
8.542538
8.214712
8.532405
##ZVALUE=340
0.106692
0.149608
0.168681
0.197887
0.266433
0.062585
0.122786
0.254512
0.136495
0.087619
0.047684
-0.009537
0.062585
0.175834
0.188947
0.160933
0.125766
0.214577
0.384450
0.224710
0.305772
0.172853
0.273585
0.259876
0.223517
0.325441
0.329614
0.345707
0.488758
0.290871
0.405908
0.323653
0.466704
0.532866
0.475645
0.525713
0.470877
0.438690
0.448823
0.470877
0.515580
0.809431
0.750422
0.709891
0.855923
0.870824
0.993609
0.901818
1.168847
1.314878
1.531839
2.870560
10.071993
52.190423
127.695799
316.516757
544.865727
916.457772
1015.696526
1015.696526
1015.696526
1015.696526
1015.696526
944.404006
643.063784
319.553018
168.160796
63.085556
24.974942
9.842515
8.604527
8.186698
8.627772
9.622574
12.081861
17.510653
24.038553
37.217736
48.231483
63.274503
74.306726
80.423951
80.917478
76.527596
69.007874
55.282712
44.548512
32.228827
24.493933
17.296672
13.279915
9.995699
8.836985
8.301735
8.092523
7.971525
##ZVALUE=345
0.163913
0.078678
0.206828
0.195503
0.362992
0.133514
0.159740
0.267625
0.236630
0.191927
0.340939
0.252724
0.295639
0.259876
0.272989
0.226498
0.328422
0.321865
0.246763
0.450611
0.266433
0.048876
0.379682
0.271797
0.331998
0.316501
0.352859
0.367761
0.468493
0.401735
0.179410
0.432730
0.375509
0.382662
0.552535
0.440478
0.497699
0.409484
0.448823
0.513792
0.525713
0.715852
0.581741
0.801682
0.791550
0.713468
0.852942
0.987649
1.027584
1.020432
1.285672
1.361966
1.478791
1.635551
5.398989
22.281408
94.656944
194.784403
415.470600
639.788508
978.713036
1015.761495
1015.761495
1015.761495
1015.761495
1015.746593
708.976984
459.502935
206.653476
97.044706
30.096769
13.628602
8.821487
8.009672
8.005500
8.191466
8.845925
10.223985
15.825629
22.253990
34.296513
43.946505
57.584643
66.552758
73.696971
75.025558
71.231723
65.492988
53.072572
43.425560
31.868815
24.339557
16.755462
12.523532
10.030866
8.934736
##ZVALUE=350
0.231862
0.244975
0.207424
0.345707
0.304580
0.402927
0.294447
0.245571
0.406504
0.308752
0.366569
0.247955
0.330806
0.406504
0.303984
0.414848
0.295639
0.309944
0.384450
0.319481
0.417829
0.395775
0.552535
0.507832
0.392795
0.534654
0.599623
0.475645
0.349879
0.421405
0.451803
0.550747
0.390410
0.584722
0.616908
0.538826
0.506639
0.627637
0.678897
0.562668
0.554919
0.616908
0.682473
0.571609
0.734925
0.682473
0.888705
0.797510
0.991821
0.925660
1.166463
1.147985
1.160502
1.448989
1.399517
1.693964
2.987981
11.378527
54.082870
128.102899
313.704014
522.100925
865.144730
1015.888453
1015.888453
1015.888453
1015.888453
1015.888453
719.745755
471.452475
231.951475
124.717951
47.388673
19.389987
9.050965
7.987618
7.430911
7.198453
7.661581
8.134842
10.698438
14.143586
20.563602
28.091669
38.941503
49.115419
60.704947
66.368580
69.250464
67.083836
59.855580
52.155852
40.463805
31.320453
21.963716
17.161965
##ZVALUE=355
0.243783
0.318885
0.382662
0.310540
0.330806
0.430942
0.353456
0.417829
0.388622
0.341535
0.312924
0.336766
0.357628
0.318885
0.193715
0.335574
0.463724
0.386834
0.403523
0.259876
0.364780
0.468493
0.474453
0.258684
0.570416
0.282526
0.523925
0.525713
0.571609
0.474453
0.441670
0.500679
0.396967
0.361800
0.483990
0.555515
0.552535
0.603795
0.624657
0.531673
0.601411
0.416636
0.892878
0.590682
0.700951
0.635982
0.622869
0.911951
0.769496
1.038909
0.980496
0.946522
1.160502
0.987649
1.348853
1.324415
1.499653
1.565814
2.083778
4.660487
28.455853
80.884695
226.699710
409.192443
746.977925
995.490551
1015.889645
1015.889645
1015.889645
1015.889645
813.770890
577.672720
317.286849
171.401501
64.991713
27.341843
9.737611
7.640719
7.096529
7.085800
6.983876
7.082820
7.818937
9.155869
12.731552
17.125607
26.299953
33.412576
45.080781
52.574873
60.830712
62.188506
60.915947
56.384802
47.258735
39.804578
##ZVALUE=360
0.431538
0.290871
0.227690
0.290871
0.276566
0.233650
0.454783
0.431538
0.400543
0.405908
0.343919
0.249743
0.394583
0.359416
0.377893
0.229478
0.389814
0.362992
0.427961
0.476837
0.432730
0.409484
0.461936
0.419617
0.477433
0.412464
0.537634
0.591874
0.490546
0.583529
0.467896
0.489950
0.447631
0.521541
0.626445
0.488758
0.634789
0.594854
0.470877
0.550747
0.601411
0.644922
0.610948
0.493526
0.729561
0.602603
0.705719
0.802875
0.845790
0.885725
0.784993
0.927448
1.011491
0.923872
1.046658
0.999570
1.359582
1.310706
1.502633
1.801848
2.067685
3.246665
10.553598
49.934983
125.872493
322.533846
544.876456
894.130468
1015.888453
1015.888453
1015.888453
1015.888453
1015.888453
722.876787
464.247465
218.385458
109.857917
39.413571
16.356707
7.682443
7.266998
6.814599
6.879568
6.330609
6.709695
7.352829
8.179545
10.885000
14.171600
21.149516
28.070807
38.800836
45.719743
53.605437
56.039691
56.377649
##ZVALUE=365
0.327826
0.198483
0.400543
0.407696
0.412464
0.431538
0.281930
0.383854
0.313520
0.381470
0.350475
0.542998
0.401735
0.276566
0.209808
0.528693
0.329614
0.277758
0.392795
0.378489
0.235438
0.484586
0.396967
0.521541
0.253916
0.433922
0.417829
0.507832
0.384450
0.521541
0.402927
0.602603
0.482798
0.487566
0.362992
0.545979
0.577569
0.559688
0.479817
0.578761
0.592470
0.642538
0.643730
0.559688
0.512600
0.479817
0.605583
0.671744
0.776649
0.793934
0.740886
0.863671
1.089573
0.909567
0.950694
1.075864
1.046658
1.140833
0.957847
1.299977
1.423955
1.603961
1.682639
2.075434
4.510880
26.336908
73.018670
194.550753
366.274714
693.092942
951.649547
1015.887856
1015.887856
1015.887856
1015.887856
824.708939
575.982928
297.314525
159.406662
56.206584
21.782517
8.238554
6.652474
6.370544
6.109476
5.765557
5.787611
5.746484
5.972981
7.143617
8.332729
12.292862
17.151833
24.291873
31.577945
40.718913
##ZVALUE=370
0.217557
0.322461
0.430942
0.325441
0.299811
0.133514
0.305772
0.359416
0.203848
0.152588
0.191927
0.313520
0.307560
0.313520
0.429749
0.243783
0.288486
0.442863
0.527501
0.370741
0.246763
0.365973
0.455976
0.300407
0.326633
0.358820
0.339746
0.434518
0.513792
0.488758
0.521541
0.464916
0.276566
0.614524
0.391603
0.273585
0.380874
0.523925
0.419617
0.418425
0.581741
0.453591
0.495911
0.712872
0.601411
0.580549
0.539422
0.449419
0.557899
0.586510
0.535846
0.720620
0.639558
0.833869
0.691414
0.813603
0.822544
0.881553
0.896454
0.985861
1.111627
1.247525
1.393557
1.471639
1.656413
1.759529
2.743602
13.184547
44.770837
145.920515
277.768970
540.172458
804.255605
1015.883684
1015.883684
1015.883684
1015.883684
944.683552
688.729882
379.513502
207.486749
80.026984
35.369992
12.025833
6.958842
6.060600
5.984902
5.509853
5.603433
5.070567
5.505681
5.385876
6.154776
8.155704
10.393858
15.348792
##ZVALUE=375
0.283718
0.264645
0.356436
0.371933
0.239611
0.424981
0.163913
0.259876
0.271797
0.240803
0.356436
0.306964
0.347495
0.202656
0.286698
0.425577
0.348687
0.386834
0.360608
0.296831
0.303984
0.320673
0.350475
0.356436
0.428557
0.304580
0.345707
0.267625
0.463724
0.402927
0.482798
0.381470
0.346899
0.352859
0.406504
0.464916
0.462532
0.465512
0.396967
0.591874
0.356436
0.537634
0.321865
0.397563
0.461936
0.420809
0.460744
0.386834
0.539422
0.597835
0.635982
0.613928
0.603795
0.790954
0.718832
0.684857
0.725985
0.827909
0.745654
0.689626
0.893474
0.884533
0.984669
0.988841
0.922680
1.132488
1.366735
1.659989
1.887679
6.609559
23.634434
85.858703
185.616016
413.691998
644.691586
966.251493
1015.905738
1015.905738
1015.905738
999.208689
787.865520
479.052663
301.722884
146.391988
71.565509
21.473765
9.013414
5.796552
5.283952
5.170703
5.253553
5.068779
4.782677
4.758835
5.082488
5.363822
##ZVALUE=380
0.235438
0.153780
0.088811
0.257492
0.251532
0.261664
0.108480
0.172853
0.210404
0.203848
0.249743
0.233650
0.205636
0.166893
0.154972
0.288486
0.314713
0.388622
0.185966
0.167489
0.283718
0.380874
0.267625
0.301600
0.491738
0.381470
0.117421
0.344515
0.466704
0.457764
0.361800
0.321865
0.296831
0.337958
0.422597
0.336766
0.309944
0.230670
0.379682
0.330806
0.372529
0.404716
0.322461
0.436902
0.377893
0.601411
0.462532
0.591874
0.458956
0.423789
0.558496
0.456572
0.558496
0.591874
0.580549
0.601411
0.568628
0.539422
0.511408
0.661612
0.704527
0.786781
0.751615
0.923872
0.766516
1.009703
1.136661
1.178980
1.431704
1.836419
1.905560
3.463626
13.652444
66.520572
155.692697
361.590981
576.518774
883.045793
1015.888453
1015.888453
1015.888453
1015.888453
939.071774
672.784448
455.743670
223.385692
112.046003
35.604835
13.354421
6.017685
5.301833
4.819632
4.647970
4.413724
4.569888
4.538894
##ZVALUE=385
0.162721
0.223517
0.088811
0.155568
0.272989
0.111461
0.244975
0.352859
0.325441
0.189543
0.292659
0.248551
0.099540
0.189543
0.285506
0.265837
0.346899
0.370741
0.188947
0.148416
0.151992
0.292659
0.326633
0.324845
0.311732
0.263453
0.396967
0.346899
0.246763
0.277758
0.426769
0.208616
0.243783
0.159740
0.337958
0.263453
0.304580
0.424981
0.413656
0.359416
0.438690
0.503659
0.311732
0.287890
0.431538
0.483990
0.304580
0.371933
0.439882
0.373721
0.355840
0.499487
0.461936
0.370741
0.486970
0.439882
0.472665
0.609756
0.579953
0.606775
0.611544
0.640750
0.734925
0.707507
0.681877
0.826716
0.944734
1.000762
1.022816
1.208782
1.441836
1.432896
1.665950
2.175570
6.849766
41.322708
104.883909
256.706476
447.782874
777.797699
995.444655
1015.879512
1015.879512
1015.879512
1014.263034
778.361559
557.307601
304.957628
172.566772
69.754720
26.605725
7.403493
5.009770
4.431605
4.288554
4.171729
##ZVALUE=390
0.202656
0.207424
0.185966
0.150800
0.208616
0.199676
0.143647
0.108480
0.305772
0.130534
0.318885
0.286698
0.299811
0.245571
0.287890
0.254512
0.228882
0.219941
0.352859
0.430942
0.304580
0.397563
0.301600
0.315905
0.176430
0.304580
0.281930
0.255704
0.284910
0.272989
0.367761
0.198483
0.172853
0.280738
0.359416
0.290871
0.288486
0.358820
0.321865
0.333786
0.488758
0.513792
0.222921
0.273585
0.577569
0.386834
0.404716
0.568628
0.413656
0.405908
0.358820
0.383854
0.404716
0.477433
0.508428
0.492930
0.528693
0.490546
0.567436
0.555515
0.568628
0.420809
0.524521
0.740886
0.593662
0.786781
0.801682
0.878572
0.990629
0.986457
1.253486
1.333952
1.075864
1.390576
1.585484
1.546741
2.847910
20.486712
64.863563
194.559693
360.978842
669.305921
890.956521
1015.889645
1015.889645
1015.889645
1015.889645
909.887552
696.120858
426.430702
250.513554
102.169514
44.553876
11.166930
5.283952
4.330873
##ZVALUE=395
0.078678
0.177622
0.195503
0.038743
0.013709
0.166893
0.255704
0.168681
0.108480
0.270605
0.072718
0.122786
0.194907
0.091791
0.321865
0.263453
0.302792
0.261664
0.218749
0.254512
0.087619
0.282526
0.177622
0.291467
0.174642
0.151992
0.097752
0.174642
0.140667
0.230670
0.199676
0.323653
0.365973
0.215769
0.281930
0.244975
0.276566
0.262856
0.242591
0.330806
0.313520
0.214577
0.292659
0.306964
0.331998
0.215769
0.322461
0.310540
0.425577
0.348687
0.405908
0.409484
0.396967
0.527501
0.415444
0.398755
0.445843
0.535846
0.443459
0.457764
0.425577
0.393987
0.542998
0.530481
0.486970
0.726581
0.751615
0.840425
0.781417
1.108646
1.070499
1.173615
1.213551
1.171827
1.130700
1.290441
1.298785
1.479983
1.941919
10.107756
39.274693
139.266849
272.966623
528.844595
760.867000
1015.842557
1015.842557
1015.842557
1015.842557
1015.842557
864.811540
547.894835
353.170633
169.695616
80.266595
23.871660
##ZVALUE=400
0.260472
0.298619
0.303984
0.333786
0.191927
0.201464
0.182986
0.237823
0.101924
0.348687
0.280738
0.325441
0.286698
0.344515
0.305772
0.235438
0.386834
0.238419
0.269413
0.277758
0.064969
0.215769
0.292659
0.090599
0.311732
0.395775
0.172853
0.436902
0.345707
0.331998
0.289679
0.179410
0.288486
0.311732
0.324845
0.423789
0.303984
0.336766
0.334978
0.399947
0.400543
0.380874
0.332594
0.357628
0.397563
0.415444
0.301600
0.288486
0.451803
0.294447
0.545979
0.559688
0.458956
0.549555
0.459552
0.457764
0.481606
0.588894
0.616908
0.432730
0.551939
0.695586
0.675917
0.526905
0.716448
0.737906
0.693798
0.842810
1.033545
1.168847
1.233816
1.300573
1.310706
1.205802
1.288652
1.372695
1.454949
1.322627
1.628995
1.836419
2.146959
6.496906
23.127794
98.248720
243.216753
587.797761
922.816992
1015.889645
1015.889645
1015.889645
1015.889645
1015.889645
979.443789
610.693693
388.219953
191.978812
##END
