##TITLE=QP00652
##FORMAT=SPECTACLE-ASCII V-1.2
##DATA TYPE=ULTRAVIOLET SPECTRUM
##SECOND TYPE=ULTRAVIOLET SPECTRUM
##DATE=02/05/18
##TIME=14:11:29
##SPECTROMETER/DATA SYSTEM=SPECTACLE
##XUNITS=NM EM
##YUNITS=ENERGY
##YFACTOR=1
##FIRSTX=220
##LASTX=410
##NPOINTS=96
##3DDATA=Equidistant
##ZUNITS=NM EX
##FIRSTZ=210
##LASTZ=400
##ZPOINTS=39
##XYDATA=(Y..Y)
##ZVALUE=210
2.456903
2.488494
2.304912
2.442598
2.437830
3.230572
2.613664
2.847910
2.453923
2.807975
3.009439
2.813935
3.242493
3.054738
3.080964
3.430843
2.891421
3.147721
3.711581
3.510714
3.805757
4.240870
4.761815
4.532933
4.976988
5.243421
5.240440
5.175471
6.065965
6.124973
5.815625
6.445646
6.475449
5.860925
6.783605
6.797910
6.902814
7.143617
7.850528
8.543730
7.489920
8.530617
7.787943
7.645488
8.870959
9.060502
8.957982
9.661913
9.368658
8.931756
8.921623
9.470582
10.053515
10.660887
11.085868
10.360479
9.833574
11.333823
10.056496
12.338758
11.405945
11.434555
12.087822
12.977719
13.168454
14.244914
15.056729
16.283989
16.972423
22.534728
24.616718
29.776692
36.470890
41.169524
45.563579
44.562817
46.768785
46.814680
45.555830
42.484999
40.339828
33.838749
31.901598
25.453568
21.744967
19.778609
17.517805
14.733672
12.285709
12.281537
10.996461
12.359619
11.628866
11.345744
12.935996
10.187626
##ZVALUE=215
8.099675
7.870793
7.098913
6.513596
5.311966
4.674792
4.995465
4.945993
4.974604
5.684495
5.392432
5.236864
4.621744
4.255772
3.490448
3.249645
2.892613
2.827644
3.419518
4.045963
4.490614
4.597902
5.297661
5.187988
4.872680
5.392432
5.593896
6.002784
6.156564
5.547404
6.935596
7.064939
7.574558
6.809831
6.955862
7.852912
7.527471
8.114576
9.105802
7.313490
7.983446
9.290576
9.186864
8.697510
8.941889
8.662939
9.102821
8.630753
9.818673
9.871721
9.965897
12.090802
10.873675
10.709763
10.339618
10.795593
11.681914
10.579824
11.120439
11.218786
11.165738
11.779666
9.287000
12.335777
11.792779
11.715889
12.288690
13.134480
15.217662
19.962788
22.409558
26.539564
31.468868
36.797523
38.879514
41.090846
42.925477
44.080615
41.932464
40.402412
35.536885
31.217933
27.808547
23.833513
19.953847
16.519427
15.243888
14.297962
11.930466
12.487769
11.462569
11.160970
11.075735
10.308623
11.082888
12.094975
##ZVALUE=220
28.763413
30.613542
33.510923
30.982494
28.841496
24.160743
20.840764
17.423630
13.344884
11.712909
11.433959
13.113618
12.326837
11.712909
9.694695
7.659793
6.334782
4.976988
5.501509
4.302859
4.959702
5.506873
4.882812
5.737543
5.718470
6.699562
6.649494
6.537437
6.781816
6.695986
7.347465
7.057786
7.526875
7.351637
8.614659
8.047819
8.332729
8.145571
8.035898
8.626580
8.511543
8.417964
8.828640
8.035898
9.664893
8.681417
9.149909
9.491444
10.125637
10.128617
10.569692
10.600686
10.584593
10.480881
10.525584
10.319948
11.393428
10.286570
11.460781
11.836886
11.290908
11.214614
12.888908
11.793971
14.018416
11.708736
12.398958
14.043450
14.238954
18.105507
20.945668
24.347901
28.368831
32.912493
33.744574
36.617517
38.644671
37.598610
37.732720
34.722686
31.479597
28.142929
26.464462
22.494793
19.420981
16.312599
14.813542
13.196468
11.768937
12.340546
12.022853
11.100769
12.096763
9.984970
10.542870
11.636615
##ZVALUE=225
50.093532
49.626827
65.965652
85.176826
95.291734
97.634792
92.661977
74.497461
60.118437
47.003627
31.811595
26.314855
24.938583
27.016997
25.515556
24.288893
21.040440
16.801953
13.800859
10.480881
7.930994
6.584525
6.015897
5.138516
6.871819
6.930828
7.554889
7.231832
7.949471
8.667707
7.832646
8.896589
8.543730
8.384585
8.664727
8.460879
8.421540
9.297729
10.524988
9.965897
9.822845
11.275411
9.373426
9.455681
10.154843
10.741949
10.342598
9.961724
10.723472
11.436939
10.920763
11.094809
11.403561
10.959506
12.365580
12.501478
12.217760
12.819767
13.287663
13.343692
12.749434
12.791753
13.164878
13.775826
14.572740
13.839602
15.472770
16.608834
19.072890
20.893812
25.149584
26.764870
31.575561
34.733415
34.711957
37.829876
38.461685
39.599538
36.614537
34.293532
33.294559
28.230548
25.566816
25.094748
20.235777
17.351508
16.106963
16.327500
14.927983
15.767813
15.013814
14.027953
14.863610
12.530684
12.788773
13.535619
##ZVALUE=230
45.211911
48.220754
77.134967
135.350823
183.672905
234.022737
254.987478
265.385509
244.879723
199.343562
159.892440
101.013780
72.820783
52.846670
47.796965
47.972798
54.323673
52.189827
44.639707
37.385821
25.934577
20.561814
12.510419
9.655952
8.315444
8.472800
7.968545
7.640719
8.409619
9.593964
9.853840
8.869767
10.752678
10.941625
10.440946
11.293888
10.320544
10.833740
10.182858
11.465549
11.315942
12.993813
12.267828
11.724830
11.374950
11.228919
12.241602
12.234449
12.793541
13.032556
12.076497
12.675524
13.220906
13.515949
14.192462
13.577938
15.032887
14.467835
15.355945
14.438629
14.530420
15.965700
15.423894
16.294718
15.457869
16.951561
18.705726
20.105839
21.310449
24.448633
26.467443
32.358766
34.190416
39.737821
42.960644
44.546723
45.396686
44.689775
42.122602
41.132569
39.412975
34.940839
30.374527
26.294589
24.122000
22.258759
20.349622
20.187497
19.082427
18.393993
18.862486
19.160509
16.409755
15.240908
16.814470
16.121864
##ZVALUE=235
15.157461
19.281507
42.801499
102.668405
176.333785
289.477706
387.800932
520.170927
582.499504
589.333773
528.277755
435.346961
306.745768
219.329000
137.185454
97.015500
75.300932
80.953836
85.024834
84.639788
80.485940
66.837668
54.971576
38.708448
27.241707
19.389987
14.215708
9.931922
10.674000
10.198951
11.028647
12.481809
12.286901
12.037754
11.871457
12.163520
11.233687
12.009740
11.418462
12.001991
11.868477
12.362599
12.222528
11.857748
12.378693
12.108684
12.785792
13.278723
12.802482
13.678670
13.992786
14.318824
15.022755
15.335679
15.491843
14.707446
14.485717
16.177893
15.340447
17.404556
17.639995
17.403960
18.210411
17.310977
16.808510
19.987822
18.633604
20.093918
24.921894
28.157830
29.336810
35.200715
37.853718
45.762658
44.080615
43.964982
48.637986
46.656728
43.347478
40.501952
36.617517
33.089519
32.050610
29.197931
27.165413
24.387836
23.796558
22.195578
23.148656
23.083687
20.535588
22.788644
20.757914
21.809936
22.294521
20.973682
##ZVALUE=240
2.387762
2.934933
7.799864
19.869804
63.432455
117.589831
250.001550
394.999981
615.112782
775.108933
899.397731
918.049812
865.734816
712.374449
563.484430
364.452600
252.835751
154.797435
119.236708
106.905699
111.299753
114.858747
116.046667
103.735924
85.236430
69.430470
50.523877
37.972927
22.590756
18.688440
13.470650
13.637543
14.031529
12.807846
13.785958
12.765527
13.118982
12.464523
12.351871
12.620687
12.154579
12.647510
11.375546
13.528466
12.365580
12.353659
11.297464
13.084412
14.069676
13.234615
14.140606
13.078451
14.101863
14.906526
13.604760
15.120506
15.011430
15.741587
16.743541
15.907884
17.474890
17.587543
17.685890
17.362833
17.878413
19.110441
19.385815
23.230910
24.173856
28.810501
30.217767
34.421682
38.205981
43.609738
44.565797
44.895411
46.679974
46.891570
42.460561
38.728714
39.585829
34.534931
32.953620
30.184984
29.091835
29.101968
26.747584
24.896860
24.212599
26.336908
27.747750
25.793910
24.655461
25.181770
23.812652
24.666786
##ZVALUE=245
1.914501
1.967549
1.703501
1.973510
5.386472
18.373728
47.023892
129.344463
235.096812
384.028554
647.087097
846.391916
1010.762453
1015.888453
1006.897688
892.885923
639.164448
468.692780
322.516561
182.622671
130.554438
104.882717
116.283894
130.425692
133.057833
128.734708
116.524696
95.260739
78.985691
56.450963
41.219592
27.165413
20.122528
15.404820
14.430881
13.494492
13.431907
12.356639
12.528896
10.944605
12.744665
12.794733
11.954904
11.203885
10.570884
11.102557
11.137724
11.080503
11.260509
11.440516
11.093616
11.561513
10.645986
12.515783
11.821985
11.653900
11.478662
12.666583
12.620687
11.915565
12.884736
13.103485
13.825893
14.208555
13.572574
15.090704
16.701818
17.382503
21.789670
21.491647
23.966432
29.123425
32.492876
34.560561
37.365556
36.659837
39.190650
35.746694
36.397576
35.367608
31.951666
32.241940
30.226707
25.922656
26.947856
24.983883
23.909807
23.284554
24.243593
22.356510
23.584962
22.316575
22.653937
22.499561
22.412539
21.876693
##ZVALUE=250
1.334548
1.459718
1.321435
1.526475
1.894832
2.030730
2.708435
13.471842
42.017698
131.477714
254.205465
496.131778
711.267591
985.250473
1015.889645
1015.889645
1015.889645
1008.296013
850.474834
566.099882
379.935503
251.403451
137.958527
104.313493
109.367967
124.349594
141.360760
145.923495
136.502981
127.719641
106.981993
85.050464
64.069629
40.386915
30.350685
18.916726
14.474988
12.110472
11.431575
10.599494
10.790825
9.691715
10.323524
11.135936
9.967685
9.197593
10.161996
9.388924
9.206533
9.835958
10.297894
10.855794
10.086894
10.399818
9.815693
10.874867
10.391474
9.707808
9.900928
10.847449
10.369420
11.436939
10.649562
13.594627
11.529922
13.047457
13.937950
14.473796
16.698837
18.902421
21.005869
24.246573
26.801825
28.008819
29.781461
30.995607
31.249523
30.224919
30.337572
27.769804
26.209950
24.908781
22.854805
22.171736
23.005605
22.869706
20.420551
20.262599
20.414591
20.183921
20.079613
20.901561
19.342899
20.026565
19.250512
20.140409
##ZVALUE=255
1.312494
1.281500
1.040697
1.239777
1.262426
1.774430
1.262426
1.834631
2.462864
5.285740
28.204918
71.610808
154.489875
339.943767
534.783602
839.758515
1015.888453
1015.888453
1015.888453
1015.888453
1015.888453
835.610628
514.752865
317.899585
168.179870
113.915801
96.878409
108.352900
130.831599
144.681931
151.223540
145.587921
131.565928
109.802485
85.163713
56.435466
40.716529
25.559664
16.504526
10.614991
9.296536
8.782744
8.657575
8.386970
8.015633
7.909536
8.483529
8.537769
8.419752
8.019805
8.736849
8.056760
8.432865
8.240938
8.133650
8.905530
9.068847
7.897615
8.552670
8.986592
9.234548
8.805990
9.396672
10.219812
9.514689
10.852814
11.487603
12.111664
13.980865
15.798807
17.675757
19.373894
20.460486
23.590922
23.664832
24.249554
23.033619
23.111701
22.879839
22.167563
21.262765
20.501614
19.333959
19.131899
18.399954
18.596649
18.779635
18.881559
18.440485
18.282533
18.540621
17.364621
18.504858
18.190742
17.729998
18.437505
##ZVALUE=260
1.151562
1.223683
1.066923
1.334548
1.325607
1.294613
1.096725
1.547933
1.842976
1.607537
1.997948
3.445745
12.011528
51.257610
112.152696
278.223753
459.827781
762.166977
994.697809
1015.886664
1015.886664
1015.886664
1015.886664
986.341834
643.891692
433.161855
239.398479
145.003796
92.048645
88.305473
104.239583
130.535960
146.618485
153.019428
151.209831
130.767822
111.670494
82.705617
60.958862
37.703514
25.524497
14.174581
10.146499
8.549690
7.335544
7.025599
7.323623
7.177591
7.039905
7.440448
7.616878
7.384419
6.996989
7.093549
7.059574
7.643700
8.149743
7.465482
7.938743
8.027554
7.808805
7.568598
7.735491
8.760691
9.058714
9.122491
9.566545
10.631680
11.849999
13.511777
14.587641
15.996695
17.410517
19.293427
19.665956
20.131469
19.683838
19.207597
19.425750
18.731952
17.667413
16.981959
16.093850
16.754866
16.739964
16.339421
16.652942
15.335679
15.916824
16.215444
16.570687
15.640855
16.125441
16.063452
16.707778
16.591549
##ZVALUE=265
1.043677
1.010895
1.039505
1.129508
1.206994
1.193881
1.485944
1.262426
1.533628
1.737475
1.603961
2.067685
1.859665
2.430677
5.974770
32.450557
81.501603
208.224654
378.946662
717.744827
995.267630
1015.888453
1015.888453
1015.888453
1015.888453
1015.888453
927.610993
639.132857
336.813927
199.237466
103.170872
78.614950
83.493590
112.863779
130.824447
153.128505
158.264637
147.780776
136.997700
105.781555
85.265636
55.903792
39.083958
21.924973
14.580488
8.630753
7.697940
6.595850
6.743670
6.223917
6.910563
6.480813
6.474853
6.725788
7.235408
7.482767
6.597638
7.225871
7.594824
6.813407
6.655455
7.385612
8.176565
7.946491
7.772446
8.411407
8.633733
10.285974
10.534525
11.901855
12.626648
14.659762
15.369654
16.027689
16.742945
16.346574
17.049909
15.975833
15.144944
14.999509
15.444756
15.558600
14.698505
15.275478
13.825893
13.974905
13.732910
13.886690
14.115572
14.257431
14.808774
14.225841
14.276505
13.699532
14.815927
15.265942
##ZVALUE=270
1.052618
0.882745
1.009703
0.930429
1.095533
1.259446
1.161695
1.127720
1.416802
1.403689
1.252890
1.197457
1.818538
1.737475
1.669526
2.090931
2.835989
15.245676
46.526790
152.847767
306.922793
541.074872
961.355567
1015.888453
1015.888453
1015.888453
1015.888453
1015.888453
1015.888453
917.278528
621.152520
313.614011
168.894529
78.917742
65.459609
85.166693
107.307434
134.242773
148.326755
154.337883
150.003433
131.643414
112.745762
80.440640
59.229732
35.206676
23.366809
14.610887
9.837747
7.358789
6.735921
6.722808
6.725788
6.680489
6.778836
7.112622
6.328821
6.573796
7.254481
6.807446
6.719828
7.198453
6.779432
7.429719
7.382631
7.686615
7.828474
8.658767
9.414554
10.887980
11.303425
12.638569
13.020635
14.401674
14.961958
14.442801
15.018582
14.186502
13.997555
14.292598
13.782978
12.121797
12.745857
12.867451
12.862682
12.555718
12.240410
13.115406
12.487769
12.509823
12.628436
13.328791
12.866855
12.552738
12.944937
13.115406
##ZVALUE=275
0.835657
0.985861
0.780821
0.765920
1.063943
1.028776
0.910759
1.141429
1.144409
1.093745
1.127720
1.291633
1.365542
1.292825
1.401901
1.354814
1.706481
2.134442
2.287626
6.697774
25.725961
79.761744
238.643885
445.359945
829.086900
1015.888453
1015.888453
1015.888453
1015.888453
1015.888453
1015.888453
1015.888453
799.103975
421.179533
234.231949
99.480748
60.360432
61.028600
81.006885
108.518600
130.482912
148.039460
155.265927
147.084594
132.339001
102.544427
82.089901
56.666732
40.663481
23.151636
15.317798
9.622574
7.887483
6.575584
6.453991
6.255507
6.166697
6.658435
6.811619
6.994605
6.716847
7.325411
6.952882
7.484555
6.668568
7.300973
8.281469
8.719563
8.920431
9.651780
10.703802
11.916757
12.660623
13.512969
14.113784
13.933778
14.338493
13.890862
12.950897
13.179779
12.516975
12.389421
11.670589
11.865497
11.417866
11.202693
11.085868
11.355877
11.766553
12.045503
11.791587
11.880994
12.157559
12.219548
12.349486
12.688637
##ZVALUE=280
0.866652
0.873804
0.787973
0.993609
0.863671
0.814795
0.794530
0.889897
0.934601
1.191497
1.056790
1.300573
1.208782
1.194477
1.306534
1.232624
1.313686
1.506805
1.548529
2.063513
2.036691
3.164411
18.081665
62.235594
200.693607
372.662544
697.770715
989.997983
1015.888453
1015.888453
1015.888453
1015.888453
1015.888453
1015.888453
931.123495
526.590943
309.847593
132.774711
68.651438
45.382977
56.699514
83.388686
104.177594
129.695535
143.882632
150.421858
143.044591
128.247738
108.963847
79.635978
59.452653
36.595464
24.897456
14.919639
10.097623
7.856488
7.053614
6.248951
6.330609
6.767511
6.766915
7.005930
7.361770
7.156730
7.765889
7.991791
7.720590
8.654594
8.865595
10.004640
10.696650
11.713505
12.132525
12.869835
13.218522
13.310909
12.826920
12.645721
12.701750
12.259483
12.842417
11.329651
11.303425
10.835528
11.374950
11.285543
10.710955
10.598898
11.146665
10.730624
11.301637
11.373758
10.983944
11.057854
10.896921
11.500716
##ZVALUE=285
0.676513
0.568628
0.786781
0.834465
0.631809
0.703931
0.756979
0.930429
0.894666
0.625849
0.810623
1.114607
0.735521
0.845790
1.212955
1.091957
1.335740
1.361966
1.341701
1.741648
1.641512
1.868606
2.085567
2.389550
9.084940
30.820966
108.096600
231.404901
518.863797
812.195539
1015.884876
1015.884876
1015.884876
1015.884876
1015.884876
1015.884876
1015.884876
716.790557
437.499881
199.842453
97.621679
41.384697
36.716461
53.934455
72.674751
104.372501
123.757720
139.003992
146.598816
142.030716
128.285885
105.792880
85.944533
57.353973
41.097999
23.275614
15.768409
9.817481
7.863641
6.474853
7.220507
6.901622
7.293820
7.303953
7.555485
7.424951
7.632971
8.264780
8.786917
10.116696
10.032654
11.039972
11.068583
11.669993
12.029409
12.351871
12.675524
11.625886
11.775494
11.654496
11.898875
10.938644
10.967851
10.434985
10.798573
11.125803
10.524988
11.143684
10.708570
10.763407
10.448694
10.272861
10.972619
10.650754
10.778904
11.074543
##ZVALUE=290
0.606775
0.721812
0.645518
0.711679
0.808835
0.970960
0.780821
0.860691
0.808835
0.840425
0.868440
0.974536
1.093745
1.108646
0.949502
0.996590
1.168847
1.164675
1.311898
1.345873
1.541972
1.472831
1.840591
1.853704
2.145767
2.348423
3.510714
12.452006
62.648654
152.089000
303.993821
657.450557
982.027650
1015.888453
1015.888453
1015.888453
1015.888453
1015.888453
1015.888453
929.150581
598.549843
290.050507
145.849586
54.292679
30.044913
35.950541
50.653815
72.656870
92.229843
118.800998
134.397745
142.407417
138.200521
124.125481
107.489824
79.357624
59.259534
39.241910
25.593638
15.485883
10.727644
8.295774
7.283688
7.447600
7.372499
7.418990
8.006692
8.526444
8.651614
9.545684
9.872913
10.651946
11.448860
11.495948
11.678934
11.301637
12.076497
11.350513
11.511445
11.334419
10.740757
10.862947
10.691881
10.471940
10.545850
10.504723
10.586977
10.527968
10.597706
10.465980
10.425448
10.111928
10.679960
10.095835
9.872913
10.132790
##ZVALUE=295
0.769496
0.489950
0.736713
0.762939
0.658631
0.662804
0.607967
0.640750
0.717640
0.693798
0.717640
0.918508
0.856519
0.696778
0.765920
0.998974
1.002550
0.869632
0.976920
1.304746
1.253486
1.196861
1.451969
1.479983
1.650453
1.562834
1.920462
2.375841
2.624989
5.220771
20.758510
90.072751
209.508538
507.564545
835.524797
1015.884876
1015.884876
1015.884876
1015.884876
1015.884876
1015.884876
1015.884876
827.666521
425.841808
227.090716
77.110529
34.447908
23.508668
30.723810
48.512816
66.159964
90.964437
110.132694
127.318501
135.179758
131.967664
120.941997
99.641681
81.458688
56.249499
40.050745
23.955703
17.250776
11.597872
9.036660
8.202791
7.958412
8.516908
8.569956
9.303689
9.837747
9.980798
11.113882
11.449456
12.088418
11.899471
11.406541
11.592507
11.286736
10.777712
10.770559
10.828972
10.440946
10.491610
10.608435
10.926723
10.771751
10.390878
10.676980
10.314584
10.521412
10.407567
10.529757
9.836555
10.482669
10.119677
##ZVALUE=300
0.523925
0.738502
0.596642
0.700951
0.501871
0.628829
0.556707
0.741482
0.734925
0.753999
0.834465
0.736713
0.755787
0.786781
0.695586
0.952482
0.904799
0.974536
0.984669
0.937581
1.126528
1.201630
1.272559
1.433492
1.403689
1.680851
1.502633
1.878738
2.144575
2.140999
2.514720
2.946854
12.360811
49.295425
170.850754
339.874625
703.737736
1015.888453
1015.888453
1015.888453
1015.888453
1015.888453
1015.888453
1015.888453
990.495682
656.670928
318.231583
160.531998
51.882863
23.846626
20.342469
26.883483
43.453574
59.382915
83.190799
102.269650
122.975707
128.796697
126.729608
118.138790
98.708868
78.858733
55.945516
40.808916
26.599765
18.211603
11.938810
10.111928
9.410977
9.786487
9.957552
10.380745
11.455417
11.480451
11.185408
11.589527
11.524558
11.050701
11.542439
11.185408
10.951757
11.055470
10.861754
11.004806
11.012554
10.679960
10.418892
10.585785
10.702610
10.845661
10.432601
10.712743
10.405779
10.209680
10.288954
10.148883
##ZVALUE=305
0.370741
0.477433
0.442863
0.456572
0.588894
0.596642
0.469685
0.412464
0.494719
0.575781
0.503659
0.513792
0.540614
0.680685
0.741482
1.045465
0.633597
0.882745
0.756979
0.978708
0.879765
0.966787
0.995994
0.991821
1.115799
1.249909
1.314878
1.223683
1.465678
1.626611
1.685619
1.971722
2.365708
2.970695
5.626678
38.426518
109.203458
301.837921
543.161631
978.816748
1015.761495
1015.761495
1015.761495
1015.761495
1015.761495
1015.761495
1015.761495
813.667774
496.677756
214.363933
97.858906
30.624866
16.521811
18.473864
26.043653
41.860938
57.740808
80.807805
97.482800
115.674734
123.226643
120.239854
113.346577
93.316436
76.636672
54.171681
39.453506
25.838614
18.044710
13.048649
11.371970
11.076927
11.191964
11.750460
11.237860
11.353493
11.134744
10.915995
11.117458
11.152625
11.037588
10.725856
10.923743
10.849833
10.867715
10.590553
10.759830
10.668635
10.713935
10.210872
10.751486
10.153651
10.035634
10.162592
10.202527
9.962916
##ZVALUE=310
0.654459
0.594854
0.571609
0.511408
0.600815
0.575781
0.590682
0.455976
0.751615
0.795722
0.700951
0.597835
0.616908
0.828505
0.785589
0.922680
0.967979
0.826716
0.856519
0.802875
1.109838
0.989437
0.974536
0.934601
1.053810
1.062751
1.416802
1.547933
1.349449
1.715422
1.443624
1.838803
1.826882
2.147555
2.399683
2.633929
3.398657
18.648505
66.073537
215.376616
410.349965
816.413760
1015.888453
1015.888453
1015.888453
1015.888453
1015.888453
1015.888453
1015.888453
1015.889049
765.919685
373.526812
188.319683
59.935451
22.738576
13.727546
16.804934
24.358630
35.133958
53.558946
70.303679
91.814995
104.761720
115.055442
117.254853
108.379722
95.073581
74.123740
56.959987
39.470792
28.777719
19.624829
15.663505
12.822747
12.100935
11.735559
11.160970
11.070967
10.610819
10.780692
10.918975
10.986924
11.032820
11.044741
10.863543
11.355877
10.961890
10.938644
11.289716
11.139512
10.933876
10.930896
10.495782
10.301471
10.705590
10.657907
##ZVALUE=315
0.520945
0.480413
0.578761
0.611544
0.568628
0.630617
0.490546
0.531673
0.535846
0.555515
0.486970
0.665784
0.673532
0.771880
0.810623
0.871420
0.795722
0.696778
0.673532
0.859499
0.816584
0.898838
0.767708
0.977516
0.951886
1.081824
1.065731
1.352429
1.193881
1.225471
1.331568
1.515746
1.423955
1.641512
1.715422
1.863837
2.158880
2.577901
2.857447
7.289648
33.465624
150.758624
329.424739
705.955625
1015.887856
1015.887856
1015.887856
1015.887856
1015.887856
1015.887856
1015.887856
1015.887856
955.166817
509.898663
273.345709
94.399452
34.758449
13.360977
12.409687
16.110539
21.846890
34.051538
46.802759
67.831874
83.430409
102.227926
109.533668
110.250711
104.677677
87.810755
73.709488
55.215955
41.554570
27.038455
20.715594
14.845729
12.564659
11.433959
11.298656
10.837913
10.764599
10.809898
10.804534
11.280775
10.672808
11.148453
11.225939
11.190772
11.004806
10.629892
10.540485
10.804534
10.833740
10.428429
10.854602
10.535717
##ZVALUE=320
0.546575
0.386834
0.540614
0.567436
0.604987
0.555515
0.585914
0.660419
0.462532
0.629425
0.565648
0.712872
0.682473
0.793934
0.696778
0.787973
0.889897
0.716448
0.711679
0.701547
0.815988
0.742674
1.009703
0.994802
0.873804
0.943542
0.996590
1.227856
1.106858
1.181960
1.195669
1.367927
1.510978
1.510978
1.674891
1.768470
1.727939
1.946688
2.208948
2.441406
2.860427
3.814697
13.463497
90.908408
251.285434
652.426481
994.690657
1015.896797
1015.896797
1015.896797
1015.896797
1015.896797
1015.896797
1015.896797
1015.896797
626.599789
358.231664
150.220990
65.072775
18.386841
11.619925
11.781454
14.634728
21.050572
28.951764
45.258999
60.510635
80.088973
93.975663
106.325746
106.977820
99.180937
89.356899
70.138574
54.964423
37.792921
28.344989
19.367933
15.163422
12.766719
11.705756
11.435747
11.224747
11.059642
11.296868
11.174679
11.059642
11.091828
11.339784
10.819435
10.742545
10.509491
10.695457
10.764599
10.548830
10.387897
##ZVALUE=325
0.438690
0.390410
0.629425
0.476837
0.534654
0.584722
0.629425
0.577569
0.695586
0.633597
0.633597
0.657439
0.604987
0.508428
0.641942
0.784993
0.660419
0.651479
0.710487
0.576973
0.715852
0.828505
0.778437
0.750422
0.819564
0.824928
0.950694
1.057982
0.970960
0.964999
1.158714
1.253486
1.234412
1.344681
1.303554
1.442432
1.386404
1.816750
1.765490
2.088547
2.400875
2.416968
2.620816
3.390908
7.240772
49.134493
135.029554
372.073650
664.651990
1015.890837
1015.890837
1015.890837
1015.890837
1015.890837
1015.890837
1015.890837
1015.890837
813.145041
489.077568
214.378834
97.339749
26.977658
13.310909
10.827780
11.744499
14.992952
20.012856
30.640960
43.208599
62.680840
76.983571
90.588927
99.346638
99.464655
94.922781
80.000758
66.330433
49.602985
37.761927
25.432706
19.367933
14.461875
12.843609
11.588931
11.515617
11.138916
11.328459
10.925531
10.837913
10.396838
10.800958
10.909438
10.759830
10.427833
10.680556
10.532737
##ZVALUE=330
0.560880
0.411868
0.597835
0.377893
0.600815
0.552535
0.483990
0.561476
0.558496
0.437498
0.529885
0.598431
0.462532
0.542998
0.461936
0.649691
0.655651
0.667572
0.633597
0.509620
0.773668
0.770688
0.859499
0.864863
0.790954
0.985861
0.826716
1.208782
0.858903
0.890493
1.033545
1.001954
0.947714
1.125932
1.011491
1.193881
1.491904
1.341701
1.478791
1.540780
1.787543
1.966953
2.154708
2.325773
2.643466
3.179908
4.178882
19.101501
69.123507
249.459743
496.792793
975.459814
1015.889645
1015.889645
1015.889645
1015.889645
1015.889645
1015.889645
1015.889645
1015.889645
773.746967
345.838666
164.029598
51.669478
19.387603
11.179447
10.992885
12.018681
14.237761
21.359921
29.529929
42.600632
56.061745
74.332952
85.753798
94.123483
94.152689
88.468790
77.961683
60.808659
48.066974
33.637881
26.259422
18.834472
15.391707
12.735724
11.659861
11.058450
11.070967
10.797977
10.342598
10.240674
10.514855
10.314584
10.379553
10.309815
##ZVALUE=335
0.498891
0.523925
0.448823
0.458956
0.575781
0.471473
0.434518
0.329614
0.579953
0.451803
0.629425
0.625849
0.526905
0.547767
0.539422
0.509620
0.649691
0.456572
0.545979
0.540614
0.698566
0.578761
0.719428
0.694990
0.688434
0.726581
0.744462
0.868440
0.855923
0.747442
0.819564
0.899434
0.847578
1.150966
1.027584
1.014471
1.166463
1.341701
1.223683
1.425743
1.524687
1.707673
1.579523
1.952648
2.053976
2.321601
2.278686
2.877712
3.379583
8.671880
32.239556
147.615671
331.178904
781.810880
1015.888453
1015.888453
1015.888453
1015.888453
1015.888453
1015.888453
1015.888453
1015.888453
970.300436
506.410599
263.464451
87.851882
30.472875
11.965632
11.218786
11.429787
12.261868
15.324950
19.813776
29.638410
39.418936
55.517554
67.274570
80.129504
86.761713
87.747574
83.607435
70.281625
60.627460
46.325922
36.057830
25.671721
19.881725
14.744997
12.614727
11.016726
10.691881
10.191798
10.152459
10.400414
10.007620
9.852648
##ZVALUE=340
0.385642
0.548959
0.410676
0.478625
0.488758
0.466704
0.290871
0.378489
0.405908
0.570416
0.548959
0.673532
0.636578
0.621676
0.488758
0.546575
0.652671
0.793934
0.615716
0.681877
0.760555
0.658631
0.566840
0.689626
0.694990
0.687838
0.740886
0.700951
0.728965
0.790954
0.884533
0.834465
0.884533
0.873804
1.013875
1.047850
0.963807
1.124740
1.063943
1.176596
1.091957
1.275539
1.377463
1.488924
1.538992
1.770854
1.782775
2.000928
2.258420
2.577901
2.929568
4.750490
16.442537
85.942745
222.087502
589.788556
987.102985
1015.888453
1015.888453
1015.888453
1015.888453
1015.888453
1015.888453
1015.888453
1015.888453
575.187802
315.127969
120.511651
44.843554
13.661981
11.249781
10.859966
11.193752
12.311935
14.176965
19.997954
26.300550
38.405657
49.836636
65.631866
75.403452
82.825422
82.630515
76.807737
69.941878
56.019425
45.868754
33.725500
26.454926
18.315911
14.973879
11.977553
10.652542
10.228753
9.769797
9.750724
##ZVALUE=345
0.497699
0.465512
0.379682
0.424981
0.400543
0.477433
0.538826
0.505447
0.476837
0.455976
0.540614
0.635982
0.519753
0.576973
0.490546
0.411868
0.510812
0.443459
0.648499
0.554919
0.403523
0.603795
0.604987
0.559688
0.654459
0.607967
0.579953
0.657439
0.757575
0.788569
0.857711
0.727773
0.813603
0.801682
0.830889
1.035929
0.994802
0.759959
0.785589
0.983477
0.986457
1.151562
1.183748
1.097918
1.225471
1.449585
1.410842
1.790524
1.780987
1.967549
2.224445
2.316833
2.647638
3.297925
8.016825
52.986741
150.254965
403.500795
717.889667
1015.888453
1015.888453
1015.888453
1015.888453
1015.888453
1015.888453
1015.888453
1015.888453
700.669885
395.793915
162.190795
67.334771
19.709468
11.806488
10.732412
10.611415
10.213852
10.811687
12.985468
16.813874
24.896860
34.131408
47.113895
57.471991
69.575906
73.992610
76.214671
73.119998
65.035820
55.906773
43.793917
33.842921
23.896694
18.512607
13.952851
11.962652
10.487437
##ZVALUE=350
0.543594
0.510812
0.461936
0.487566
0.548959
0.423789
0.473857
0.513792
0.405908
0.408888
0.387430
0.595450
0.460744
0.384450
0.519753
0.623465
0.475645
0.661612
0.585914
0.671744
0.673532
0.660419
0.482798
0.677705
0.647902
0.586510
0.721812
0.627637
0.694990
0.727773
0.740886
0.997782
0.842810
0.860691
0.778437
0.802875
0.790954
0.920892
1.051426
0.904799
0.948906
1.011491
0.910759
0.927448
1.151562
1.290441
1.313686
1.278520
1.529455
1.692772
1.837611
1.938939
2.018809
2.354980
2.517700
3.047585
4.481673
28.708577
94.482899
295.820832
567.764044
1015.889645
1015.889645
1015.889645
1015.889645
1015.889645
1015.889645
1015.889645
1015.889645
897.028446
539.821982
236.367583
104.272962
27.364492
12.918711
10.403991
9.652972
9.249449
9.188652
10.184646
11.858940
16.707778
21.644831
30.768514
39.492846
51.972866
59.776902
68.125725
70.763826
67.300797
62.613487
51.245689
42.754412
31.644702
24.619699
17.975569
##ZVALUE=355
0.553727
0.529885
0.486970
0.481606
0.735521
0.437498
0.409484
0.436902
0.427961
0.515580
0.628829
0.605583
0.559688
0.570416
0.615716
0.704527
0.613928
0.457764
0.664592
0.548959
0.523925
0.567436
0.627637
0.725985
0.683665
0.760555
0.746846
0.826716
0.790954
0.740886
0.644922
0.821948
0.762939
0.782609
0.761747
0.910759
0.898838
0.977516
0.966787
0.923872
0.978708
0.949502
1.048446
1.093745
1.132488
1.242757
1.324415
1.288652
1.439452
1.489520
1.562834
1.797676
1.782775
2.046824
2.065897
2.435446
2.715588
2.879500
3.502965
11.422634
46.708584
194.595456
406.743884
889.490843
1015.893817
1015.893817
1015.893817
1015.893817
1015.893817
1015.893817
1015.893817
1015.893817
715.329647
298.738480
135.700703
38.527846
15.300512
10.218620
9.602904
9.388924
8.947849
8.976460
9.493828
11.312962
13.789535
20.232797
26.126504
36.362410
44.444799
54.022670
60.614944
64.255595
63.436627
56.539774
49.085617
39.540529
##ZVALUE=360
0.549555
0.481606
0.450611
0.562668
0.650883
0.600815
0.542998
0.518560
0.511408
0.646710
0.558496
0.623465
0.596642
0.670552
0.732541
0.640750
0.570416
0.705719
0.693798
0.516772
0.596642
0.727773
0.617504
0.737906
0.742674
0.754595
0.775456
0.798702
0.702739
0.796914
0.781417
0.820756
0.866652
0.882745
0.825524
0.933409
0.966787
0.977516
0.978708
1.020432
1.176596
0.945926
1.021624
1.318455
1.183748
1.340508
1.255870
1.431704
1.531839
1.608729
1.592636
1.720786
1.720786
1.909733
2.048612
2.121925
2.474785
2.475977
2.794862
3.249645
3.482699
6.067753
20.706654
96.640587
238.062739
609.726906
1003.054976
1015.888453
1015.888453
1015.888453
1015.888453
1015.888453
1015.888453
1015.888453
910.416842
413.836837
203.131437
67.042708
24.996996
10.562539
9.801984
9.170771
8.905530
8.541942
8.453727
8.518696
9.733438
12.187958
15.383959
22.590756
29.718876
40.015578
46.664476
53.570867
56.990981
57.232976
##ZVALUE=365
0.437498
0.564456
0.463724
0.552535
0.643730
0.462532
0.554919
0.432730
0.535846
0.591874
0.556707
0.576973
0.611544
0.557899
0.720620
0.669956
0.693798
0.686646
0.622869
0.540614
0.600815
0.668764
0.846982
0.581741
0.697970
0.726581
0.897646
0.778437
0.746846
0.950694
0.756979
0.910759
0.885725
0.765920
0.941753
0.984669
0.886917
0.786781
0.830889
0.870824
0.811815
0.835657
1.061559
1.027584
1.034737
1.015663
1.250505
1.173615
0.960827
1.289845
1.414418
1.426935
1.526475
1.665950
1.758933
1.855493
1.948476
2.107620
2.269745
2.435446
2.809763
2.965927
3.528595
3.963709
11.140704
46.563745
186.006427
404.820442
916.922688
1015.888453
1015.888453
1015.888453
1015.888453
1015.888453
1015.888453
1015.888453
1015.889049
678.342581
276.888609
121.109486
31.807423
13.322830
9.122491
8.722544
8.174777
7.941723
7.536411
7.528663
7.936954
8.495450
10.226965
13.131499
19.091964
25.124550
33.579469
40.238500
##ZVALUE=370
0.469685
0.582933
0.486970
0.465512
0.535846
0.430942
0.443459
0.489950
0.472665
0.473857
0.533462
0.478625
0.598431
0.672936
0.638962
0.626445
0.647902
0.561476
0.390410
0.603795
0.614524
0.689626
0.651479
0.637770
0.594854
0.749826
0.595450
0.757575
0.500679
0.560880
0.679493
0.594854
0.690818
0.789762
0.775456
0.766516
0.760555
0.848770
0.818968
0.845790
0.931621
0.918508
0.831485
0.932813
0.809431
0.972748
0.917912
0.984669
1.152754
1.295805
1.168847
1.260638
1.382828
1.355410
1.544952
1.396537
1.588464
1.673698
1.822710
1.883507
2.108812
2.474785
2.608895
2.886653
3.122687
3.977418
5.723834
32.242537
116.437674
379.803777
690.100789
1015.888453
1015.888453
1015.888453
1015.888453
1015.888453
1015.888453
1015.888453
1015.888453
849.418640
465.893745
167.670846
69.708824
20.150542
10.094643
8.264780
7.607937
7.399917
7.082820
6.809831
6.755590
6.935000
7.584691
9.310842
11.778474
16.364455
##ZVALUE=375
0.456572
0.389814
0.278950
0.335574
0.473857
0.575781
0.457764
0.555515
0.445843
0.408888
0.427961
0.646710
0.510812
0.447631
0.515580
0.524521
0.482798
0.499487
0.539422
0.508428
0.435710
0.445843
0.452995
0.490546
0.495911
0.594854
0.458956
0.628829
0.624657
0.536442
0.640750
0.714660
0.668764
0.609756
0.837445
0.647902
0.593662
0.687838
0.773668
0.792742
0.873804
0.884533
0.885725
0.904799
0.723600
0.815988
0.742674
0.917912
0.770688
1.042485
1.113415
0.936985
1.263618
1.070499
1.127720
1.275539
1.270771
1.385808
1.332760
1.587868
1.679659
1.681447
1.870990
1.886487
2.144575
2.503991
2.919436
3.367662
4.101992
14.611483
54.955482
205.450654
445.521474
963.577628
1015.888453
1015.888453
1015.888453
1015.888453
1015.888453
1015.888453
1015.888453
1000.217795
660.820603
314.304829
146.686435
41.837692
14.811754
7.963777
7.521510
6.856918
6.782413
6.540418
6.152987
6.056428
6.321669
6.727576
##ZVALUE=380
0.473857
0.382662
0.463724
0.524521
0.420809
0.461936
0.408888
0.406504
0.476837
0.421405
0.258684
0.474453
0.334978
0.362992
0.551939
0.485778
0.307560
0.557899
0.578761
0.590682
0.476837
0.388622
0.520945
0.511408
0.547767
0.455976
0.522733
0.467896
0.430942
0.604987
0.583529
0.603795
0.604987
0.547767
0.622869
0.569820
0.661612
0.726581
0.771880
0.594854
0.763535
0.728965
0.665784
0.795722
0.826716
0.829697
0.741482
0.728965
0.915527
0.951886
0.930429
1.060963
1.009703
1.032948
1.214743
1.085997
1.210570
1.093745
1.221895
1.345873
1.417994
1.669526
1.642704
1.681447
1.981854
1.919866
2.278686
2.590418
2.997518
3.788471
4.711747
8.210540
34.418702
175.145864
418.351889
960.161686
1015.888453
1015.888453
1015.888453
1015.888453
1015.888453
1015.888453
1015.888453
1015.889049
908.924937
431.394577
212.407708
68.724751
24.653673
8.889437
7.294416
6.821752
6.467700
6.274581
5.935431
5.745888
##ZVALUE=385
0.505447
0.376701
0.282526
0.517964
0.634789
0.346899
0.386834
0.289679
0.481606
0.376701
0.516772
0.381470
0.455976
0.401735
0.249743
0.432730
0.500679
0.507832
0.450611
0.395775
0.472665
0.412464
0.477433
0.463724
0.395775
0.439882
0.604987
0.444651
0.609756
0.440478
0.640750
0.533462
0.558496
0.548959
0.498891
0.537634
0.624657
0.451803
0.515580
0.752807
0.646710
0.648499
0.637770
0.774860
0.737906
0.662804
0.652671
0.746846
0.888705
0.687838
0.826716
1.070499
0.908971
0.773668
0.727773
0.866652
1.087785
0.854731
1.067519
1.003742
1.214743
1.332760
1.218915
1.303554
1.516938
1.621842
1.850724
2.073646
2.220869
2.601743
3.075600
3.413558
3.549457
4.808903
13.803840
75.162649
206.797719
578.588843
983.107686
1015.889645
1015.889645
1015.889645
1015.889645
1015.889645
1015.889645
1015.889645
1015.889645
627.958775
349.679589
138.731599
53.846836
12.562871
6.952882
6.264448
5.979538
5.614758
##ZVALUE=390
0.264645
0.199676
0.244975
0.401735
0.309944
0.314713
0.215769
0.266433
0.415444
0.266433
0.427961
0.423789
0.290871
0.416636
0.315905
0.430942
0.447631
0.425577
0.415444
0.387430
0.295639
0.437498
0.253916
0.346899
0.306964
0.554919
0.408888
0.448823
0.386834
0.490546
0.609756
0.511408
0.479817
0.498891
0.575781
0.440478
0.428557
0.411868
0.524521
0.486970
0.507832
0.635982
0.580549
0.764728
0.652671
0.751615
0.645518
0.723600
0.770688
0.541806
0.692606
0.853539
0.863671
0.746846
0.691414
0.991821
0.865459
0.908971
0.957847
0.920892
0.966787
1.266599
1.277924
1.141429
1.430511
1.467466
1.681447
1.777411
2.106428
2.366900
2.494454
2.688766
2.851486
2.985597
3.176928
3.519654
6.279945
40.232539
131.402612
429.156423
828.703642
1015.888453
1015.888453
1015.888453
1015.888453
1015.888453
1015.888453
1015.888453
1015.888453
955.532789
547.188520
216.757655
89.737773
19.723773
8.284450
6.436706
##ZVALUE=395
0.290871
0.267625
0.345707
0.306964
0.245571
0.337958
0.341535
0.341535
0.277758
0.281930
0.224710
0.280738
0.252724
0.419617
0.226498
0.357628
0.287890
0.351667
0.231862
0.146627
0.319481
0.377893
0.320673
0.294447
0.458956
0.424981
0.574589
0.520945
0.522733
0.461936
0.482798
0.406504
0.395775
0.419617
0.319481
0.457764
0.399947
0.458956
0.630617
0.561476
0.413656
0.661612
0.583529
0.587702
0.735521
0.671744
0.540614
0.774860
0.727773
0.532866
0.706911
0.680685
0.758767
0.866652
0.703931
0.879765
0.762939
0.762939
0.822544
0.875592
0.817776
0.941753
0.904799
1.006722
1.231432
1.176596
1.424551
1.482964
1.874566
1.843572
2.174973
2.400875
2.095699
2.465844
2.388954
2.287626
2.601743
2.922416
4.889965
19.603968
112.339854
264.449716
602.502823
966.287851
1015.855670
1015.855670
1015.855670
1015.855670
1015.855670
1015.855670
1015.855670
1003.397703
550.398827
290.852785
105.709434
42.603612
##ZVALUE=400
0.415444
0.323653
0.390410
0.339746
0.155568
0.364780
0.250936
0.193715
0.393987
0.376701
0.346899
0.346899
0.240803
0.251532
0.400543
0.431538
0.441670
0.308752
0.345707
0.289679
0.403523
0.428557
0.333786
0.417829
0.419617
0.423789
0.363588
0.400543
0.388622
0.569820
0.587702
0.451803
0.457764
0.300407
0.461936
0.524521
0.433922
0.400543
0.309944
0.472665
0.534654
0.467896
0.678897
0.481606
0.564456
0.428557
0.532866
0.635982
0.617504
0.811815
0.669956
0.785589
0.712872
0.730753
0.709891
0.723600
0.717640
0.778437
0.765920
0.828505
0.848770
0.898838
1.043677
0.981688
1.133680
1.287460
1.268983
1.436472
1.637936
1.874566
2.010465
2.039671
1.888871
2.180934
1.944900
1.992583
2.242923
2.200603
2.637506
3.053546
3.367662
14.139414
57.853460
207.713842
430.705547
928.278565
1015.888453
1015.888453
1015.888453
1015.888453
1015.888453
1015.888453
1015.888453
1015.888453
758.353472
366.548896
##END
