##TITLE=QP00302
##FORMAT=SPECTACLE-ASCII V-1.2
##DATA TYPE=ULTRAVIOLET SPECTRUM
##SECOND TYPE=ULTRAVIOLET SPECTRUM
##DATE=02/05/18
##TIME=14:26:06
##SPECTROMETER/DATA SYSTEM=SPECTACLE
##XUNITS=NM EM
##YUNITS=ENERGY
##YFACTOR=1
##FIRSTX=220
##LASTX=410
##NPOINTS=96
##3DDATA=Equidistant
##ZUNITS=NM EX
##FIRSTZ=210
##LASTZ=400
##ZPOINTS=39
##XYDATA=(Y..Y)
##ZVALUE=210
2.758503
1.946688
2.308488
1.718998
2.776980
2.524853
3.034472
3.075600
2.084970
2.942681
2.634525
2.777576
2.916455
2.813935
3.385544
3.702641
4.125834
3.757477
3.185868
4.027486
4.232526
4.990697
5.731583
5.495548
4.823804
5.130768
6.447434
7.233620
6.446838
6.999969
7.083416
7.624626
7.650852
7.354617
8.145571
8.448958
7.902980
8.429885
8.337498
8.821487
8.348823
9.897947
9.282827
10.334849
11.756420
8.878708
9.937882
10.082722
10.618567
10.682940
10.880828
11.513829
11.931658
12.470484
12.226701
11.919737
11.836886
12.653470
14.436841
14.023781
13.667941
12.905598
13.874769
13.041496
13.615489
14.933944
15.634894
17.121434
20.565987
23.495555
29.771924
31.596422
42.099953
46.059489
53.476691
55.979490
58.134794
58.070421
59.341788
58.317780
51.998496
46.558976
38.577914
32.834411
23.504496
20.892620
17.760992
15.701652
14.837980
15.219450
14.852881
14.537573
14.709830
13.966560
14.555454
15.515685
##ZVALUE=215
8.816719
7.310510
7.249713
6.998777
5.163550
4.732609
5.279779
4.359484
5.011559
6.212592
4.535913
5.716681
4.652739
4.885793
4.625916
3.863573
4.103780
4.227757
4.099607
4.454851
5.095601
6.192923
5.638599
6.057620
6.903410
7.643700
6.443858
7.508993
7.681847
8.595586
7.573962
9.124875
8.102655
8.140802
10.038614
9.790659
9.562969
10.205507
8.845925
9.400845
10.853410
9.778738
10.294914
9.983778
10.880828
11.177659
11.783838
11.945963
12.353659
11.824965
12.422800
10.822415
12.091994
12.658834
13.317466
12.852550
12.361407
13.445616
13.682842
13.992786
13.224483
13.251901
13.276935
14.255643
14.348626
13.604760
16.189814
19.233823
20.079613
24.911761
27.170777
32.502413
38.568974
41.558743
42.403936
47.581792
47.676563
46.961904
45.116544
46.465993
42.792559
36.945939
31.466484
26.249886
20.732880
18.427968
17.040968
15.739799
13.748407
13.539791
12.273788
12.399554
11.901855
13.279915
11.868477
13.393760
##ZVALUE=220
31.440854
31.785965
35.355687
34.951568
29.869676
23.650527
18.741488
13.720989
11.281967
11.229515
11.449456
10.832548
12.624860
12.503862
9.548664
8.147955
6.491542
5.206466
4.744530
4.998446
5.232692
4.568696
6.677508
6.448627
5.745888
6.753802
6.497502
6.982684
7.817745
7.585883
8.895993
8.125901
8.169413
8.306503
9.120703
9.905696
9.255409
9.983778
9.476542
11.071563
10.791421
10.797977
9.383559
10.035634
9.998679
11.016726
11.101961
11.050701
12.747645
11.621714
11.150837
12.139678
12.053847
12.686849
12.476444
12.569427
12.452602
11.515617
13.296604
12.949705
13.280511
12.134910
13.210773
13.480783
13.686419
16.071796
16.212463
16.230941
17.387867
23.203492
25.696754
31.518936
33.875704
37.912726
41.840672
43.336749
44.745803
43.590665
42.478442
40.305853
38.001537
34.978986
33.742785
27.326941
23.782849
19.699931
18.872619
16.197562
16.140938
13.792515
14.634728
14.129877
13.840795
13.127923
13.751984
12.913942
##ZVALUE=225
58.684945
61.617494
79.714656
96.141696
109.100938
104.919672
96.547604
76.060891
55.416822
41.415691
28.825998
24.127960
24.975538
26.145577
25.634766
26.561618
20.716786
19.546747
13.258457
8.811951
7.506609
6.298423
6.745458
6.643534
6.898642
7.602572
7.280707
6.805658
6.950498
8.009672
8.774996
9.131432
8.774996
9.830594
9.974837
10.201931
10.478497
9.226799
10.810494
11.487603
11.385679
11.129975
11.679530
11.203885
10.759830
11.593699
11.597872
13.249516
13.179779
12.845993
13.396740
13.782978
13.112426
13.306737
11.730790
13.298988
13.173819
13.641715
13.769865
14.342666
14.438629
14.489889
14.631748
15.441775
15.727878
16.652942
19.180775
18.499494
21.122694
23.585558
24.417639
30.178428
31.688809
35.707951
36.996603
39.586425
38.897991
37.576556
37.543774
34.521818
34.045577
29.907823
30.099750
25.123954
25.554895
22.026896
19.446611
18.457770
18.883944
17.237663
18.170476
16.297698
16.963482
16.879439
16.442537
15.725493
##ZVALUE=230
56.722760
63.676834
97.670555
159.956813
208.868980
262.270570
285.287499
282.529593
266.861916
217.420459
144.522786
98.707676
61.191916
49.094558
48.102736
46.801567
50.635934
47.880411
46.683550
37.417412
27.718544
20.434856
15.027523
10.560751
9.507537
8.981824
8.483529
8.095503
9.155869
10.554790
10.280609
9.253621
12.164712
10.763407
11.629462
12.333989
11.122823
12.412667
11.303425
13.321638
12.660623
14.874935
14.006495
13.914704
11.189580
14.600754
14.331937
14.892817
14.225841
13.076663
14.450550
15.178919
15.523434
15.079975
15.117526
15.256405
16.333461
17.886758
17.622709
16.110539
18.575788
17.448664
18.867850
19.802451
19.455552
20.491481
20.280480
22.132993
25.980473
27.930737
32.170415
36.222935
38.408637
43.053627
46.609640
47.448874
48.311949
48.365593
47.074556
40.880442
39.561987
38.918853
34.202933
33.674836
29.831529
29.793978
25.949478
27.052760
26.682615
25.221705
25.628805
25.738478
23.645759
23.736954
25.624633
23.790598
##ZVALUE=235
23.566484
27.674437
75.265765
145.771503
231.269002
372.713804
495.779514
631.390810
689.177513
679.790974
602.240562
466.826558
333.155990
207.165480
138.035417
91.982484
82.603693
80.601573
88.457465
86.382627
76.394677
70.427656
53.908825
39.437413
25.785565
21.007657
14.949441
12.851954
13.004541
12.415648
13.611913
12.845993
13.732910
15.157461
14.548898
14.193654
16.070604
14.180541
13.948679
14.984608
15.487671
14.606714
16.077757
15.411973
15.540719
15.307665
15.721917
14.629960
17.199516
14.629960
15.833974
16.790628
17.528534
19.085407
17.406940
18.284917
17.726421
17.428994
20.208955
20.530820
20.443797
21.071434
21.485686
21.774769
23.190975
24.753809
26.369691
26.296973
29.594898
33.921599
39.987564
42.607784
47.696829
50.130486
53.218603
55.960417
54.871440
55.800676
54.050684
50.552487
47.432780
46.241879
43.016672
40.421486
39.179921
36.153793
36.087632
35.252571
35.559535
34.781694
33.461452
33.205748
33.069849
33.159852
32.715797
32.690763
##ZVALUE=240
2.003908
3.309846
7.616878
34.420490
81.400871
193.883777
323.264003
573.293567
754.683614
924.248695
1015.888453
1015.888453
948.996544
792.729855
552.919507
391.756892
220.311880
148.488879
112.566948
100.913644
115.620494
122.809410
119.149685
102.945566
89.493990
68.077445
52.835941
38.616657
29.503703
20.369887
17.259717
15.925765
15.896559
15.772581
14.306903
14.860630
15.832782
14.526844
14.939904
15.865564
15.214682
14.332533
15.366673
16.691685
15.893579
15.660524
14.803410
15.617609
16.414523
16.473532
15.107989
17.015934
17.494559
17.541647
17.495751
17.642975
17.931461
18.661618
18.333793
19.218922
20.904541
21.842718
22.645593
23.413897
23.860931
24.739504
26.412606
28.852820
30.539632
35.361648
38.294792
46.232939
48.692822
51.798820
56.356788
57.414770
55.780411
56.308508
55.108666
51.557422
52.215457
46.717525
47.071576
45.629740
44.964552
44.454932
41.739941
42.879581
40.134788
39.658546
39.995909
41.220784
39.755702
39.584637
39.891601
38.062930
##ZVALUE=245
1.740456
1.592636
2.029538
1.452565
5.857944
16.073585
59.186816
124.596953
297.532678
471.695662
755.725503
961.823463
1015.769839
1015.769839
1015.769839
977.966785
785.107613
523.658991
354.584455
191.518664
132.684708
108.695626
118.296742
129.069686
133.872628
134.347677
114.325881
104.273558
77.150464
60.800910
46.763420
28.418899
23.356676
16.104579
15.356541
13.465881
14.823675
14.323592
14.643669
13.874769
13.620853
13.876557
13.486743
12.755990
13.374686
13.766885
13.053417
13.815761
14.227629
13.936758
13.809800
13.822913
14.211535
14.446974
14.381409
15.699863
14.642477
15.036464
17.465949
17.132759
16.988516
18.527508
18.641949
18.844604
19.328594
22.980571
22.444725
24.202466
26.613474
32.317638
35.596490
38.326979
43.132901
44.255853
48.751831
52.016973
50.535798
50.382614
49.928427
48.750639
46.803951
46.103001
43.404698
44.469833
42.325854
40.805936
41.559935
40.151477
42.397976
39.275885
40.751696
39.716959
40.102601
39.801002
39.397478
37.886500
##ZVALUE=250
1.735687
1.568794
1.704693
2.084970
2.380610
2.340674
2.974868
12.442470
38.046837
89.279413
235.043764
413.189530
728.549957
982.573032
1015.888453
1015.888453
1015.888453
1015.888453
1015.888453
872.240663
591.939688
321.043730
185.151696
114.551783
111.858845
128.699541
141.526461
151.075721
145.972967
127.769709
112.568736
84.747672
64.529777
42.724609
32.028556
22.777915
18.128753
14.346838
14.859438
15.627742
14.248490
12.968779
13.324618
13.360977
13.387799
13.606548
13.605952
14.925599
13.413429
14.461875
13.649464
13.115406
14.141798
14.551878
13.683438
14.374852
15.043616
15.121698
16.103983
15.915632
15.844703
16.558766
16.427636
17.781854
19.286871
20.102859
22.120476
23.866892
24.146438
28.671622
29.371977
35.377741
37.529469
44.089556
45.566559
47.875643
49.540997
49.589872
48.855543
47.681928
46.666861
44.487715
45.482516
41.989684
41.583776
39.671659
40.248632
37.778616
37.136674
37.038922
38.878918
36.753416
36.764741
36.773682
36.859512
36.353469
##ZVALUE=255
1.651645
1.791716
1.786947
1.676679
1.913905
1.506805
1.814961
2.532601
2.635717
7.234812
25.277734
101.531744
238.680840
535.361767
812.122822
1015.889645
1015.889645
1015.889645
1015.889645
1015.889645
1015.889645
1015.889645
711.914897
434.589982
214.335918
131.587982
100.660920
113.020539
136.743784
148.561597
157.387853
151.826739
138.605833
112.900734
87.645650
62.127709
44.224858
27.021766
19.428730
14.640689
12.938976
12.091994
11.665821
10.929704
12.163520
10.991693
10.989904
12.128949
10.963678
11.499524
10.749698
11.311769
11.220574
11.017919
10.661483
11.289716
11.295676
11.212826
11.795759
12.771487
12.663603
12.860894
13.646483
14.592409
14.476776
14.924407
16.750693
18.279552
20.755529
21.920800
24.611950
26.780963
28.444529
31.016469
32.923818
33.482909
35.516620
33.978820
34.645796
32.789707
31.429529
31.480789
31.133890
32.662749
32.931566
32.306910
31.597614
33.111572
32.995939
33.628941
31.591654
31.921864
32.786727
32.692552
33.247471
32.406449
##ZVALUE=260
1.421571
1.248717
1.247525
1.372695
1.668930
1.567602
1.758933
1.768470
1.842976
2.184510
2.446771
4.739761
15.017986
64.939857
149.524808
363.881588
601.793528
974.164009
1015.888453
1015.888453
1015.888453
1015.888453
1015.888453
1015.888453
806.750655
527.488589
288.078785
172.346830
102.800727
92.981458
106.320977
133.266449
150.585771
158.105493
154.904723
135.604739
117.518902
85.940957
64.005852
40.982962
28.918982
18.188953
13.673902
10.472536
10.618567
10.563731
10.233521
10.179877
10.706782
10.968447
10.391474
10.330677
10.059476
10.258555
10.309815
10.249615
10.568500
10.826588
10.670424
10.642409
11.006594
11.988878
12.603998
12.720823
13.343692
14.394522
14.036894
16.218424
17.752647
19.148588
20.724535
24.426579
25.296807
27.260780
28.045774
29.661655
29.238462
29.552579
30.888915
29.439926
30.104518
29.054880
29.693842
29.149652
29.461980
28.643608
28.821826
28.738976
29.667616
29.758811
29.153824
30.567646
30.228496
30.041933
29.968619
30.228496
##ZVALUE=265
1.395941
1.291633
1.118779
1.307726
1.471639
1.364946
1.545548
1.572967
1.720786
1.694560
1.864433
1.955628
2.683997
3.200769
9.254813
71.175694
174.860954
398.260951
649.588704
1015.887856
1015.887856
1015.887856
1015.887856
1015.887856
1015.887856
1015.887856
1015.887856
772.515535
434.287786
254.897475
144.643784
84.038973
85.351467
116.469860
136.416554
156.912804
160.375834
152.884722
137.715936
111.486912
88.508725
59.941411
41.578412
27.050972
18.003583
12.448430
11.411905
10.848641
10.866523
10.407567
11.033416
10.155439
10.693669
10.499954
10.575652
11.124611
10.715723
11.430979
10.817647
12.476444
11.642575
11.714697
11.538863
13.163686
12.987852
12.900829
13.946891
15.259981
16.496778
19.121766
20.251870
22.731423
24.091601
26.312470
27.346611
27.347803
28.172731
27.927756
28.503537
26.840568
26.853681
27.291775
26.337504
26.880503
25.331974
26.496649
27.248859
26.983619
27.584434
27.444959
26.930571
28.769970
28.686523
28.171539
28.041601
28.932691
##ZVALUE=270
1.398921
1.256466
0.987649
1.338720
1.111627
1.100898
1.272559
1.425743
1.607537
1.534820
1.542568
1.627803
1.484752
1.996756
2.451539
2.560616
3.646612
16.532540
50.745606
170.438886
350.242853
639.393926
1015.888453
1015.888453
1015.888453
1015.888453
1015.888453
1015.888453
1015.888453
1015.889049
915.503502
467.777848
244.232416
97.812414
73.230863
89.522600
112.234950
139.446855
152.945518
162.122846
156.162977
134.938955
116.734505
86.992979
64.765811
41.124821
29.208660
18.301606
14.590621
11.848807
11.261702
10.443926
11.524558
10.536909
10.627508
10.932684
11.235476
11.800528
11.583567
12.115836
11.938810
12.495518
13.158917
13.332963
13.628602
13.972521
14.515519
15.379786
16.298890
18.398762
19.588470
21.606684
23.592710
23.452640
25.473833
26.570559
26.768446
26.869774
25.726557
25.576949
26.403666
25.940537
25.263429
24.915934
25.805831
25.640726
25.177598
25.598407
26.177764
26.392937
26.158690
26.697516
26.684999
26.543736
26.162863
27.487874
##ZVALUE=275
1.178980
1.255870
1.011491
1.123548
1.176000
1.400709
1.079440
1.215935
1.274943
1.541972
1.640916
1.644492
1.747608
2.218485
2.098680
2.404451
2.330542
3.084540
3.014803
8.379817
31.525493
90.639591
275.521874
558.983684
1015.885472
1015.885472
1015.885472
1015.885472
1015.885472
1015.885472
1015.885472
1015.885472
1015.885472
707.471967
387.083888
147.927999
78.105927
68.018436
87.308884
115.824938
137.573481
154.535770
160.743594
155.164599
139.840841
111.747980
90.713501
63.754916
45.686960
29.327869
20.271540
15.168786
13.249516
12.436509
12.296438
12.229681
11.837482
12.377501
12.596846
13.238788
13.065934
13.681650
13.484955
13.820529
14.172792
15.227795
15.116930
16.807914
17.898679
18.874407
20.934939
21.990538
24.115443
25.876760
26.938915
27.495623
27.073622
27.574897
27.446747
26.472807
26.509762
25.785565
25.829673
25.730729
25.230646
25.509596
24.802685
25.333762
26.111603
25.378466
25.799870
24.928451
25.693774
26.020408
26.506782
25.344491
##ZVALUE=280
1.292825
1.334548
1.188517
1.144409
1.120567
1.200438
1.106858
1.027584
1.522899
1.407862
1.453757
1.487732
1.462698
1.654625
1.984835
1.849532
1.938939
2.522469
2.599955
3.035665
3.368855
4.333854
21.439791
70.951581
220.809579
430.400968
919.606686
1015.888453
1015.888453
1015.888453
1015.888453
1015.888453
1015.888453
1015.888453
1015.888453
831.647515
471.801758
185.628533
89.513659
52.620769
63.245893
87.878704
110.989809
136.133432
149.749517
156.862736
152.973533
133.908987
114.619732
83.540678
64.262748
41.267872
30.603409
19.167662
15.280843
12.432933
11.770725
12.583733
12.344718
12.832880
12.968779
12.944937
13.991594
13.927817
14.804602
14.258623
14.861822
16.616583
17.009974
18.577576
18.997788
21.602511
22.141933
23.656487
24.839640
25.529861
24.858713
24.561882
24.592876
24.538636
24.311543
23.733974
23.294687
23.986697
23.867488
24.353862
23.687482
23.492575
24.334788
24.034977
23.182631
24.086833
23.985505
24.447441
23.647547
24.360418
##ZVALUE=285
1.078844
1.018643
0.986457
0.978708
0.969768
0.761747
1.118779
1.128912
1.019835
0.896454
1.057982
1.281500
1.021624
1.456738
1.570582
1.438856
1.559854
1.526475
1.883507
2.021790
2.035499
2.425909
2.822876
3.223419
10.094643
34.869909
122.292638
258.613825
585.713387
955.228806
1015.888453
1015.888453
1015.888453
1015.888453
1015.888453
1015.888453
1015.888453
975.722671
617.002845
277.974606
134.041905
52.616596
41.423440
59.297681
78.140497
108.282566
125.629902
143.559575
151.599646
146.781802
134.190917
108.774900
89.031458
63.770413
44.277906
27.842522
19.949675
14.379621
12.719631
11.904836
12.251735
12.118816
13.092756
13.100505
13.472438
14.118552
14.967918
15.725493
16.386509
17.807484
19.236803
19.536614
21.041632
21.794438
22.538900
23.115873
23.114681
22.832751
22.947788
22.395849
23.365617
23.282766
23.480654
22.459626
23.337603
23.854971
23.011565
23.347735
23.607612
23.642778
22.441745
23.677945
23.851991
22.724867
23.585558
23.503900
##ZVALUE=290
0.845790
0.905991
0.893474
0.856519
0.788569
0.853539
0.770688
0.930429
0.834465
1.057982
0.920892
0.997782
0.895858
1.103878
1.059771
1.223683
1.248717
1.401901
1.428723
1.582503
1.753569
1.811981
1.788735
2.192855
2.439618
2.693534
4.208684
14.661551
72.243810
177.543759
357.850790
752.180815
1015.888453
1015.888453
1015.888453
1015.888453
1015.888453
1015.888453
1015.888453
1015.888453
776.472688
378.868580
193.421841
67.625642
35.950541
38.458705
52.741766
74.871778
96.555948
121.072531
137.794614
145.240426
143.341422
127.244592
109.554529
81.702471
63.104630
42.625666
30.876994
20.086765
15.749931
13.655424
13.068914
13.084412
13.295412
14.022589
14.710426
15.969872
16.854405
17.033815
17.927885
20.234585
20.944476
21.151900
22.041798
22.735596
22.564530
22.498965
22.753477
22.283792
22.284985
23.101568
23.201704
22.904873
23.431778
23.526549
22.804737
23.228526
22.914410
22.981763
22.545457
23.261905
23.290515
22.916794
23.292899
22.888780
##ZVALUE=295
0.750422
0.843406
0.839829
0.848770
0.662804
1.011491
1.060963
0.846982
0.949502
0.905991
0.979900
0.966787
1.002550
1.109838
1.022816
0.963807
1.139641
1.083612
1.219511
1.234412
1.420975
1.544952
1.595616
1.715422
1.903772
2.190471
2.424717
2.902746
3.134608
6.431937
37.509799
110.800862
260.198712
632.597804
985.063910
1015.888453
1015.888453
1015.888453
1015.888453
1015.888453
1015.888453
1015.888453
993.070602
535.694957
291.516781
105.050802
44.626594
27.046800
32.271743
50.195456
68.324804
92.584491
113.090873
132.009983
137.502551
136.771798
124.498606
102.148652
84.210634
59.835911
44.784546
29.606819
22.337437
17.493963
15.336871
14.101863
15.248656
15.958548
15.959740
17.043948
18.221736
19.503832
20.039678
21.884441
22.022724
22.220612
22.415519
22.742748
22.363663
23.000836
22.293925
23.177862
22.637844
23.461580
23.368001
23.509860
23.547411
23.631454
23.607612
23.230910
23.542643
23.321509
23.452640
22.925735
23.094416
23.266673
##ZVALUE=300
0.701547
0.794530
0.705719
0.814795
0.734925
0.737906
0.917912
0.806451
0.793934
0.897646
0.735521
0.959635
0.796914
0.910759
0.908971
0.901818
1.140833
1.104474
0.974536
1.342893
1.138449
1.495481
1.458526
1.406670
1.631975
1.693964
1.886487
2.157688
2.478957
2.513528
2.778769
3.767610
15.563965
58.739781
202.749968
408.805609
858.179927
1015.889645
1015.889645
1015.889645
1015.889645
1015.889645
1015.889645
1015.889645
1015.889645
845.741630
413.832664
214.896798
74.067712
30.569434
23.136735
30.097961
45.421720
62.330961
87.320805
104.833841
125.682950
131.993890
131.965876
122.817755
102.938414
85.273981
62.195659
46.736002
32.408834
23.816824
18.710494
17.258525
17.629862
17.999411
18.638968
19.910932
21.123886
21.184683
22.733808
22.522807
22.101998
22.390485
23.055673
23.373961
23.145676
23.652911
23.596883
24.163723
23.858547
23.940802
24.085641
24.360418
23.824573
23.706555
23.276806
24.356842
23.569465
23.415685
22.989511
23.130774
##ZVALUE=305
0.715852
0.851750
0.679493
0.719428
0.713468
0.700951
0.676513
0.614524
0.701547
0.905991
0.946522
0.672936
0.805855
0.900626
0.763535
0.898838
0.882745
1.090765
1.000762
0.999570
1.144409
1.231432
1.266599
1.094937
1.372695
1.271963
1.533628
1.910925
2.013445
2.172589
2.091527
2.556443
2.874732
3.445745
6.210804
41.954517
122.756958
358.147025
662.194490
1015.887856
1015.887856
1015.887856
1015.887856
1015.887856
1015.887856
1015.887856
1015.887856
982.229710
627.915859
277.727842
131.519437
40.466785
20.526648
21.351576
28.556585
44.043660
61.940551
84.816813
101.451874
117.596984
125.043988
125.562549
117.422938
99.110603
82.946420
60.428977
46.301484
32.364726
24.979711
21.022558
19.814968
19.989610
20.445585
21.300912
21.468997
22.528768
22.586584
22.812486
22.764802
23.116469
23.897886
24.115443
24.883747
24.062991
24.799705
24.213791
24.871826
25.214553
25.024414
24.528503
24.462938
24.271607
24.029613
23.547411
23.466945
23.887753
##ZVALUE=310
0.291467
0.302792
0.449419
0.517964
0.422597
0.535846
0.549555
0.559688
0.651479
0.576973
0.689626
0.500679
0.789762
0.460744
0.696778
0.701547
0.855923
0.672936
0.733733
0.756979
0.697970
0.899434
0.848770
1.072884
1.176596
1.052618
1.325607
1.240969
1.360774
1.490712
1.741648
1.703501
1.947880
2.228618
2.381802
2.898574
3.384948
16.865730
60.054660
208.041668
423.558950
890.671015
1015.760899
1015.760899
1015.760899
1015.760899
1015.760899
1015.760899
1015.760899
1015.760899
876.020789
435.543656
226.145983
74.338913
27.650595
15.711784
18.604994
27.167797
36.832690
56.017637
72.946548
96.181631
109.495521
119.313598
121.224523
112.758875
101.031661
81.478953
64.740777
46.942830
37.127733
29.562712
24.315715
22.262931
22.428632
21.999478
21.770000
22.563934
22.748709
23.446679
23.506880
24.099946
24.740696
24.949908
24.899840
25.570989
25.106668
25.075674
24.687648
25.097728
25.027990
24.369955
25.011897
24.024844
24.669766
24.080873
##ZVALUE=315
0.575781
0.550747
0.560880
0.474453
0.540614
0.701547
0.790954
0.596642
0.640750
0.639558
0.552535
0.677705
0.798702
0.607967
0.627637
0.747442
0.871420
0.815988
0.796914
0.798702
0.988841
0.985861
1.034737
1.068711
1.075864
1.134872
1.243949
1.285672
1.260638
1.479983
1.349449
1.491904
1.839995
1.749992
2.085567
2.274513
2.459884
2.817512
3.173947
7.533431
30.686855
135.934353
304.380655
694.649816
1015.888453
1015.888453
1015.888453
1015.888453
1015.888453
1015.888453
1015.888453
1015.889049
1015.888453
577.797890
304.298997
103.143454
39.880872
15.608668
14.604926
18.129945
24.122000
37.787557
50.950646
71.656704
88.023543
107.092857
116.371512
117.323995
111.886859
95.362663
82.392693
63.717961
50.261617
36.645532
30.232668
25.313497
23.960471
23.264885
23.078918
23.160577
23.867488
24.419427
24.794936
25.524497
25.159717
26.092529
25.525689
25.652647
25.392771
25.883913
25.245547
24.784803
25.074482
24.650693
25.127530
24.078488
##ZVALUE=320
0.507832
0.612736
0.683665
0.621676
0.608563
0.626445
0.593662
0.610948
0.617504
0.615716
0.600815
0.885725
0.599623
0.716448
0.677705
0.744462
0.763535
0.862479
0.846982
0.887513
0.939965
1.092553
0.940561
1.171827
1.021624
0.966787
1.147985
1.071692
1.130700
1.122952
1.085997
1.421571
1.442432
1.745820
1.653433
2.040863
1.939535
2.137423
2.427697
2.815723
3.126860
3.756881
17.204881
62.604547
229.075551
470.576882
946.303606
1015.888453
1015.888453
1015.888453
1015.888453
1015.888453
1015.888453
1015.888453
1015.888453
854.827762
371.996760
184.152722
62.985420
24.480820
13.893843
13.610721
17.039776
23.346543
34.535527
46.623945
65.670609
82.404613
101.677775
109.186769
111.545920
108.138919
95.453858
82.367659
62.947869
51.120520
39.151907
32.379627
26.302934
25.144815
24.825931
24.828911
24.693608
25.179982
25.394559
25.418997
25.765896
25.729537
25.564432
25.943518
26.050806
25.410652
25.454760
25.247931
24.790764
25.095940
##ZVALUE=325
0.801682
0.785589
0.795722
0.686646
0.668764
0.721812
0.726581
0.675917
0.851750
0.660419
0.682473
0.769496
0.778437
0.966787
0.816584
0.876784
0.870824
0.651479
0.745654
0.855923
0.935793
1.270771
1.101494
0.984669
0.949502
1.096725
0.985861
1.116991
1.220703
1.415610
1.320839
1.337528
1.413822
1.340508
1.487732
1.675487
1.879930
2.013445
2.076626
2.153516
2.423525
2.752542
2.981424
3.470778
9.110570
38.248897
152.607560
327.987075
742.706656
1016.048789
1016.048789
1016.048789
1016.048789
1016.048789
1016.048789
1016.048789
1016.048789
961.420536
512.269735
272.800922
95.528960
37.305951
14.815927
13.551712
14.421940
17.091632
24.422407
33.188462
50.885677
65.919757
86.719990
97.877979
107.960701
108.600855
101.814866
93.923807
76.726675
62.978864
47.284961
38.403869
30.843616
28.116703
26.303530
24.976730
25.614500
25.467873
25.999546
25.435686
26.180744
25.682449
25.146604
25.349855
25.141835
25.228858
24.900436
24.597645
##ZVALUE=330
0.758767
0.581741
0.728965
0.956655
0.626445
0.644922
0.571609
0.718832
0.816584
0.703931
0.761747
0.714660
0.819564
0.726581
0.757575
0.932813
0.769496
0.820756
0.852942
0.870824
0.857711
0.994802
0.813603
1.033545
1.044869
0.914931
1.144409
1.098514
1.155734
1.119971
1.135468
1.327991
1.282692
1.334548
1.373887
1.463890
1.359582
1.556873
1.824498
1.953840
1.982450
2.024770
2.263784
2.581477
2.895594
3.298521
4.400611
21.553636
75.358748
256.593823
507.463813
987.406969
1016.047001
1016.047001
1016.047001
1016.047001
1016.047001
1016.047001
1016.047001
1016.047001
734.896660
331.593752
161.260962
53.072572
20.995736
13.433695
13.966560
15.526414
18.582940
26.142001
34.099817
48.862696
63.368678
82.246661
93.333721
103.136897
103.962421
97.320676
88.522434
71.901679
59.881806
46.241879
38.392544
32.382607
28.858781
26.646852
25.874972
25.405884
25.034547
24.911761
25.310516
24.981499
24.757981
25.255680
24.736524
24.079680
##ZVALUE=335
0.591874
0.548959
0.520945
0.748634
0.567436
0.520945
0.555515
0.429749
0.293851
0.693798
0.635982
0.525713
0.655651
0.648499
0.576973
0.674725
0.719428
0.807643
0.670552
0.659823
0.681877
0.957847
0.766516
0.658631
0.721812
0.730753
0.918508
0.892878
1.088977
0.925660
0.890493
0.876784
1.070499
1.050830
1.197457
1.328588
1.382828
1.387596
1.426935
1.473427
1.527667
1.779795
1.874566
1.886487
2.261996
2.303720
2.488494
3.064871
3.556609
7.651448
47.747493
134.447813
385.810733
711.175799
1015.961766
1015.961766
1015.961766
1015.961766
1015.961766
1015.961766
1015.961766
1015.961766
922.361016
543.583632
216.869712
94.004869
28.360486
15.213490
13.894439
15.054941
16.667843
19.735694
25.816560
33.891797
48.108697
60.312748
77.685714
88.857412
97.473860
99.024773
92.423558
83.988905
70.909858
60.648918
47.340989
39.490461
32.936931
28.104782
26.145577
25.197864
24.422407
24.592876
23.793578
23.478866
23.933649
23.733974
##ZVALUE=340
0.492930
0.599623
0.558496
0.655651
0.558496
0.582933
0.554919
0.355840
0.386834
0.453591
0.468493
0.647902
0.603795
0.691414
0.681877
0.595450
0.487566
0.506639
0.664592
0.672936
0.724792
0.638962
0.751615
0.707507
0.825524
0.848770
0.758767
0.918508
0.883937
1.022816
1.038909
0.810623
0.933409
0.975728
1.024604
0.997782
1.070499
1.216531
1.138449
1.208782
1.356602
1.443624
1.565814
1.670718
1.746416
1.799464
2.155900
2.180934
2.467632
2.944469
3.466606
4.538894
25.754571
83.999634
274.536014
551.408529
1015.918851
1015.918851
1015.918851
1015.918851
1015.918851
1015.918851
1015.918851
1015.918851
1015.918851
692.446828
306.536555
139.011741
37.818551
17.851591
15.116930
15.047789
15.470982
16.961694
20.424724
24.703741
33.686757
44.555664
60.281754
71.999431
86.155534
92.460513
94.198585
89.241862
80.444813
70.267916
57.217479
46.945810
37.489533
32.228827
27.503967
24.832487
23.291707
22.956729
22.543669
22.611618
##ZVALUE=345
0.449419
0.418425
0.393987
0.454783
0.336766
0.443459
0.448823
0.506639
0.469685
0.476837
0.492930
0.475645
0.516772
0.670552
0.570416
0.594854
0.594854
0.614524
0.716448
0.579953
0.449419
0.676513
0.628829
0.616908
0.514984
0.633597
0.650883
0.696778
0.665784
0.657439
0.928640
0.821948
0.740886
0.925660
0.980496
1.078844
0.854731
1.028776
1.106858
1.215935
1.095533
1.244545
1.303554
1.246929
1.480579
1.465678
1.589656
1.778603
1.994967
2.081990
2.142787
2.582669
2.969503
3.387928
10.401607
44.843554
193.066597
394.500494
840.160847
1015.888453
1015.888453
1015.888453
1015.888453
1015.888453
1015.888453
1015.888453
1015.889049
937.288404
416.939855
194.894671
60.109496
25.651455
16.183853
15.292764
15.063882
15.711784
16.704798
18.736720
24.028420
31.175613
43.464899
54.317713
67.566633
76.226592
84.166527
87.029934
83.654523
77.681541
66.191554
57.057738
44.955611
36.982894
29.628873
26.367903
22.931695
22.143722
##ZVALUE=350
0.484586
0.679493
0.486970
0.346899
0.318885
0.611544
0.501871
0.613928
0.374913
0.504851
0.521541
0.512600
0.580549
0.552535
0.723600
0.636578
0.679493
0.725985
0.639558
0.590682
0.499487
0.741482
0.657439
0.641942
0.621676
0.664592
0.758767
0.818968
0.780821
0.794530
0.830889
0.817776
0.778437
0.932813
1.011491
0.873804
0.897646
0.911951
1.111627
1.109838
1.114607
1.228452
1.205802
1.242757
1.301765
1.485944
1.646876
1.717806
1.723766
1.994967
1.953840
2.123713
2.204776
2.532601
2.790689
3.486872
5.034804
27.500987
93.333721
301.271677
572.113991
1015.888453
1015.888453
1015.888453
1015.888453
1015.888453
1015.888453
1015.888453
1015.888453
1011.112928
647.302866
276.680589
119.700432
32.138824
16.673803
14.690757
14.349818
14.153719
14.606714
16.132593
18.049479
23.845434
29.028654
38.840771
47.130585
60.445666
69.174767
77.879429
79.453588
78.205466
72.396994
62.117577
52.873492
41.950941
34.814477
28.325915
##ZVALUE=355
0.502467
0.443459
0.410676
0.472665
0.521541
0.512600
0.615716
0.579953
0.534654
0.500679
0.539422
0.754595
0.624657
0.672936
0.610948
0.548959
0.621676
0.628829
0.630617
0.821948
0.679493
0.730753
0.800490
0.703931
0.796914
0.741482
0.772476
0.792742
0.702739
0.927448
0.759959
0.824928
0.801682
0.929832
0.947714
0.953674
1.129508
0.974536
0.959635
1.069903
1.151562
1.236796
1.136661
1.180768
1.218915
1.282692
1.290441
1.393557
1.713634
1.692772
1.800656
1.792908
1.996756
2.237558
2.421737
2.658963
2.958775
3.266931
4.023910
9.642839
60.303807
165.101290
456.890464
829.851031
1015.888453
1015.888453
1015.888453
1015.888453
1015.888453
1015.888453
1015.888453
1015.888453
753.580928
397.076607
140.373707
56.360960
19.034743
13.774633
13.880730
13.138652
13.769865
14.299750
15.198588
17.296672
20.817518
25.906563
34.648776
42.342544
54.255724
62.458515
69.761872
72.944760
71.129799
66.847801
57.815909
50.475597
##ZVALUE=360
0.598431
0.553727
0.663996
0.457764
0.594854
0.679493
0.657439
0.547767
0.750422
0.639558
0.653863
0.613928
0.590682
0.610948
0.649691
0.673532
0.688434
0.692606
0.725985
0.659823
0.703931
0.652671
0.588894
0.722408
0.701547
0.721812
0.821948
0.830889
0.912547
0.793934
0.956655
1.010895
0.981688
0.777841
1.067519
0.971556
1.029968
1.056790
1.042485
1.149774
1.192689
1.144409
1.212955
1.280904
1.312494
1.438856
1.437664
1.508594
1.426935
1.596808
1.738667
1.770854
2.042651
1.903772
2.123713
2.313852
2.625585
2.791882
3.113747
3.536940
3.898740
6.820560
24.869442
119.187832
285.533667
707.590580
1015.888453
1015.888453
1015.888453
1015.888453
1015.888453
1015.888453
1015.888453
1015.889049
983.883739
480.994582
238.232613
81.382990
31.062961
14.042854
13.082623
12.847781
12.928843
13.090968
12.809634
14.084578
15.120506
18.644929
21.949410
28.469563
35.637617
46.413541
53.917766
61.661601
64.513683
65.521598
##ZVALUE=365
0.597835
0.578761
0.518560
0.484586
0.654459
0.435710
0.531673
0.424981
0.523925
0.459552
0.552535
0.714660
0.596642
0.596642
0.567436
0.648499
0.727773
0.578761
0.500679
0.584722
0.699759
0.590682
0.582933
0.653863
0.654459
0.797510
0.832677
0.916719
0.846982
0.877976
0.994802
0.815988
0.869632
1.005530
0.959635
0.869632
0.996590
1.008511
0.866652
1.042485
1.032948
1.081824
0.984669
0.994802
1.356602
1.242757
1.203418
1.202822
1.600981
1.386404
1.253486
1.558661
1.639724
1.803637
1.725554
1.832843
2.157688
2.238750
2.279878
2.561808
3.126860
3.269911
3.761649
4.370809
12.660623
50.053596
196.434855
424.920917
950.818658
1015.882492
1015.882492
1015.882492
1015.882492
1015.882492
1015.882492
1015.882492
1015.883088
758.811831
316.890478
141.808987
38.312674
16.789436
12.069941
11.679530
11.593699
11.714697
11.832714
11.864901
12.463927
13.568997
15.649796
18.949509
24.662614
30.737519
40.514469
46.567917
##ZVALUE=370
0.634789
0.496507
0.444651
0.533462
0.468493
0.519753
0.485778
0.472665
0.612736
0.586510
0.565648
0.555515
0.587702
0.648499
0.579953
0.551939
0.609756
0.766516
0.716448
0.680685
0.609756
0.637770
0.687838
0.672936
0.716448
0.669956
0.748634
0.599623
0.765920
0.746846
0.799894
0.744462
0.902414
0.695586
0.808835
0.835657
0.922680
0.942945
0.805855
1.032948
1.092553
0.922680
1.092553
1.084805
1.062751
1.142621
1.102686
1.203418
1.261830
1.149774
1.297593
1.369715
1.494884
1.514554
1.664758
1.567602
1.569986
1.839995
2.038479
2.275705
2.540946
2.692938
3.109574
3.268719
3.588796
4.226565
7.017851
27.763844
163.358450
400.124788
941.714644
1015.888453
1015.888453
1015.888453
1015.888453
1015.888453
1015.888453
1015.888453
1015.888453
895.423889
401.116014
197.550654
68.859458
26.179552
11.991858
11.048913
10.808706
10.456443
10.790825
10.838509
11.294484
11.245608
12.210608
13.852715
17.086864
21.267533
##ZVALUE=375
0.545979
0.541806
0.568628
0.586510
0.536442
0.502467
0.426769
0.606775
0.568628
0.504851
0.648499
0.493526
0.451803
0.497699
0.667572
0.585914
0.573993
0.464916
0.601411
0.533462
0.443459
0.492930
0.668764
0.650883
0.722408
0.650883
0.721812
0.582933
0.725985
0.610948
0.552535
0.655651
0.778437
0.574589
0.650883
0.714660
0.798702
0.868440
0.811815
0.799894
0.821948
0.834465
0.814795
0.868440
0.841618
0.961423
0.887513
1.122952
1.208782
1.155734
1.027584
1.180768
1.329780
1.238585
1.232624
1.391768
1.410842
1.346469
1.413822
1.550913
1.621842
1.838803
1.928806
2.211928
2.515912
2.685785
2.962947
3.482699
4.318953
16.273856
62.062740
230.411887
501.029491
1015.888453
1015.888453
1015.888453
1015.888453
1015.888453
1015.888453
1015.888453
1015.888453
1015.888453
701.806545
325.097442
151.621699
42.584538
16.568899
10.320544
9.870529
9.836555
9.837747
9.814501
9.837747
9.898543
10.258555
10.803938
##ZVALUE=380
0.480413
0.552535
0.563860
0.427961
0.468493
0.602603
0.579953
0.389814
0.236630
0.542998
0.383854
0.552535
0.417829
0.345707
0.537634
0.528693
0.354648
0.342727
0.436902
0.571609
0.506639
0.502467
0.543594
0.445843
0.581741
0.400543
0.489950
0.623465
0.544786
0.583529
0.518560
0.629425
0.574589
0.578761
0.712872
0.683665
0.913739
0.751615
0.813603
0.641942
0.787973
0.829697
0.885725
0.873804
0.715852
1.090765
0.767708
0.799894
0.756979
1.017451
1.054406
0.977516
1.112819
1.139641
1.080632
1.258850
1.180768
1.258850
1.238585
1.379848
1.321435
1.567602
1.589656
1.925826
1.770854
2.143979
2.087951
2.639890
2.952814
3.700852
4.348755
7.851720
30.989647
161.415935
378.946662
896.582603
1015.889645
1015.889645
1015.889645
1015.889645
1015.889645
1015.889645
1015.889645
1015.889645
966.932774
476.026535
235.669613
75.253844
27.111769
10.755658
9.674430
9.042621
9.012818
8.979440
9.118915
9.255409
##ZVALUE=385
0.435710
0.364780
0.422597
0.350475
0.385642
0.429749
0.430942
0.509620
0.472665
0.377893
0.339746
0.432730
0.468493
0.386834
0.305772
0.528693
0.399947
0.519753
0.455976
0.585914
0.398755
0.412464
0.384450
0.397563
0.429749
0.430942
0.405908
0.446439
0.486970
0.640750
0.597835
0.583529
0.526905
0.426769
0.585914
0.555515
0.633597
0.745654
0.611544
0.734925
0.708699
0.710487
0.977516
0.780821
0.710487
0.880957
0.759959
0.921488
0.826716
0.945926
0.814795
0.986457
0.878572
1.046658
0.979900
1.053810
0.846982
1.168847
1.113415
1.176596
1.128912
1.419783
1.358986
1.629591
1.511574
1.840591
1.986623
2.388954
2.668500
2.971888
3.399849
3.733635
4.011989
5.167723
14.796853
92.562437
252.152681
656.473637
1015.888453
1015.888453
1015.888453
1015.888453
1015.888453
1015.888453
1015.888453
1015.888453
1015.888453
671.651959
366.133451
139.778852
53.228736
13.890862
9.176731
8.664727
8.364916
8.191466
##ZVALUE=390
0.364780
0.442863
0.373721
0.263453
0.588894
0.484586
0.431538
0.406504
0.344515
0.432730
0.419617
0.363588
0.414848
0.392795
0.411868
0.564456
0.436902
0.507832
0.406504
0.403523
0.367761
0.347495
0.454783
0.367761
0.596642
0.417829
0.659823
0.553727
0.599623
0.678897
0.621676
0.576973
0.572801
0.644922
0.530481
0.489950
0.531673
0.510812
0.641942
0.549555
0.788569
0.612736
0.710487
0.742674
0.753999
0.698566
0.789762
0.941753
0.835657
0.874996
0.759959
1.022816
0.908971
0.832677
0.963807
1.000762
0.990629
1.025796
1.007915
1.148582
1.132488
1.244545
1.326799
1.573563
1.544952
1.730919
1.850724
2.081990
2.444983
2.727509
3.056526
3.315806
3.380775
3.678799
3.654957
4.241467
6.947517
45.208931
149.433017
473.777056
913.826823
1015.887856
1015.887856
1015.887856
1015.887856
1015.887856
1015.887856
1015.887856
1015.887856
988.808870
586.605668
221.701860
92.708468
22.548437
10.348558
8.314848
##ZVALUE=395
0.500679
0.310540
0.372529
0.437498
0.452995
0.296831
0.394583
0.501871
0.428557
0.467896
0.425577
0.541806
0.518560
0.457764
0.393987
0.369549
0.435710
0.354648
0.364780
0.371933
0.403523
0.375509
0.278950
0.327826
0.444651
0.471473
0.680685
0.520945
0.441670
0.445843
0.408888
0.463724
0.557899
0.613928
0.510812
0.651479
0.517964
0.694990
0.632405
0.602603
0.618696
0.598431
0.546575
0.653863
0.603795
0.895858
0.961423
0.738502
0.713468
0.812411
0.907779
0.927448
0.792742
0.907779
0.756979
0.956655
1.017451
1.185536
1.051426
1.078844
1.162887
1.162887
1.255870
1.215935
1.330972
1.411438
1.700521
1.822710
2.084970
2.332926
2.606511
2.817512
2.670884
2.752542
2.883673
3.016591
3.091693
3.654957
4.794002
25.703907
100.883842
358.371735
687.421560
1015.881896
1015.881896
1015.881896
1015.881896
1015.881896
1015.881896
1015.881896
1015.881896
1015.881896
753.566623
317.215919
143.525004
41.084886
##ZVALUE=400
0.579953
0.671744
0.542998
0.521541
0.474453
0.434518
0.481606
0.553727
0.670552
0.610948
0.588894
0.434518
0.584722
0.656843
0.467896
0.512600
0.430942
0.554919
0.494719
0.495911
0.510812
0.626445
0.585914
0.422597
0.604987
0.698566
0.758767
0.539422
0.539422
0.603795
0.640750
0.504851
0.635982
0.755787
0.635982
0.756979
0.666976
0.765920
0.722408
0.755787
0.772476
0.884533
0.816584
0.706911
0.798702
0.845790
0.819564
0.742674
0.789762
0.908971
0.929832
0.872612
0.968575
0.908971
0.975728
0.962615
1.165867
1.085997
1.099706
1.138449
1.367927
1.295805
1.232624
1.237988
1.317859
1.607537
1.780987
1.846552
2.249479
2.379417
2.537966
2.596974
2.688766
2.727509
2.639890
2.639890
2.834797
2.909899
3.110766
3.682971
4.395843
9.168983
53.449869
157.177448
469.167829
879.492760
1016.030908
1016.030908
1016.030908
1016.030908
1016.030908
1016.030908
1016.030908
1016.030908
866.265893
499.516726
##END
