##TITLE=DDW1
##FORMAT=SPECTACLE-ASCII V-1.2
##DATA TYPE=ULTRAVIOLET SPECTRUM
##SECOND TYPE=ULTRAVIOLET SPECTRUM
##DATE=01/21/18
##TIME=12:19:50
##SPECTROMETER/DATA SYSTEM=SPECTACLE
##XUNITS=NM EM
##YUNITS=ENERGY
##YFACTOR=1
##FIRSTX=220
##LASTX=410
##NPOINTS=96
##3DDATA=Equidistant
##ZUNITS=NM EX
##FIRSTZ=210
##LASTZ=400
##ZPOINTS=39
##XYDATA=(Y..Y)
##ZVALUE=210
11.679530
10.933876
9.947419
8.808970
8.182526
9.350777
7.615685
6.161928
5.561709
4.253983
2.994537
2.292991
2.252460
1.571774
1.660585
1.470447
1.578927
1.417994
1.579523
2.147555
2.206564
2.177954
2.736449
2.017617
2.444983
2.486706
2.679825
2.874732
3.138781
3.644824
3.257990
3.616810
2.993941
3.752708
3.858805
3.862977
4.395843
3.929734
4.672408
4.357696
3.374815
4.666448
4.749894
3.658533
3.776550
3.804564
4.359484
3.891587
3.493428
4.583597
5.092621
4.420877
4.330873
5.215406
4.772544
4.549623
5.049706
4.929900
4.328489
5.092621
4.668832
4.889965
4.384518
4.844666
5.585551
4.853606
4.709959
4.620552
5.441904
5.304813
6.710887
8.074641
8.116961
8.956790
9.305477
10.055900
9.445548
9.842515
11.113882
9.174943
9.289980
7.753968
7.070899
6.829500
5.373955
5.415678
4.377961
4.377961
4.120469
5.334616
7.289648
8.816719
10.876656
17.539859
18.716455
23.742914
##ZVALUE=215
29.390454
27.406812
25.227666
18.341541
17.113686
13.868809
12.133718
11.878610
13.560653
11.941791
9.209514
8.074641
5.014539
3.882647
2.996922
2.251863
2.177954
1.598597
2.157688
2.301931
2.396703
2.166629
2.521873
2.477765
2.461672
2.355576
3.029704
2.741814
3.370643
3.846884
2.933741
3.639460
4.174709
3.541708
4.598498
4.901886
4.920959
4.557967
4.801750
4.257560
4.457831
5.835891
5.256534
4.873872
5.635619
5.430579
5.867481
5.163550
5.765557
5.595684
6.019473
5.508661
5.626678
6.291866
5.563498
6.376505
5.837679
5.642772
6.650686
6.733537
6.469488
5.890727
6.077886
6.639957
5.451441
5.735755
6.000996
7.120967
6.582737
7.018447
8.932948
7.919669
8.752942
8.927584
9.620786
9.946823
9.844899
9.436607
9.081960
8.408427
8.446574
7.226467
7.359982
6.642938
5.399585
5.739927
5.115867
3.557801
3.738999
3.548861
4.173517
3.959537
4.051924
5.209446
5.824566
8.534789
##ZVALUE=220
57.990551
58.009624
60.430765
56.246519
49.546957
41.439533
33.169985
22.927523
23.570657
22.547841
21.666884
21.799803
18.299818
16.497970
13.885498
8.640885
6.327629
4.072785
4.045963
2.297759
2.296567
2.540946
2.543926
3.322959
3.072619
2.641678
3.729463
3.231764
3.387928
4.486442
3.847480
5.524755
4.863739
5.270839
5.537868
6.724000
6.218553
6.050467
6.758571
7.118583
6.486773
7.290840
7.090569
7.238984
6.967783
6.930828
7.049441
6.583929
6.873608
6.959438
7.285476
7.780790
7.263422
7.741451
7.674694
7.747412
7.440448
8.551478
8.107424
7.765889
8.078814
7.890463
7.583499
7.321835
8.289814
7.401705
7.463694
7.667542
8.285642
8.886456
7.800460
10.427833
9.314418
10.202527
10.912418
10.652542
11.558533
10.735989
11.107922
10.064840
8.111000
8.473992
7.118583
6.621480
7.348657
4.713535
5.423427
4.652739
5.116463
4.865527
4.459620
4.490614
4.158616
4.098415
4.596710
4.615784
##ZVALUE=225
72.070956
75.790882
91.796517
106.379986
115.425587
105.022788
98.543763
74.226856
57.130456
43.777823
37.798882
35.223961
37.355423
34.844875
34.014583
30.082464
24.489760
18.724799
12.016892
7.242560
5.548596
3.508925
3.652573
3.194809
3.207922
4.313588
2.854466
4.037619
4.691482
4.574656
5.238652
5.390644
6.571412
6.182790
6.688833
6.956458
7.966757
7.581711
9.134412
8.607507
9.304881
8.800626
8.420944
8.914471
8.510947
8.673668
7.650852
8.619428
8.765459
9.063482
8.750558
8.754730
10.439754
8.747578
9.028912
9.829998
10.288954
9.641647
10.648966
10.439754
8.928776
10.184646
9.405613
8.843541
8.763671
8.449554
9.466410
9.619594
8.467436
10.247827
9.929538
9.760857
11.752844
11.847615
11.490583
11.299849
11.575818
10.338426
10.429621
9.973645
10.000467
8.527637
7.289648
7.141829
7.061958
6.645918
6.624460
5.202889
5.773902
4.968643
5.203485
4.850626
4.862547
5.260706
4.716516
4.353523
##ZVALUE=230
45.959949
49.851537
89.615583
120.205879
156.398416
194.482803
211.667418
210.297704
182.572603
140.492916
111.701488
76.642632
60.784817
51.547885
55.290461
60.714483
56.727529
53.096414
45.532584
32.040477
26.850700
18.434525
10.039806
7.723570
4.975796
4.380941
4.382730
5.427599
5.684495
5.445480
6.650686
5.829930
6.985664
7.388592
8.040667
7.189512
9.306669
8.575916
9.114742
9.204745
9.196997
8.907914
9.360909
9.571910
9.185672
8.930564
7.950664
10.266900
10.550618
9.781718
8.326769
9.564757
9.996891
10.427833
10.057688
10.212660
10.276437
10.335445
10.272861
11.682510
9.661913
11.386871
10.875463
9.605885
9.444952
9.765625
9.933710
10.367632
9.852648
10.161996
10.978580
11.406541
11.279583
12.087822
11.725426
12.477636
12.793541
11.683702
10.684729
10.333657
9.669662
8.979440
8.787513
7.894635
7.684827
6.786585
6.336570
6.842613
6.831884
6.436706
5.911589
4.986525
5.001426
6.806850
5.899668
5.374551
##ZVALUE=235
11.109710
14.072657
30.082464
69.519877
117.546916
187.094808
250.192881
320.287943
353.186727
357.656479
313.227773
257.933736
175.493956
130.291581
95.867515
77.914000
73.809624
78.820586
85.503459
83.499551
77.377558
64.152479
51.516891
34.919977
24.229884
15.305877
10.849833
7.897615
7.054806
6.893873
7.460713
7.070899
7.861853
8.128881
8.238554
7.789731
8.476973
8.018613
8.512735
7.920861
7.773638
9.348989
8.171797
8.006692
7.358789
8.084774
7.940531
8.050799
7.290840
8.485913
9.020567
9.158850
8.065701
8.922815
9.622574
9.813905
10.460615
9.349585
9.564757
9.544492
8.612871
9.615421
9.574890
9.619594
9.997487
9.259582
9.869933
9.587407
8.907914
10.622740
10.440946
12.469888
12.775660
12.329817
12.444854
12.243986
12.017488
11.236668
11.535883
11.733770
10.590553
10.316968
9.750724
8.576512
8.815527
7.347465
6.240606
7.487535
6.249547
6.836653
7.500648
6.413460
6.852746
6.316900
6.144643
6.088614
##ZVALUE=240
1.532435
1.178980
3.986955
11.669993
34.384727
65.641999
139.463544
207.641721
333.246589
397.201777
480.648875
487.710834
453.187823
367.514491
284.740925
184.740424
129.170418
94.996691
89.743733
92.337728
102.570653
108.122826
100.177526
92.973709
72.232485
57.922602
41.716695
31.309724
19.721985
16.023517
12.759566
10.668635
10.003448
10.193586
9.842515
8.741617
9.164810
7.750988
7.162690
8.077621
6.653666
6.958842
6.731749
6.689429
7.373691
6.779432
6.284714
6.861687
6.335974
7.306933
7.008910
6.769896
6.460547
6.764531
6.876588
7.577538
7.411838
7.928610
7.577538
7.866621
7.140636
7.801652
7.796884
7.461905
7.305741
8.772612
8.454919
8.020997
8.664727
9.987950
9.089708
10.072589
10.581613
11.682510
11.465549
12.802482
11.483431
11.449456
10.843873
9.837747
9.805560
9.360909
7.279515
8.115768
8.159876
8.068681
7.834435
6.893873
6.799698
7.570982
7.217526
6.370544
6.600618
6.739497
6.080866
6.057620
##ZVALUE=245
1.065731
0.976920
0.854731
1.201630
2.999902
7.810593
25.717616
56.528449
133.629441
212.522745
348.679423
445.586443
524.397492
576.247573
559.726954
464.407802
382.194519
255.136490
177.811980
111.512542
91.123581
87.746978
99.176764
114.404559
116.075873
112.066865
102.110505
84.971786
65.859556
50.372481
34.457445
25.960803
19.117594
13.549924
13.076663
11.415482
10.570884
9.415746
9.177923
8.279681
7.468462
7.801652
6.730556
6.637573
6.319880
6.143451
6.175637
6.029606
6.082654
5.909801
6.252527
5.933642
6.893873
6.235838
6.707907
6.878972
6.705523
7.390976
6.828904
7.373691
6.692410
7.523894
7.633567
6.962419
7.379651
8.053780
6.903410
7.561445
8.057952
8.651614
8.672476
8.380413
9.043813
10.003448
10.421872
10.926723
9.557605
9.580851
10.065436
8.946657
7.989407
7.909536
7.121563
7.681847
7.128716
6.443858
6.478429
6.829500
6.240606
5.862713
5.839467
6.503463
5.995631
5.860925
5.472898
6.755590
##ZVALUE=250
0.894666
1.168847
1.058578
0.933409
0.943542
1.096725
1.704693
4.398823
19.565821
43.465495
113.420486
196.816921
301.596522
448.710918
543.318987
635.997653
644.066930
573.861599
486.197472
335.840583
226.595998
150.699615
94.674826
84.237456
94.533563
106.855631
120.537877
125.251412
121.955872
109.782815
96.944571
73.266625
57.224631
35.679936
26.481748
16.518831
13.430715
10.928512
9.400845
8.738637
8.589625
7.846951
7.597804
7.021427
6.801486
6.081462
6.286502
6.291866
6.331801
6.007552
6.411672
6.682873
6.721616
6.622672
6.527901
6.188750
6.334782
6.536841
6.564856
7.031560
6.898642
6.258488
6.836653
6.979704
6.954670
7.073879
7.356405
7.608533
7.717609
6.785989
7.645488
8.621812
9.238720
8.501410
9.009838
9.554625
8.953810
8.277893
8.569956
8.560419
7.966757
7.574558
6.888509
6.033778
5.535483
6.089807
5.788803
5.980730
5.659461
5.834699
5.498528
5.728602
5.451441
5.398989
5.073547
5.194545
##ZVALUE=255
0.724792
0.755787
0.979900
0.879765
0.754595
1.118779
1.055598
1.301765
1.111627
2.648830
12.424588
31.870604
68.890452
156.549811
258.121490
414.329767
535.574555
658.013821
701.075792
664.851665
571.528673
463.773012
290.243626
185.480714
103.202462
80.109835
77.362657
91.175437
109.449625
124.084949
127.514601
122.658610
110.971928
91.160536
71.617961
48.091412
34.386516
20.609498
14.557838
9.829998
7.696748
7.382631
7.091761
6.805658
6.781816
7.032752
6.226897
6.071925
6.500483
6.521940
6.377697
5.854964
6.153584
6.060600
6.263852
6.381869
6.827712
6.196499
6.343722
7.031560
6.776452
6.472468
6.816983
6.798506
7.126927
7.059574
6.766915
7.572770
7.329583
7.689595
6.984472
8.150935
8.771420
8.758903
8.715987
8.799434
7.740855
7.419586
8.234978
7.344484
6.524920
6.319880
5.944967
6.124973
5.299449
5.530715
5.611777
5.054474
4.807711
5.178452
4.815459
5.214810
4.783869
5.038977
4.607439
4.500747
##ZVALUE=260
0.691414
0.818968
0.652671
0.858903
0.788569
0.834465
0.975728
0.864863
1.105666
1.220703
1.360774
1.636744
4.846454
18.866658
47.144890
116.239786
202.283859
358.871818
489.686728
655.744672
732.910037
751.401782
664.493442
541.492701
359.749794
244.621634
137.589574
90.028644
66.394806
69.810748
84.499717
107.468963
118.990541
124.687552
122.890472
107.397437
91.972947
67.092776
51.560402
32.594800
22.212863
12.936592
9.779930
7.226467
6.570816
6.674528
6.674528
6.509423
6.575584
5.986691
7.073879
6.591678
6.995797
7.009506
7.172823
6.743670
6.958842
7.109642
7.632971
8.011460
7.776618
7.584691
7.452965
7.778406
7.360578
8.169413
7.393956
7.431507
7.686615
7.734895
7.903576
8.513927
8.261800
7.993579
7.555485
8.413792
8.125901
7.388592
8.082986
7.528663
6.776452
6.039739
6.043911
5.677938
5.307794
5.512834
4.958510
5.328655
4.833937
4.218817
4.339814
4.339814
4.781485
4.363656
4.362464
4.551411
##ZVALUE=265
0.688434
0.717640
0.771880
0.821948
0.761747
0.738502
0.767708
0.892878
0.874996
1.017451
1.050830
1.176000
1.262426
1.334548
2.811551
13.222694
31.136870
83.283782
159.037709
318.976641
461.564660
607.264638
747.460723
786.304474
719.574690
616.554618
456.065536
314.685702
170.902610
107.161999
72.268844
56.276917
65.074563
89.897513
107.541680
123.488903
128.869414
121.459961
109.422803
87.002516
71.659684
47.720671
33.663511
20.902753
13.735890
8.881688
8.273721
7.346869
7.759929
7.622838
6.984472
7.357597
7.880926
7.473826
7.661581
8.514524
7.776618
7.712841
8.159876
8.164644
8.625984
8.154511
8.100867
8.007884
8.029938
7.788539
7.706881
7.970929
8.409619
7.789731
8.411407
8.118749
8.550882
8.443594
8.289814
8.036494
7.604957
7.534623
7.740855
6.635785
6.471872
6.326437
6.040931
5.169511
5.573630
5.060434
5.212426
4.705787
4.879832
4.560947
4.711747
4.439950
4.400611
4.513860
4.190803
4.366636
##ZVALUE=270
0.746846
0.680685
0.692606
0.605583
0.753999
0.686646
0.601411
0.739694
0.876784
0.680685
0.835657
0.833869
0.993609
1.028776
0.971556
1.221895
1.734495
5.672574
16.824603
55.368543
117.459893
214.772820
406.627655
561.911464
733.577609
800.459981
789.613724
716.345906
551.759005
412.536860
283.678770
146.479607
87.128878
51.009655
49.921870
69.468617
88.005662
109.400749
123.107433
128.097534
125.032663
110.949874
93.628764
69.430470
52.086711
32.894611
22.302866
14.846921
10.976791
9.216666
8.832812
8.579493
8.703470
9.056926
8.540750
8.786917
8.185506
9.042621
8.670688
8.631945
9.264946
9.014606
8.811951
8.533597
8.773804
8.884668
8.505583
8.302927
9.037852
8.566976
8.125901
8.145571
8.350611
8.525848
8.420944
7.973909
7.941723
8.180737
7.049441
7.064939
6.528497
6.360412
6.344914
5.620718
5.781651
5.916953
5.377531
5.108714
5.357862
4.924536
4.935861
4.396439
4.293919
4.268885
4.080534
4.241467
##ZVALUE=275
0.627637
0.664592
0.802875
0.556707
0.571609
0.580549
0.740886
0.949502
0.977516
0.668764
0.798702
0.802875
0.821948
0.875592
1.044869
1.046658
1.042485
1.058578
1.340508
2.321601
10.901690
32.298565
95.674992
179.453492
350.684524
490.821600
665.727854
769.372582
811.151862
770.684481
637.833476
498.688817
356.222987
183.520913
108.101964
54.404736
42.214990
50.136447
64.798594
90.412498
106.242895
122.836828
127.880573
122.381449
109.887719
90.394616
71.898699
50.750971
36.520958
22.719502
16.371608
11.673570
9.785891
8.792877
9.118915
9.129643
9.112954
8.853674
9.002686
8.987784
9.116530
8.867979
8.756518
8.677840
8.226633
8.970499
8.521676
8.632541
8.919835
8.405447
8.264780
8.770823
8.551478
8.347631
8.457899
8.088946
7.932782
7.540584
7.085800
6.911755
6.528497
6.430745
6.095767
5.552769
5.773902
5.073547
4.791617
4.979968
4.698634
4.827976
4.626513
4.607439
4.694462
4.413724
4.449487
4.282594
##ZVALUE=280
0.516772
0.562668
0.588894
0.500679
0.655651
0.698566
0.476837
0.589490
0.512600
0.623465
0.650883
0.685453
0.669956
0.808835
0.895858
0.810623
0.825524
0.900626
0.985861
1.062751
1.139641
1.624823
6.693006
20.571947
66.939592
128.595829
258.893967
398.290753
593.649745
711.405873
802.488923
800.240636
726.300478
552.203655
406.304002
233.195424
139.833689
64.777732
40.311813
35.861731
45.064688
66.887736
85.344911
106.342435
118.022561
122.003555
119.040608
104.852915
90.891719
67.685843
52.071810
33.282638
23.739934
14.936924
11.355877
9.169579
8.945465
8.879900
8.487701
8.746982
8.948445
8.919835
8.835793
8.661747
8.799434
8.533597
8.646846
8.028746
8.170605
7.969737
7.853508
8.343458
8.055568
7.901788
7.749796
7.711649
7.011890
7.281899
6.528497
6.684661
6.474853
5.871654
5.671978
5.283952
5.739927
5.241632
5.072951
4.692674
4.629493
4.707575
4.369617
4.436970
4.259944
4.075766
4.374981
3.909469
##ZVALUE=285
0.508428
0.417829
0.492930
0.425577
0.579953
0.528693
0.466704
0.428557
0.391603
0.613928
0.529885
0.614524
0.644922
0.651479
0.620484
0.845790
0.722408
0.697970
1.081824
1.059771
1.115799
1.242757
1.147985
1.277924
3.215671
10.387897
36.183596
77.897906
176.306963
297.858715
438.756943
636.778474
750.280023
815.461874
776.879787
635.576844
500.545502
309.121609
193.339586
92.994571
51.268935
27.800798
28.719902
43.581724
59.981942
83.543658
100.064874
113.631487
119.437575
118.392706
108.793974
89.305639
72.666407
50.264001
36.855936
21.946430
15.284419
10.622740
9.234548
8.044839
7.950664
7.881522
7.946491
7.860661
7.922649
7.434487
7.454753
7.724762
7.622838
7.642508
7.538795
7.828474
7.458925
7.560849
7.145405
7.138848
6.730556
6.783605
6.373525
5.834699
5.552769
5.685687
5.431771
5.141497
5.271435
4.774928
4.716516
4.751682
4.261732
4.473925
4.298687
4.217625
3.937483
3.690720
3.734827
4.040599
##ZVALUE=290
0.369549
0.522733
0.480413
0.485778
0.619888
0.474453
0.591874
0.571609
0.512600
0.686646
0.499487
0.511408
0.600815
0.646710
0.515580
0.634789
0.668764
0.661612
0.579953
0.930429
0.791550
0.921488
0.926852
1.026988
0.984669
1.458526
1.492500
4.442930
20.059943
48.028827
97.856522
220.421553
359.075665
571.642518
707.134604
814.073682
815.874934
709.538460
581.368804
388.617516
254.059434
126.683712
67.224503
28.760433
20.815730
28.494596
39.600730
57.734847
74.953437
96.254945
107.934475
116.262436
113.936663
102.650523
88.508725
66.785812
50.564408
32.688975
22.706985
14.124513
10.749698
8.100867
6.915927
6.605983
6.292462
6.322861
6.413460
6.157756
6.566644
6.663799
6.346703
6.480813
6.270409
6.440878
6.638765
6.189942
5.997419
5.611777
5.768538
4.946589
4.772544
4.904866
4.609823
4.810691
4.714727
4.299879
4.331470
4.610419
3.945827
3.909469
3.926754
3.862977
3.865957
3.686547
3.802776
3.765821
##ZVALUE=295
0.397563
0.412464
0.418425
0.390410
0.435710
0.434518
0.381470
0.285506
0.549555
0.574589
0.457764
0.592470
0.632405
0.649691
0.582933
0.650883
0.642538
0.613928
0.643730
0.742674
0.758767
0.647902
0.666976
0.913739
0.735521
1.012683
1.146793
1.187921
1.453757
1.943707
9.909868
28.805733
68.727732
169.485807
289.004445
493.853688
637.603998
783.391595
820.250511
762.879848
657.251477
468.865633
323.445797
169.264674
93.191862
36.491752
19.695759
17.115474
22.621751
37.781596
52.149892
73.558688
89.185834
104.676485
110.395551
108.138919
99.409819
82.376003
65.521002
46.027899
33.047795
20.236969
13.367534
8.744597
6.458759
5.458593
5.394816
5.200505
4.710555
5.144477
5.132556
5.029440
5.171895
5.189776
5.287528
4.764795
4.744530
4.746914
4.637837
4.270673
4.385710
3.967881
4.026890
4.160404
3.553629
4.019737
3.821850
3.706813
4.058480
3.533959
3.627539
3.512502
3.346801
3.612638
3.599524
3.490448
##ZVALUE=300
0.512600
0.361800
0.391603
0.375509
0.410676
0.311732
0.478625
0.386834
0.448823
0.426769
0.338554
0.458956
0.629425
0.581741
0.624657
0.648499
0.434518
0.654459
0.463724
0.558496
0.660419
0.661612
0.496507
0.685453
0.770688
0.690818
0.962615
0.919700
1.185536
1.148582
1.136661
1.396537
3.099442
17.632842
44.853687
119.711757
212.582946
398.155451
544.167757
713.511705
796.179771
795.378685
715.703964
543.769598
396.129489
221.497416
132.351518
60.873628
30.048490
13.707876
13.977885
21.684766
31.107664
47.883987
64.700842
84.264874
97.332597
104.795694
103.013515
94.607472
81.552863
61.731935
48.093796
31.236410
21.153688
12.205839
8.212924
5.354881
4.623532
4.279613
3.994703
4.192591
4.005432
3.926754
4.435778
4.102588
3.997684
4.141927
4.023910
4.108548
3.791451
3.814697
3.820658
3.470778
3.469586
3.547668
3.483891
3.266931
3.356934
3.132820
3.296733
3.343821
3.334880
3.326535
3.114939
3.245473
##ZVALUE=305
0.535846
0.484586
0.490546
0.314713
0.410676
0.454783
0.416636
0.440478
0.477433
0.495911
0.403523
0.529885
0.506639
0.459552
0.512600
0.546575
0.546575
0.650883
0.650883
0.552535
0.464916
0.554919
0.731945
0.604987
0.804663
0.740886
0.808835
0.849962
1.041889
0.870824
1.119971
1.009703
0.960827
1.230836
1.986623
10.242462
29.115677
84.739923
160.207748
316.756964
465.915799
655.006766
760.959983
805.993676
755.167007
601.913929
468.397737
291.299820
183.284879
86.567998
43.161511
16.627908
10.811687
13.516545
19.100904
32.057762
44.832826
64.550638
77.258945
92.899799
98.297596
98.288655
90.647936
76.051950
61.905980
42.242408
30.250549
18.574595
11.971593
6.800890
5.034804
4.307628
4.021525
3.815889
3.715754
3.820658
3.440976
3.388524
3.356934
3.210902
3.256798
3.351569
3.423691
3.183484
3.332496
3.050566
3.172755
3.231764
3.086925
3.320575
3.396869
2.904534
3.008842
2.911687
3.112555
3.061891
##ZVALUE=310
0.383854
0.245571
0.440478
0.222921
0.417829
0.541806
0.410676
0.383854
0.565648
0.369549
0.339746
0.389814
0.282526
0.554919
0.573993
0.702739
0.431538
0.665784
0.506639
0.584722
0.603795
0.519753
0.434518
0.697970
0.818968
0.694990
0.602603
0.499487
0.722408
0.743866
0.794530
0.838637
0.934601
0.943542
1.074672
1.507998
1.541972
4.767776
15.181899
51.808953
104.786754
230.458975
363.847613
560.937524
693.903565
798.695683
798.462629
701.124668
572.568774
382.444859
255.967975
129.280686
70.258975
26.098490
12.438893
8.585453
11.207461
17.445683
25.803447
41.759610
55.126548
72.773695
83.578825
92.793703
94.350576
86.292624
75.385571
58.658719
44.128895
28.302670
19.283891
11.539459
7.651448
5.264878
4.044771
3.513694
3.430843
3.159642
3.048778
3.246665
3.303885
3.033876
3.090501
3.105998
3.049970
3.131628
3.078580
3.050566
2.998710
3.000498
2.888441
3.102422
2.867579
2.973676
2.878904
3.096461
##ZVALUE=315
0.314713
0.421405
0.527501
0.324845
0.446439
0.339746
0.394583
0.363588
0.468493
0.396967
0.328422
0.478625
0.458956
0.481606
0.524521
0.539422
0.470877
0.483990
0.421405
0.399947
0.514984
0.501871
0.466704
0.590682
0.391603
0.459552
0.523925
0.658631
0.677705
0.671744
0.649691
0.717640
0.748634
0.752807
0.869632
0.954866
1.012683
1.171827
1.218915
2.273917
7.835627
32.804608
73.657632
172.937512
295.235515
502.761006
639.130473
771.033764
811.151862
747.450590
644.570589
462.137461
326.659679
174.759626
95.495582
36.774874
16.763806
7.823706
7.640719
10.407567
15.237927
25.547743
35.371780
51.851869
65.229535
80.140829
86.599588
87.138414
82.408786
68.444610
56.989789
40.793419
29.138923
17.314553
11.436939
6.748438
4.665852
3.672838
3.301501
2.918839
2.866983
3.168583
2.968907
2.797842
2.763867
2.858639
3.022552
2.947450
2.968907
3.063679
2.968907
3.023744
3.038645
2.934933
3.085732
2.830625
##ZVALUE=320
0.333786
0.371933
0.279546
0.339746
0.462532
0.388622
0.433922
0.304580
0.364780
0.437498
0.476837
0.345707
0.299811
0.422597
0.497699
0.603795
0.513792
0.566840
0.505447
0.443459
0.385642
0.542998
0.596642
0.476837
0.759959
0.448823
0.596642
0.552535
0.632405
0.610948
0.610948
0.623465
0.649691
0.785589
0.741482
0.782609
0.899434
0.854731
0.957847
1.049638
1.134872
1.194477
4.658699
15.546679
53.924918
110.221505
237.554908
367.224813
569.972992
709.430575
820.099711
819.366574
710.424781
583.278537
391.830802
252.732635
119.067430
62.591434
23.879409
11.449456
6.411672
6.745458
9.142756
13.052821
22.249818
31.703711
46.911836
60.106516
75.674653
81.991553
83.208680
78.236461
67.573786
55.293441
39.280653
28.452873
17.360449
11.154413
6.703734
4.607439
3.417730
3.179908
3.032684
2.829432
2.858639
2.821684
2.872944
2.859831
2.895594
3.000498
2.810955
3.040433
2.741814
2.814531
2.713799
2.734661
##ZVALUE=325
0.366569
0.225902
0.281930
0.224710
0.429749
0.505447
0.215769
0.373721
0.432730
0.452995
0.377893
0.334978
0.414848
0.402927
0.376701
0.295639
0.308752
0.352859
0.278950
0.279546
0.514984
0.436902
0.537634
0.545979
0.534654
0.560880
0.472665
0.573993
0.569820
0.689626
0.519753
0.603795
0.526905
0.491738
0.675917
0.644922
0.826716
0.767708
1.008511
1.002550
0.902414
1.126528
1.022816
1.165867
2.017617
11.997819
32.267570
85.687637
162.075758
320.785642
464.086533
654.296875
758.274794
806.185603
758.211613
599.164963
456.199646
278.190970
169.533491
76.149702
37.334561
12.858510
6.941557
5.690455
6.022453
8.643866
12.249947
21.153688
30.533671
46.522617
58.301687
70.195794
77.044964
77.261925
71.968436
59.486628
50.366521
35.435557
25.672913
15.333891
9.988546
5.984902
4.422665
3.386736
3.069639
2.935529
2.827644
2.735853
2.782941
2.636909
2.833605
2.742410
2.707839
2.605915
2.827644
2.882481
##ZVALUE=330
0.451803
0.406504
0.440478
0.291467
0.367761
0.272989
0.511408
0.298619
0.333786
0.325441
0.333786
0.432730
0.406504
0.394583
0.315905
0.439882
0.466704
0.478625
0.462532
0.343919
0.558496
0.533462
0.498891
0.727773
0.420809
0.502467
0.604987
0.644922
0.612736
0.581741
0.670552
0.516772
0.496507
0.536442
0.624657
0.675917
0.645518
0.738502
0.794530
0.740886
0.829697
0.846982
0.857711
0.867844
1.048446
1.172423
1.462698
5.694628
17.639995
59.036613
117.039680
242.042542
373.251438
569.520593
698.018670
789.368749
775.265694
655.467510
524.517894
339.720845
221.171975
103.979707
54.193735
21.097660
9.144545
5.291700
5.132556
5.757809
7.692575
12.783408
18.672943
29.630661
40.844679
56.258440
64.881444
71.589947
72.550774
67.206621
59.621930
45.429468
34.583807
22.292733
15.846491
9.675622
6.943941
4.381537
3.542900
3.118515
2.784729
2.821684
2.788901
2.578497
2.578497
2.777576
2.663732
2.600551
##ZVALUE=335
0.362992
0.209808
0.420809
0.483990
0.344515
0.285506
0.566840
0.261664
0.281930
0.418425
0.473857
0.322461
0.405908
0.345707
0.378489
0.412464
0.309944
0.366569
0.387430
0.348687
0.392795
0.478625
0.352859
0.266433
0.346899
0.488758
0.352859
0.467896
0.545979
0.607967
0.506639
0.455976
0.530481
0.451803
0.522733
0.570416
0.502467
0.581741
0.557899
0.755787
0.700951
0.658631
0.669956
0.818968
0.832677
0.880957
0.866652
1.117587
1.235604
2.741814
9.135604
36.971569
78.980923
179.974437
300.155878
499.356985
635.815859
754.512548
778.556466
701.029897
586.953759
398.666859
271.495581
145.191550
78.148842
29.470921
12.008548
5.856752
5.025864
4.841685
5.615950
7.653832
11.052489
19.244552
27.443767
40.405989
50.341487
60.916543
66.112876
67.932606
63.292980
54.135919
44.353604
32.167435
24.275780
14.889836
10.528564
6.467700
4.571676
3.327727
2.963543
2.576709
2.642870
2.313852
2.592802
2.482533
##ZVALUE=340
0.306964
0.384450
0.199676
0.312924
0.287890
0.302792
0.224710
0.509620
0.392795
0.315905
0.330806
0.430942
0.434518
0.313520
0.240803
0.634789
0.413656
0.260472
0.422597
0.469685
0.512600
0.512600
0.317693
0.350475
0.301600
0.429749
0.319481
0.297427
0.696778
0.539422
0.379682
0.630617
0.454783
0.597835
0.548959
0.628829
0.487566
0.658631
0.617504
0.638962
0.566840
0.542998
0.566840
0.730753
0.699759
0.706911
0.745654
0.815988
0.783801
0.936985
1.129508
1.652837
4.712939
23.200512
56.291819
141.529441
245.519876
429.317951
563.833714
707.035661
762.420893
730.294585
636.350513
472.003818
331.316590
176.137686
98.563433
40.670633
17.117858
6.331801
4.816651
4.555583
4.368424
5.326867
7.018447
11.480451
16.923547
26.610494
35.811663
48.999786
57.273507
63.244700
63.898563
59.930682
53.133965
41.739941
33.309460
23.007989
15.914440
10.172725
6.589890
4.216433
3.297925
2.636909
2.483726
2.606511
##ZVALUE=345
0.310540
0.251532
0.365973
0.436902
0.369549
0.306964
0.185966
0.304580
0.508428
0.378489
0.083447
0.319481
0.387430
0.283718
0.271797
0.322461
0.366569
0.318885
0.473857
0.394583
0.409484
0.417829
0.308752
0.258684
0.420809
0.541806
0.459552
0.541806
0.489950
0.484586
0.363588
0.396967
0.336766
0.594854
0.546575
0.404716
0.499487
0.512600
0.527501
0.539422
0.575781
0.558496
0.580549
0.545979
0.584722
0.544786
0.711679
0.736713
0.787973
0.697970
0.804663
0.950694
1.055598
1.387596
2.301931
12.662411
35.948753
95.280409
171.775818
327.548981
467.469692
644.235611
729.686022
752.296448
689.148903
528.267622
391.530991
230.689645
131.502748
53.461790
25.139451
9.362698
5.634427
4.652739
4.274845
3.920794
4.529953
6.680489
9.334683
15.914440
22.443533
34.269691
42.479634
52.086711
56.718588
58.245659
55.972934
49.579740
42.182803
31.928420
23.553967
15.064478
10.626912
6.460547
4.353523
3.185868
##ZVALUE=350
0.310540
0.248551
0.190735
0.384450
0.311732
0.282526
0.405908
0.372529
0.475645
0.379682
0.226498
0.371933
0.265837
0.259876
0.428557
0.238419
0.465512
0.422597
0.517964
0.442863
0.457764
0.325441
0.371933
0.308752
0.494719
0.445843
0.308752
0.271797
0.568628
0.458956
0.746846
0.461936
0.684857
0.660419
0.525713
0.570416
0.464916
0.429749
0.470877
0.412464
0.426769
0.654459
0.562668
0.601411
0.540614
0.643730
0.751615
0.680685
0.448823
0.695586
0.786781
0.763535
0.837445
0.907779
0.989437
1.238585
1.343489
6.445646
20.539761
64.961910
124.225616
255.040526
384.528637
564.088821
677.489638
743.613839
711.915493
582.301617
446.078777
267.219543
165.378451
78.071952
36.576986
11.616945
5.897880
4.539490
4.125834
3.692508
3.780723
4.300475
5.640984
9.342432
13.630986
21.434426
28.599501
38.682818
45.713782
51.578879
54.000616
52.208900
47.443509
38.797855
31.439662
21.725893
15.666485
9.976625
##ZVALUE=355
0.269413
0.297427
0.330806
0.483990
0.409484
0.309944
0.415444
0.367761
0.364780
0.264645
0.239611
0.331998
0.329614
0.307560
0.386834
0.437498
0.408888
0.395775
0.298619
0.513792
0.411868
0.451803
0.588894
0.323653
0.418425
0.461936
0.477433
0.526905
0.522733
0.555515
0.504851
0.502467
0.363588
0.346899
0.320673
0.519753
0.467896
0.537634
0.598431
0.576973
0.461936
0.527501
0.441670
0.535846
0.502467
0.498891
0.509620
0.583529
0.527501
0.582933
0.744462
0.710487
0.659823
0.891685
0.859499
0.907779
0.961423
1.059771
1.332760
3.260970
11.467934
44.351816
90.129972
190.436840
308.929682
501.150489
625.690818
726.854801
730.625987
625.059605
498.728752
320.322514
199.555755
89.404583
44.738650
16.571879
7.413626
4.322529
3.749728
3.414750
3.425479
3.495812
4.020929
5.206466
7.450581
11.926889
17.232895
25.663972
32.124519
41.070580
46.381950
48.922896
47.956705
42.478442
37.238598
28.875470
##ZVALUE=360
0.304580
0.341535
0.417829
0.265837
0.334978
0.277758
0.376701
0.187755
0.318885
0.342727
0.367761
0.378489
0.484586
0.323653
0.413656
0.315905
0.292659
0.290871
0.368953
0.120997
0.313520
0.349879
0.406504
0.426769
0.483990
0.226498
0.313520
0.471473
0.330806
0.389814
0.519753
0.424981
0.473857
0.546575
0.614524
0.387430
0.440478
0.443459
0.503659
0.571609
0.564456
0.508428
0.411868
0.494719
0.461936
0.541806
0.578761
0.708699
0.403523
0.584722
0.651479
0.589490
0.783801
0.674725
0.779629
0.873804
0.844598
0.839829
1.019835
0.894666
1.217723
1.930594
5.470514
24.108887
58.032870
142.300725
240.827799
408.587456
551.277995
692.981482
726.779699
677.580833
571.230650
385.426879
256.199837
123.830438
65.129995
25.028586
10.725856
4.893541
4.176497
3.707409
3.377795
3.322959
3.202558
3.557801
4.160404
6.152987
9.046793
14.436841
19.889474
28.885603
34.985542
41.268468
43.702722
44.411421
##ZVALUE=365
0.327826
0.157952
0.383854
0.265837
0.197887
0.412464
0.492930
0.389814
0.404716
0.237823
0.305772
0.327826
0.402927
0.215769
0.381470
0.491738
0.387430
0.480413
0.298619
0.532866
0.447631
0.350475
0.502467
0.301600
0.435710
0.356436
0.418425
0.487566
0.509620
0.300407
0.350475
0.579953
0.367761
0.527501
0.567436
0.348687
0.502467
0.577569
0.402927
0.423789
0.597835
0.395775
0.445843
0.628829
0.488758
0.537634
0.435710
0.627637
0.703931
0.576973
0.736713
0.602603
0.548959
0.755787
0.659823
0.686646
0.758767
0.839829
0.870824
0.751615
0.885725
1.095533
1.120567
1.373887
3.155470
10.598898
41.443706
87.210536
199.169517
320.887566
502.581000
613.024831
697.565675
694.449544
590.553880
471.000671
299.970508
184.946656
82.202554
40.235519
13.210773
6.307960
4.151464
4.067421
3.534555
3.089905
2.994537
2.708435
3.024936
3.385544
5.035996
7.359982
12.145638
16.980767
24.630427
29.764771
##ZVALUE=370
0.524521
0.305772
0.288486
0.378489
0.345707
0.264645
0.261664
0.265837
0.437498
0.382662
0.330806
0.426769
0.340939
0.381470
0.412464
0.273585
0.454783
0.344515
0.257492
0.337958
0.332594
0.344515
0.530481
0.376701
0.358820
0.420809
0.420809
0.426769
0.500679
0.539422
0.425577
0.571609
0.548959
0.425577
0.486970
0.483990
0.397563
0.500679
0.490546
0.588894
0.571609
0.411868
0.555515
0.615716
0.556707
0.542998
0.435710
0.597835
0.532866
0.509620
0.609756
0.732541
0.678897
0.688434
0.653863
0.586510
0.496507
0.644922
0.686646
0.936985
0.754595
0.991821
0.994802
1.048446
0.978708
1.289845
1.536608
7.742643
24.259686
73.151588
137.086511
266.363621
397.506952
575.313568
663.815737
691.551566
631.563663
491.395593
359.971523
205.913782
118.228793
48.300624
22.599697
7.794499
4.444718
3.470778
3.155470
3.031492
2.851486
2.671480
2.595782
2.499819
3.218651
4.207492
6.171465
10.231733
##ZVALUE=375
0.381470
0.369549
0.180602
0.157952
0.482798
0.223517
0.420809
0.292659
0.276566
0.386834
0.347495
0.343919
0.306964
0.275970
0.525713
0.394583
0.357628
0.460744
0.258684
0.212789
0.447631
0.431538
0.359416
0.376701
0.402927
0.429749
0.450611
0.513792
0.530481
0.431538
0.340939
0.453591
0.390410
0.544786
0.538826
0.575781
0.527501
0.569820
0.439882
0.445843
0.535846
0.612736
0.436902
0.628829
0.489950
0.487566
0.502467
0.434518
0.501871
0.585914
0.511408
0.457764
0.539422
0.614524
0.527501
0.641942
0.623465
0.626445
0.615716
0.688434
0.752807
0.675917
0.726581
0.753999
0.806451
0.924468
1.000762
0.930429
1.364946
3.769994
12.431741
44.812560
95.187426
210.709572
331.520438
511.978865
619.763732
689.538717
674.366951
550.396442
420.013666
254.031420
160.307884
79.757571
40.848851
14.090538
6.141663
3.436804
3.037453
2.925992
2.799630
2.725720
2.541542
2.379417
2.378821
2.581477
##ZVALUE=380
0.334978
0.369549
0.408888
0.361800
0.303984
0.255704
0.386834
0.469685
0.376701
0.278950
0.333786
0.467896
0.487566
0.358820
0.360608
0.233650
0.268817
0.331998
0.198483
0.490546
0.422597
0.328422
0.315905
0.542998
0.361800
0.448823
0.394583
0.454783
0.353456
0.359416
0.576973
0.335574
0.496507
0.372529
0.434518
0.510812
0.560880
0.375509
0.362992
0.435710
0.466704
0.596642
0.454783
0.543594
0.469685
0.576973
0.534654
0.539422
0.463724
0.645518
0.493526
0.410676
0.416636
0.600815
0.505447
0.619888
0.660419
0.535846
0.715852
0.708699
0.632405
0.491738
0.630617
0.636578
0.860691
0.850558
0.864863
1.020432
0.962615
0.949502
1.320839
2.030730
6.779432
32.469630
73.882937
167.672634
272.938609
441.683531
574.980974
690.475702
701.438785
605.449677
490.995646
333.367586
223.328471
108.414888
56.611896
20.643473
8.857846
3.641844
2.909899
2.741814
2.526641
2.661943
2.495646
2.395511
##ZVALUE=385
0.279546
0.435710
0.258684
0.399947
0.451803
0.371933
0.392795
0.350475
0.311732
0.373721
0.351667
0.531673
0.327826
0.345707
0.358820
0.468493
0.296831
0.183582
0.289679
0.312924
0.311732
0.284910
0.527501
0.439882
0.366569
0.450611
0.255704
0.237823
0.437498
0.418425
0.367761
0.445843
0.350475
0.339746
0.429749
0.370741
0.386834
0.443459
0.441670
0.513792
0.537634
0.453591
0.435710
0.357628
0.476837
0.618696
0.365973
0.610948
0.541806
0.541806
0.609756
0.433922
0.355840
0.451803
0.514984
0.469685
0.445843
0.654459
0.556707
0.604987
0.449419
0.582933
0.706911
0.656843
0.589490
0.569820
0.762939
0.694990
0.874996
0.945926
1.018643
1.143813
1.250505
1.280904
3.246665
17.907619
46.615601
114.031434
202.156901
368.646979
507.430434
644.415617
688.244700
660.019517
572.911501
409.351587
285.937786
154.480934
87.350607
36.639571
15.186667
4.918575
3.156662
2.784729
2.577901
2.578497
##ZVALUE=390
0.266433
0.323653
0.343919
0.252724
0.226498
0.316501
0.300407
0.416636
0.267625
0.313520
0.375509
0.397563
0.337958
0.283718
0.288486
0.231862
0.374913
0.383854
0.238419
0.362992
0.423789
0.329614
0.394583
0.364780
0.211596
0.310540
0.352859
0.257492
0.430942
0.323653
0.353456
0.335574
0.393987
0.324845
0.403523
0.382662
0.350475
0.514984
0.432730
0.687838
0.395775
0.459552
0.343919
0.324845
0.457764
0.595450
0.447631
0.462532
0.396967
0.483990
0.404716
0.438690
0.389814
0.426769
0.582933
0.469685
0.435710
0.538826
0.512600
0.416636
0.537634
0.484586
0.378489
0.542998
0.463724
0.447631
0.472665
0.718832
0.836849
0.852942
0.882745
0.789762
0.795722
0.912547
0.960827
1.107454
1.571774
9.193420
29.164553
86.065531
159.919858
306.308866
430.486798
579.098463
662.266612
688.042641
628.854632
485.652685
363.706946
217.018723
124.178529
51.886439
23.991466
7.611513
3.651977
2.861619
##ZVALUE=395
0.371933
0.228882
0.453591
0.419617
0.245571
0.329614
0.392795
0.428557
0.252724
0.324845
0.489950
0.271797
0.260472
0.421405
0.307560
0.359416
0.453591
0.315905
0.488758
0.265837
0.363588
0.265837
0.386834
0.470877
0.341535
0.439882
0.347495
0.422597
0.427961
0.332594
0.491738
0.461936
0.404716
0.347495
0.473857
0.419617
0.363588
0.348687
0.614524
0.508428
0.500679
0.584722
0.655651
0.430942
0.606775
0.471473
0.150800
0.402927
0.563860
0.491738
0.413656
0.304580
0.580549
0.448823
0.646710
0.444651
0.442863
0.548959
0.560880
0.450611
0.555515
0.446439
0.518560
0.550747
0.568628
0.530481
0.693798
0.617504
0.682473
0.925660
0.881553
0.874996
0.974536
0.930429
0.933409
0.874996
0.848770
1.107454
1.275539
5.255938
19.048452
64.507723
119.548440
227.793455
345.786810
524.125695
637.861490
708.432794
692.909956
583.236814
445.703864
270.398855
165.929794
72.335005
34.941435
12.476444
##ZVALUE=400
0.342727
0.330806
0.335574
0.299811
0.309944
0.344515
0.361800
0.341535
0.443459
0.303984
0.300407
0.361800
0.241995
0.526905
0.427961
0.318885
0.199676
0.288486
0.229478
0.304580
0.340939
0.280738
0.375509
0.349879
0.375509
0.375509
0.243783
0.447631
0.469685
0.309944
0.351667
0.400543
0.462532
0.441670
0.294447
0.212789
0.388622
0.446439
0.469685
0.333786
0.454783
0.574589
0.436902
0.483990
0.549555
0.430942
0.539422
0.471473
0.263453
0.409484
0.640750
0.543594
0.379682
0.607967
0.481606
0.382662
0.473857
0.445843
0.531673
0.498891
0.405908
0.341535
0.491738
0.493526
0.573993
0.632405
0.723600
0.645518
0.690818
0.676513
0.762939
0.832677
0.683665
0.911951
0.836849
0.938773
0.834465
0.858903
0.859499
0.973940
1.189709
2.426505
9.696484
39.594769
83.224773
177.809000
280.996561
443.226695
562.056899
665.490627
680.873990
598.249435
489.984751
329.578519
213.475823
106.025934
##END
