##TITLE=DDW2
##FORMAT=SPECTACLE-ASCII V-1.2
##DATA TYPE=ULTRAVIOLET SPECTRUM
##SECOND TYPE=ULTRAVIOLET SPECTRUM
##DATE=01/21/18
##TIME=12:24:20
##SPECTROMETER/DATA SYSTEM=SPECTACLE
##XUNITS=NM EM
##YUNITS=ENERGY
##YFACTOR=1
##FIRSTX=220
##LASTX=410
##NPOINTS=96
##3DDATA=Equidistant
##ZUNITS=NM EX
##FIRSTZ=210
##LASTZ=400
##ZPOINTS=39
##XYDATA=(Y..Y)
##ZVALUE=210
12.629628
11.941791
12.484789
10.336637
11.030436
8.802414
8.029938
7.338524
5.448461
4.888773
3.941655
2.440810
1.834631
1.575947
1.982450
1.717806
1.891851
2.078414
1.753569
2.061725
1.718998
2.319813
2.203584
2.104640
1.911521
2.280474
2.344847
2.543926
2.651811
2.694726
3.278852
3.306866
3.224611
4.092455
2.999902
3.646612
3.885627
3.593564
3.788471
4.013777
4.336834
3.975630
4.294515
4.521608
3.981590
4.196763
4.738569
4.490614
4.128814
4.578829
4.313588
4.590750
4.249811
4.831553
4.572868
4.343987
4.884601
4.030466
4.476905
4.792809
5.704761
4.656911
4.990697
4.290938
5.061626
4.112720
4.790425
4.313588
5.668998
6.324649
6.121993
6.860495
7.663965
8.273721
8.620620
8.597970
8.316636
9.281635
7.975698
8.381605
6.927848
6.133914
6.305575
5.002618
4.402995
3.534555
3.825426
3.905892
4.359484
5.226731
6.605983
8.713603
12.117624
14.676452
19.396544
23.478866
##ZVALUE=215
33.491850
30.543804
25.308728
22.709966
19.188523
17.072558
16.015768
15.361905
15.054941
13.662577
10.082722
8.073449
5.704761
3.552437
3.100634
2.037883
1.854897
1.605749
1.998544
2.062917
2.112985
2.553463
2.724528
2.560616
2.252460
2.733469
2.649426
2.663732
3.366470
2.983809
2.983809
3.229976
3.384948
4.342794
4.478693
4.258752
4.220605
4.317760
5.589724
5.130768
4.890561
5.604625
5.306602
5.325675
4.679561
5.517602
5.617738
5.098581
4.994869
5.146861
5.613565
5.181432
5.309582
5.664825
5.884767
5.950928
6.676912
5.479455
5.833507
5.794764
4.768968
5.392432
5.707741
5.960464
6.116629
6.079674
4.960895
5.675554
5.409718
6.578565
6.189942
7.340908
8.065701
7.722974
7.938743
9.547472
8.365512
8.520484
7.895827
6.963611
6.838441
6.975532
5.981922
5.189776
4.971623
3.972650
3.880858
3.496408
4.454851
3.664494
3.126860
3.577471
4.208684
4.980564
6.493926
7.960796
##ZVALUE=220
63.741803
65.220594
64.841509
52.865744
51.186681
37.662983
31.739473
29.927492
24.797916
24.048686
26.263595
24.009943
20.737648
17.674565
13.479590
9.985566
6.347895
4.119873
3.095865
3.047585
2.328753
2.657771
2.268553
2.524853
3.098845
3.182888
3.428459
3.283620
3.838539
4.782677
4.917979
3.966689
4.722476
5.262494
5.400777
4.636645
5.800724
5.766749
6.542802
6.238818
7.052422
7.205606
7.410645
7.221699
6.337762
6.662607
6.549954
6.615520
6.258488
6.978512
6.535649
8.203983
6.716847
7.211566
6.774664
7.552505
8.041859
6.771684
6.773472
8.186698
7.921457
8.382797
7.679462
7.869601
7.819533
6.751418
7.331967
7.951856
7.279515
7.539988
8.650422
8.678436
8.794665
10.082722
10.431409
9.231567
8.811951
8.990765
9.033680
8.324981
8.226633
6.334782
6.693602
5.920529
5.613565
4.525781
4.883409
4.357696
4.667640
5.032420
3.756881
4.286766
4.637837
3.893971
3.552437
3.866553
##ZVALUE=225
72.633624
81.601739
97.726583
111.591816
113.165975
104.372501
90.414882
72.260499
57.910681
47.594905
40.428638
36.666989
38.722754
39.176941
37.735701
30.466914
27.596951
21.552444
15.562773
8.755922
5.900860
3.754497
3.295541
3.191829
3.664494
3.125668
3.938675
3.820658
4.154444
4.123449
4.496574
4.872680
5.328655
6.217957
6.116629
8.150935
7.236600
8.043647
7.198453
7.937551
8.167624
9.143949
9.082556
7.714629
8.186698
8.364916
8.098483
8.484721
7.881522
7.811785
8.473992
9.582639
9.708405
8.458495
8.355975
9.856820
8.672476
8.470416
9.658933
9.198785
9.644628
8.916855
9.073615
8.936524
8.907914
9.399652
9.512901
9.285808
8.810759
8.427501
9.768605
9.771585
10.122657
9.664893
10.236502
11.459589
9.679794
9.139776
8.526444
9.359717
7.412434
7.022619
6.974936
6.189942
5.879998
6.064773
4.934669
5.090833
5.125999
4.961491
4.591942
4.726648
4.537702
4.548430
4.994869
4.339814
##ZVALUE=230
51.757693
54.513812
85.619688
129.973888
161.438584
186.903477
195.703506
194.483995
169.634819
133.089423
99.075437
77.138543
60.956478
59.973001
58.929920
60.872436
62.004924
60.396791
49.528480
38.865805
27.541518
19.668937
11.675954
7.168651
4.109740
4.210472
3.703833
4.084706
4.071593
4.915595
5.422831
5.313754
5.726814
5.890727
6.090999
7.401705
8.147955
8.567572
8.952618
9.014606
8.595586
9.343624
9.386539
9.284616
7.926822
9.077787
8.890629
8.267760
8.532405
9.028912
8.362532
9.212494
9.866953
9.803772
9.544492
8.673668
9.244680
9.227991
9.173751
10.788441
10.383725
9.287596
9.432435
10.598898
9.828806
8.912683
9.679794
9.910464
9.675622
9.504557
9.946823
10.321736
10.615587
11.051893
10.508895
10.511875
11.105537
9.981990
10.739565
9.262562
9.176731
7.040501
7.976890
6.665587
5.763769
5.823970
5.463958
5.884767
5.862713
5.695820
5.527735
5.476475
5.700588
4.868507
4.822612
4.922748
##ZVALUE=235
12.436509
16.425848
31.116605
72.830915
115.382671
179.272890
234.277844
293.267965
309.869647
313.144922
278.804898
237.164497
165.672898
124.998689
94.934702
79.974532
82.810521
89.637637
93.209743
94.092488
84.924698
68.463683
53.447485
35.905838
24.627447
15.346408
9.266734
6.323457
5.739927
4.993677
6.171465
5.302429
6.017685
6.401539
8.250475
7.301569
6.889701
7.096529
7.548928
8.098483
8.553863
7.662773
8.020997
8.322597
7.986426
7.734895
8.591413
7.295609
8.138418
8.487701
8.467436
7.272959
8.540750
8.934736
9.668469
8.691549
8.405447
8.770823
8.919835
8.368492
8.855462
8.917451
8.479953
9.769797
9.599924
9.750724
8.408427
9.375811
9.126663
9.875894
10.427833
9.915829
10.722876
11.290908
11.824965
11.358857
11.121631
10.707974
11.403561
9.545684
8.906722
9.010434
7.785559
7.462502
6.500483
6.810427
7.338524
7.137656
7.084608
6.386638
5.477667
6.516576
6.564856
6.112456
6.175637
6.021857
##ZVALUE=240
1.369715
1.258850
4.108548
12.382865
33.739805
65.427423
129.709840
195.961595
295.956731
363.223553
423.488617
438.113809
411.264896
338.465571
274.363756
187.406540
136.094689
101.363659
90.150833
97.039938
107.069612
112.517476
105.410814
98.024607
76.354742
61.155558
41.930676
29.315948
16.712546
11.341572
8.485913
7.122755
5.890727
6.808639
5.944967
6.584525
6.265640
6.547570
5.937815
7.460713
5.914569
5.945563
5.765557
6.064773
6.163716
6.721616
6.450415
6.309748
6.421804
6.622672
6.426573
6.210804
6.483793
6.567836
7.363558
7.606745
7.525682
8.451939
7.842779
7.092953
6.907582
8.108616
7.662773
7.202625
7.934570
8.115768
7.827878
8.677840
8.689761
9.191632
11.050701
10.806918
11.024475
12.027621
11.799932
12.376904
12.249947
10.696650
11.954904
9.553432
9.542704
8.991957
7.898808
8.175969
8.928776
8.087754
8.069873
6.668568
7.067919
7.032752
6.682873
6.814599
6.420612
6.397963
5.624890
6.755590
##ZVALUE=245
1.158714
1.143813
1.117587
1.416802
2.233982
9.528995
21.432638
61.889887
112.449527
187.147856
320.308805
419.498682
516.577959
544.019938
537.881851
474.379659
357.002616
267.532468
191.783905
113.660693
90.492964
95.003843
104.117990
116.226673
122.513771
114.141703
104.942918
82.783699
69.077611
46.445727
33.785701
19.030571
13.586879
8.855462
7.497668
7.100701
6.501675
6.557703
6.862879
6.133914
6.789565
6.289482
6.736517
5.983710
5.680919
5.782843
6.114841
5.400777
6.862879
5.998611
6.457567
6.462932
6.807446
6.521940
6.760955
7.423759
6.402731
6.520748
6.692410
6.749630
7.399917
7.357597
7.939935
7.910728
7.401705
7.573962
7.182956
7.739663
8.459687
9.570718
9.368658
10.608435
11.109710
12.027621
11.850595
11.790991
11.750460
11.318922
11.950731
10.334849
10.263920
10.517836
8.698702
9.177923
7.714629
7.981658
7.209778
6.623864
6.293654
6.338954
6.387830
6.224513
6.118417
6.501675
6.546974
6.907582
##ZVALUE=250
0.941753
0.924468
1.165867
1.028776
1.016855
1.215935
1.845956
4.524589
19.156933
42.281747
108.676553
190.597773
290.014744
440.903902
541.245937
614.438653
618.995428
555.038452
465.778708
328.167677
223.510861
139.788985
93.154907
86.242557
97.798705
111.628771
123.494864
127.877593
124.283433
108.561516
96.945763
71.398616
51.160455
31.912923
20.744801
12.280941
8.673668
7.221699
5.903840
6.219745
6.831884
6.686449
5.740523
5.959868
6.365776
5.278587
6.305575
6.062984
5.978942
6.292462
6.594658
6.146431
6.570816
6.815791
6.649494
6.606579
7.003546
6.653666
6.632805
7.229447
7.014871
7.515550
6.893873
7.087588
7.379651
7.708669
7.685423
7.721782
8.102655
8.294582
9.385943
9.946823
9.921789
10.313988
10.472536
10.693669
9.843707
9.886622
9.203553
9.546876
8.573532
8.994937
7.988811
7.360578
6.670952
6.429553
6.358624
5.990863
5.845428
5.365610
6.273985
5.044937
5.593896
5.692840
4.496574
5.438924
##ZVALUE=255
1.109838
0.870824
0.838637
0.984669
0.950694
1.251698
1.152754
1.111627
1.669526
2.602935
12.638569
31.394958
65.241456
150.519609
248.845816
391.206741
494.966507
598.793626
635.905862
597.521663
508.986712
407.274961
255.920887
168.485641
98.450780
80.308914
80.329776
95.214844
115.580559
127.008557
196.536779
128.234625
115.239620
95.016956
73.495507
48.890710
33.467412
20.586848
13.324618
8.240938
6.871819
6.010532
6.232858
6.015897
5.757809
6.255507
6.943941
6.179810
6.084442
6.737709
6.433725
6.232858
6.497502
6.289482
6.902814
6.295443
7.010698
7.171631
6.658435
6.931424
7.164478
7.669926
7.745624
7.022619
7.366538
7.737875
7.595420
7.604957
8.177757
8.311868
8.276701
7.808805
8.841753
9.708405
9.658933
9.548664
8.861423
8.006692
7.575750
7.814765
6.937981
7.239580
6.428957
6.697774
6.031990
5.783439
5.568862
5.651712
5.355477
5.027652
4.915595
5.123615
5.186796
4.925728
4.962683
4.635453
##ZVALUE=260
0.939965
0.724792
0.801682
1.008511
0.871420
0.990629
0.775456
0.880957
1.040697
0.950694
1.394749
1.647472
5.458593
16.947985
49.455762
100.202560
210.895538
313.808918
419.798493
567.450523
629.928708
633.662939
580.679774
452.529788
335.360765
203.511715
135.765672
83.681941
68.341494
76.101422
91.227889
112.311840
127.644539
133.737922
131.689906
115.732551
96.957684
70.397854
52.420497
33.741593
22.814870
13.047457
9.671450
7.250905
6.619692
6.824732
6.729960
7.270575
6.822944
7.177591
6.653666
6.918907
7.098913
6.934404
7.359982
7.814765
7.235408
7.006526
7.026792
7.335544
6.990433
7.192492
7.433891
7.122755
7.178783
7.438660
7.414818
7.444620
7.721782
7.866621
7.567406
7.995963
8.216500
8.235574
8.098483
7.849932
8.097887
7.339716
7.053614
6.756783
6.699562
6.216764
5.940795
5.785823
5.469918
4.789829
4.942417
5.025864
4.629493
4.286766
4.974604
4.002452
4.036427
4.027486
4.372597
3.990531
##ZVALUE=265
0.615716
0.629425
0.590682
0.863671
0.701547
0.801682
0.881553
0.912547
1.090765
0.959635
1.134872
0.934601
1.194477
1.432896
2.727509
12.785792
29.657483
83.581805
147.893429
277.504921
390.540957
534.524918
622.909665
656.716824
609.243512
534.868836
401.567817
285.888910
166.323781
105.728507
65.600872
57.449937
73.369741
92.543960
118.330717
129.832625
135.603547
130.240917
114.712715
98.641515
72.496533
54.049492
33.219457
22.912621
13.118982
10.434985
7.925630
7.519722
7.525682
7.730722
7.611513
7.323623
7.864833
8.017421
7.963777
7.990599
7.636547
8.185506
8.423924
8.540750
8.257627
8.032918
8.053780
7.572770
7.543564
8.306503
8.104444
7.766485
8.123517
7.694960
8.304715
8.215904
8.000731
8.125901
8.218884
8.002520
7.537603
7.018447
7.156730
6.645918
6.462932
6.027818
5.393624
5.976558
5.403757
5.378723
4.685521
4.697442
4.642606
4.788637
4.833937
4.141927
4.488826
4.012585
4.462600
4.208684
##ZVALUE=270
0.559688
0.535846
0.653863
0.811815
0.562668
0.698566
0.717640
0.746846
0.656843
0.761747
0.898838
0.908971
0.869632
1.046658
0.985861
1.272559
1.390576
5.029440
15.405416
54.470897
110.459924
191.463828
346.781015
475.623012
612.283945
672.476888
675.184727
614.815950
488.100648
371.138453
260.593891
140.845776
83.178878
51.267743
52.551627
73.135495
92.781782
117.012858
132.050514
140.244961
136.429667
117.779970
102.046728
75.497627
55.329800
34.517646
23.313761
15.880466
11.178851
9.727478
8.829832
8.777976
8.832812
8.284450
8.207560
9.175539
8.711815
8.951426
8.588433
8.756518
8.940697
8.482933
8.417964
8.947849
8.934736
8.831620
8.367896
8.707643
8.152723
8.410811
8.722544
8.679628
8.327961
8.678436
8.509755
8.007884
7.835627
8.000731
6.859899
6.559491
6.467700
5.859733
5.998611
5.410910
5.489588
5.242825
5.265474
4.996657
4.752874
4.877448
4.302859
4.572868
4.524589
4.343987
4.200935
4.189610
##ZVALUE=275
0.483990
0.499487
0.505447
0.583529
0.426769
0.633597
0.549555
0.717640
0.706911
0.802875
0.531673
0.706911
0.842810
0.739694
0.934601
0.722408
0.793934
1.007915
1.142621
2.746582
9.384751
27.853847
82.785487
157.925487
302.122831
419.198871
563.446879
652.955770
697.916746
674.762726
599.654913
449.033976
321.937799
175.071955
105.709434
53.644776
42.584538
53.499937
70.864558
95.645785
114.144683
132.323503
135.918856
130.592585
118.837953
94.025731
77.582598
53.809881
38.704872
24.235845
17.182827
12.102723
10.002851
8.936524
8.809566
8.727908
8.520484
9.145737
9.201765
9.207726
8.990765
8.702874
9.192824
8.911490
8.518696
8.585453
8.965731
8.696914
8.710623
8.257627
8.292794
8.769631
8.396506
8.311868
8.117557
7.997751
7.694960
7.425547
7.519722
7.029772
6.817579
5.932450
5.704761
5.430579
5.785823
5.561709
5.284548
4.951954
4.628897
4.580617
4.530549
3.975630
4.151464
4.111528
3.924966
3.773570
##ZVALUE=280
0.682473
0.738502
0.603795
0.509620
0.511408
0.742674
0.583529
0.645518
0.757575
0.703931
0.642538
0.742674
0.780821
0.841618
0.862479
0.882745
0.813603
0.938773
0.904799
1.112819
1.073480
1.228452
5.784631
19.392967
65.063834
119.937658
231.804848
346.074700
511.493683
606.989861
692.102909
691.380501
642.578006
497.157574
374.282002
218.558908
133.186579
62.392950
40.034652
37.005544
48.686862
71.332455
91.383457
115.280747
126.734972
130.604506
128.620863
114.723444
96.943974
72.353482
54.559708
35.729408
25.246739
15.488863
11.874437
9.326935
9.113550
8.891821
9.246469
8.922815
8.471608
8.767843
9.195805
9.145737
8.917451
8.538961
8.378625
8.162856
8.568764
8.638501
8.008480
8.534789
8.060932
8.108616
8.166432
7.740855
7.272959
7.410645
7.086992
6.842613
6.401539
5.855560
6.213784
5.638599
5.446672
4.966855
4.945993
4.785657
4.850626
4.635453
4.260540
4.512668
4.348755
4.093647
3.955960
3.971457
##ZVALUE=285
0.613928
0.513792
0.752807
0.624657
0.545979
0.536442
0.680685
0.803471
0.683665
0.671744
0.711679
0.600815
0.710487
0.691414
0.779629
0.788569
0.733733
0.887513
0.865459
1.073480
1.100898
0.948906
1.056790
1.362562
2.977848
9.286404
34.905672
76.394677
170.430541
270.461440
360.769629
549.756885
650.750995
707.204938
688.002706
570.339561
450.956821
283.012986
179.935694
87.084770
47.850609
28.455853
30.487776
46.427846
63.197613
88.675618
105.189681
120.518804
126.663446
123.920441
114.290714
94.277859
75.256824
53.087473
37.543774
23.603439
16.477704
10.848641
9.074807
8.356571
7.991791
7.921457
7.601976
7.936954
7.704496
7.609725
7.376671
7.672906
7.972717
8.069873
7.599592
7.475615
7.638931
7.103682
7.239580
6.776452
6.771684
6.887913
6.426573
6.289482
5.951524
5.237460
5.690455
5.348921
4.882812
4.750490
4.597902
4.623532
4.546642
4.440546
4.139543
4.319549
4.329681
4.014969
3.827810
3.874898
##ZVALUE=290
0.391603
0.569820
0.459552
0.578761
0.477433
0.428557
0.484586
0.683665
0.510812
0.633597
0.660419
0.688434
0.621676
0.650883
0.577569
0.657439
0.646710
0.732541
0.741482
0.801682
0.818968
0.962615
1.028776
0.795722
1.103878
1.225471
1.476407
5.395412
17.014742
52.661896
103.798509
218.632817
330.389738
498.583913
608.969927
705.000758
710.148811
623.858571
517.637730
350.250602
231.516957
114.855766
62.537789
28.218627
20.354986
28.046966
40.615797
60.578585
79.076886
100.845695
114.902854
121.472478
121.763945
108.822584
94.217658
70.014596
51.899552
34.651756
23.408532
14.480948
10.364652
7.886887
6.765723
6.500483
6.332994
6.267428
6.036758
6.324649
6.468892
6.527901
6.379485
6.507635
6.798506
6.195903
5.942583
6.122589
5.914569
5.621910
5.311966
5.440712
5.030632
4.864931
4.481673
4.441738
4.460812
4.050732
4.210472
3.855824
3.908873
4.010797
4.092455
3.590584
3.680587
3.660917
3.492832
3.588796
##ZVALUE=295
0.457764
0.534654
0.567436
0.569820
0.415444
0.627637
0.618696
0.693798
0.579953
0.629425
0.602603
0.687838
0.438690
0.614524
0.409484
0.556707
0.760555
0.750422
0.630617
0.754595
0.701547
0.746846
0.749826
0.928640
0.850558
0.809431
0.973940
1.146793
1.142621
1.911521
9.786487
28.471947
66.044927
160.121918
264.026523
431.753993
551.660657
673.540831
711.347461
666.700602
578.856468
421.978831
292.847753
154.717565
85.899830
35.185814
19.275546
17.603636
23.293495
38.341880
53.666830
75.270534
91.606975
107.369423
115.533471
114.343762
104.480982
85.855722
69.327950
48.818588
34.682751
20.431876
14.005899
9.114742
6.392598
5.160570
4.644990
4.634857
4.885793
4.788637
4.900694
4.800558
5.155802
4.796982
4.813671
4.960895
4.568696
4.503727
4.298687
3.958941
4.034638
3.722906
3.737807
3.885627
3.696680
3.729463
3.797412
3.524423
3.622770
3.456473
3.383756
3.465414
3.462434
3.428459
3.378987
3.012419
##ZVALUE=300
0.435710
0.540614
0.541806
0.378489
0.499487
0.258684
0.360608
0.366569
0.451803
0.459552
0.646710
0.529885
0.458956
0.602603
0.602603
0.546575
0.623465
0.474453
0.789762
0.623465
0.612736
0.730753
0.727773
0.893474
0.805855
0.868440
0.851750
0.977516
1.051426
1.084805
1.088977
1.312494
4.057884
14.518499
51.391721
102.520585
216.522813
333.721638
500.381589
606.292486
687.835813
693.942904
611.603856
507.480502
339.961648
225.309730
115.130544
61.671734
24.669766
13.873577
15.103817
21.179914
34.865737
48.449636
69.494843
85.066557
103.782415
108.080506
107.899904
99.900961
83.748698
68.774819
47.080517
34.577847
19.996762
13.571978
7.782578
5.682707
4.571676
4.160404
4.071593
4.112720
4.065633
4.011989
4.047751
4.163980
3.985763
3.888607
3.669858
3.588796
3.652573
3.260970
3.474951
3.581643
3.411770
3.170967
3.193617
3.293753
3.118515
3.109574
3.229976
3.144741
3.164411
3.190637
3.090501
3.149509
##ZVALUE=305
0.530481
0.539422
0.390410
0.514984
0.439882
0.298619
0.487566
0.544786
0.545979
0.595450
0.492930
0.545979
0.492930
0.519753
0.602603
0.411868
0.559688
0.571609
0.581741
0.608563
0.571609
0.616908
0.586510
0.657439
0.823736
0.719428
0.781417
0.688434
0.831485
0.812411
0.867844
1.013875
1.107454
1.350641
1.869798
10.039806
28.010607
81.983805
150.390863
285.938978
407.487750
566.489697
655.593872
701.270700
663.025975
534.559488
423.548818
270.170569
169.989467
78.693628
39.739609
15.070438
10.926723
13.565421
19.292831
32.772422
46.073794
66.037774
81.503987
95.837712
103.234649
102.041960
95.918775
79.543591
64.806938
44.403672
31.820536
19.554496
12.213588
7.080436
5.232692
3.986955
3.594756
3.663898
3.429651
3.345609
3.298521
3.189445
3.226995
3.351569
3.085732
3.153682
3.203750
3.147721
3.075600
3.089905
2.845526
2.942681
3.044605
3.280640
2.985597
2.843738
2.884865
3.051758
2.997518
2.855659
##ZVALUE=310
0.531673
0.372529
0.557899
0.513792
0.492930
0.477433
0.493526
0.387430
0.370741
0.494719
0.463724
0.473857
0.444651
0.388622
0.599623
0.552535
0.514984
0.644922
0.610948
0.410676
0.659823
0.634789
0.705719
0.677705
0.608563
0.570416
0.692606
0.836849
0.684857
0.960827
0.837445
0.857711
1.064539
0.993609
1.165867
1.002550
1.297593
4.307628
14.404655
48.374534
98.436475
209.139585
327.443480
497.393608
606.352687
696.281791
699.247718
615.991950
508.487821
347.179770
231.322646
118.185878
63.225627
24.206638
11.269450
8.700490
11.619925
18.217564
26.891828
42.341948
56.573749
74.653625
87.266564
95.665455
96.675754
89.630485
79.167485
62.046647
47.185421
29.685497
19.984841
11.598468
7.333755
4.796982
3.951788
3.375411
3.361702
3.007650
2.986789
2.821684
2.859831
2.850890
2.997518
2.864599
2.985597
2.942681
2.836585
2.951622
2.919436
2.819896
2.700686
2.807975
2.666712
2.951622
2.907515
2.616644
##ZVALUE=315
0.544786
0.389814
0.437498
0.401735
0.520945
0.345707
0.416636
0.539422
0.606775
0.514984
0.448823
0.537634
0.540614
0.428557
0.441670
0.479817
0.714660
0.457764
0.456572
0.565648
0.521541
0.568628
0.523925
0.582933
0.555515
0.569820
0.715852
0.585914
0.660419
0.641942
0.794530
0.649691
0.891685
0.748634
0.630617
0.923872
1.053810
1.091957
1.210570
2.381802
7.301569
30.524731
68.273544
158.647895
261.254907
428.974628
540.312529
642.985702
674.406886
632.104874
545.927882
394.362807
282.613635
151.368976
83.192587
31.829476
14.748573
7.730722
7.664561
10.496974
15.174747
26.176572
36.363602
54.296851
67.994595
84.117651
90.379715
91.548562
85.788965
71.786642
58.794618
42.068958
30.580759
18.219948
11.527538
6.478429
4.691482
3.560781
2.918839
2.804995
2.795458
2.725720
2.620816
2.681613
2.748966
2.571940
2.751946
2.837777
2.747774
2.619624
2.735853
2.848506
2.920628
2.693534
2.523661
2.767444
##ZVALUE=320
0.574589
0.509620
0.490546
0.551939
0.712872
0.573993
0.590682
0.536442
0.572801
0.488758
0.435710
0.463724
0.466704
0.421405
0.446439
0.460744
0.417829
0.662804
0.495911
0.713468
0.502467
0.515580
0.577569
0.765920
0.548959
0.668764
0.682473
0.846982
0.649691
0.638962
0.756979
0.867844
0.826716
0.807643
0.922680
0.909567
0.977516
0.890493
0.911951
1.037717
1.105666
1.471639
3.107786
16.959906
43.847561
116.273761
198.467970
337.700844
458.629727
600.859523
661.707520
663.430691
601.707697
463.517904
342.869759
195.019841
114.489794
50.061941
23.181438
9.037852
6.442666
6.983876
8.832812
14.150739
21.496415
35.611987
47.780871
64.512491
75.708628
85.456967
86.931586
79.944730
71.655512
54.327846
41.914582
26.888847
18.269420
10.620952
7.214546
4.317760
3.618598
3.076792
2.826452
2.909899
2.698898
2.727509
2.640486
2.640486
2.782941
2.571940
2.631545
2.713799
2.887845
2.871752
2.754927
2.739429
##ZVALUE=325
0.476837
0.455976
0.470877
0.429749
0.484586
0.520945
0.433922
0.481606
0.514984
0.518560
0.605583
0.556707
0.502467
0.408888
0.498891
0.365973
0.493526
0.524521
0.366569
0.491738
0.557899
0.503659
0.373721
0.427961
0.370741
0.654459
0.509620
0.448823
0.489950
0.624657
0.643730
0.716448
0.707507
0.615716
0.714660
0.797510
0.790954
0.683665
0.955462
0.883937
0.891685
1.035929
0.955462
1.182556
1.731515
10.364652
28.063655
77.001452
141.103864
276.006460
394.058824
544.083714
626.542568
664.771795
629.781485
505.059958
390.611887
240.315795
147.230625
66.471696
32.713413
11.488795
6.575584
5.693436
6.091595
8.606911
12.589693
21.924973
31.556487
46.884418
58.886409
72.293878
78.605413
80.101490
75.245500
63.373446
52.252412
37.242770
26.478767
16.120672
10.440946
6.078482
4.171729
3.293753
2.866983
2.946854
2.621412
2.626777
2.529621
2.610683
2.539754
2.470613
2.493858
2.394915
2.437830
2.659559
##ZVALUE=330
0.307560
0.290871
0.372529
0.427961
0.502467
0.425577
0.441670
0.532866
0.530481
0.513792
0.391603
0.364780
0.398755
0.474453
0.450611
0.450611
0.534654
0.577569
0.581741
0.632405
0.537634
0.500679
0.520945
0.509620
0.539422
0.446439
0.563860
0.595450
0.684857
0.543594
0.441670
0.677705
0.537634
0.603795
0.701547
0.660419
0.640750
0.595450
0.748634
0.732541
0.739694
0.632405
0.845790
0.920892
1.035929
1.062751
1.375675
3.473759
18.510818
45.704842
112.747550
192.206502
337.910652
452.379584
583.406687
640.158653
633.503795
566.331744
435.155630
322.611928
181.604624
104.167461
43.968558
19.923449
7.346869
5.572438
5.194545
5.696416
8.227825
12.620687
21.512508
30.154586
44.067502
54.770708
68.471432
74.219704
74.798465
71.086884
59.919953
49.002767
34.616590
25.045872
16.086698
11.261702
6.469488
4.494786
3.306866
2.976656
2.671480
2.554655
2.519488
2.639890
2.429485
2.499819
2.480745
2.403855
##ZVALUE=335
0.375509
0.446439
0.440478
0.373721
0.376701
0.391603
0.505447
0.398755
0.439882
0.459552
0.315905
0.367761
0.436902
0.489950
0.326633
0.481606
0.360608
0.383854
0.504851
0.576973
0.681877
0.468493
0.444651
0.548959
0.424981
0.583529
0.473857
0.432730
0.382662
0.400543
0.469685
0.513792
0.646710
0.469685
0.524521
0.602603
0.688434
0.486970
0.734925
0.628829
0.591874
0.679493
0.791550
0.803471
0.697970
0.778437
1.021624
0.825524
1.104474
2.267957
7.709861
31.006932
66.834688
153.523684
249.322653
402.336717
508.303642
603.671670
628.167987
579.562783
496.658683
349.267721
239.276886
128.275752
68.309903
23.718476
10.403991
5.507469
4.894733
4.956722
5.422831
7.418990
11.104941
19.700527
28.048754
42.020679
51.901937
62.893629
68.386793
70.324540
66.148639
55.167675
46.497583
33.424497
25.176406
15.386939
10.586977
6.696582
4.477501
3.458858
2.762675
2.816916
2.459884
2.342463
2.493858
2.449751
##ZVALUE=340
0.417829
0.404716
0.402927
0.357628
0.342727
0.264645
0.525713
0.422597
0.365973
0.486970
0.467896
0.368953
0.285506
0.468493
0.426769
0.611544
0.419617
0.502467
0.432730
0.422597
0.345707
0.514984
0.487566
0.443459
0.570416
0.549555
0.366569
0.612736
0.518560
0.487566
0.542998
0.545979
0.424981
0.577569
0.676513
0.649691
0.525713
0.557899
0.555515
0.654459
0.715852
0.776649
0.668764
0.722408
0.780821
0.654459
0.745654
0.885725
0.836849
1.063943
1.002550
1.442432
3.688931
18.314719
46.207905
116.042495
198.584795
335.936546
443.510413
558.957458
607.797503
593.783855
529.342890
402.719975
293.595791
163.344741
89.564919
33.511519
14.076829
5.964637
4.986525
4.653931
4.493594
5.612969
7.208586
11.488795
17.307997
27.564764
37.335753
50.546527
58.509707
65.305829
65.815449
60.778856
55.209994
43.613911
34.412742
23.230910
16.444921
10.099411
6.896853
4.209876
3.253818
2.576709
2.470613
2.413988
##ZVALUE=345
0.322461
0.411868
0.489950
0.299811
0.340939
0.593662
0.303984
0.339746
0.346899
0.460744
0.457764
0.389814
0.545979
0.346899
0.393987
0.454783
0.413656
0.594854
0.521541
0.572801
0.414848
0.501871
0.416636
0.379682
0.422597
0.446439
0.419617
0.549555
0.443459
0.485778
0.474453
0.506639
0.376701
0.551939
0.417829
0.515580
0.607967
0.614524
0.635982
0.608563
0.593662
0.593662
0.712872
0.463724
0.730753
0.688434
0.785589
0.736713
0.728965
0.721812
0.873804
1.051426
0.963807
1.054406
2.048612
7.963777
32.615662
68.726540
147.778988
234.967470
375.352502
479.828715
578.455925
603.545904
555.129647
475.850701
335.287452
225.970745
107.524991
52.999854
17.897487
8.424520
4.801750
4.600883
4.327893
4.134774
4.553795
6.060600
10.365844
15.408993
24.940968
33.886433
44.726729
52.380562
59.210658
61.085820
57.324767
51.873922
42.471886
34.308434
23.680925
16.944408
10.028481
7.006526
4.412532
3.503561
##ZVALUE=350
0.334978
0.396967
0.310540
0.315905
0.200868
0.366569
0.370741
0.365973
0.347495
0.511408
0.435710
0.479817
0.447631
0.440478
0.411868
0.365973
0.350475
0.402927
0.335574
0.505447
0.415444
0.435710
0.512600
0.442863
0.518560
0.556707
0.555515
0.491738
0.372529
0.392795
0.453591
0.559688
0.423789
0.482798
0.508428
0.431538
0.529885
0.515580
0.457764
0.460744
0.640750
0.712872
0.614524
0.720620
0.617504
0.637770
0.630617
0.584722
0.648499
0.684857
0.744462
0.791550
0.691414
1.008511
0.982881
0.992417
1.307726
4.988909
16.190410
51.396489
99.227428
204.835534
303.783417
437.849760
528.393984
592.157841
584.116578
502.249599
400.199890
251.388550
157.000422
73.822737
33.737421
10.181665
5.296469
4.334450
4.082918
3.572702
3.746748
4.293919
5.758405
9.546876
14.057755
21.824837
29.360652
39.604902
46.992898
53.708553
56.042671
54.486990
49.122572
40.049553
32.540560
22.265911
16.366839
10.235906
##ZVALUE=355
0.201464
0.217557
0.371933
0.234842
0.144839
0.301600
0.236630
0.213981
0.306964
0.316501
0.318885
0.351667
0.313520
0.318885
0.295639
0.269413
0.326633
0.327826
0.302792
0.229478
0.488758
0.384450
0.124574
0.296831
0.455976
0.338554
0.473857
0.184774
0.378489
0.442863
0.364780
0.275970
0.487566
0.562668
0.304580
0.374913
0.579953
0.395775
0.327826
0.406504
0.313520
0.460744
0.638962
0.507832
0.374913
0.384450
0.503659
0.478625
0.608563
0.505447
0.633597
0.721812
0.496507
0.641942
0.636578
0.644922
0.966787
0.825524
0.980496
1.844764
9.825826
27.311444
74.261427
135.147572
254.197717
358.040929
480.427742
550.189614
573.203564
524.654984
409.068465
308.832526
181.150436
101.566911
39.259791
16.776919
6.363988
4.405975
3.797412
3.478527
3.254414
3.295541
3.820658
5.032420
7.622838
11.545420
18.229485
25.156736
34.641623
41.308999
47.714710
49.965978
49.107671
44.852495
37.467480
30.847788
##ZVALUE=360
0.344515
0.299811
0.468493
0.278950
0.377893
0.415444
0.291467
0.462532
0.374913
0.384450
0.556707
0.401735
0.306964
0.354648
0.404716
0.297427
0.197887
0.499487
0.427961
0.313520
0.426769
0.431538
0.312924
0.443459
0.325441
0.348687
0.316501
0.284910
0.439882
0.438690
0.381470
0.581741
0.369549
0.417829
0.382662
0.375509
0.336766
0.340939
0.412464
0.407696
0.390410
0.548959
0.523925
0.433922
0.444651
0.405908
0.455976
0.606775
0.504851
0.573993
0.675917
0.435710
0.498891
0.482798
0.688434
0.786781
0.701547
0.836849
0.883937
0.954866
1.026988
1.562834
3.762841
17.699599
43.678880
110.672712
186.553001
311.631560
414.482951
525.124669
566.385984
557.381511
495.508909
357.168913
245.632529
123.400688
63.922405
22.832751
9.236932
4.299879
3.628731
3.527999
3.395677
3.216863
3.010631
3.399849
4.033446
6.342530
8.899570
14.414787
20.374656
29.446483
35.892725
43.009520
45.176744
45.364499
##ZVALUE=365
0.257492
0.424981
0.351667
0.381470
0.368953
0.266433
0.344515
0.398755
0.444651
0.474453
0.306964
0.361800
0.397563
0.339746
0.246763
0.365973
0.266433
0.442863
0.387430
0.489950
0.520945
0.385642
0.344515
0.384450
0.382662
0.398755
0.431538
0.450611
0.307560
0.438690
0.442863
0.503659
0.412464
0.463724
0.413656
0.533462
0.373721
0.357628
0.472665
0.491738
0.387430
0.631809
0.470877
0.597835
0.574589
0.645518
0.600815
0.542998
0.610948
0.565648
0.544786
0.597835
0.548959
0.683665
0.703931
0.669956
0.790954
0.811815
0.803471
0.706911
0.822544
1.013875
0.929832
1.097918
1.832843
9.419918
26.488900
72.009563
134.374499
257.041454
356.434584
475.875735
548.148751
578.298569
538.823009
418.565869
310.477018
176.064968
93.671679
32.574534
13.102889
4.734993
3.752708
3.337860
3.110766
3.106594
2.829432
2.869964
2.811551
3.538728
4.666448
7.944703
11.434555
18.472672
23.989677
32.356977
##ZVALUE=370
0.375509
0.370741
0.415444
0.376701
0.481606
0.421405
0.258684
0.485778
0.453591
0.494719
0.341535
0.413656
0.387430
0.421405
0.453591
0.320673
0.267625
0.470877
0.363588
0.434518
0.287890
0.422597
0.502467
0.527501
0.411868
0.334978
0.481606
0.463724
0.378489
0.437498
0.536442
0.658631
0.334978
0.465512
0.567436
0.498891
0.539422
0.518560
0.486970
0.495911
0.436902
0.506639
0.531673
0.362992
0.491738
0.495911
0.526905
0.465512
0.636578
0.597835
0.544786
0.536442
0.548959
0.497699
0.517964
0.674725
0.619888
0.771880
0.718832
0.726581
0.778437
0.793934
0.718832
0.863671
1.037717
1.087785
1.410842
5.300641
16.945004
54.108500
104.844570
208.067894
309.447646
448.649526
530.661941
579.673648
558.905602
470.925570
364.911556
217.795968
125.529766
48.670769
21.367669
6.865859
4.276633
3.467798
3.265738
2.957582
2.903938
2.576709
2.472997
2.602935
2.994537
4.340410
6.145835
10.129809
##ZVALUE=375
0.382662
0.491738
0.244975
0.314713
0.214577
0.307560
0.443459
0.373721
0.268817
0.264645
0.367761
0.581741
0.362992
0.491738
0.235438
0.551939
0.376701
0.415444
0.369549
0.405908
0.377893
0.482798
0.493526
0.438690
0.553727
0.362992
0.314713
0.367761
0.438690
0.393987
0.419617
0.481606
0.389814
0.272989
0.397563
0.442863
0.411868
0.412464
0.324845
0.349879
0.388622
0.541806
0.533462
0.604987
0.453591
0.450611
0.439882
0.340939
0.449419
0.589490
0.558496
0.528693
0.516772
0.507832
0.609756
0.577569
0.596642
0.594854
0.565648
0.752807
0.674725
0.686646
0.698566
0.842810
0.824928
0.876784
0.928640
0.967979
1.127720
2.735853
8.642673
30.653477
68.075657
156.183839
244.424939
380.990505
474.126935
561.326742
583.928823
525.604486
431.929827
279.653668
178.679824
86.857677
41.764975
12.938976
5.610585
3.510714
2.987981
2.850890
2.893806
2.500415
2.543926
2.365708
2.417564
2.756715
##ZVALUE=380
0.337958
0.398755
0.494719
0.432730
0.373721
0.341535
0.340939
0.381470
0.388622
0.356436
0.393987
0.456572
0.551939
0.455976
0.523925
0.552535
0.478625
0.439882
0.249743
0.503659
0.397563
0.295639
0.270605
0.478625
0.400543
0.338554
0.456572
0.447631
0.325441
0.425577
0.234842
0.381470
0.407696
0.424981
0.520945
0.498891
0.368953
0.593662
0.414848
0.446439
0.342727
0.423789
0.562668
0.476837
0.383854
0.580549
0.503659
0.545979
0.631809
0.574589
0.649691
0.349879
0.591874
0.513792
0.384450
0.442863
0.603795
0.670552
0.624657
0.486970
0.673532
0.595450
0.673532
0.676513
0.777841
0.798702
0.811815
1.032948
0.911951
0.977516
1.176596
1.672506
4.912615
23.099780
54.585934
129.004717
211.360455
338.536501
441.775918
556.120872
602.763891
566.542745
495.811701
365.714431
253.650546
126.405954
62.562823
20.738840
8.495450
3.711581
2.914667
2.946854
2.782941
2.727509
2.362728
2.558827
##ZVALUE=385
0.053644
0.064969
0.044703
0.109673
0.336766
0.296831
0.051856
0.211596
0.210404
0.168681
0.293851
0.140667
0.161529
0.216961
0.106692
0.141859
0.085831
0.356436
0.294447
0.186563
0.171661
0.171661
0.236630
0.214577
0.252724
0.208616
0.190735
0.151992
0.226498
0.194907
0.095963
0.266433
0.294447
0.167489
0.214577
0.202656
0.471473
0.338554
0.320673
0.229478
0.329614
0.353456
0.217557
0.407696
0.215769
0.288486
0.368953
0.300407
0.294447
0.329614
0.282526
0.298619
0.448823
0.337958
0.269413
0.348687
0.373721
0.390410
0.357628
0.347495
0.380874
0.307560
0.484586
0.449419
0.499487
0.452995
0.257492
0.510812
0.537634
0.764728
0.612736
0.854731
0.915527
1.108646
2.052784
12.069941
32.061934
83.427429
150.128603
272.059441
377.128720
497.852564
555.698872
572.103858
536.220670
423.451662
312.775970
176.117420
97.795725
39.059520
15.072823
4.653931
2.924800
2.627969
2.448559
2.476573
##ZVALUE=390
0.334978
0.345707
0.292659
0.248551
0.347495
0.144839
0.253916
0.340939
0.324845
0.283718
0.316501
0.533462
0.340939
0.258684
0.399947
0.396967
0.250936
0.367761
0.344515
0.333786
0.452995
0.378489
0.408888
0.517964
0.609756
0.350475
0.311732
0.393987
0.478625
0.508428
0.418425
0.349879
0.356436
0.483990
0.406504
0.425577
0.509620
0.521541
0.470877
0.519753
0.575781
0.531673
0.385642
0.630617
0.445843
0.402927
0.440478
0.429749
0.497699
0.438690
0.494719
0.501871
0.220537
0.513792
0.535846
0.533462
0.397563
0.606775
0.554919
0.422597
0.528693
0.642538
0.528693
0.565648
0.554919
0.542998
0.767708
0.752807
0.708699
0.747442
0.843406
0.960827
0.929832
0.977516
0.959635
1.214743
1.438856
6.375909
20.559430
64.741969
122.953653
234.230757
327.363014
442.581773
517.724752
570.560694
558.565855
473.636985
377.574563
240.537524
141.729712
56.919456
25.135875
7.125735
3.579855
2.724528
##ZVALUE=395
0.377893
0.491738
0.371933
0.385642
0.384450
0.333786
0.244975
0.368953
0.291467
0.253916
0.277758
0.312924
0.336766
0.355840
0.368953
0.390410
0.451803
0.337958
0.410676
0.390410
0.388622
0.373721
0.507832
0.448823
0.411868
0.252724
0.487566
0.398755
0.329614
0.444651
0.292659
0.349879
0.463724
0.609756
0.557899
0.486970
0.505447
0.543594
0.557899
0.602603
0.397563
0.429749
0.716448
0.518560
0.491738
0.505447
0.379682
0.532866
0.491738
0.465512
0.509620
0.531673
0.427961
0.623465
0.565648
0.530481
0.487566
0.612736
0.551939
0.610948
0.601411
0.478625
0.554919
0.458956
0.587702
0.563860
0.608563
0.665784
0.653863
0.686646
0.765920
0.684857
0.768900
0.767708
0.973940
0.653863
0.857711
0.914931
1.023412
3.905892
13.241768
45.698881
88.579655
168.748498
256.238580
385.338664
476.344824
552.722812
566.439629
514.235497
423.583984
276.401639
180.884004
87.123513
41.147470
13.354421
##ZVALUE=400
0.494719
0.484586
0.426769
0.374913
0.527501
0.359416
0.535846
0.218749
0.254512
0.435710
0.340939
0.419617
0.423789
0.422597
0.454783
0.462532
0.421405
0.403523
0.361800
0.386834
0.392795
0.200868
0.386834
0.383854
0.274777
0.438690
0.460744
0.354648
0.526905
0.462532
0.395775
0.503659
0.496507
0.443459
0.480413
0.514984
0.481606
0.419617
0.552535
0.476837
0.399947
0.555515
0.562668
0.520945
0.472665
0.474453
0.419617
0.423789
0.531673
0.551939
0.575781
0.515580
0.444651
0.562668
0.470877
0.608563
0.486970
0.458956
0.405908
0.551939
0.535846
0.503659
0.683665
0.556707
0.681877
0.537634
0.538826
0.638962
0.717640
0.740886
0.727773
0.800490
0.915527
0.748634
0.746846
0.769496
0.752807
0.939965
0.781417
0.938773
1.133680
1.476407
8.059740
23.174882
66.652894
122.005939
230.423808
323.897004
450.880527
524.905920
557.213426
531.815886
435.405970
331.794620
198.305845
120.934844
##END
