##TITLE=FQP00601
##FORMAT=SPECTACLE-ASCII V-1.2
##DATA TYPE=ULTRAVIOLET SPECTRUM
##SECOND TYPE=ULTRAVIOLET SPECTRUM
##DATE=02/08/18
##TIME=16:21:37
##SPECTROMETER/DATA SYSTEM=SPECTACLE
##XUNITS=NM EM
##YUNITS=ENERGY
##YFACTOR=1
##FIRSTX=220
##LASTX=410
##NPOINTS=96
##3DDATA=Equidistant
##ZUNITS=NM EX
##FIRSTZ=210
##LASTZ=400
##ZPOINTS=39
##XYDATA=(Y..Y)
##ZVALUE=210
3.008842
2.732873
2.967715
2.531409
3.159642
2.950430
3.034472
3.247857
3.599524
3.265738
3.308654
3.833771
3.960729
3.713965
3.711581
3.911853
3.741980
4.686713
4.785657
5.154610
5.127788
4.988909
6.249547
6.602407
6.349683
6.920695
7.225871
9.120703
8.028746
8.561611
9.412766
8.756518
8.916855
9.878874
9.065866
9.333491
9.573698
9.903908
9.909868
9.491444
10.006428
10.001659
10.190606
9.694695
9.868741
10.931492
9.651780
10.990500
11.710525
10.397434
10.429621
11.184812
11.033416
11.116862
11.021495
10.704994
11.647940
10.779500
12.088418
11.753440
12.174845
12.302995
12.984872
12.044907
12.147427
12.908578
13.151765
15.142560
17.085671
19.511580
22.383928
28.400421
32.323599
40.437579
42.330623
47.060847
49.743652
51.127672
53.972602
49.804449
47.580600
40.769577
36.513805
28.791428
26.312470
19.477606
15.583634
15.917420
12.726784
12.360811
12.677908
12.488961
12.945533
11.749864
12.299418
12.653470
##ZVALUE=215
10.446906
10.136962
9.763837
8.608699
7.118583
6.016493
5.575418
5.386472
6.110668
6.388426
6.367564
6.143451
5.437732
4.716516
4.798770
5.291700
5.103946
4.421473
4.839897
5.049706
5.903840
6.593466
6.925464
7.506609
7.875562
7.630587
7.834435
8.925796
8.501410
9.763837
10.205507
10.068417
10.373592
10.783672
12.304783
10.676980
12.226701
11.007786
12.138486
11.423826
11.261702
11.211634
12.938976
12.224913
12.366772
12.964606
12.554526
12.556911
12.944937
11.171699
12.118816
12.005568
13.136864
12.759566
13.214946
12.201667
11.986494
13.113618
12.511611
12.781620
13.225675
12.773871
12.629628
14.385581
13.360977
14.631748
14.382601
15.482903
18.933415
20.282865
25.639534
26.827455
33.765435
39.672852
41.987896
47.652721
51.007867
49.688816
51.684976
49.758554
43.737888
40.233731
34.708977
29.634833
24.891496
19.699931
18.435717
15.419722
14.800429
14.408827
13.050437
12.518764
11.907816
11.646748
11.641979
12.469888
##ZVALUE=220
34.987926
35.171509
41.909814
42.725801
40.378571
32.854676
26.934743
19.323826
15.507936
12.292862
12.453794
13.480783
13.515949
12.886524
11.923909
9.871721
8.142591
6.731749
6.312728
6.738901
7.544756
6.735921
6.692410
7.604957
7.846951
9.093881
9.697676
10.074973
10.996461
11.302829
11.446476
14.295578
12.978911
14.448762
15.359521
14.640689
12.743473
15.363693
16.135573
15.495420
15.108585
15.151501
16.050935
15.341640
14.653802
15.913844
14.411807
14.547706
15.063882
14.381409
14.055967
14.486909
13.508797
13.600588
13.422966
13.937950
14.163852
13.126731
14.076829
12.988448
13.920665
14.306903
14.171600
13.997555
15.228987
15.069842
15.213490
17.127991
16.818643
19.680858
21.686554
26.063919
28.822422
34.150481
37.425756
39.864779
39.340854
42.336583
43.640733
41.573644
37.949681
33.257604
29.986501
26.514530
21.767616
19.780993
16.639829
15.416741
13.483763
15.451908
14.355779
13.612509
13.280511
13.948679
12.923479
13.220906
##ZVALUE=225
64.111948
68.108439
91.222525
116.280913
123.374462
127.036572
118.688941
93.946457
71.468949
51.830411
33.357739
28.016567
25.632977
27.360916
28.600693
27.803779
23.219585
20.107627
14.530420
10.591745
10.239482
8.025765
7.343888
7.700920
7.058978
8.455515
8.838773
9.907484
12.479424
12.281537
12.056828
13.441443
14.297962
15.102625
16.056895
16.494989
17.168522
15.737414
15.113950
16.396642
15.825629
14.658570
14.001727
16.028881
15.153885
13.035536
14.608502
13.377666
12.285709
13.018847
12.513995
14.187694
13.497472
13.973713
14.287829
13.108850
12.506843
13.539791
13.283491
13.049841
14.109612
13.311505
13.391972
14.040470
12.351871
15.235543
14.387965
15.072823
16.476512
20.183921
21.676421
24.006963
26.927590
27.210712
31.258464
30.603409
33.358932
33.795834
31.243563
29.551983
28.842688
27.096868
25.315881
22.657514
20.308495
19.296408
18.265843
15.355945
16.689897
15.645623
14.959574
13.965964
15.268922
14.901757
13.955832
14.083982
##ZVALUE=230
65.734982
71.166754
107.496977
173.229575
230.094790
282.380581
311.332941
295.220017
264.801979
221.260786
142.735839
96.711516
59.076548
52.515864
48.367977
49.371719
54.211617
53.070784
45.460463
37.822723
30.757785
20.674467
15.272498
10.491610
9.821653
8.637905
9.690523
8.798838
11.518598
11.195540
12.267828
13.182759
13.850927
14.037490
13.732910
14.671683
16.292930
15.068650
15.074611
15.343428
15.987754
14.265776
13.782978
15.681982
14.958978
14.406443
13.766885
14.128685
14.777780
13.091564
13.606548
14.155507
13.346672
13.422966
14.078617
13.429523
15.574694
14.316440
12.975931
14.907718
15.822649
14.811754
16.270876
15.024543
16.498566
17.098784
17.069578
19.090772
20.009875
21.551847
24.514794
25.327802
27.852654
32.170415
32.916665
34.382939
38.395524
32.529831
34.799576
35.106540
31.462908
31.017661
29.635429
26.559830
25.405884
23.220778
22.155643
20.339489
21.170974
20.093918
20.456910
19.108653
20.089746
19.551516
19.748807
19.125938
##ZVALUE=235
28.041601
33.436418
70.125461
155.693889
242.783427
376.533866
471.894741
573.694706
596.107841
561.356544
467.708707
356.761813
229.093432
155.251622
100.185871
75.633526
74.061751
80.059767
81.430674
83.984733
79.400539
64.454675
54.437518
40.088892
27.968884
18.445849
14.581680
12.190938
11.382699
11.086464
10.926723
11.678934
12.213588
12.650490
12.584925
13.257861
13.639927
13.793707
14.879704
13.296604
14.494658
13.875961
13.474822
13.193488
13.421774
12.809634
13.949871
14.534593
14.068484
13.374686
13.835430
13.848543
13.678670
13.906956
14.670491
14.001727
13.669729
13.752580
14.978647
16.527772
15.447736
16.237497
16.824603
17.209649
17.649531
17.516613
18.629432
20.517707
21.772981
23.695827
26.152730
27.696490
31.111836
34.089684
35.522580
35.487413
39.733648
36.767721
35.461783
35.819411
34.115911
34.672618
32.440424
29.717684
29.289722
27.899742
27.611852
27.347803
27.831793
26.242733
26.146770
23.668408
25.610924
25.699735
27.025938
26.809573
##ZVALUE=240
2.595782
3.456473
15.031695
40.219426
110.058784
196.055770
359.686017
500.175953
691.591501
780.326724
812.726617
754.638910
659.897923
475.850701
343.626738
208.345652
146.316886
106.945634
97.059608
102.780461
113.425851
118.811727
115.720630
106.205940
85.524917
69.933534
47.864914
34.424663
21.718740
17.542839
12.754798
12.445450
11.855960
11.974573
12.901425
13.004541
12.375712
12.393594
12.055635
12.704730
12.200475
13.002753
12.862682
12.683868
13.133883
13.630986
12.649894
12.761950
13.324618
11.878610
12.814999
12.589693
12.662411
13.697743
13.488531
14.513731
14.587641
14.998913
13.783574
15.403628
17.010570
16.189814
16.901493
18.322468
19.083619
18.727779
20.272732
21.530986
23.717880
25.584698
27.097464
30.075908
33.629537
33.333898
36.465526
38.059950
37.648678
39.948821
38.683414
39.369464
38.249493
35.943985
35.767555
35.250783
34.445524
31.802654
31.453967
32.345653
33.502579
31.638741
32.248497
32.278895
33.332705
31.068921
33.735633
32.913685
##ZVALUE=245
2.421737
2.255440
2.512932
2.287626
7.879734
25.163889
75.711608
154.585838
332.279801
515.931845
792.201757
991.723537
1015.695930
1015.695930
1015.695930
945.736766
731.661916
473.540425
313.724875
164.453983
115.806460
105.332732
120.166540
130.196810
136.649609
134.750605
118.669868
100.106597
76.711774
58.617592
46.663880
28.165579
22.584796
17.057657
16.498566
14.051795
15.752912
14.681816
14.428496
15.953779
16.707778
15.643835
14.786720
16.091466
14.473796
15.593767
15.442967
14.983416
14.425516
15.665889
14.466643
14.060736
15.606880
16.089678
15.665889
15.118718
16.013980
16.470551
16.018748
16.824603
16.994476
17.675757
16.907454
18.352866
19.271970
19.391775
19.332767
21.914840
25.333762
25.804639
30.276775
34.145713
35.408735
38.510561
40.203929
41.380525
40.361881
41.940808
42.145848
38.639903
38.665533
37.415624
36.820769
38.410425
36.797523
35.136938
36.475658
34.011602
34.376979
34.677982
34.578443
33.524632
35.043955
33.941865
34.613609
35.390854
##ZVALUE=250
2.833605
2.605915
2.962947
2.533793
3.037453
3.023744
6.418824
21.466613
101.311803
220.672488
524.596572
848.006010
1016.073823
1016.073823
1016.073823
1016.073823
1016.073823
1016.073823
988.729596
615.963936
377.199650
227.467418
134.076476
110.290647
113.588572
126.951933
142.048001
149.001479
143.046975
131.676793
106.783509
88.615417
66.268444
44.158697
33.135414
23.642778
19.828677
16.245842
17.122626
16.571879
16.011000
16.907454
15.890598
15.495420
15.996695
15.104413
15.889406
15.867949
15.415549
14.495850
15.382767
14.574528
14.683604
15.387535
14.771819
15.460849
13.947487
14.679432
13.976693
15.173554
15.582442
14.711618
16.741753
16.735792
17.308593
18.229485
18.951893
21.113753
22.866726
24.589896
28.125644
30.557513
32.021999
36.053658
34.683943
36.965609
39.931536
38.504601
39.045811
36.598444
38.245916
36.249757
33.170581
33.945441
32.860637
31.268597
33.764839
32.187700
32.300949
31.836629
33.686757
31.998754
33.013821
31.732917
32.888651
32.949448
##ZVALUE=255
1.889467
1.728535
1.846552
1.922846
2.198815
2.031922
2.360940
2.522469
2.722740
17.398596
61.942935
179.442763
327.677727
589.667559
799.085498
987.888575
1015.697718
1015.697718
1015.697718
1015.697718
940.108895
741.570592
477.013588
318.470001
182.458758
130.107999
110.487938
114.882588
130.343437
147.501826
152.353644
148.806572
136.006474
110.438466
91.064572
63.818693
46.380758
30.911565
24.179816
17.959476
15.533566
16.824603
14.648438
14.797449
14.996529
14.157891
15.244484
14.222860
13.960600
12.465715
13.358593
12.267828
12.756586
12.495518
13.044477
11.498928
11.853576
12.378693
12.147427
12.282729
13.040900
13.006926
12.406707
13.537407
13.443828
14.535785
15.739799
15.601516
16.360879
17.870665
18.364787
20.602942
23.276806
23.820996
24.580956
26.676655
27.064681
27.638674
27.753711
27.897954
29.074550
27.538538
27.101636
27.853847
26.426911
27.536750
26.173592
27.523637
27.283430
27.422905
27.914643
28.037429
29.867887
28.431416
28.257966
28.347969
##ZVALUE=260
1.554489
1.528859
1.403689
1.630783
1.561642
1.795888
1.472831
1.775622
2.175570
2.384782
2.352595
2.959967
9.627938
49.922466
131.320953
339.888930
545.489788
889.043808
1015.695930
1015.695930
1015.695930
1015.695930
1015.695930
826.159716
536.340475
361.859798
208.163857
135.716796
92.708468
92.855692
108.225942
135.173798
149.458647
162.742734
158.944726
138.486624
120.347738
89.557767
70.688725
45.998693
33.869743
24.052858
20.306706
17.087460
15.316606
15.969872
15.373826
15.047789
14.135838
13.825893
13.581514
13.410449
13.208985
12.746453
13.422966
11.923909
12.256503
11.198521
12.320876
11.199713
11.758804
12.502670
11.376739
12.503862
12.235641
13.204813
13.515949
14.815927
14.617443
16.776919
17.317533
17.293692
19.492507
20.622611
21.058917
22.200942
23.084879
23.792982
24.490952
24.316907
25.039911
24.397969
24.655461
24.161935
25.411844
25.695562
24.902821
25.139451
25.186539
24.603605
25.688410
25.563836
25.113821
25.516748
27.283430
26.494861
##ZVALUE=265
1.277924
1.233816
1.503825
1.195669
1.524687
1.390576
1.462698
1.711845
1.652837
1.453757
1.731515
1.651645
1.903772
2.243519
6.119609
32.885671
79.776645
197.218657
342.900753
603.368878
804.857612
964.609981
1015.690565
1015.690565
875.660777
718.399882
508.804917
355.392694
198.905468
127.340555
85.462928
75.794458
88.505745
121.438503
141.882896
159.120560
166.757703
158.834457
144.666433
115.761757
94.820857
64.423680
48.088431
32.203794
24.260879
18.996596
16.885996
15.861988
14.499426
14.808774
14.054775
14.098883
13.446808
12.455583
12.564659
12.390614
12.122989
11.816621
11.379719
11.167526
11.164546
11.693835
12.262464
11.585951
12.292862
11.791587
12.853742
13.568997
14.147758
14.439821
16.164780
16.218424
16.482472
18.187761
18.591881
18.941760
19.256473
20.829439
20.966530
20.725727
21.913648
21.607876
21.407604
21.341443
23.112893
22.068620
22.196770
23.353696
24.215579
23.355484
23.915768
24.318695
24.389625
24.111867
24.644732
24.417639
##ZVALUE=270
1.142621
0.957847
1.304746
1.148582
1.256466
1.083612
1.251698
1.134872
1.114607
1.395941
1.309514
1.459718
1.384616
1.669526
1.510978
1.768470
2.631545
11.683702
33.011436
98.574758
185.156465
307.606459
515.462756
682.659745
860.169530
928.184986
903.230906
820.721984
638.029575
481.197834
328.514576
180.209875
108.224750
70.362687
69.360733
98.420978
117.996931
146.281719
161.236525
165.705681
162.432790
142.803788
122.676492
90.820789
70.240498
45.657754
33.187866
23.777485
19.359589
14.942884
14.881492
14.252663
13.310909
12.582541
12.382865
11.777878
11.933446
11.555552
11.695623
11.634827
11.479855
11.155605
11.680722
11.773705
12.270808
11.804700
12.196898
12.413859
13.475418
14.443994
14.223456
15.067458
16.576648
16.871691
17.331839
17.969608
18.776655
18.281937
19.275546
20.294785
19.732714
20.170808
20.791888
21.520853
20.714998
22.107959
21.647811
21.365881
22.008419
22.529960
22.863746
22.745728
23.244619
22.325516
22.599697
23.260713
##ZVALUE=275
0.784993
0.836849
0.758767
0.593662
0.942945
0.838637
0.952482
0.934601
0.973940
0.813603
1.082420
0.945926
1.087785
1.089573
1.097918
1.249909
1.408458
1.591444
1.675487
8.576512
28.879642
69.136620
167.655945
284.497738
468.967557
607.090592
760.100484
852.996707
881.980658
831.131935
729.006529
539.816618
387.973785
209.867954
124.596953
66.670775
54.853559
68.875551
89.098811
118.082762
139.995813
158.932805
165.928602
157.047510
142.728686
114.238858
92.369914
66.363811
48.636794
29.849410
23.174882
15.120506
13.675690
12.633801
12.030602
11.531711
11.669993
11.232495
11.618733
11.280775
10.727644
11.483431
11.662841
11.787415
11.456609
12.377501
13.222694
13.071895
13.455749
13.953447
14.994740
15.763640
15.832782
17.154813
16.976595
17.351508
18.548965
18.466711
18.554926
18.636584
19.448996
20.402670
20.101666
19.989610
20.533800
20.795465
20.727515
20.914674
21.399856
21.976829
20.805597
21.524429
21.448731
21.277666
21.934509
22.353530
##ZVALUE=280
0.932813
0.840425
0.920892
1.053810
0.985861
0.902414
1.152754
0.804663
1.081824
1.011491
1.227856
0.998974
0.981688
1.075864
1.263618
1.215935
1.384616
1.296997
1.438856
1.686811
1.722574
3.933907
15.187860
53.268671
110.951662
232.925415
349.046588
537.019968
677.011013
831.238627
893.808603
871.622562
787.250996
602.336526
454.140902
264.678597
158.647895
73.479414
48.005581
47.638416
60.305595
88.057518
110.280514
136.173964
150.233507
155.281425
153.754950
132.937431
113.144517
84.795952
63.636899
41.234493
29.946566
20.031929
14.636517
12.072921
11.215806
11.164546
11.050701
11.158586
10.982752
11.372566
11.163950
11.916757
12.262464
12.979507
12.649894
13.237000
13.244748
14.536977
14.902949
15.758872
15.985966
17.005801
17.747879
17.537475
18.424988
18.220544
18.597841
19.087791
19.131899
19.606948
20.161867
20.075440
20.485520
20.554662
20.823479
21.024942
20.338893
21.103621
20.565987
21.600723
21.021962
21.368861
21.640658
21.821856
##ZVALUE=285
0.821948
1.010895
1.026988
0.624657
1.059771
0.775456
0.820756
0.911951
1.098514
1.009703
1.186728
1.105666
1.076460
1.142621
1.083612
1.073480
1.170635
1.164675
1.304746
1.163483
1.483560
1.438856
1.795888
1.610518
5.302429
17.590523
56.211948
116.149783
252.561569
385.567546
584.689975
735.237598
851.596594
899.356008
855.046511
695.514679
547.895432
344.660878
216.471553
104.978681
57.435632
34.292936
37.345886
57.858825
77.962875
105.904937
124.952793
142.012835
150.414705
144.223571
133.930445
106.865764
87.932944
60.661435
43.756962
26.224852
19.297600
13.093948
11.403561
10.767579
10.758638
10.533929
11.188984
12.006760
11.678934
12.345910
12.749434
12.853742
13.557673
14.223456
15.390515
16.001463
16.471744
16.152859
17.347932
17.531514
18.241405
18.538833
19.217730
19.357800
19.531846
19.801855
20.185709
20.115972
20.172596
20.560622
20.387769
20.585656
20.587444
21.327734
21.131635
20.848513
20.703673
20.930767
20.635724
20.728707
##ZVALUE=290
0.921488
0.756979
1.027584
0.906587
0.839829
1.019835
0.891685
0.999570
0.909567
1.012683
0.940561
1.049638
0.887513
0.826716
0.997782
0.934601
1.144409
1.140833
1.067519
1.204610
1.173615
1.250505
1.525879
1.456738
1.730919
1.675487
2.569556
7.016659
30.312538
74.633956
143.254995
293.270946
446.357727
664.445758
795.668960
895.721912
894.367695
770.253539
633.262992
424.327850
284.608603
141.446590
76.866746
34.401417
24.996996
36.161542
50.095916
73.790550
95.410943
118.847489
133.333802
144.759417
140.634775
126.021504
107.259750
81.660748
61.270595
40.958524
28.525591
18.018484
13.931990
11.663437
11.346936
11.361837
11.878610
11.942983
12.469888
12.740493
13.860464
14.068484
14.839768
15.470982
16.051531
16.382933
17.764568
17.735958
18.639565
18.310547
18.878579
19.115806
19.919872
19.539595
20.460486
20.266771
20.903945
20.531416
20.857453
21.659732
20.693541
21.699667
20.864606
20.469427
20.820498
21.002889
20.159483
20.654798
##ZVALUE=295
0.865459
0.874996
0.825524
0.688434
0.718832
0.931621
0.875592
0.911951
0.954866
1.020432
0.719428
1.013875
0.960827
1.093745
0.996590
1.070499
1.000762
0.858903
1.060963
0.988841
1.185536
1.053810
1.165867
1.400709
1.386404
1.174808
1.617670
1.668930
1.988411
3.222823
11.273623
45.096874
101.402998
233.630538
373.776555
582.831502
729.928613
861.778855
888.255835
806.348920
688.890815
490.132570
338.798761
181.461573
99.637508
39.505959
22.714734
21.540523
29.549003
47.497749
65.835714
92.016459
111.246705
129.235983
137.483478
132.623911
123.604536
100.070834
81.960559
57.370663
42.870641
27.015805
20.715594
14.824867
12.796521
12.624860
12.247562
13.280511
13.220906
14.194846
14.414787
15.286803
15.927553
16.649961
17.209649
17.411709
18.138885
18.607974
18.836856
19.831657
19.953847
19.650459
20.228624
20.939708
20.919442
20.682812
20.752549
21.304488
21.034479
20.909905
20.998716
20.904541
20.712614
20.261407
20.616651
20.975471
##ZVALUE=300
0.872612
0.946522
0.886917
0.763535
0.811815
0.885725
0.674725
0.713468
0.726581
0.815988
0.831485
0.907779
0.913739
0.850558
0.820756
0.994802
1.030564
0.973940
0.820756
1.112819
1.004934
1.004934
1.207590
1.029968
1.239777
1.135468
1.319647
1.297593
1.427531
1.673698
1.718998
1.921654
7.427931
23.402572
78.969002
155.177712
312.436819
465.205908
673.602819
795.399547
878.039002
864.195824
741.010904
605.651736
399.714708
261.789560
134.334564
74.153543
29.374957
16.859770
18.605590
26.359558
42.107701
59.456825
83.491802
102.975965
121.407509
130.524635
128.661990
119.952559
100.693703
83.405972
59.222579
44.639707
29.032826
22.324920
16.061664
14.264584
14.173985
13.995767
14.729500
15.530586
15.840530
16.403794
17.427802
17.670989
18.427968
19.379854
20.014644
20.057559
20.625591
21.017790
21.056533
21.454692
21.733642
21.490455
21.832585
22.045970
21.492839
21.369457
21.286607
21.318793
21.114945
20.409822
21.209717
20.347834
##ZVALUE=305
0.832677
0.793934
0.765920
0.774860
0.755787
0.721812
0.886917
0.783801
0.746846
0.798702
0.881553
0.971556
0.686646
0.826716
0.963807
0.876784
0.786781
1.087785
0.952482
0.974536
0.926852
0.816584
0.941753
1.139641
1.007915
1.118779
1.088977
1.083612
1.213551
1.266599
1.358986
1.333952
1.636744
1.724958
2.929568
16.526580
45.456886
126.900673
226.994753
416.096449
572.631955
762.802958
856.910944
875.437856
807.129741
636.942983
491.821766
312.125683
196.817517
90.619922
44.637918
18.079877
13.269782
17.155409
25.315881
41.414499
57.540536
80.703497
98.176599
117.351413
123.851895
123.956800
114.531517
97.605586
80.903769
59.209466
44.606924
29.557943
22.041798
18.359423
16.520619
16.193986
16.173720
17.484426
17.366409
18.070936
18.465519
19.195676
19.318461
20.355582
20.711422
21.220446
22.040606
21.243691
22.328496
21.904707
22.089481
22.452474
21.766424
22.373796
22.286773
21.391511
20.920634
21.998882
21.515489
21.759868
##ZVALUE=310
0.944734
0.803471
0.699759
0.557899
0.725985
0.615716
0.621676
0.650883
0.659823
0.838637
0.771880
0.671744
0.753999
0.756979
0.840425
0.873804
1.014471
0.873804
0.838637
0.931621
0.872612
0.878572
0.904799
0.998974
0.909567
0.900626
1.067519
0.897646
1.074672
1.210570
1.199841
1.225471
1.302958
1.272559
1.322627
1.629591
2.126694
6.926656
23.294687
77.641606
152.874589
311.761498
463.089943
664.478540
791.856647
871.570706
849.149823
733.762980
602.176785
399.553776
264.012814
133.857727
72.332621
27.356744
14.097691
11.787415
15.556812
24.009943
33.768415
53.695440
70.095658
92.128515
107.182860
118.408799
118.989944
110.215545
98.195672
78.995824
62.010884
43.701530
33.633709
25.435686
20.926595
18.081665
18.741488
18.422604
19.360781
19.522905
20.184517
20.551682
21.361709
21.924973
22.149682
22.220612
23.033619
22.578835
23.000836
22.685528
23.117661
22.543669
22.681952
22.428632
22.632480
21.873713
21.920800
21.679997
##ZVALUE=315
0.592470
0.723600
0.623465
0.700951
0.667572
0.657439
0.886917
0.705719
0.757575
0.799894
0.774860
0.753999
0.937581
0.623465
0.768900
0.761747
0.708699
0.891685
0.787973
0.877976
0.671744
0.747442
0.903606
0.944734
0.829697
0.882745
0.861883
1.075864
1.040697
1.025796
0.994802
1.081824
1.043677
1.189709
1.201630
1.457930
1.573563
1.553893
1.651645
3.336668
11.453629
49.242973
105.635524
235.362649
377.975702
587.548018
717.377663
830.474496
854.375958
778.829455
668.835640
478.096008
336.969495
178.783536
97.587705
37.704706
18.029809
10.517836
11.444688
15.419722
21.204948
34.906864
48.018694
67.827702
85.715652
104.392767
111.935735
113.925934
108.700991
91.870427
79.180002
60.438514
46.982765
33.796430
27.505755
22.404790
20.830631
19.986629
20.364523
20.597577
21.068454
21.944642
21.262765
22.746921
22.302866
22.756457
23.083687
23.377538
23.531914
22.555590
22.885799
22.727847
22.144914
22.550821
22.692680
22.554994
##ZVALUE=320
0.775456
0.636578
0.655651
0.692606
0.722408
0.720620
0.783801
0.682473
0.656843
0.616908
0.713468
0.677705
0.799894
0.784993
0.854731
0.798702
0.774860
0.609756
0.639558
0.849962
0.934601
0.859499
0.803471
0.930429
0.891685
0.850558
0.876784
0.856519
0.984669
0.981688
0.896454
0.966787
0.848770
1.005530
0.963807
1.090765
1.281500
1.478791
1.384616
1.456738
1.552701
1.856685
5.203485
26.265979
67.042708
172.278881
281.167626
460.833907
607.155561
769.150853
831.858516
818.777680
732.895732
562.931895
411.115885
231.499672
133.479834
58.120489
27.650595
12.319684
9.931922
11.595488
13.961792
20.948648
30.186772
48.358440
62.643886
81.970692
96.000433
109.097958
110.053420
105.679631
94.252825
75.778961
61.315894
45.208931
36.160946
28.199553
24.626851
22.585988
21.967888
22.060871
22.141933
22.178888
22.672415
22.785664
23.681521
23.366809
23.462772
23.027658
23.015738
23.284554
22.824407
22.864938
22.891760
22.778511
##ZVALUE=325
0.681877
0.683665
0.734925
0.651479
0.774860
0.612736
0.643730
0.759959
0.684857
0.503659
0.702739
0.759959
0.882745
0.811815
0.836849
0.821948
0.872612
0.826716
0.786781
0.633597
0.821948
0.812411
0.740886
0.757575
0.731945
0.704527
0.835657
0.989437
0.800490
0.800490
0.869632
0.960827
0.924468
0.955462
1.260638
1.018643
1.017451
1.119971
1.145601
1.179576
1.374483
1.289845
1.502633
1.535416
3.075600
17.034411
44.455528
116.407871
205.820799
379.429460
524.959564
703.463554
791.729689
823.127627
765.751004
607.395768
462.661982
283.109546
171.039701
76.273680
37.586689
15.169978
10.314584
10.150671
11.416674
14.992952
20.691752
31.773448
44.799447
64.987540
79.526901
95.813870
103.209615
105.522871
99.665523
86.431503
73.619485
57.880878
46.393871
34.905672
28.440952
24.589896
23.681521
22.715926
22.927523
22.517443
22.782683
23.551583
23.097992
23.059845
23.347735
22.519827
22.384524
22.522807
22.394657
22.423863
##ZVALUE=330
0.708699
0.790954
0.669956
0.555515
0.773668
0.644922
0.715852
0.667572
0.742674
0.746846
0.569820
0.553727
0.788569
0.681877
0.593662
0.622869
0.643730
0.602603
0.648499
0.701547
0.863671
0.777841
0.584722
0.670552
0.817776
0.764728
0.850558
0.701547
0.882745
0.845790
0.778437
0.841618
0.822544
0.876784
0.864863
0.925660
0.907779
0.926852
1.107454
1.076460
1.152754
1.013875
1.268983
1.395941
1.350641
1.613498
1.830459
7.210970
23.251772
78.183413
149.100423
294.629931
433.085561
621.603727
735.860467
808.223486
784.146786
661.816597
529.105663
341.442823
222.611427
104.810596
55.598617
22.356510
12.191534
10.245442
10.523796
12.080669
14.996529
22.301674
30.307770
45.285821
58.893561
78.560710
89.993477
99.684000
100.866556
94.722509
85.941553
69.990754
58.312416
43.806434
36.059618
29.545426
26.154518
23.787618
22.840500
22.705793
22.204518
22.434592
22.425652
22.258759
22.066832
21.914840
22.301674
22.269487
##ZVALUE=335
0.672936
0.579953
0.587702
0.641942
0.607967
0.626445
0.721812
0.667572
0.587702
0.535846
0.598431
0.737906
0.490546
0.682473
0.632405
0.633597
0.680685
0.849962
0.734925
0.685453
0.676513
0.836849
0.572801
0.721812
0.721812
0.809431
0.792742
0.857711
0.756979
0.733733
0.804663
0.758767
0.646710
0.853539
0.777841
0.848770
0.923872
0.963807
1.088977
1.037717
0.905991
1.068711
1.133680
0.995994
1.182556
1.205802
1.392961
1.425743
1.672506
2.861619
15.805960
42.857528
118.954778
208.727717
374.957919
523.299575
698.463917
772.664547
785.648823
723.107457
572.184920
434.593558
261.544585
158.927441
69.646835
33.969879
14.758706
10.553598
10.525584
11.272430
13.721585
16.319752
22.515655
30.459762
45.063496
56.742430
74.046850
84.499717
95.153451
96.804500
89.785457
81.560612
68.111420
58.224797
45.173764
37.647486
30.007958
26.252866
23.454428
22.489429
22.156835
21.930933
21.926761
21.737814
21.460652
21.306872
##ZVALUE=340
0.739694
0.650883
0.630617
0.717640
0.696778
0.649691
0.781417
0.628829
0.692606
0.659823
0.591874
0.631809
0.647902
0.631809
0.838637
0.703931
0.830889
0.822544
0.872612
0.839829
0.868440
0.665784
0.841618
0.729561
0.571609
0.654459
0.848770
0.782609
0.627637
0.764728
0.787973
0.774860
0.688434
0.883937
0.947714
0.977516
1.030564
0.941753
1.033545
0.969768
1.136661
1.054406
1.169443
1.019835
1.080632
1.077652
1.207590
1.240969
1.364946
1.513958
1.638532
2.065897
6.183982
29.395819
70.596933
172.511935
286.853909
466.365814
603.787899
734.583735
776.336789
730.474591
634.384751
470.038652
330.953002
172.764659
97.299814
41.134953
19.898415
10.869503
10.405779
11.313558
12.025833
14.082789
16.798973
23.274422
30.126572
43.082833
55.403709
72.522759
81.591606
90.125799
90.241432
86.448789
78.895688
66.450834
56.336522
43.801665
36.407709
29.052496
25.554895
22.303462
21.173954
20.973682
20.901561
20.384789
##ZVALUE=345
0.545979
0.620484
0.617504
0.513792
0.648499
0.779629
0.652671
0.629425
0.659823
0.666976
0.590682
0.647902
0.541806
0.653863
0.594854
0.646710
0.646710
0.586510
0.556707
0.684857
0.605583
0.734925
0.613928
0.653863
0.509620
0.815988
0.701547
0.784993
0.620484
0.713468
0.873804
0.868440
0.513792
0.787973
0.867844
0.862479
0.697970
0.738502
0.962615
0.778437
0.823736
0.885725
0.841618
0.757575
1.037717
0.943542
0.855923
1.003742
1.055598
1.130700
1.217723
1.423955
1.221895
1.344681
2.921820
16.776919
44.751763
114.878416
204.761624
368.894935
505.382419
665.531754
745.046735
750.691891
685.952902
526.914001
395.339727
234.579444
135.332942
54.745674
27.228594
13.079643
10.652542
10.989904
11.187792
12.455583
13.541579
16.644597
21.118522
30.468702
39.834976
55.111647
64.716935
75.650811
81.552863
84.213614
81.919432
73.210001
65.091848
53.461790
44.277906
33.752918
28.242469
23.904443
21.822453
19.868612
##ZVALUE=350
0.572801
0.642538
0.578761
0.517964
0.514984
0.709891
0.571609
0.623465
0.524521
0.532866
0.785589
0.610948
0.773668
0.618696
0.633597
0.670552
0.622869
0.594854
0.615716
0.578761
0.762939
0.633597
0.702739
0.707507
0.742674
0.672936
0.619888
0.620484
0.694990
0.755787
0.649691
0.782609
0.710487
0.785589
0.662804
0.794530
0.786781
0.736713
0.872612
0.827909
0.691414
0.921488
0.842810
0.800490
0.870824
0.960827
0.940561
0.967979
0.908971
0.835657
1.073480
1.149774
0.974536
1.240969
1.166463
1.355410
1.904964
8.193851
25.278926
78.807473
148.415565
292.503834
420.992970
587.233901
686.759949
741.934776
706.290603
584.450960
446.588993
265.868902
164.405704
77.209473
37.579536
14.898777
11.043549
10.584593
10.813475
11.708736
12.223721
13.826489
15.882850
21.655560
27.378798
36.526918
45.592785
58.407784
67.042708
75.486898
77.459812
75.848699
69.740415
59.674978
51.256418
40.953755
34.328699
27.300715
##ZVALUE=355
0.479817
0.539422
0.632405
0.474453
0.670552
0.521541
0.534654
0.594854
0.787973
0.576973
0.545979
0.586510
0.604987
0.511408
0.674725
0.603795
0.636578
0.751615
0.437498
0.489950
0.615716
0.633597
0.517964
0.613928
0.659823
0.625849
0.608563
0.749826
0.573993
0.741482
0.631809
0.532866
0.794530
0.601411
0.744462
0.603795
0.709891
0.714660
0.660419
0.744462
0.814795
0.698566
0.745654
0.856519
0.765920
0.888705
0.893474
1.039505
0.843406
0.818968
0.891685
1.043677
1.006722
0.987649
1.076460
1.131892
1.144409
1.303554
1.393557
3.847480
13.492703
51.589608
104.792714
214.821696
334.725976
515.700579
624.674559
702.750683
700.277686
592.531562
482.794642
319.450498
203.472972
91.674924
46.111941
17.887950
10.872483
9.877682
10.021925
10.844469
10.837913
11.801720
12.660623
15.120506
18.358827
24.622679
31.584501
42.253733
50.380826
60.425997
67.576766
70.461631
69.546700
63.654780
57.211518
47.304630
##ZVALUE=360
0.429749
0.523925
0.438690
0.319481
0.541806
0.496507
0.658631
0.467896
0.562668
0.607967
0.606775
0.532866
0.582933
0.525713
0.486970
0.691414
0.560880
0.650883
0.563860
0.561476
0.489950
0.619888
0.583529
0.599623
0.536442
0.545979
0.528693
0.396967
0.600815
0.491738
0.546575
0.633597
0.761747
0.489950
0.705719
0.654459
0.793934
0.624657
0.591874
0.766516
0.603795
0.464916
0.715852
0.695586
0.750422
0.761747
0.849962
0.734925
0.632405
0.851750
0.825524
0.885725
0.750422
0.946522
0.901818
1.055598
1.112819
1.074672
1.038909
1.290441
1.341701
2.148747
6.258488
27.126670
64.944625
157.076716
259.372592
418.531895
544.492602
669.955015
694.158673
640.451908
540.981889
371.305943
247.353911
122.796893
65.739751
26.709437
13.732910
9.330511
9.252429
9.860992
9.898543
10.497570
10.544658
11.499524
12.922883
16.528964
19.630790
26.736856
33.586621
44.453740
52.179694
59.874654
63.206553
63.524842
##ZVALUE=365
0.567436
0.649691
0.622869
0.515580
0.730753
0.774860
0.699759
0.774860
0.593662
0.634789
0.696778
0.687838
0.636578
0.731945
0.687838
0.669956
0.717640
0.693798
0.793934
0.753999
0.754595
0.763535
0.653863
0.646710
0.670552
0.694990
0.666976
0.811815
0.763535
0.786781
0.745654
0.784993
0.818968
0.744462
0.738502
0.675917
0.784993
0.666976
0.726581
0.767708
0.763535
0.765920
0.813603
0.816584
0.908971
0.920892
0.832677
0.930429
0.966787
0.981688
0.934601
1.037717
0.976920
0.958443
0.969768
1.022816
1.235604
0.974536
1.031756
1.176000
1.253486
1.435876
1.479983
1.641512
3.005862
15.543699
40.505528
104.961991
193.108916
354.498625
476.916432
607.032776
665.366650
649.013519
570.551753
414.315462
294.845700
164.267421
91.786981
36.151409
17.419457
9.592772
8.933544
8.941889
8.952618
9.465814
9.889603
10.367632
10.418892
11.947751
13.864636
17.904639
22.106767
30.182600
36.704540
45.985579
##ZVALUE=370
0.589490
0.594854
0.760555
0.502467
0.549555
0.538826
0.523925
0.450611
0.670552
0.568628
0.460744
0.617504
0.687838
0.702739
0.412464
0.483990
0.661612
0.630617
0.673532
0.559688
0.748634
0.677705
0.720620
0.684857
0.639558
0.768900
0.603795
0.675917
0.586510
0.650883
0.560880
0.674725
0.621676
0.580549
0.831485
0.744462
0.784993
0.542998
0.706911
0.644922
0.711679
0.674725
0.742674
0.737906
0.662804
0.717640
0.763535
0.834465
0.724792
0.655651
0.808835
0.746846
0.725985
0.991821
0.831485
0.895858
0.786781
0.825524
0.937581
0.872612
0.916719
0.913739
1.049638
1.290441
1.218915
1.462698
1.925826
8.358955
25.535822
77.660680
147.261620
282.397866
408.574939
565.035939
642.580986
660.857558
610.488653
476.736426
355.471969
205.177665
124.585629
51.357746
25.088787
10.739565
8.504987
8.143783
8.332729
8.613467
8.509755
8.872747
9.157658
9.836555
10.343790
12.308955
14.786720
20.299554
##ZVALUE=375
0.545979
0.434518
0.450611
0.425577
0.483990
0.375509
0.616908
0.453591
0.521541
0.695586
0.643730
0.695586
0.575781
0.481606
0.558496
0.679493
0.541806
0.417829
0.589490
0.554919
0.501871
0.686646
0.457764
0.547767
0.685453
0.679493
0.560880
0.445843
0.658631
0.683665
0.671744
0.678897
0.592470
0.594854
0.608563
0.581741
0.621676
0.603795
0.586510
0.578761
0.642538
0.632405
0.729561
0.651479
0.713468
0.637770
0.646710
0.634789
0.698566
0.794530
0.776649
0.933409
0.823736
0.699759
0.877976
0.952482
0.758767
0.570416
0.816584
0.690818
0.916719
0.826716
0.904799
1.130700
0.871420
1.133680
1.330972
1.303554
1.471639
4.043579
13.856888
48.161745
101.638436
223.149657
343.240499
501.790643
595.118999
652.306676
634.489655
523.165464
405.213833
254.528522
167.366862
88.660717
46.869516
16.270876
9.342432
7.639527
7.377863
7.616878
7.898808
8.141994
8.029938
8.568764
8.782744
9.815693
##ZVALUE=380
0.595450
0.497699
0.579953
0.652671
0.616908
0.538826
0.587702
0.617504
0.685453
0.764728
0.750422
0.528693
0.487566
0.637770
0.555515
0.661612
0.442863
0.604987
0.439882
0.616908
0.542998
0.688434
0.632405
0.673532
0.657439
0.629425
0.676513
0.440478
0.579953
0.608563
0.632405
0.538826
0.644922
0.573993
0.582933
0.632405
0.666976
0.587702
0.629425
0.708699
0.679493
0.662804
0.661612
0.569820
0.624657
0.768900
0.621676
0.660419
0.642538
0.683665
0.695586
0.752807
0.718832
0.677705
0.688434
0.775456
0.724792
0.659823
0.743866
0.866652
0.752807
0.721812
0.931621
0.952482
0.921488
1.031756
1.009703
1.043677
1.099706
1.198649
1.379848
2.369881
7.507801
34.388900
78.391433
178.902745
284.114480
439.058542
547.569990
636.980534
640.975833
558.688641
457.702875
307.474732
206.568837
102.631450
54.224730
21.561980
11.117458
7.116795
6.930828
6.989837
7.222891
7.314682
7.428527
7.677674
##ZVALUE=385
0.426769
0.533462
0.619888
0.657439
0.574589
0.421405
0.486970
0.473857
0.604987
0.593662
0.432730
0.451803
0.572801
0.563860
0.672936
0.500679
0.604987
0.600815
0.492930
0.420809
0.408888
0.575781
0.566840
0.583529
0.552535
0.503659
0.682473
0.549555
0.568628
0.692606
0.433922
0.689626
0.630617
0.557899
0.456572
0.504851
0.599623
0.567436
0.673532
0.530481
0.609756
0.708699
0.583529
0.774860
0.582933
0.633597
0.691414
0.640750
0.655651
0.684857
0.747442
0.653863
0.784993
0.549555
0.698566
0.644922
0.634789
0.769496
0.702739
0.763535
0.848770
0.650883
0.847578
0.887513
0.839829
0.808835
0.916719
0.933409
0.867844
1.215935
1.211762
1.399517
1.496673
1.714826
4.523993
15.216470
56.269765
117.776990
241.297483
363.113880
523.929596
608.807802
651.353002
622.956753
518.348813
410.336852
259.082913
165.640712
76.610446
38.214922
14.661551
7.881522
6.502867
6.189942
6.470680
6.516576
##ZVALUE=390
0.602603
0.445843
0.553727
0.334978
0.518560
0.600815
0.463724
0.527501
0.426769
0.552535
0.475645
0.418425
0.516772
0.472665
0.467896
0.410676
0.526905
0.452995
0.522733
0.611544
0.588894
0.562668
0.487566
0.621676
0.474453
0.559688
0.503659
0.683665
0.638962
0.615716
0.627637
0.720620
0.598431
0.548959
0.459552
0.563860
0.680685
0.538826
0.507832
0.785589
0.587702
0.695586
0.533462
0.540614
0.566840
0.607967
0.608563
0.638962
0.596642
0.648499
0.728965
0.568628
0.736713
0.622869
0.675917
0.719428
0.728965
0.711679
0.716448
0.682473
0.690818
0.683665
0.707507
0.712872
0.845790
0.931621
0.893474
1.024604
1.026988
1.024604
1.071692
0.934601
1.094937
1.119971
1.240969
1.176596
1.995564
10.155439
30.142665
91.403723
171.886683
318.682790
431.686640
555.713773
621.205568
636.831522
582.759976
459.252596
349.274874
212.114453
125.088692
52.341819
24.508834
9.470582
6.404519
6.008744
##ZVALUE=395
0.532866
0.645518
0.388622
0.505447
0.387430
0.461936
0.461936
0.509620
0.463724
0.498891
0.366569
0.434518
0.421405
0.443459
0.565648
0.581741
0.434518
0.749826
0.526905
0.433922
0.467896
0.575781
0.465512
0.688434
0.449419
0.371933
0.377893
0.641942
0.606775
0.559688
0.606775
0.632405
0.703931
0.607967
0.465512
0.653863
0.614524
0.387430
0.380874
0.596642
0.605583
0.592470
0.651479
0.746846
0.523925
0.529885
0.666976
0.774860
0.646710
0.600815
0.644922
0.538826
0.759959
0.707507
0.611544
0.720620
0.612736
0.619888
0.816584
0.689626
0.683665
0.746846
0.833869
0.760555
0.730753
0.757575
0.771880
0.889897
1.013875
1.082420
0.923872
0.938773
1.164675
1.121759
1.007915
1.110435
1.232624
1.066923
1.578927
5.659461
19.518733
65.448880
127.598643
249.459743
362.635851
513.742566
612.088442
660.455823
637.618899
533.307791
415.264964
255.926847
163.132548
77.322721
38.187504
14.113784
##ZVALUE=400
0.576973
0.517964
0.451803
0.562668
0.469685
0.434518
0.544786
0.466704
0.506639
0.484586
0.445843
0.540614
0.631809
0.391603
0.660419
0.584722
0.474453
0.455976
0.720620
0.441670
0.596642
0.483990
0.547767
0.569820
0.609756
0.501871
0.636578
0.632405
0.506639
0.725985
0.680685
0.534654
0.539422
0.695586
0.504851
0.595450
0.595450
0.640750
0.540614
0.570416
0.673532
0.651479
0.637770
0.674725
0.720620
0.538826
0.660419
0.625849
0.641942
0.489950
0.634789
0.736713
0.637770
0.591874
0.723600
0.620484
0.795722
0.655651
0.554919
0.662804
0.712872
0.594854
0.784993
0.677705
0.729561
0.802875
0.686646
0.903606
0.888705
0.883937
0.978708
0.942945
0.999570
1.106858
0.890493
0.990629
1.061559
1.075864
1.116991
1.250505
1.425743
3.254414
10.952950
38.837790
82.579851
183.326006
287.912488
440.953970
538.653731
618.008971
624.831915
546.362996
448.652506
295.111537
194.373727
98.504424
##END
