##TITLE=FQP00351
##FORMAT=SPECTACLE-ASCII V-1.2
##DATA TYPE=ULTRAVIOLET SPECTRUM
##SECOND TYPE=ULTRAVIOLET SPECTRUM
##DATE=02/08/18
##TIME=15:51:26
##SPECTROMETER/DATA SYSTEM=SPECTACLE
##XUNITS=NM EM
##YUNITS=ENERGY
##YFACTOR=1
##FIRSTX=220
##LASTX=410
##NPOINTS=96
##3DDATA=Equidistant
##ZUNITS=NM EX
##FIRSTZ=210
##LASTZ=400
##ZPOINTS=39
##XYDATA=(Y..Y)
##ZVALUE=210
2.823472
2.556443
2.594590
2.754927
2.748966
2.680421
3.096461
3.286600
2.882481
2.945662
2.703667
3.214478
2.854466
3.496408
3.510714
3.536940
3.378987
3.950596
4.235506
3.751516
4.643798
5.191565
5.355477
5.133748
6.384850
5.458593
6.427765
6.931424
7.239580
7.123947
8.371472
8.042455
8.198619
7.884502
7.931590
8.250475
8.388758
8.141994
8.447766
9.036660
8.801818
8.953810
8.519888
8.929968
8.997917
9.909868
10.032654
9.525418
9.147525
8.992553
10.017753
10.095835
9.253621
9.515882
9.638667
9.387732
10.962486
9.455681
9.980798
9.864569
10.914803
9.909868
10.612607
10.063648
11.165738
10.220408
11.725426
11.143684
12.619495
15.857816
19.668937
22.594929
27.729869
32.314658
34.284592
38.502812
41.603446
41.141510
42.224526
41.874647
38.446784
36.295652
31.054616
27.657747
22.565722
19.608736
14.832616
14.156699
11.715889
10.902882
9.643435
10.187626
10.099411
10.592937
11.135936
11.694431
##ZVALUE=215
7.439852
9.674430
8.002520
6.584525
5.216599
5.035996
4.503727
5.035996
6.120801
5.168915
5.396605
5.171895
4.733801
4.403591
3.247857
3.616810
3.478527
3.725886
4.100800
4.243851
4.488826
4.342794
4.880428
4.899502
5.664825
5.737543
5.986691
6.680489
8.936524
7.779598
8.260608
8.978844
9.117723
9.961724
9.835958
8.637905
10.563731
10.241866
9.406805
10.444522
10.171533
8.469820
9.604692
9.565949
10.166764
10.021925
10.295510
10.315776
9.078979
10.061860
9.839535
9.918809
10.280609
9.880662
9.247661
10.406971
9.516478
10.745525
10.229945
10.137558
10.623932
10.922551
11.336803
10.751486
10.721684
11.445880
11.814833
12.369752
14.149547
15.744567
18.080473
22.328496
24.621487
28.463602
30.181408
33.160448
36.575794
36.495924
37.240982
35.675764
33.945441
31.142831
29.183626
25.093555
19.790530
17.308593
15.612841
11.790991
10.637641
10.589957
10.709763
10.234714
9.396672
10.113716
9.230971
10.517836
##ZVALUE=220
33.846498
36.010742
39.812922
40.842891
40.319562
33.332705
24.958849
19.792914
13.806820
12.388825
12.512803
12.775660
13.671517
12.384653
11.174679
8.670688
7.010698
5.559921
5.176663
5.679727
5.651712
5.525947
5.768538
6.766915
7.190704
7.160902
7.491708
8.148551
9.682775
10.431409
11.285543
11.790991
12.452602
12.865663
12.592673
14.255643
12.971759
12.964606
13.191700
12.121797
12.412667
12.222528
12.359619
12.263656
11.867881
13.043880
13.044477
12.076497
12.776852
12.005568
11.656880
12.252927
13.048649
11.866689
12.722611
12.716651
12.919903
14.215708
12.584925
12.082458
12.628436
12.195706
11.563897
12.088418
13.452768
14.299750
14.132857
14.220476
17.261505
18.695593
21.541715
26.553869
28.811693
33.381581
37.325621
41.643977
44.972897
44.768453
39.882660
40.181875
38.921833
34.043789
31.452775
26.833415
22.398829
19.826889
16.064644
14.042854
13.070703
11.791587
12.803674
11.325479
12.390614
12.315512
10.205507
10.567904
##ZVALUE=225
68.856478
74.668527
91.807842
121.604800
137.031674
134.863853
124.681592
103.136897
76.233745
53.420663
33.652782
25.723577
25.715828
27.349591
28.545856
24.854541
22.717714
18.488765
12.901425
10.358691
8.105636
7.215738
7.891655
8.216500
8.161664
7.679462
8.993745
9.332895
10.819435
13.072491
13.443828
13.732910
14.646649
14.435649
14.253855
15.803576
15.446544
16.650558
15.899539
13.507605
16.012788
14.838576
14.692545
14.932752
14.773607
13.377666
14.449954
14.664531
13.383627
14.367700
13.697743
14.522672
14.124513
14.388561
12.750626
13.944507
13.675690
13.111830
14.454722
15.663505
14.231801
14.630556
14.975667
14.888644
14.906526
15.725493
14.841557
15.625954
18.318892
21.189451
23.159981
25.760531
29.234886
32.158494
35.709739
38.954616
37.577748
40.134788
39.133430
35.693645
36.144853
33.879876
30.276775
27.062893
24.410486
21.100640
18.800497
19.114614
14.961958
14.185905
14.598966
13.969541
15.325546
14.280677
13.863444
14.192462
##ZVALUE=230
53.258538
55.003762
103.660822
152.486563
205.944777
242.310762
266.456604
262.835622
221.797824
177.719593
124.105811
83.886981
61.747432
50.265789
46.240687
52.148700
53.772926
51.687956
46.801567
35.932660
27.345419
22.765994
14.569759
10.396838
8.302927
8.833408
8.358955
9.267926
10.433793
11.808872
11.508465
14.409423
14.065504
14.487505
13.548732
13.177991
14.487505
14.173985
14.424920
14.835000
14.757514
15.019774
13.972521
12.896657
14.518499
14.528632
13.754964
12.309551
13.711452
13.109446
12.464523
14.582872
13.638735
12.431741
13.888478
12.320876
12.509823
12.796521
12.121797
14.343858
13.086796
13.972521
14.812946
13.290644
13.789535
14.630556
15.745759
15.225410
17.205477
19.069910
19.537807
24.762750
28.724670
28.874874
31.024814
31.300783
31.303763
31.304955
31.947494
30.565858
27.245879
29.399991
23.738742
23.649931
22.263527
19.401908
18.477440
17.513633
15.636683
17.286539
15.352964
15.078783
14.226437
14.125705
14.709830
14.876723
##ZVALUE=235
24.151802
29.532909
56.810975
126.010776
197.785497
298.830867
388.315916
488.073826
514.382720
493.955016
437.351465
322.434902
236.251950
142.195821
99.755526
82.740784
74.418783
81.196427
86.804628
86.645484
77.391863
68.815947
49.818754
38.562417
27.455688
18.729568
14.007688
10.532737
10.656714
11.622906
11.477470
12.179613
12.438893
12.802482
11.889935
12.831688
13.898611
13.748407
13.439655
13.811588
12.175441
13.308525
13.639927
12.579560
12.486577
13.712645
13.211966
13.237596
12.759566
12.979507
11.751652
13.060570
13.155937
12.405515
12.728572
12.317896
13.066530
13.391972
13.317466
14.708638
16.072989
13.848543
14.376640
14.078617
14.804602
16.179681
16.310811
17.884970
19.744635
22.391677
23.898482
25.108457
29.359460
35.211444
34.067631
36.742687
37.184954
35.271645
38.607717
36.891699
33.931732
30.835867
28.045774
29.142499
25.560856
21.530986
21.273494
20.709634
22.164583
19.847751
18.378496
20.188689
18.709898
18.459558
18.653870
18.613935
##ZVALUE=240
2.446771
3.589988
10.162592
40.605664
87.884665
186.625719
305.777788
496.699810
653.056502
788.061619
878.382921
846.755505
721.089840
600.307584
421.992540
295.750499
176.723003
129.410625
107.596517
104.164481
107.738972
118.151903
115.125775
103.325844
84.082484
66.755414
47.903657
34.099817
23.072958
17.190576
13.643503
12.277961
12.395978
12.643933
12.495518
12.465715
12.543797
12.170672
13.582706
13.929605
12.699962
13.071895
12.861490
13.420582
13.097525
14.349818
13.363957
13.524890
12.525916
11.751652
13.522506
12.966990
13.672709
13.725758
13.092756
13.422966
12.550950
13.673902
13.901591
13.733506
14.416575
15.387535
14.621615
14.275908
16.458631
16.200542
17.080903
19.487739
18.807650
22.864938
23.161769
30.433536
30.496716
30.966997
36.471486
37.395954
37.556887
36.045909
37.506819
37.773848
36.198497
34.164786
29.254556
28.599501
25.364757
26.352406
24.491549
21.618605
23.565888
22.764802
22.584796
23.407936
22.827983
22.208691
22.722483
22.339821
##ZVALUE=245
1.894832
1.941919
2.051592
2.120733
7.862449
22.719502
73.647499
155.452490
330.902934
505.152941
779.148936
976.560712
1015.700698
1015.700698
1015.700698
805.521011
627.939701
403.192639
268.341899
153.462887
114.593506
104.556680
112.893581
128.040910
135.489702
126.479864
118.452907
98.826885
75.737834
56.271553
40.685534
28.541684
21.127462
15.360713
13.842583
13.067722
12.687445
13.601780
14.953613
14.408827
13.635755
13.605952
14.992952
13.538599
13.354421
14.195442
14.652610
13.397932
13.448000
13.251901
13.657808
12.733936
12.760758
13.253689
13.615489
13.891459
14.564991
13.451576
13.816953
14.346838
13.840795
16.233921
14.967918
16.477704
14.581680
17.055869
17.866492
18.789768
20.245910
21.300912
24.125576
25.939941
28.791428
30.733943
33.230782
35.039783
35.084486
34.566522
35.576820
31.544566
32.738447
30.728579
28.123856
27.793646
28.112531
25.186539
24.845600
24.695992
25.123954
24.334788
22.683740
23.729801
24.295449
23.022890
22.688508
22.875667
##ZVALUE=250
1.579523
1.431704
1.696944
1.789927
1.870990
2.430677
3.378987
24.973750
66.908002
144.596696
359.295011
597.828627
928.860903
1015.695930
1015.695930
1015.695930
1015.695930
1009.981036
837.537646
526.630878
334.509611
175.233483
116.543770
96.986890
101.804733
124.536753
136.073828
139.638782
139.916539
120.584965
106.284618
78.116655
63.452721
39.570928
30.070543
21.107793
16.650558
13.915896
13.835430
13.672709
14.550686
13.791919
13.436675
13.126731
12.947917
14.020801
12.943745
12.489557
12.040734
13.530850
12.697577
11.998415
12.486577
11.677742
11.603832
11.537671
11.213422
11.402965
12.213588
11.148453
11.027455
11.313558
11.868477
12.005568
12.257695
13.818741
14.686584
15.144944
15.877485
18.623471
20.489693
22.057891
24.666786
26.580691
27.587414
28.889775
28.497577
30.523539
29.080510
29.529929
29.861927
26.344657
28.144717
25.514960
25.492907
22.586584
22.971630
21.534562
22.515655
22.579432
23.159981
22.002459
21.298528
21.493435
21.289587
21.562576
##ZVALUE=255
1.517534
1.680851
1.475811
1.402497
1.798868
1.817942
1.748800
2.199411
3.048778
12.863874
62.922835
135.227442
252.165794
497.682691
711.859465
989.539623
1015.696526
1015.696526
1015.696526
996.685028
804.059505
589.374900
332.895517
198.437572
109.879971
87.600946
88.264942
102.719665
130.131841
145.358443
149.950981
145.147443
131.680965
107.395649
87.448955
58.974624
44.040680
28.162599
20.512938
15.263557
13.569593
12.943745
13.507605
12.619495
12.715459
12.278557
12.382865
12.659431
10.971427
10.783672
10.447502
10.518432
10.899901
10.009408
9.901524
9.794831
9.069443
9.801984
9.352565
9.863973
9.845495
9.581447
9.375811
10.096431
9.993911
11.099577
11.013746
11.786819
12.772679
14.089942
14.320612
16.874671
17.346740
18.731952
19.178987
20.028949
21.181703
19.804835
19.405484
20.517707
20.017624
19.839406
20.737648
19.952655
19.673705
20.455718
17.894506
19.566417
19.989610
20.384789
19.489527
19.692779
19.075871
18.737912
18.957853
19.530654
##ZVALUE=260
1.315475
1.289845
1.306534
1.257658
1.189709
1.342893
1.039505
1.539588
1.587868
1.461506
1.729727
3.067851
8.487701
36.835670
95.412731
240.568519
387.744904
621.333718
789.342523
940.810442
983.595848
929.103494
772.328973
596.702695
379.835963
255.326629
148.045421
99.336505
78.633428
86.518526
101.578832
130.418539
145.860910
155.721903
149.702430
137.667656
115.556717
84.522963
64.074993
42.025447
29.128790
20.671487
15.600920
12.974739
11.873841
12.201667
11.733770
10.364652
10.950565
9.837747
9.642839
9.719729
8.967519
9.052753
8.865595
8.161664
8.503795
8.160472
8.101463
8.312464
7.601976
7.653832
7.266998
7.378459
7.906556
8.731484
9.572506
10.189414
10.444522
10.731816
12.426972
12.989640
14.010668
14.990568
14.474988
15.673637
16.485453
16.140938
16.802549
16.349554
16.226768
15.765429
16.474724
17.578602
17.416477
17.304420
17.652512
17.645955
17.126799
17.940998
17.938614
18.356442
17.665625
19.316673
18.864870
17.226934
##ZVALUE=265
1.227856
1.062751
1.176000
1.259446
1.071692
0.959635
1.300573
1.188517
1.576543
1.225471
1.506805
1.535416
1.593828
2.280474
4.564524
22.082925
61.832666
171.989799
296.541452
530.324578
708.912015
855.889916
939.567685
919.053555
786.437988
649.471879
464.518666
326.502919
181.243420
114.971995
82.286000
71.507692
84.989667
112.833977
135.108829
151.453614
156.885982
149.394870
136.903524
110.509992
87.310672
60.562491
43.284893
26.599765
19.327998
13.611913
11.840463
10.976791
11.076927
10.150671
10.012984
10.193586
9.142756
8.808970
9.107590
8.474588
8.184910
7.965565
8.096695
7.462502
7.825494
7.547736
8.154511
7.565618
7.290840
7.837415
7.896423
8.257627
9.999871
10.492802
10.971427
11.408925
12.614727
13.140440
13.725758
13.903975
15.332699
14.337897
15.494823
14.072657
15.059710
14.164448
15.106797
15.173554
15.353560
15.939474
15.389919
15.159845
16.559958
15.388727
15.686750
16.819835
16.662478
15.992522
16.076565
16.827583
##ZVALUE=270
1.223683
0.964999
1.064539
1.160502
1.246929
1.033545
1.330972
1.230836
1.048446
1.219511
1.371503
1.405478
1.300573
1.452565
1.472831
2.002716
2.288818
10.556579
30.777454
94.024539
182.658434
305.228829
506.165624
654.449463
799.593925
843.815804
811.385512
730.579495
566.401482
417.488813
289.634466
154.431462
95.780492
62.361956
65.690875
89.131594
112.486482
137.235522
152.265429
158.928633
153.672695
134.607553
113.571882
84.137917
63.094497
38.271546
27.053952
17.092824
13.420582
10.296702
9.538531
8.807778
8.225441
8.282661
7.929802
7.602572
7.505417
7.448792
7.377863
7.328987
7.016659
7.274747
7.327795
7.124543
6.919503
7.619858
8.033514
8.177757
8.327961
9.142756
10.282993
9.735823
10.832548
11.582971
11.899471
11.697412
12.096763
12.378693
13.087988
13.419986
13.072491
13.955832
13.011694
13.692975
13.951659
13.750792
14.236569
14.316440
14.940500
15.261769
14.731884
14.707446
14.405847
15.377998
14.807582
15.860796
##ZVALUE=275
0.963807
1.074672
1.025796
0.894666
0.881553
0.960827
0.986457
1.082420
1.054406
1.039505
1.310706
1.188517
1.356602
1.075864
1.242757
1.491904
1.444817
1.777411
1.604557
4.593730
19.087791
51.051974
136.860609
242.761970
426.486731
561.636686
715.369582
801.949501
829.308033
780.927539
689.685941
511.217713
364.300609
199.483633
120.927691
64.240694
50.591826
62.449574
80.656409
110.327601
129.451752
152.577758
153.820515
147.378445
134.739876
104.930997
84.258914
58.218837
42.629838
24.627447
16.814470
10.495782
9.217858
8.019805
7.175803
7.299781
7.782578
7.196665
7.357597
7.425547
7.150769
7.275939
7.525682
7.373691
7.817745
7.761717
7.840991
8.070469
8.296967
8.849502
9.439588
9.502769
10.296702
10.654926
11.210442
11.755824
12.172461
12.321472
11.914968
12.088418
12.274981
13.532639
13.496876
13.301969
12.634993
13.625622
13.502836
13.479590
14.201999
13.242960
14.108419
13.881922
13.398528
14.093518
14.177561
13.909936
##ZVALUE=280
0.886917
0.961423
0.843406
0.818968
0.910759
1.039505
0.808835
0.995994
0.912547
0.910759
1.023412
1.178980
1.147985
1.143813
1.093745
1.380444
1.366735
1.366735
1.423955
1.417994
1.601577
2.157688
12.617707
40.301681
115.707517
201.645494
354.429483
495.863557
671.197772
788.721442
851.216912
846.450925
768.843889
590.533018
440.424681
256.455541
156.219602
76.585412
48.575997
42.043924
54.653883
81.993937
101.574659
127.162933
144.050717
148.353577
143.182874
126.770735
107.616782
79.023838
58.580637
37.049651
25.059581
15.217662
10.470748
7.459521
7.076859
6.889701
6.953478
7.270575
6.698966
7.135868
7.154942
7.771850
7.670522
8.113980
8.314848
8.116961
8.770823
9.417534
9.864569
9.696484
10.330677
10.794997
10.659695
11.872649
10.932684
11.589527
11.606812
12.283921
12.529492
12.189746
12.631416
12.432933
13.218522
12.872815
12.341738
12.611747
12.757778
13.373494
12.664795
12.266636
12.813807
13.444424
12.711883
12.350678
##ZVALUE=285
0.764728
0.871420
0.810623
0.842810
0.831485
0.982881
0.933409
1.001954
0.906587
0.996590
0.866652
0.939965
0.943542
0.964999
0.812411
0.934601
0.986457
1.071692
1.195669
1.329780
1.409650
1.325607
1.639724
1.837611
5.550981
19.871593
65.734982
129.255652
261.489749
399.826765
549.569726
732.076764
839.836597
892.931819
839.785933
685.339570
540.785789
336.075425
210.425854
103.666782
56.614876
31.719804
34.182668
52.667856
72.188973
101.854801
118.810534
136.792660
144.835711
138.987899
126.944780
104.163885
84.367990
57.572722
39.744973
23.022890
15.504956
10.193586
8.070469
7.366538
7.167459
6.847978
6.917715
7.654428
7.798672
7.962584
8.047819
8.351803
8.796453
9.236932
9.821653
10.302663
10.249615
10.863543
11.073947
11.734962
11.218786
11.445880
11.421442
12.516975
12.085438
12.401938
12.194514
12.594461
12.380481
12.248755
11.974573
12.421608
12.453794
12.356639
12.819767
12.750626
12.822747
12.836456
12.598634
12.565851
##ZVALUE=290
0.754595
0.804663
0.711679
0.556707
0.781417
0.648499
0.744462
0.794530
0.802875
0.848770
0.708699
0.791550
1.018643
1.007915
0.905991
0.874996
1.083612
1.156926
1.006722
1.059771
1.113415
1.243949
1.430511
1.534820
1.481771
1.535416
2.102852
9.532571
29.353499
86.552501
161.024928
321.620703
471.651554
678.898692
802.055597
904.817581
891.118646
768.576860
631.948709
432.426929
290.036798
150.210857
80.936551
34.242868
24.841428
34.571886
47.041774
70.187449
89.574456
116.983652
130.795836
138.877630
137.525797
120.953918
103.507638
77.371597
57.490468
37.672520
25.727749
15.408993
11.033416
8.224845
7.730722
7.783771
7.437468
8.290410
8.415580
8.845925
8.944869
9.135604
9.624958
10.549426
10.730624
10.883808
11.265874
11.286736
11.713505
11.675954
11.761785
11.583567
11.608601
11.876822
12.272596
12.333989
12.058616
12.263656
12.429953
12.557507
12.419820
12.194514
12.509823
12.548566
12.411475
12.814999
12.614727
12.551546
##ZVALUE=295
0.790954
0.773668
0.838637
0.748634
0.889897
0.626445
0.829697
0.795722
0.881553
0.758767
0.637770
0.780821
0.943542
0.844598
0.932813
0.723600
0.948906
0.964999
0.925660
1.222491
1.093745
1.321435
1.132488
1.086593
1.207590
1.253486
1.330972
1.345873
1.772642
3.009439
9.854436
42.361617
95.596910
226.407647
365.474820
586.850643
742.881894
890.581608
918.803811
833.657980
714.721680
504.433513
348.717570
183.407664
98.958611
38.293600
22.322536
20.356774
28.315783
45.611858
62.449574
87.817907
106.681585
125.544667
132.766962
129.019618
117.872953
96.621513
79.471469
54.436922
38.925409
24.381876
16.654730
11.803508
9.320974
8.555651
8.151531
8.782744
9.330511
9.322762
9.384751
10.442734
10.416508
10.859966
11.114478
11.021495
11.585951
11.765957
11.937618
11.317730
11.591911
11.504889
12.009740
12.425780
12.488961
12.145638
12.409687
12.154579
12.398958
12.294650
12.322664
11.975765
11.922717
12.009740
12.354851
11.905432
##ZVALUE=300
0.693798
0.702739
0.816584
0.818968
0.823736
0.668764
0.748634
0.821948
0.795722
0.788569
0.882745
0.825524
0.710487
0.839829
0.770688
0.855923
0.896454
0.805855
0.871420
0.963807
1.046658
0.880957
1.134872
1.049638
1.005530
1.197457
1.246929
1.407862
1.396537
1.466870
1.637936
1.786947
6.581545
22.602677
74.477792
145.199895
301.027894
464.548469
680.803657
815.570951
914.647579
903.306007
772.547722
626.458526
408.724546
260.840654
131.803751
70.372820
27.761459
16.175508
17.801523
25.205612
40.405989
57.114959
82.413554
99.426508
118.941665
125.597715
124.905705
115.696788
95.036626
78.696609
55.443645
40.865541
25.222898
18.054843
12.061000
9.946823
8.851886
9.246469
9.712577
9.861588
10.037422
10.242462
10.792613
10.760427
11.155605
11.745691
11.849999
12.027621
11.969805
12.287498
12.027621
11.988878
12.221932
12.328625
12.371540
12.567639
12.332797
12.396574
12.261868
12.015700
12.067556
11.636615
12.012720
12.293458
##ZVALUE=305
0.738502
0.636578
0.702739
0.690818
0.728965
0.794530
0.680685
0.713468
0.708699
0.716448
0.731945
0.791550
0.664592
0.819564
0.698566
0.761747
0.796914
0.830889
0.816584
0.749826
0.854731
0.812411
0.889897
0.803471
0.939965
1.093745
1.165867
1.016855
1.112819
1.393557
1.437664
1.444817
1.565814
1.845956
2.800822
14.917850
41.319728
113.767982
206.673741
389.002562
549.781919
752.344728
874.562860
914.767981
849.749446
672.562718
512.299538
311.238766
191.672444
87.628961
43.511987
17.344952
12.061000
16.471744
23.753643
39.267540
55.421591
79.269409
95.727444
112.582445
119.311810
118.182898
110.358000
92.315674
75.849891
52.206516
38.474798
25.277734
18.263459
12.193918
11.148453
10.331869
9.937882
10.200739
10.341406
10.600686
10.665655
11.421442
11.564493
11.413693
11.710525
12.075901
11.938810
12.247562
12.503862
12.282729
12.226701
12.641549
12.484789
12.323856
12.645721
12.266636
11.999607
11.832714
12.158751
12.027621
##ZVALUE=310
0.553727
0.630617
0.410676
0.652671
0.601411
0.657439
0.656843
0.518560
0.624657
0.713468
0.751615
0.620484
0.840425
0.750422
0.584722
0.537634
0.669956
0.748634
0.675917
0.630617
0.727773
0.858903
0.777841
0.818968
0.807643
0.901818
0.804663
0.683665
1.037717
1.137853
0.978708
1.017451
1.180768
1.376867
1.281500
1.255870
1.885891
6.473660
21.011829
68.123937
135.471821
280.283689
424.355865
626.219511
759.927034
869.458914
856.107473
766.190886
635.299683
430.683494
289.118886
141.886473
75.056553
27.007461
13.444424
10.695457
13.985634
22.405982
31.802654
51.094890
67.330599
88.288784
101.400614
112.146735
112.525821
104.672909
93.398690
73.390603
56.698918
37.493706
27.681589
18.437505
14.169812
11.314750
10.691881
10.147691
10.572672
10.540485
10.633469
11.123419
11.040568
11.636615
11.561513
12.010932
11.901855
12.420416
12.079477
12.319684
12.221932
11.736751
11.969805
11.873841
11.805892
11.871457
11.293888
11.451840
##ZVALUE=315
0.706911
0.708699
0.673532
0.674725
0.637770
0.575781
0.608563
0.680685
0.718832
0.491738
0.686646
0.606775
0.662804
0.639558
0.704527
0.765920
0.834465
0.706911
0.721812
0.739694
0.727773
0.754595
0.708699
0.743866
0.780821
0.814795
0.824928
0.908971
1.037717
0.993609
0.936985
1.015663
0.946522
1.187921
1.261830
1.219511
1.221895
1.291633
1.507998
2.933741
10.573864
43.341517
94.183683
211.623907
341.547728
547.392964
678.054690
801.817775
836.501718
772.947669
667.703748
480.032563
340.147614
180.540681
99.538565
37.567616
16.891956
9.364486
9.851456
13.988614
19.112825
32.091737
44.748783
64.742565
79.934597
98.607540
106.544495
107.728839
101.431608
85.721612
71.192980
53.122640
39.904714
26.032925
19.184947
13.788939
11.992455
11.248589
11.058450
11.101961
10.914803
11.462569
11.647940
11.837482
11.656880
11.518598
11.467934
11.980534
11.580586
12.152791
11.591911
11.641979
11.826754
11.657476
11.516809
11.495948
##ZVALUE=320
0.646710
0.629425
0.712872
0.634789
0.644922
0.622869
0.468493
0.521541
0.579953
0.692606
0.740886
0.664592
0.710487
0.614524
0.868440
0.622869
0.741482
0.735521
0.646710
0.683665
0.661612
0.627637
0.746846
0.844598
0.997782
0.804663
0.784993
0.867844
0.853539
0.744462
0.837445
0.778437
0.954866
1.017451
1.049638
1.109838
1.142621
1.025796
1.305938
1.312494
1.522899
1.842976
5.299449
26.359558
63.265562
157.904625
261.423588
436.587930
577.967763
742.504001
818.001032
816.543698
739.325881
563.154817
413.771868
231.034756
133.806467
56.413412
26.186705
10.596514
8.592606
9.462833
12.218952
18.896461
27.455688
43.108463
57.504773
76.813698
89.934468
100.766420
102.271438
95.272660
85.893869
66.760778
52.906871
36.224723
27.165413
18.909574
14.672875
12.079477
11.771917
11.934638
11.391640
11.714697
11.668801
11.830926
11.552572
11.535883
11.497736
11.350513
11.637807
11.663437
11.690855
11.108518
11.503696
11.076927
##ZVALUE=325
0.569820
0.432730
0.572801
0.603795
0.563860
0.667572
0.657439
0.705719
0.625849
0.559688
0.670552
0.526905
0.722408
0.575781
0.695586
0.818968
0.807643
0.639558
0.573993
0.674725
0.706911
0.659823
0.680685
0.792742
0.641942
0.681877
0.811815
0.750422
0.774860
0.840425
0.843406
0.891685
0.864863
0.847578
0.889897
1.012683
0.993609
1.132488
1.071692
1.072884
1.153946
1.384616
1.456738
1.347661
3.521442
12.096763
45.960546
94.335675
209.028721
333.650708
526.471734
659.753680
791.556835
823.028684
759.176612
642.144680
439.825654
302.105546
158.954859
86.999536
32.466650
15.099645
8.213520
7.895827
9.258986
11.635423
17.910600
26.840568
42.848587
56.835413
76.075792
87.546706
96.421838
96.221566
90.426803
80.679655
64.249635
50.497651
34.634471
25.856495
17.405748
14.646649
12.532473
11.710525
11.546612
11.504889
11.662841
11.559725
11.424422
11.162758
11.487603
11.148453
11.617541
11.407733
10.889769
11.011958
##ZVALUE=330
0.593662
0.588894
0.519753
0.635982
0.627637
0.662804
0.678897
0.590682
0.598431
0.693798
0.654459
0.678897
0.643730
0.599623
0.703931
0.694990
0.603795
0.688434
0.706911
0.610948
0.638962
0.576973
0.707507
0.595450
0.717640
0.699759
0.762939
0.609756
0.754595
0.699759
0.890493
0.808835
0.708699
0.809431
0.866652
0.846982
0.845790
0.954866
1.069903
0.911951
0.903606
1.096725
1.148582
1.280904
1.353621
1.367927
1.993775
5.513430
25.626421
63.231587
155.316591
259.149671
431.612730
568.176508
715.301037
779.135823
747.681856
661.970973
495.434999
361.898541
199.991465
114.351511
48.490763
22.152662
9.448528
7.769465
7.810593
8.905530
12.580752
17.483830
28.203726
38.506985
55.151582
68.236589
82.270503
89.557767
91.283917
86.058974
73.234439
61.705709
44.876933
34.752488
25.365949
19.602776
15.169978
12.956858
11.647940
11.594892
11.077523
10.897517
11.266470
10.981560
10.859966
10.706782
10.685921
10.922551
##ZVALUE=335
0.726581
0.705719
0.510812
0.700951
0.564456
0.755787
0.565648
0.631809
0.574589
0.535846
0.627637
0.583529
0.549555
0.566840
0.560880
0.541806
0.531673
0.589490
0.568628
0.675917
0.581741
0.687838
0.708699
0.636578
0.943542
0.794530
0.671744
0.713468
0.606775
0.759959
0.513792
0.811815
0.678897
0.688434
0.784993
0.735521
0.887513
0.829697
0.875592
0.828505
0.845790
0.942945
0.988841
0.847578
0.940561
1.213551
1.045465
1.276731
1.398921
3.447533
11.392832
43.423772
91.974735
204.073787
331.054926
515.767932
642.610788
742.829442
757.067800
681.594014
571.482778
394.693017
267.745852
141.291618
73.750615
26.845932
12.981892
8.092523
7.472634
7.721782
8.940697
11.855960
16.379952
26.515722
36.978722
52.976608
65.118670
78.155994
85.061789
85.709691
80.853701
68.974495
58.202744
45.820475
35.843849
25.487542
19.292831
14.773607
13.201833
11.415482
10.846853
10.220408
10.676980
10.756850
10.366440
10.248423
##ZVALUE=340
0.532866
0.561476
0.544786
0.737906
0.570416
0.598431
0.657439
0.540614
0.616908
0.573993
0.767708
0.562668
0.579953
0.657439
0.626445
0.544786
0.626445
0.610948
0.656843
0.733733
0.664592
0.628829
0.658631
0.750422
0.567436
0.688434
0.724792
0.666976
0.660419
0.679493
0.781417
0.728965
0.754595
0.806451
0.763535
0.880957
0.894666
0.871420
0.932813
0.760555
0.932813
0.872612
0.913739
0.846982
0.960827
0.998974
1.129508
1.106858
1.200438
1.366735
1.315475
1.796484
5.763769
27.674437
66.166520
161.785483
269.048810
441.909432
573.544502
709.246993
750.093460
711.739659
623.096824
457.907915
320.562720
166.763663
92.300773
38.563609
17.341971
8.704662
7.962584
7.904768
8.314848
9.702444
11.974573
17.672777
24.670959
37.249923
47.739744
63.024759
73.231459
80.324411
80.510974
74.982643
68.508983
55.537820
44.971704
33.235550
25.816560
18.723607
14.976859
12.001991
10.906458
10.481477
10.447502
10.144711
##ZVALUE=345
0.537634
0.447631
0.532866
0.418425
0.531673
0.379682
0.622869
0.498891
0.643730
0.649691
0.499487
0.694990
0.618696
0.642538
0.476837
0.585914
0.565648
0.652671
0.593662
0.593662
0.513792
0.704527
0.636578
0.604987
0.687838
0.604987
0.705719
0.722408
0.649691
0.774860
0.739694
0.662804
0.822544
0.743866
0.648499
0.654459
0.752807
0.818968
0.779629
0.691414
0.676513
0.776649
0.805855
0.926852
0.821948
0.868440
0.987649
1.008511
1.117587
1.217723
1.184940
1.060963
1.299977
1.439452
3.255606
11.730790
47.922730
98.771453
209.859014
328.489542
515.048504
638.460517
746.033788
764.307976
684.785843
562.039614
381.901860
248.198509
112.808943
55.412650
20.266771
10.829568
8.030534
7.666945
7.739663
8.093715
8.787513
10.888577
16.017556
22.543669
34.180880
44.150949
56.342483
65.177679
73.009729
74.803829
71.211457
65.386891
54.088831
44.350624
32.677650
25.403500
18.298626
14.086962
11.771917
10.957718
##ZVALUE=350
0.456572
0.580549
0.485778
0.532866
0.426769
0.493526
0.680685
0.563860
0.542998
0.558496
0.314713
0.484586
0.486970
0.521541
0.471473
0.567436
0.581741
0.529885
0.551939
0.737906
0.613928
0.683665
0.583529
0.612736
0.632405
0.703931
0.643730
0.682473
0.635982
0.760555
0.597835
0.705719
0.765920
0.837445
0.705719
0.773668
0.744462
0.631809
0.548959
0.738502
0.905991
0.827909
0.774860
0.777841
0.895858
0.784993
0.785589
0.872612
1.002550
0.835657
0.993609
0.967979
1.017451
1.171827
1.177788
1.295805
1.755953
7.665753
23.488402
73.379874
137.592554
272.289515
392.389894
545.963645
645.810962
701.864958
677.984953
570.116639
440.679789
263.529420
161.898732
76.017976
35.628676
12.542605
8.129478
7.417798
7.535815
7.339716
7.579923
8.494854
10.937452
15.296936
20.848513
29.804707
38.092732
50.713420
58.842897
66.189766
68.539977
66.804886
60.994625
50.598979
41.799545
30.559897
23.836493
17.850995
##ZVALUE=355
0.617504
0.525713
0.613928
0.664592
0.625849
0.526905
0.605583
0.603795
0.698566
0.554919
0.399947
0.536442
0.574589
0.501871
0.447631
0.786781
0.639558
0.670552
0.531673
0.487566
0.598431
0.592470
0.683665
0.746846
0.625849
0.629425
0.453591
0.538826
0.624657
0.624657
0.650883
0.666976
0.585914
0.589490
0.728965
0.706911
0.682473
0.708699
0.694990
0.645518
0.726581
0.703931
0.735521
0.675917
0.613928
0.721812
0.736713
0.733733
0.816584
0.909567
0.870824
0.881553
0.805855
0.847578
1.008511
1.144409
1.237988
1.312494
1.403689
2.805591
15.202761
40.267706
106.305480
191.025734
344.208479
463.250875
597.926974
662.949681
657.970905
583.924651
434.863567
319.846869
183.345675
103.347898
40.443540
18.767715
8.545518
7.098913
6.878972
6.842613
6.899834
7.370710
8.077621
9.636879
13.377666
17.645955
25.846958
33.934712
44.947863
52.245855
60.286522
62.596798
60.172677
55.977702
46.981573
40.323734
##ZVALUE=360
0.373721
0.534654
0.637770
0.551939
0.557899
0.542998
0.515580
0.590682
0.583529
0.637770
0.599623
0.474453
0.676513
0.512600
0.459552
0.537634
0.524521
0.459552
0.608563
0.540614
0.708699
0.560880
0.633597
0.528693
0.546575
0.653863
0.690818
0.557899
0.721812
0.642538
0.505447
0.532866
0.575781
0.496507
0.682473
0.688434
0.633597
0.573993
0.688434
0.706911
0.618696
0.669956
0.760555
0.755787
0.728965
0.809431
0.727773
0.739694
0.831485
0.759959
0.824928
0.793934
0.812411
0.854731
1.074672
0.914931
0.955462
1.180768
1.111627
1.209974
1.365542
2.075434
5.593896
25.114417
57.939887
142.959952
241.176486
401.377678
516.047478
622.690916
648.923516
600.557923
512.103438
354.668498
239.155889
118.245482
63.421726
24.143457
11.358857
7.124543
6.552935
6.436706
6.356835
6.377697
6.645918
7.345676
8.453727
10.980964
14.636517
21.109581
28.367639
38.023591
44.683814
52.304864
55.968761
56.397915
##ZVALUE=365
0.634789
0.453591
0.519753
0.622869
0.499487
0.526905
0.609756
0.611544
0.615716
0.561476
0.542998
0.568628
0.451803
0.587702
0.537634
0.439882
0.516772
0.595450
0.550747
0.503659
0.666976
0.705719
0.472665
0.522733
0.579953
0.648499
0.653863
0.651479
0.461936
0.647902
0.603795
0.621676
0.593662
0.559688
0.671744
0.687838
0.685453
0.628829
0.635982
0.634789
0.644922
0.737906
0.649691
0.541806
0.714660
0.791550
0.830889
0.675917
0.750422
0.664592
0.842810
0.833869
0.795722
0.837445
0.835657
0.944734
0.916719
0.960827
1.100898
1.052618
1.204610
1.211762
1.331568
1.368523
3.087521
10.997653
41.311979
88.713765
201.821923
311.473608
460.174680
567.647815
630.363822
632.007718
546.695590
430.917740
279.129744
174.679756
77.386498
37.690997
13.259649
7.570982
6.228685
5.979538
6.068945
5.934834
5.897880
5.938411
6.465912
7.029772
9.461641
12.272596
17.918944
23.914576
32.480955
39.085746
##ZVALUE=370
0.606775
0.653863
0.468493
0.567436
0.439882
0.440478
0.503659
0.613928
0.554919
0.541806
0.499487
0.569820
0.590682
0.466704
0.582933
0.616908
0.500679
0.621676
0.577569
0.484586
0.603795
0.701547
0.580549
0.707507
0.549555
0.600815
0.539422
0.609756
0.534654
0.508428
0.608563
0.598431
0.646710
0.555515
0.621676
0.534654
0.593662
0.660419
0.637770
0.639558
0.599623
0.657439
0.601411
0.553727
0.393987
0.745654
0.451803
0.711679
0.638962
0.651479
0.712872
0.748634
0.693798
0.713468
0.684857
0.935793
0.781417
0.770688
0.883937
0.805855
0.839829
0.843406
1.062751
0.988841
1.201630
1.388788
2.029538
5.789995
28.687716
67.634583
157.480836
248.853564
394.800901
506.599545
600.686669
622.076988
562.362671
466.014743
312.990546
206.926465
97.226501
51.262975
20.245910
9.974837
6.109476
5.619526
5.494952
5.373955
5.547404
5.415678
5.641580
5.878806
6.791949
8.215904
11.302829
14.864802
##ZVALUE=375
0.524521
0.431538
0.492930
0.510812
0.535846
0.371933
0.537634
0.620484
0.639558
0.526905
0.384450
0.396967
0.513792
0.482798
0.518560
0.564456
0.554919
0.541806
0.523925
0.423789
0.583529
0.590682
0.612736
0.612736
0.563860
0.520945
0.572801
0.561476
0.584722
0.644922
0.608563
0.515580
0.512600
0.590682
0.648499
0.580549
0.748634
0.589490
0.540614
0.634789
0.567436
0.615716
0.671744
0.547767
0.677705
0.597835
0.646710
0.698566
0.736713
0.659823
0.611544
0.599623
0.617504
0.611544
0.645518
0.761747
0.856519
0.753999
0.780821
0.773668
0.981688
0.726581
0.907779
0.816584
0.929832
1.047850
1.073480
1.165867
1.387596
3.584623
12.130737
44.839978
93.651414
205.509663
314.838886
469.216704
558.847785
616.782904
600.094795
501.492620
393.230915
241.351724
149.393678
69.694519
35.380721
13.008714
6.947517
5.418658
5.102754
5.151629
5.447865
4.987717
5.164742
5.255938
5.490780
5.946755
##ZVALUE=380
0.445843
0.384450
0.479817
0.491738
0.568628
0.418425
0.490546
0.565648
0.515580
0.565648
0.465512
0.564456
0.665784
0.466704
0.552535
0.619888
0.518560
0.468493
0.522733
0.511408
0.553727
0.573993
0.516772
0.581741
0.675917
0.607967
0.498891
0.491738
0.347495
0.499487
0.564456
0.568628
0.504851
0.618696
0.710487
0.508428
0.572801
0.691414
0.608563
0.407696
0.443459
0.615716
0.643730
0.629425
0.493526
0.527501
0.619888
0.653863
0.568628
0.562668
0.616908
0.707507
0.647902
0.683665
0.759959
0.591874
0.670552
0.658631
0.630617
0.817776
0.793934
0.668764
0.756979
0.762939
0.633597
0.971556
0.785589
1.072884
1.268983
1.159906
1.302958
2.115965
6.944537
31.030774
72.088838
164.933801
265.570879
411.291718
519.678593
614.133477
618.060827
537.599921
442.087650
308.439732
206.502676
100.709796
52.754879
19.480586
9.325743
5.485415
5.057454
5.132556
4.853606
4.849434
4.994869
4.871488
##ZVALUE=385
0.479817
0.443459
0.570416
0.529885
0.446439
0.501871
0.615716
0.544786
0.412464
0.503659
0.489950
0.546575
0.563860
0.426769
0.421405
0.522733
0.635982
0.515580
0.301600
0.636578
0.480413
0.678897
0.624657
0.566840
0.569820
0.549555
0.569820
0.544786
0.599623
0.465512
0.673532
0.668764
0.489950
0.630617
0.503659
0.428557
0.467896
0.550747
0.573993
0.626445
0.664592
0.528693
0.608563
0.666976
0.529885
0.689626
0.617504
0.478625
0.650883
0.577569
0.619888
0.614524
0.643730
0.682473
0.666976
0.685453
0.694990
0.680685
0.628829
0.609756
0.688434
0.741482
0.554919
0.841618
0.770688
0.816584
0.839829
0.841618
0.792742
0.980496
1.078844
1.126528
1.196861
1.523495
3.506541
17.943978
45.597553
114.005804
198.664665
345.835686
460.024476
577.571988
611.513853
579.534769
507.347584
370.808840
264.692903
144.186616
82.223415
34.352541
15.090704
5.985498
5.051494
4.478693
4.543662
4.615784
##ZVALUE=390
0.679493
0.688434
0.798702
0.689626
0.534654
0.809431
0.810623
0.715852
0.602603
0.791550
0.724792
0.662804
0.646710
0.765920
0.648499
0.585914
0.847578
0.816584
0.657439
0.805855
0.616908
0.816584
0.735521
0.646710
0.836849
0.764728
0.727773
0.677705
0.743866
0.784993
0.753999
0.729561
0.794530
0.753999
0.764728
0.707507
0.751615
0.696778
0.733733
0.895858
0.696778
0.775456
0.787973
0.732541
0.810623
0.793934
0.876784
0.866652
0.954866
0.931621
0.813603
0.883937
0.838637
0.795722
1.058578
0.903606
0.984669
0.914931
0.867844
0.814795
0.809431
0.970960
0.893474
1.050830
1.011491
1.156926
1.105666
1.189709
1.171827
1.173615
1.333952
1.202822
1.447797
1.408458
1.325607
1.404881
1.995564
9.790659
29.397607
86.341500
161.021948
298.137665
405.832529
527.571440
593.775511
611.393452
563.069582
444.920659
339.973569
205.805898
120.544434
49.631000
23.434758
8.095503
5.133748
4.546642
##ZVALUE=395
0.446439
0.521541
0.497699
0.485778
0.404716
0.483990
0.329614
0.488758
0.537634
0.444651
0.504851
0.450611
0.483990
0.414848
0.526905
0.487566
0.599623
0.493526
0.437498
0.534654
0.432730
0.454783
0.417829
0.491738
0.396967
0.601411
0.504851
0.629425
0.582933
0.631809
0.403523
0.694990
0.608563
0.667572
0.652671
0.477433
0.556707
0.527501
0.612736
0.707507
0.623465
0.577569
0.514984
0.352859
0.795722
0.633597
0.568628
0.577569
0.579953
0.644922
0.589490
0.805855
0.664592
0.630617
0.505447
0.622869
0.525713
0.589490
0.600815
0.687838
0.595450
0.750422
0.751615
0.712872
0.566840
0.853539
0.780821
0.679493
0.728965
0.790954
0.897646
1.002550
1.034737
1.111627
1.087785
1.100898
0.950694
1.048446
1.226664
5.057454
17.823577
60.106516
117.541552
232.288837
338.191986
481.940508
569.138527
622.726679
604.047775
511.311889
403.205752
249.513984
158.927441
74.510574
36.236644
12.674928
##ZVALUE=400
0.486970
0.443459
0.370741
0.495911
0.414848
0.433922
0.329614
0.391603
0.540614
0.481606
0.554919
0.522733
0.345707
0.386834
0.504851
0.435710
0.479817
0.503659
0.583529
0.511408
0.525713
0.499487
0.522733
0.408888
0.419617
0.478625
0.457764
0.525713
0.597835
0.565648
0.531673
0.536442
0.494719
0.415444
0.574589
0.586510
0.511408
0.431538
0.554919
0.481606
0.520945
0.633597
0.549555
0.579953
0.517964
0.589490
0.396967
0.661612
0.457764
0.582933
0.671744
0.682473
0.675917
0.502467
0.543594
0.485778
0.646710
0.700951
0.735521
0.602603
0.587702
0.617504
0.672936
0.860691
0.725985
0.651479
0.786781
0.902414
0.816584
0.855923
0.994802
0.996590
0.864863
0.871420
0.807643
0.933409
0.814795
1.027584
1.024604
1.031756
1.303554
2.961755
10.156631
38.418770
80.133677
175.057650
275.841951
423.046947
521.570444
601.627827
614.411831
538.206697
444.986820
304.237604
201.512575
102.045536
##END
