##TITLE=FQP00352
##FORMAT=SPECTACLE-ASCII V-1.2
##DATA TYPE=ULTRAVIOLET SPECTRUM
##SECOND TYPE=ULTRAVIOLET SPECTRUM
##DATE=02/08/18
##TIME=15:55:57
##SPECTROMETER/DATA SYSTEM=SPECTACLE
##XUNITS=NM EM
##YUNITS=ENERGY
##YFACTOR=1
##FIRSTX=220
##LASTX=410
##NPOINTS=96
##3DDATA=Equidistant
##ZUNITS=NM EX
##FIRSTZ=210
##LASTZ=400
##ZPOINTS=39
##XYDATA=(Y..Y)
##ZVALUE=210
2.408624
2.044439
2.453923
2.785921
2.420545
2.478957
2.280474
2.353787
2.243519
2.124906
2.602935
2.102852
2.321601
2.429485
2.499819
2.046824
1.962781
2.359748
3.018975
2.544522
2.891421
2.992749
3.316998
3.669858
3.689528
3.546476
3.714561
4.132986
3.745556
4.392862
4.902482
4.732609
5.398989
4.884601
5.761981
5.533695
5.093813
5.424619
5.632639
5.248785
5.543828
5.881786
5.422831
4.863739
5.864501
5.076528
4.922748
4.970431
4.862547
4.848838
4.640818
4.615784
4.719496
4.215837
4.293919
4.329681
3.804564
4.281998
4.140735
4.287958
4.450679
3.668666
4.167557
3.962517
4.173517
4.886985
4.106760
5.071759
5.703568
5.327463
5.777478
7.833838
8.904934
8.905530
9.672642
8.679628
10.809898
9.559989
9.534955
9.468794
9.200573
8.099675
7.294416
6.318688
6.060600
4.867911
4.813671
4.500747
4.472733
3.702641
4.536510
4.439950
4.949570
4.406571
4.786849
5.471706
##ZVALUE=215
6.128550
6.703734
5.636811
4.352927
4.492998
4.557967
4.246831
5.210638
5.491972
4.996657
4.539490
5.225539
3.818870
3.562570
3.009439
2.293587
2.352595
2.624989
2.682805
2.779961
3.100634
3.130436
3.229976
3.266931
3.683567
3.742576
4.735589
5.191565
6.542802
7.658601
7.023811
8.635521
7.719994
8.499622
8.083582
8.324981
8.995533
9.391904
8.297563
7.960796
7.661581
7.587671
7.180572
6.831884
7.102489
6.537437
6.002784
5.716681
5.795956
5.474687
5.473495
5.407929
5.264878
5.458593
5.728602
4.999638
4.643798
4.695654
4.352927
4.438758
4.685521
5.003810
4.657507
4.779696
5.848408
4.654527
4.308820
4.965663
5.718470
6.507635
6.965995
7.499456
8.018613
9.441972
10.180473
9.683967
9.612441
9.988546
8.365512
9.585619
8.369684
6.761551
7.998943
6.378889
5.460978
6.127954
5.168915
4.729629
4.406571
4.735589
4.422665
4.688501
3.493428
4.418492
4.938841
4.369617
##ZVALUE=220
17.797947
18.661618
20.202994
18.375516
16.933680
13.877749
12.093782
10.292530
11.243820
10.887980
11.280775
11.606812
11.794567
10.691881
8.382797
7.414818
5.367994
3.550649
4.051924
2.343655
3.595948
2.968907
3.864765
4.208684
4.837513
4.944801
5.698800
7.643700
8.424520
10.348558
11.011958
12.656450
13.206601
15.377998
14.055967
14.756918
13.813972
14.194846
13.999939
12.214780
13.022423
11.957884
11.178851
11.194944
9.730458
9.984970
9.459853
8.762479
8.347631
7.597804
7.060766
7.144809
8.811951
6.821752
6.608963
5.682707
5.876422
6.558895
6.112456
5.404949
5.871654
5.418658
5.622506
6.221533
5.677938
5.719662
6.058812
7.039905
5.913973
7.555485
7.781982
8.074641
9.259582
9.055734
10.466576
9.618998
10.157824
10.094643
9.444952
9.404421
8.985996
9.007454
9.322762
7.031560
6.915927
5.859733
6.086826
5.309582
5.417466
5.707741
5.469918
5.222559
5.282760
5.199909
4.817843
5.286932
##ZVALUE=225
34.073591
34.348965
44.391751
55.297613
59.878826
56.801438
53.141713
44.456720
33.096671
26.920438
23.101568
22.473931
23.622513
25.167465
26.596785
24.510622
20.656586
14.832616
11.110902
7.308722
5.475879
4.457831
3.759861
4.458427
4.436970
5.598664
7.088780
8.704662
10.308623
12.382865
12.941957
15.981793
16.434789
19.386411
18.715858
17.152429
19.333959
18.601418
18.972754
17.815828
17.364621
16.183853
15.650988
13.607740
14.236569
12.442470
12.563467
11.254549
11.179447
10.449886
8.474588
10.296702
9.603500
8.621812
8.691549
7.676482
8.841753
8.081794
8.013844
8.048415
7.482767
7.501841
7.638931
8.507967
7.172823
8.233786
7.700920
7.626414
9.445548
10.136962
7.855892
10.166764
9.731650
11.145473
11.400580
11.892915
10.801554
11.422634
10.516644
10.478497
9.568930
9.585619
10.042787
8.987784
7.755756
7.708669
8.414984
6.391406
7.417798
8.776784
7.609725
7.751584
7.149577
7.462502
6.914735
6.977916
##ZVALUE=230
30.356646
33.153892
47.515631
85.434914
107.073784
131.675601
140.466690
135.712624
127.655864
108.430982
77.299476
59.376955
45.334697
43.742657
42.343736
46.483874
50.387979
47.760606
40.779710
34.744740
26.805997
16.453862
11.728406
8.879900
6.629825
7.009506
7.551908
9.597540
9.938478
11.050701
14.032722
14.499426
14.776587
16.724467
19.586682
17.550588
19.194484
18.509626
16.646981
17.816424
17.991662
15.297532
16.879439
14.479756
15.445948
14.152527
13.653636
12.439489
10.442734
11.459589
11.927485
11.929870
9.811521
9.932518
10.635853
9.866953
11.104941
9.282827
9.382963
10.166764
9.950995
9.782910
9.654760
9.929538
9.027719
10.028481
8.659959
10.715723
10.046959
11.084676
12.034774
12.841821
13.354421
12.710690
14.000535
14.725924
14.056563
15.074611
13.237596
13.456941
14.022589
12.469888
13.188720
12.939572
13.192892
11.146665
11.221766
11.375546
11.622906
10.603666
11.684895
10.523796
10.789633
11.215806
9.970665
9.524822
##ZVALUE=235
11.647940
13.838410
26.331544
64.983964
95.685720
147.417784
199.947953
253.619552
278.956890
280.393958
244.289637
204.165578
144.449472
107.402802
76.407790
69.673657
73.090792
79.403520
83.764791
82.064867
78.553557
63.512921
52.341819
34.994483
25.867820
16.403794
12.072921
9.908676
9.172559
9.865761
11.691451
11.510849
12.232661
13.736486
13.406873
13.747811
15.300512
15.722513
14.610887
16.526580
14.445782
13.650656
14.415979
14.835000
13.207793
13.418794
13.606548
12.287498
11.849999
12.870431
13.278723
12.607574
12.414455
11.794567
11.524558
10.859966
12.014508
12.596846
11.015534
12.012720
11.330843
12.338758
12.030602
12.958646
12.236834
14.219880
11.473894
13.307929
13.880730
14.206767
14.673471
18.422604
17.682910
17.316937
19.860864
17.849803
20.375848
19.290447
17.610788
19.371510
16.713738
16.607642
17.043948
18.032789
17.677546
16.913414
17.503500
17.598867
15.876889
15.188456
16.015768
14.826655
16.339421
16.494989
15.713573
15.380979
##ZVALUE=240
2.135634
1.959801
6.476641
13.913512
39.537549
72.246790
146.826506
212.307572
310.190916
375.871658
418.428779
413.913727
383.161902
305.691957
236.597657
162.807703
117.936730
90.874434
89.284778
96.747875
109.541416
111.948848
106.159449
101.863742
79.893470
63.989758
46.841502
31.930804
21.534562
15.390515
13.487935
10.675788
10.923743
10.731816
11.552572
12.461543
13.200641
14.796853
14.321804
13.733506
14.901757
14.770627
14.545918
14.246702
14.491677
15.786886
14.632940
14.824867
12.954473
12.904406
13.346672
12.695789
13.254881
13.221502
12.754798
13.451576
12.691617
13.290644
13.162494
12.203455
12.463927
11.677742
13.446808
15.048981
15.037656
13.940930
14.727712
15.676618
15.706420
16.668439
16.875863
18.737912
19.955635
20.257831
20.512938
21.640658
22.779703
21.291971
20.604730
21.425486
22.561550
20.087957
20.158887
22.984743
22.128820
22.445917
19.806623
18.932819
19.739866
20.033717
19.618869
19.749999
18.557906
18.964410
18.836856
20.400882
##ZVALUE=245
1.700521
1.734495
1.803637
2.259612
3.601909
12.009740
30.131936
77.657700
132.995844
238.026977
325.263739
436.796546
489.152670
500.237942
479.030609
414.848924
315.621495
236.439705
149.894953
112.745762
93.634725
99.083781
113.710761
124.026537
128.223896
123.585463
113.855004
90.320706
74.163675
55.088997
38.477778
25.745630
18.103719
15.350580
13.799667
13.927817
13.769865
14.372468
14.621615
14.921427
15.778542
17.318726
16.169548
15.954971
16.219616
15.218854
15.804768
14.614463
15.653968
14.489889
13.966560
14.837980
13.609529
13.969541
12.706518
12.681484
12.308955
11.908412
12.272596
11.208653
11.640787
11.664629
11.800528
12.587905
12.257695
13.892651
14.124513
14.462471
15.380979
15.483499
17.325878
17.610788
18.108487
20.271540
19.488931
20.615458
21.234751
22.003651
20.850897
22.198558
20.992756
20.834804
21.715760
21.386743
21.215677
21.374822
20.107627
20.461679
20.603538
21.597743
20.540953
20.913482
20.545721
20.395517
20.559430
20.302534
##ZVALUE=250
1.423955
1.517534
1.829863
1.519918
1.733899
1.765490
2.832413
7.190704
27.305484
60.325861
136.353970
219.911933
308.280587
446.639657
520.094633
578.640699
568.066835
506.036878
418.883562
290.991664
202.498436
137.360692
94.621778
90.326667
107.641816
123.499632
134.854913
138.817430
135.312676
123.735666
108.831525
83.987713
64.334869
42.808652
30.503869
21.952987
19.843578
17.682910
17.914772
17.954707
17.929673
18.235445
17.402768
17.370582
18.361807
18.204451
15.479922
16.960502
15.618801
15.326738
14.857650
13.724566
14.257431
13.860464
12.399554
12.593865
12.163520
11.868477
11.777878
11.210442
10.062456
11.177659
10.629892
12.215972
10.859966
11.711717
12.492537
12.845993
13.254881
14.352798
14.896989
15.400648
17.316937
18.245578
16.864538
18.598437
17.926693
18.109679
19.233823
21.090508
20.022988
20.984411
21.264553
20.734668
19.858479
19.516945
19.761920
21.126866
20.862818
21.255612
19.642711
21.316409
19.696951
20.604730
18.462539
20.088553
##ZVALUE=255
0.949502
1.192689
1.155734
1.343489
1.281500
1.219511
1.511574
1.640916
2.026558
3.999472
19.071698
46.418905
89.100003
188.194513
286.617875
431.833863
534.252524
623.505712
643.778443
601.428747
523.294806
414.592624
260.374546
173.011422
100.514889
86.638927
90.167522
103.589892
128.799677
141.656995
151.949525
145.870447
138.765574
116.119981
93.380809
66.424608
49.097538
33.822656
26.698709
22.396445
21.998882
20.100474
19.215941
19.554496
19.580722
17.742515
16.626716
17.658472
16.386509
15.861988
15.525818
14.183521
13.837814
13.502836
12.531877
12.124777
12.005568
11.006594
11.516809
10.110736
10.207891
10.164976
10.295510
9.949803
10.600686
10.450482
11.079907
11.689663
12.445450
13.023615
13.844967
14.471412
15.227795
16.171932
17.155409
16.397834
16.941428
17.738938
17.300844
17.836690
17.254949
17.871857
17.938614
18.760562
18.617511
19.594431
19.129515
19.723773
18.297434
19.800663
18.802881
19.518733
18.881559
19.322634
18.563867
19.413829
##ZVALUE=260
1.286864
1.221895
1.257658
1.376867
1.375675
1.251698
1.464486
1.428723
1.382828
1.522899
1.885891
2.579689
6.775856
28.688908
62.059760
148.436427
243.902802
390.380621
506.854653
644.753575
703.888535
708.504915
617.231727
508.146882
344.008803
240.201950
144.491792
100.165606
81.507564
91.488957
111.414790
140.373707
155.083537
163.211823
162.614584
144.403577
126.490593
95.579624
75.889826
53.059459
41.469932
28.469563
25.447607
22.145510
21.319985
19.268990
19.089580
18.100739
18.535852
16.575456
16.597509
15.030503
14.418960
13.499856
13.501644
12.369752
12.416840
11.432767
10.721684
10.471940
10.336637
9.934902
10.146499
10.037422
10.304451
10.292530
10.564923
10.641813
10.991693
11.555552
12.688637
12.892485
13.700724
13.864636
14.602542
14.992952
15.603900
14.998913
15.429854
16.241670
16.170740
16.854405
17.594695
16.164780
16.696453
16.691685
17.388463
17.437935
17.628670
18.096566
18.062592
18.252730
17.539859
18.411875
17.691851
18.939972
##ZVALUE=265
1.162887
1.152754
1.201630
0.986457
1.405478
1.360774
1.286864
1.194477
1.459718
1.541972
1.629591
1.252890
1.474619
1.987815
4.387498
19.750595
46.270490
115.651488
197.560787
357.750654
500.062704
627.512932
749.809742
763.953924
701.109767
600.697994
448.122621
323.506594
190.289617
123.036504
88.710785
80.283880
96.086860
128.073692
151.476860
168.851614
168.527961
164.715648
147.743821
124.525428
102.965832
73.659420
55.182576
38.318634
29.648542
21.098852
20.286441
18.929839
17.883778
16.005635
16.256571
15.463829
13.979673
13.516545
12.838840
12.873411
11.856556
11.742711
10.608435
11.044741
10.255575
10.026693
9.972453
10.139942
9.760857
9.950995
9.773970
10.400414
11.386871
10.923743
11.707544
12.674928
12.869835
14.029741
14.626980
14.003515
14.156699
14.474988
15.744567
14.856458
15.027523
15.803576
15.904903
15.620589
15.771985
16.635656
15.751719
17.112494
16.142726
16.427636
16.773939
17.087460
17.406940
17.398596
18.100739
17.451644
##ZVALUE=270
0.991821
0.905991
0.983477
0.980496
1.164675
1.117587
1.155734
1.198649
1.208782
1.232624
1.460910
1.177788
1.309514
1.439452
1.487732
1.679659
2.205968
9.191632
25.873780
83.473921
158.162713
269.460678
460.781455
603.502989
756.412745
804.061890
786.079764
709.281564
562.641621
419.773459
297.181606
165.637732
108.543634
74.254870
77.510476
102.226734
125.303864
151.378512
166.020989
174.003839
165.458918
145.504475
123.184919
95.791817
72.389841
47.393441
36.133528
25.515556
20.007491
17.126799
15.895963
14.589429
14.382601
12.703538
12.239814
12.220740
12.155771
11.163950
11.024475
10.692477
10.734797
9.749532
10.226965
9.961724
9.837747
9.804964
9.977818
10.347962
10.998845
10.980964
11.732578
11.277795
12.592673
12.898445
13.168454
13.363957
13.818741
13.999939
14.536977
14.951825
14.352798
14.585853
14.560819
15.048981
15.410781
15.783906
16.028881
14.996529
15.503764
16.251802
15.831590
15.903711
15.575886
15.801787
16.147494
16.301870
##ZVALUE=275
1.296997
1.133680
1.096725
1.108646
1.135468
1.156926
1.036525
1.200438
1.222491
1.252890
1.164675
1.243949
1.240969
1.142621
1.428723
1.436472
1.573563
1.786947
1.641512
4.678965
16.303658
42.419434
119.812489
221.751928
403.771996
546.313524
704.498887
795.568824
835.265517
790.578723
659.195781
519.847870
372.868776
204.771757
125.029683
70.439577
60.275793
72.268844
91.708899
119.525790
138.803720
158.224702
163.230896
155.226588
142.246485
114.702582
94.084740
65.037608
47.663450
30.841827
22.255778
15.199780
13.135672
12.375712
11.220574
11.114478
10.369420
10.462999
10.250807
10.621548
9.932518
9.844899
10.496974
9.996891
9.871721
10.231733
10.464787
10.640621
10.956526
11.195540
11.798739
12.159944
12.132525
12.874603
13.429523
13.455749
13.288856
13.887882
13.866425
14.295578
14.830828
14.606714
14.088750
14.335513
14.965534
14.945865
15.013814
14.856458
15.365481
15.516877
14.703870
15.412569
15.705824
15.261769
14.779568
15.372634
##ZVALUE=280
0.899434
0.930429
1.059771
0.844598
1.037717
1.049638
1.003742
0.928640
0.829697
0.986457
1.125932
1.036525
1.222491
1.278520
1.168847
1.264811
1.165867
1.447797
1.198649
1.663566
1.574755
2.057552
10.057688
32.089949
95.758438
173.409581
320.196748
457.762480
649.007559
768.078566
840.684772
828.110576
750.476718
577.243567
426.037908
248.261690
148.670673
73.763728
47.904849
46.097636
60.848594
85.567832
108.644962
134.096742
147.049427
153.538585
146.721601
131.046772
112.664700
82.189441
61.724782
40.381551
28.787851
18.012524
13.679862
10.378957
9.327531
9.532571
10.033846
9.639859
9.989738
10.170937
10.211468
10.125637
9.930730
10.705590
11.406541
11.356473
11.385679
11.581779
12.136698
12.278557
12.222528
12.404919
13.066530
13.663769
13.384819
13.883710
13.659596
13.855696
14.128685
14.730692
14.970899
14.524460
14.242530
14.558434
14.835000
14.656782
14.930964
14.131665
14.074445
14.735460
14.417768
14.258623
14.259815
13.650656
##ZVALUE=285
0.845790
1.016855
0.906587
0.876784
0.868440
0.849962
0.764728
1.055598
0.998974
1.001954
0.992417
1.116991
0.985861
0.953674
0.985861
1.129508
1.018643
1.251698
1.025796
1.284480
1.275539
1.398921
1.806617
1.818538
5.127788
16.673803
54.507852
110.142827
230.847001
363.775492
509.480834
696.773529
806.541443
849.553943
802.123547
656.402707
513.906479
318.996906
201.998949
97.171664
53.953528
32.050610
35.546422
53.984523
74.073672
101.901889
122.324824
140.182972
146.312714
142.440796
129.167438
104.502439
85.215569
59.360862
41.722655
25.421977
17.575622
13.103485
10.443926
10.256767
10.133982
10.296702
10.226965
9.977818
10.737777
10.928512
11.704564
11.635423
12.003779
12.450814
12.372732
12.648702
12.831688
13.361573
13.534427
14.229417
13.668537
14.066696
14.247894
14.346838
14.209747
14.446974
14.802814
14.896989
14.103651
14.508963
14.627576
14.569759
14.667511
14.502406
14.584661
14.627576
14.301538
14.028549
13.912916
14.356971
##ZVALUE=290
0.823736
0.865459
0.684857
0.734925
0.847578
0.892878
0.908971
0.859499
0.766516
0.881553
0.940561
0.957847
1.004934
1.025796
0.977516
0.925660
1.073480
1.040697
0.894666
1.220703
1.117587
1.236796
1.272559
1.503825
1.468658
1.729727
2.336502
6.795526
29.407740
70.104599
136.446953
281.284451
427.867770
632.247925
763.027668
855.376720
844.824910
729.966760
599.972606
398.579836
262.220502
133.735538
72.298646
32.634735
25.190711
33.786893
48.913956
70.627928
92.910528
119.223595
132.640004
141.340494
139.625669
125.441551
107.210875
80.078840
61.536431
39.504766
28.271675
18.039942
14.338493
11.422634
10.887980
10.978580
10.911822
11.155605
11.621714
11.953712
12.190938
12.611747
13.277531
13.353825
13.674498
13.906956
14.139414
14.184713
14.282465
14.782548
14.863610
14.326572
14.404655
14.951825
14.963746
15.012622
14.923811
15.381575
14.659762
14.304519
14.839768
14.823675
14.234781
14.277697
14.367700
13.734698
13.860464
14.215708
##ZVALUE=295
0.730753
0.746846
0.694990
0.746846
0.757575
0.849962
0.740886
0.760555
0.834465
0.808835
0.814795
0.925660
0.975728
0.972748
0.863671
0.997782
0.952482
0.830889
1.016855
0.939965
1.038909
1.296997
1.301765
1.237988
1.321435
1.353621
1.337528
1.606941
1.690984
3.546476
12.571812
49.097538
104.295611
228.235722
360.075831
555.516481
698.732734
830.864906
857.281685
781.107545
671.815872
477.128625
334.421992
178.818703
98.913908
39.648414
22.818446
21.700859
29.575825
47.204494
63.822865
88.911653
109.037757
129.305720
135.094523
132.548809
122.256875
100.848675
82.354546
59.902668
43.655634
27.319789
20.302534
15.041828
12.620687
12.020469
11.879802
12.240410
12.712479
12.274981
13.298988
13.879538
13.442636
13.731718
14.246702
14.767647
14.643669
14.854670
14.604926
14.888644
15.413761
15.177727
15.271902
14.823675
15.205741
15.322566
14.469624
14.685988
15.144944
14.262795
14.650822
14.751554
14.594793
13.794899
13.920665
13.612509
##ZVALUE=300
0.770688
0.685453
0.719428
0.836849
0.764728
0.742674
0.825524
0.757575
0.805855
0.779629
0.659823
0.755787
0.774860
0.790954
0.933409
0.806451
0.826716
0.854731
0.913739
0.986457
1.089573
0.966787
1.030564
1.088977
0.977516
1.229644
1.126528
1.268983
1.180768
1.469851
1.502633
2.002716
6.782413
23.128986
75.653791
146.547556
295.534730
445.262790
639.477968
757.089853
839.473605
832.827687
722.536445
587.479472
386.855006
252.181888
130.250454
69.005489
27.045608
16.776919
19.205809
25.493503
42.480826
59.102774
85.268617
103.452802
123.233795
128.474832
127.481818
119.209886
99.982619
80.883503
59.987903
44.222474
28.961897
21.517873
15.914440
13.645887
12.757778
12.545586
12.991428
12.900829
13.984442
13.963580
14.070868
14.407635
14.569759
14.687777
14.796853
14.852881
15.210509
14.864802
14.722943
15.448928
15.053749
14.479756
14.865994
14.655590
14.489889
14.152527
14.373660
14.831424
14.036894
14.264584
14.068484
13.891459
##ZVALUE=305
0.676513
0.626445
0.615716
0.580549
0.714660
0.611544
0.549555
0.550747
0.741482
0.597835
0.800490
0.890493
0.646710
0.603795
0.867844
0.811815
0.908971
0.904799
0.774860
0.935793
0.816584
0.874996
0.930429
0.998974
0.959635
1.093745
1.039505
1.023412
1.300573
1.176000
1.428723
1.346469
1.439452
1.701713
2.874732
14.763474
42.166710
115.568638
206.667781
380.044580
529.975891
708.513856
804.960728
831.829906
773.454905
613.685846
477.568507
304.467678
190.766454
87.158680
43.780804
17.590523
13.049841
18.020868
25.550723
41.569471
57.048798
80.624819
97.616911
115.526915
121.710896
120.505691
114.199519
96.314549
78.376532
56.312680
42.561889
28.526783
20.882487
15.156865
13.832450
13.199449
12.872815
12.975931
13.222694
13.596416
13.421774
13.803840
14.159679
14.231801
14.426708
14.592409
14.467835
14.806986
14.423728
14.674664
14.373660
14.422536
14.634728
14.212728
13.875961
13.472438
13.475418
13.825893
13.845563
13.563633
##ZVALUE=310
0.722408
0.815988
0.632405
0.671744
0.749826
0.699759
0.560880
0.701547
0.741482
0.562668
0.709891
0.638962
0.782609
0.697970
0.865459
0.742674
0.581741
0.796914
0.839829
0.935793
0.824928
1.011491
0.825524
0.842810
0.935793
0.857711
0.977516
0.980496
1.015663
1.124740
1.088977
1.227856
1.123548
1.291633
1.261830
1.438856
1.731515
6.615520
21.551847
71.476698
138.011575
284.905434
426.616669
621.795654
750.270486
837.195516
818.116665
708.823800
584.617853
388.684869
258.261561
128.999949
69.191456
27.064681
14.225841
12.031794
15.774965
23.823977
34.991503
53.641796
70.608854
92.468858
105.989575
115.378499
115.480423
109.061003
96.460581
75.126886
58.967471
40.541887
29.473901
21.186471
16.448498
14.028549
13.160706
13.210773
13.064742
13.541579
13.393760
13.562441
13.727546
13.648868
14.124513
14.024973
14.182925
13.951659
13.868809
14.545918
14.215708
14.033914
13.575554
13.276935
13.405681
13.229847
13.499856
13.120770
##ZVALUE=315
0.824928
0.559688
0.687838
0.710487
0.668764
0.541806
0.603795
0.625849
0.741482
0.724792
0.663996
0.758767
0.931621
0.719428
0.720620
0.623465
0.756979
0.806451
0.939965
0.775456
0.662804
0.898838
0.941753
0.821948
0.855923
0.801682
0.820756
0.991821
0.869632
1.141429
1.029968
0.938773
1.097918
1.133680
1.278520
1.264811
1.367927
1.378655
1.523495
3.108978
11.075735
44.174790
95.472932
214.348435
345.017910
549.528599
677.276850
790.655613
819.125772
756.180882
647.742748
466.843843
330.981612
176.975727
96.718669
38.027763
17.918944
10.484457
11.102557
15.489459
21.449924
34.383535
47.237873
66.886544
96.558928
100.410581
108.552575
106.893778
101.583600
85.503459
56.735873
54.531693
42.159557
21.594763
21.086931
16.627908
13.770461
12.979507
12.683868
12.724996
12.868643
13.313890
13.396740
13.436675
13.595819
13.521910
13.952851
13.600588
13.541579
13.478994
13.368726
13.220906
12.866855
12.935996
12.924671
13.343692
##ZVALUE=320
0.577569
0.586510
0.536442
0.513792
0.523925
0.561476
0.606775
0.754595
0.724792
0.718832
0.853539
0.669956
0.616908
0.711679
0.789762
0.700951
0.691414
0.580549
0.773668
0.648499
0.769496
0.748634
0.690818
0.644922
0.760555
0.848770
0.751615
0.876784
0.865459
0.876784
0.907779
0.940561
0.850558
0.939965
1.191497
1.147985
1.071692
1.223683
1.189709
1.260638
1.431704
1.733899
6.209612
20.704865
70.884824
140.488744
277.833939
415.546894
609.043837
726.153851
808.707476
800.762773
694.266558
570.461750
382.442474
249.177814
116.842985
61.970949
24.794936
12.429953
9.446740
10.272861
13.383627
18.213987
30.418634
42.317510
61.203837
76.258779
95.234513
102.198720
103.380680
99.468827
85.642934
71.342587
53.022504
40.649772
28.283596
21.000504
15.951991
13.663769
12.581944
12.710690
12.330413
13.063550
12.612939
12.697577
13.045669
13.053417
13.102889
12.731552
12.838840
12.969971
12.342930
12.563467
12.853742
12.751818
##ZVALUE=325
0.472665
0.630617
0.591874
0.629425
0.564456
0.545979
0.634789
0.472665
0.639558
0.601411
0.677705
0.633597
0.520945
0.690818
0.580549
0.772476
0.680685
0.711679
0.665784
0.741482
0.763535
0.747442
0.786781
0.704527
0.776649
0.855923
0.581741
0.787973
0.828505
0.922680
1.043677
1.053810
0.791550
0.860691
0.865459
0.979900
0.993609
0.988841
1.182556
1.134872
1.219511
1.415610
1.191497
1.634955
3.573895
12.325644
47.204494
98.506808
211.974978
339.508653
526.796579
654.144883
768.056512
794.475675
723.496675
607.014894
417.584777
288.518667
154.334903
86.124539
34.045577
16.060472
9.011626
8.627772
9.437799
12.181997
19.000769
27.621984
44.209957
58.953762
77.447891
87.942481
97.430944
98.242760
91.746449
82.027912
64.433813
50.791502
35.712719
26.824474
18.970966
15.843511
13.949871
12.852550
12.467504
12.509823
12.472868
12.326837
12.725592
12.411475
12.614727
12.062788
12.264848
12.407899
12.558699
11.812449
##ZVALUE=330
0.524521
0.614524
0.493526
0.656843
0.594854
0.711679
0.618696
0.674725
0.627637
0.700951
0.735521
0.661612
0.806451
0.711679
0.737906
0.766516
0.577569
0.700951
0.683665
0.638962
0.641942
0.477433
0.728965
0.558496
0.769496
0.805855
0.824928
0.740886
0.852942
0.803471
0.769496
0.797510
0.825524
0.974536
0.855923
0.993609
0.994802
0.936985
0.990629
0.874996
0.883937
1.103878
1.085997
1.402497
1.365542
1.486540
1.950860
7.201433
22.262931
73.455572
140.704513
277.282596
408.144593
587.251782
698.165894
774.606466
749.354959
636.444688
507.758856
327.949524
210.706592
99.221468
51.380992
20.420551
10.805726
8.048415
8.000731
9.412766
12.207627
18.813610
27.004480
41.433573
53.055882
71.558952
83.167553
91.626644
93.050599
86.163878
76.987743
61.495900
48.917532
34.640431
26.925802
19.214749
16.315579
13.595819
12.723804
12.218952
12.398958
12.129545
12.074709
11.829734
12.168884
11.640787
11.518598
11.890531
##ZVALUE=335
0.434518
0.548959
0.560880
0.598431
0.554919
0.662804
0.577569
0.610948
0.526905
0.581741
0.597835
0.442863
0.636578
0.647902
0.544786
0.631809
0.620484
0.631809
0.619888
0.705719
0.759959
0.759959
0.618696
0.853539
0.849962
0.797510
0.848770
0.697970
0.799894
0.661612
0.687838
0.771880
0.788569
0.879765
0.811815
0.821948
0.780821
0.652671
0.892878
0.799894
1.104474
1.114607
1.025796
1.025796
1.051426
1.149774
1.237988
1.332760
1.357794
3.372431
11.553764
43.983459
93.973875
207.488537
330.458879
515.147448
641.110539
744.319558
751.485825
674.276948
565.780997
383.818746
262.869596
139.357448
74.370503
27.276874
13.523698
8.335710
7.885695
8.330941
9.328723
12.432933
17.079711
27.253628
37.859678
54.090619
66.512823
78.530908
85.915923
87.164640
82.106590
71.061850
59.825778
47.424436
36.951900
26.048422
20.742416
15.963912
13.973713
12.387633
12.156963
11.500716
11.797547
11.575818
11.167526
11.267662
##ZVALUE=340
0.719428
0.538826
0.529885
0.499487
0.696778
0.596642
0.697970
0.540614
0.445843
0.610948
0.550747
0.682473
0.529885
0.620484
0.623465
0.561476
0.693798
0.528693
0.712872
0.669956
0.605583
0.588894
0.534654
0.581741
0.640750
0.540614
0.581741
0.660419
0.702739
0.747442
0.744462
0.798702
0.789762
0.695586
0.828505
0.801682
0.827909
0.771880
0.848770
0.855923
0.945926
0.941753
0.894666
0.941753
0.800490
0.994802
1.105666
1.203418
1.038909
1.216531
1.347661
1.921654
5.916953
27.111769
66.057444
162.320733
270.678997
435.741544
565.301776
692.660809
730.272532
688.346624
601.420999
445.366502
313.616991
164.662600
93.368888
39.188862
17.832518
9.027719
7.944703
8.226633
8.315444
9.942651
12.131929
18.067956
25.776625
37.865639
48.651695
64.170957
73.709488
80.993772
81.985593
77.154636
70.323944
57.207942
46.650767
34.248829
26.792884
19.768476
15.857816
12.918711
11.550784
11.142492
10.763407
11.047721
##ZVALUE=345
0.438690
0.485778
0.486970
0.480413
0.387430
0.457764
0.423789
0.451803
0.403523
0.536442
0.474453
0.450611
0.471473
0.476837
0.462532
0.598431
0.594854
0.510812
0.399947
0.479817
0.566840
0.560880
0.628829
0.644922
0.467896
0.408888
0.575781
0.652671
0.709891
0.600815
0.563860
0.725985
0.546575
0.678897
0.660419
0.432730
0.670552
0.641942
0.560880
0.598431
0.777841
0.724792
0.797510
0.678897
0.756979
0.840425
0.605583
0.882745
0.908971
1.047850
0.848770
1.001954
0.984669
1.192689
2.730489
15.224814
41.946769
110.063553
195.797682
348.756909
475.679636
628.301501
697.317719
704.240799
642.980933
491.514802
366.755724
215.978622
123.372674
50.042868
23.840666
10.721684
8.067489
7.782578
7.852912
8.081794
9.308457
11.797547
15.830994
24.163723
33.021569
47.662854
57.386756
68.067908
72.943568
75.936913
72.921515
64.969659
56.313872
44.164658
34.772754
24.803877
19.273758
14.327765
12.468696
10.964870
##ZVALUE=350
0.556707
0.608563
0.687838
0.621676
0.603795
0.456572
0.569820
0.690818
0.602603
0.516772
0.542998
0.548959
0.519753
0.546575
0.479817
0.639558
0.529885
0.500679
0.690818
0.582933
0.555515
0.637770
0.563860
0.464916
0.785589
0.627637
0.648499
0.627637
0.568628
0.566840
0.644922
0.568628
0.679493
0.696778
0.660419
0.760555
0.692606
0.739694
0.756979
0.698566
0.828505
0.821948
0.803471
0.794530
0.753999
0.829697
0.882745
0.949502
0.830889
1.007915
0.875592
1.003742
1.274943
1.256466
1.220703
1.233816
1.781583
7.666945
23.622513
73.824525
138.087869
271.431804
393.103957
547.328591
642.049909
692.289472
658.785701
543.419719
416.497588
248.175859
153.701901
72.515607
34.540892
12.366772
8.321404
7.609725
7.476807
7.555485
7.788539
9.145737
11.103749
16.324520
21.126866
29.602647
39.157867
52.116513
59.893727
67.402720
69.933534
67.925453
61.949492
51.357746
42.711496
31.822920
24.591684
18.246770
##ZVALUE=355
0.551939
0.520945
0.536442
0.581741
0.513792
0.599623
0.499487
0.641942
0.470877
0.483990
0.543594
0.612736
0.478625
0.721812
0.546575
0.530481
0.664592
0.631809
0.490546
0.517964
0.421405
0.434518
0.584722
0.449419
0.596642
0.560880
0.620484
0.530481
0.664592
0.673532
0.661612
0.726581
0.767708
0.683665
0.699759
0.708699
0.474453
0.576973
0.659823
0.677705
0.644922
0.722408
0.632405
0.651479
0.886917
0.863671
0.719428
0.784993
0.998974
0.968575
0.930429
1.027584
1.025796
1.073480
1.013875
0.974536
1.241565
1.134872
1.569986
3.801584
13.065934
48.405528
97.902417
204.056501
319.411755
486.194491
590.451956
663.319826
662.034750
561.007857
452.173948
303.788781
192.561746
86.942911
42.312741
15.331507
8.685589
7.139444
7.219911
7.019639
7.224679
7.622838
8.351803
10.407567
13.288856
19.222498
25.690794
35.956502
43.880939
53.610802
59.964657
63.713789
62.788725
55.821538
49.757957
39.852858
##ZVALUE=360
0.579953
0.428557
0.480413
0.582933
0.641942
0.453591
0.424981
0.587702
0.579953
0.545979
0.563860
0.573993
0.545979
0.720620
0.614524
0.592470
0.615716
0.589490
0.521541
0.545979
0.544786
0.570416
0.636578
0.568628
0.637770
0.599623
0.541806
0.677705
0.654459
0.784993
0.760555
0.693798
0.779629
0.625849
0.584722
0.668764
0.789762
0.487566
0.692606
0.699759
0.596642
0.746846
0.616908
0.753999
0.692606
0.779629
0.695586
0.648499
0.689626
0.848770
0.841618
0.736713
0.914931
0.953674
1.128912
0.904799
0.939965
1.031756
1.137853
1.209974
1.338720
1.986623
5.684495
25.505424
58.515668
142.918825
240.804553
403.047800
519.530773
621.770620
650.776625
598.405600
504.778624
347.173810
231.972933
115.479827
60.617924
24.028420
11.153817
6.858706
6.825924
6.668568
6.837845
6.908774
6.867647
7.525682
8.650422
11.355877
15.199780
21.754503
28.833747
38.569570
46.450496
53.900480
57.539940
57.077408
##ZVALUE=365
0.785589
0.768900
0.893474
0.827909
0.822544
0.815988
0.764728
0.739694
0.975728
0.776649
1.005530
0.642538
0.926852
0.929832
0.831485
0.709891
0.723600
0.831485
0.703931
0.801682
0.752807
0.838637
0.798702
0.846982
0.874996
0.891685
0.847578
0.778437
0.812411
0.844598
0.838637
0.871420
0.853539
0.921488
0.924468
0.992417
0.826716
0.753999
0.953674
0.885725
0.900626
0.955462
1.016855
1.005530
0.880957
0.885725
0.995994
1.022816
0.921488
1.018643
1.066923
1.112819
0.966787
1.209974
1.079440
1.137853
1.166463
1.245737
1.288652
1.523495
1.502633
1.468658
1.692772
1.855493
3.063679
14.577508
38.205981
97.858906
181.809664
330.021977
441.124439
564.703941
622.138977
610.044003
537.573695
394.047499
280.154943
156.122446
85.782409
32.499433
15.123487
7.484555
6.547570
6.379485
6.369948
6.364584
6.565452
6.773472
7.256866
7.858872
9.537935
13.530850
17.656684
25.957823
32.547712
41.113496
##ZVALUE=370
0.562668
0.583529
0.541806
0.604987
0.618696
0.556707
0.543594
0.420809
0.603795
0.606775
0.675917
0.601411
0.612736
0.599623
0.594854
0.687838
0.582933
0.527501
0.557899
0.608563
0.574589
0.678897
0.675917
0.591874
0.614524
0.586510
0.643730
0.581741
0.616908
0.536442
0.517964
0.712872
0.461936
0.833869
0.599623
0.584722
0.580549
0.739694
0.650883
0.697970
0.672936
0.614524
0.666976
0.661612
0.704527
0.837445
0.596642
0.733733
0.667572
0.726581
0.781417
0.601411
0.731945
0.841618
0.658631
0.790954
0.897646
0.941753
0.918508
1.099706
1.060963
1.005530
1.073480
1.082420
1.239777
1.366735
1.873970
7.321835
23.454428
74.736476
137.885809
258.909464
374.861956
523.755550
594.920516
613.510609
570.980906
453.426838
335.916877
190.947652
108.032823
43.414831
21.365881
9.257793
6.435513
5.879998
5.727410
5.752444
5.577803
5.779862
5.877614
6.022453
6.839633
8.833408
10.951757
16.024709
##ZVALUE=375
0.471473
0.472665
0.484586
0.496507
0.493526
0.666976
0.483990
0.402927
0.623465
0.586510
0.637770
0.511408
0.720620
0.488758
0.565648
0.542998
0.861883
0.539422
0.595450
0.487566
0.590682
0.598431
0.611544
0.543594
0.509620
0.507832
0.513792
0.527501
0.623465
0.648499
0.534654
0.659823
0.552535
0.504851
0.605583
0.673532
0.722408
0.626445
0.670552
0.521541
0.636578
0.588894
0.791550
0.691414
0.596642
0.687838
0.727773
0.796914
0.670552
0.632405
0.706911
0.564456
0.764728
0.579953
0.620484
0.860691
0.732541
0.843406
0.822544
0.723600
0.877976
0.759959
0.884533
0.789762
0.998974
0.927448
1.065731
1.192689
1.394749
3.898740
12.382865
44.023991
94.330907
205.616951
316.954851
466.697812
555.273890
609.236956
592.142940
486.592650
378.878713
232.057571
147.342682
74.512959
38.660765
13.852715
7.180572
5.604625
5.457997
5.345941
5.357862
5.313754
5.371571
5.475879
5.876422
6.295443
##ZVALUE=380
0.413656
0.427961
0.484586
0.521541
0.537634
0.541806
0.494719
0.499487
0.519753
0.628829
0.479817
0.684857
0.667572
0.543594
0.501871
0.419617
0.352859
0.561476
0.686646
0.584722
0.632405
0.678897
0.533462
0.483990
0.664592
0.652671
0.485778
0.432730
0.467896
0.467896
0.609756
0.600815
0.677705
0.591874
0.706911
0.600815
0.698566
0.447631
0.420809
0.641942
0.662804
0.670552
0.627637
0.704527
0.566840
0.670552
0.661612
0.640750
0.656843
0.636578
0.626445
0.768900
0.595450
0.498891
0.573993
0.764728
0.706911
0.738502
0.859499
0.824928
0.926852
0.828505
0.909567
0.833869
0.896454
0.858903
0.902414
0.990629
1.166463
1.224875
1.435876
2.036691
6.944537
30.553937
71.366429
165.338516
263.190866
408.107638
512.302518
599.312782
602.145791
520.899892
430.142879
299.833417
202.067494
100.417733
52.631497
19.862652
9.266734
5.408525
4.948974
4.925728
4.711747
5.031824
4.856586
4.980564
##ZVALUE=385
0.494719
0.467896
0.488758
0.511408
0.514984
0.541806
0.438690
0.576973
0.514984
0.433922
0.323653
0.494719
0.495911
0.486970
0.490546
0.483990
0.559688
0.414848
0.563860
0.599623
0.742674
0.523925
0.449419
0.587702
0.346899
0.643730
0.541806
0.709891
0.616908
0.481606
0.592470
0.621676
0.379682
0.535846
0.420809
0.549555
0.543594
0.568628
0.746846
0.615716
0.497699
0.647902
0.604987
0.676513
0.678897
0.661612
0.676513
0.536442
0.604987
0.470877
0.529885
0.519753
0.611544
0.558496
0.654459
0.786781
0.687838
0.576973
0.876784
0.820756
0.670552
0.715852
0.757575
0.714660
0.746846
0.925660
0.901818
0.924468
1.003742
0.844598
1.053810
1.061559
1.209974
1.436472
3.457665
17.590523
45.033693
111.938715
196.726918
342.534781
456.686616
567.009449
594.373941
563.770533
494.027734
364.402533
257.668495
141.099691
80.813766
34.687519
15.008450
6.076694
4.692674
4.637837
4.393458
4.776716
##ZVALUE=390
0.506639
0.389814
0.443459
0.566840
0.575781
0.338554
0.644922
0.512600
0.359416
0.544786
0.397563
0.429749
0.563860
0.302792
0.494719
0.589490
0.423789
0.316501
0.407696
0.557899
0.583529
0.556707
0.367761
0.545979
0.401735
0.446439
0.595450
0.443459
0.475645
0.578761
0.506639
0.542998
0.623465
0.542998
0.729561
0.653863
0.656843
0.558496
0.509620
0.560880
0.508428
0.535846
0.479817
0.613928
0.582933
0.607967
0.643730
0.448823
0.579953
0.599623
0.541806
0.555515
0.533462
0.641942
0.623465
0.537634
0.744462
0.604987
0.658631
0.710487
0.618696
0.715852
0.665784
0.643730
0.551939
0.922680
0.919700
0.748634
0.926852
0.967979
1.038909
0.936985
1.086593
1.095533
0.979900
0.975728
1.875758
9.233952
27.500987
82.460642
153.628588
288.571715
396.222472
520.404577
580.319762
589.712858
543.370843
427.309871
326.495767
197.954774
115.672946
48.442483
23.257732
8.702874
4.911423
4.514456
##ZVALUE=395
0.584722
0.439882
0.484586
0.406504
0.476837
0.483990
0.531673
0.463724
0.451803
0.457764
0.615716
0.423789
0.483990
0.527501
0.399947
0.442863
0.551939
0.331998
0.469685
0.572801
0.563860
0.663996
0.635982
0.558496
0.579953
0.546575
0.553727
0.646710
0.559688
0.731945
0.774860
0.722408
0.709891
0.704527
0.569820
0.637770
0.661612
0.606775
0.502467
0.604987
0.356436
0.636578
0.763535
0.673532
0.625849
0.664592
0.669956
0.630617
0.577569
0.638962
0.529885
0.519753
0.642538
0.662804
0.544786
0.636578
0.667572
0.771880
0.814795
0.777841
0.631809
0.611544
0.692606
0.672936
0.805855
0.853539
0.848770
0.721812
0.862479
0.921488
0.907779
0.813603
0.926852
0.994802
0.982881
1.143813
1.104474
1.268983
1.485944
5.021691
17.801523
60.019493
117.082596
228.315592
332.083702
470.529795
552.525520
602.748990
588.550568
495.476723
385.847688
240.994692
152.477622
74.125528
36.012530
12.616515
##ZVALUE=400
0.621676
0.544786
0.425577
0.425577
0.652671
0.494719
0.553727
0.594854
0.489950
0.505447
0.516772
0.506639
0.617504
0.564456
0.583529
0.444651
0.441670
0.414848
0.536442
0.646710
0.450611
0.519753
0.435710
0.547767
0.495911
0.611544
0.632405
0.560880
0.593662
0.720620
0.679493
0.674725
0.499487
0.593662
0.681877
0.676513
0.726581
0.603795
0.555515
0.627637
0.652671
0.516772
0.628829
0.708699
0.802875
0.785589
0.770688
0.765920
0.680685
0.631809
0.690818
0.568628
0.716448
0.601411
0.711679
0.661612
0.676513
0.664592
0.718832
0.771880
0.700951
0.765920
0.612736
0.714660
0.646710
0.876784
0.838637
0.797510
0.955462
0.828505
0.946522
0.948906
0.988841
0.914931
0.860691
1.053810
0.933409
0.953674
1.001954
1.185536
1.238585
3.251433
10.160804
35.739541
75.723529
167.728662
266.986489
407.059789
502.538681
580.367446
586.446524
517.600775
426.086783
283.131599
187.957883
94.990730
##END
