##TITLE=FQP00302
##FORMAT=SPECTACLE-ASCII V-1.2
##DATA TYPE=ULTRAVIOLET SPECTRUM
##SECOND TYPE=ULTRAVIOLET SPECTRUM
##DATE=02/08/18
##TIME=16:10:34
##SPECTROMETER/DATA SYSTEM=SPECTACLE
##XUNITS=NM EM
##YUNITS=ENERGY
##YFACTOR=1
##FIRSTX=220
##LASTX=410
##NPOINTS=96
##3DDATA=Equidistant
##ZUNITS=NM EX
##FIRSTZ=210
##LASTZ=400
##ZPOINTS=39
##XYDATA=(Y..Y)
##ZVALUE=210
2.627969
2.559423
2.980828
2.915859
3.292561
3.116727
3.358722
3.263950
3.224611
2.894998
2.857447
3.253818
3.430843
3.135800
3.328919
3.485680
3.331900
3.691912
4.150867
4.039407
4.582405
4.549623
4.997849
4.889965
6.052852
5.839467
6.601810
6.616712
6.442666
6.946921
7.603765
8.386970
8.836985
8.827448
8.843541
8.050799
8.909702
8.559823
10.470748
8.963943
8.904934
8.645654
8.400679
9.395480
7.951856
8.121729
8.784533
9.311438
7.848740
8.643866
8.461475
8.689761
9.076595
8.090734
8.693933
7.955432
8.713603
8.459687
7.913709
7.929802
8.081794
8.725524
9.068847
9.302497
8.510947
8.462667
9.328723
8.998513
10.360479
14.381409
14.685988
18.049479
20.262599
25.084615
27.404428
29.033422
30.034781
30.707717
33.194423
29.628873
28.127432
26.992559
23.692846
19.049644
18.616915
14.083982
12.701750
10.727644
10.550618
8.645654
8.556843
8.776784
9.258986
9.272695
8.644462
8.551478
##ZVALUE=215
8.540750
9.351969
6.616712
6.226897
6.652474
4.680753
4.744530
5.666614
5.507469
5.894899
5.838871
4.439950
4.199743
4.480481
3.637671
3.392696
4.215837
3.529787
4.047751
4.438758
4.585981
4.232526
5.136728
5.281568
5.306602
6.496906
7.568598
7.747412
8.502603
10.238886
10.819435
10.296702
10.822415
12.970567
12.571812
12.209415
13.439655
13.189912
12.288690
12.770891
12.263656
11.404753
11.624694
10.306835
11.134744
10.696650
10.220408
10.974407
11.617541
10.063648
8.540750
9.867549
10.543466
10.252595
10.090470
9.545684
9.015799
9.890795
8.021593
8.592606
9.876490
9.349585
8.608699
9.138584
9.390712
9.367466
10.627508
9.998679
10.522604
14.711618
15.817881
18.338561
21.530986
24.263859
25.488734
28.148890
29.244423
28.334856
27.365685
27.323961
27.406812
21.530986
20.648837
15.680790
14.898777
11.152625
11.053681
9.556413
9.197593
8.045435
7.921457
8.374453
7.986426
8.254647
7.459521
7.923841
##ZVALUE=220
30.469894
31.566620
34.044981
31.738877
26.179552
21.559596
17.374754
13.334751
11.521578
11.270642
12.678504
12.862682
12.200475
11.460781
10.230541
8.033514
6.860495
6.129742
5.324483
4.447699
4.607439
5.222559
5.358458
5.700588
5.660653
8.238554
8.331537
10.547638
10.964870
14.238954
14.944673
16.197562
16.117692
18.483996
18.807650
17.484426
17.533898
19.655824
16.917586
17.945766
18.337965
16.800761
15.922785
16.503930
16.245842
15.455484
13.770461
13.112426
13.441443
12.941957
11.185408
11.190772
12.426972
11.799932
11.449456
10.038614
11.951923
10.689497
9.530783
10.443926
10.556579
9.836555
8.016825
8.985996
10.026693
10.232925
9.477735
11.335611
10.977983
12.624860
12.061000
15.963912
15.624762
19.718409
20.596981
21.254420
22.348762
23.405552
23.709536
22.983551
20.739436
21.385550
17.575622
14.873743
12.809634
11.430979
9.622574
10.596514
9.147525
9.431839
9.105802
8.028746
8.707643
9.096861
8.181930
8.553863
##ZVALUE=225
52.517653
53.677559
71.555972
79.934597
85.627437
80.661774
64.540505
54.712892
39.683580
29.849410
22.658706
23.012757
25.794506
27.392507
26.513934
25.110841
20.489693
16.715527
13.973713
9.136796
7.550716
6.313920
5.503893
5.091429
6.334782
7.999539
8.378625
10.377765
12.150407
13.787746
15.350580
18.639565
19.481778
19.519925
21.815896
21.127462
24.029613
20.983815
23.562908
21.855831
20.847917
20.557642
18.515587
18.404722
17.083883
16.848445
17.152429
15.484691
14.537573
15.134811
14.021993
12.827516
12.704730
12.891889
11.837482
11.956692
11.804700
12.159944
12.209415
11.382699
9.897947
10.254979
10.227561
10.926723
10.851622
11.780858
10.495782
11.357665
11.705756
13.020635
14.299750
16.837716
18.279552
20.451546
20.454526
22.706985
23.663640
22.104979
23.094416
22.211671
20.771623
20.049810
17.395616
15.600920
14.457703
13.453960
12.669563
13.205409
12.323856
12.474656
10.747910
12.318492
12.282729
12.100935
11.545420
12.993813
##ZVALUE=230
50.250888
55.753589
85.384846
138.558745
175.443888
206.936002
219.373703
204.892755
182.699561
143.224001
97.340941
68.826675
47.987700
42.473674
42.848587
48.971772
49.604774
48.899651
43.140650
38.435459
28.697848
18.468499
13.150573
9.097457
7.907748
7.753968
8.564591
10.141730
10.930896
13.851523
13.424754
16.894937
16.282797
16.944408
18.123984
17.801523
19.488931
18.581748
19.098520
18.595457
19.400716
17.538667
17.466545
17.997622
17.918944
17.706752
18.060803
14.460683
14.993548
13.719797
14.823675
13.638735
13.415813
13.348460
14.253855
14.286637
14.061928
13.440847
13.758540
12.626648
13.806820
13.317466
13.377666
13.280511
13.883710
14.114976
15.402436
15.951991
15.479922
17.383695
18.796921
19.581914
22.721887
24.088621
24.258494
26.043653
24.769902
25.447607
25.015473
24.148822
26.736856
23.533702
22.411942
23.368597
20.203590
18.343925
18.094778
19.839406
19.448996
17.349720
16.999841
18.212795
17.925501
18.315911
18.880963
18.489957
##ZVALUE=235
19.585490
23.096800
45.789480
105.676651
172.022581
264.638662
330.789685
401.518941
418.205857
387.407541
330.629945
256.377459
157.802701
115.411878
80.066919
69.773793
71.487427
75.918436
82.645416
86.061954
74.691772
68.098903
48.938990
38.444996
24.758577
15.979409
12.961626
9.866953
9.050965
10.144711
11.768937
12.445450
14.039874
13.916492
13.443828
13.171434
14.751554
14.886856
14.053583
15.570521
15.909672
14.568567
14.835596
15.282631
14.766455
13.369918
13.902783
14.358759
14.548898
12.680888
13.429523
13.108850
12.578964
13.189912
13.198853
13.640523
13.925433
13.261437
13.695955
14.199615
13.734698
14.543533
15.967488
14.845729
15.087724
17.148852
16.811490
18.908978
20.162463
21.725893
23.125410
23.947954
24.712682
24.162531
28.328896
31.513572
30.772686
31.763911
31.409860
29.413700
29.049516
29.264688
29.410720
26.442409
23.652911
26.094913
26.507974
26.414990
26.504993
26.601553
26.069880
26.794672
25.826693
25.285482
24.715662
23.871660
##ZVALUE=240
1.672506
2.359748
10.059476
24.949908
72.456002
136.831403
262.496471
369.711518
526.383519
593.085885
628.674626
595.945716
509.051681
388.262868
283.225775
175.307989
125.932693
96.293688
91.167688
100.748539
109.974742
115.624666
114.179850
101.757646
83.262920
64.825416
47.664642
34.028888
21.475554
16.782880
12.763739
11.661649
11.458993
14.127493
12.921691
12.502670
12.701750
12.629628
13.593435
13.536811
13.879538
13.997555
14.672875
13.366938
13.998747
14.124513
13.679862
14.599562
14.366508
13.782978
11.850595
14.512539
14.442801
14.069676
13.336539
12.393594
12.982488
14.833808
14.136434
14.627576
15.722513
15.015602
14.796853
15.204549
18.174648
18.717647
18.685460
21.293759
21.759868
23.020506
23.982525
26.124716
28.514862
29.911995
32.854676
31.213760
30.742884
33.084750
33.381581
33.123493
32.247901
32.520890
30.717850
31.122565
31.238794
33.046603
32.305717
32.133460
33.090711
31.537414
31.801462
32.921433
29.844642
30.472875
30.469894
31.468868
##ZVALUE=245
1.928806
2.141595
1.974702
2.555847
5.931854
23.600459
58.046579
149.136782
260.162950
391.511917
604.000688
726.310611
795.992613
786.472559
713.628531
584.886670
409.926772
290.405750
196.244717
121.583939
100.336671
102.468729
115.752816
129.143596
132.916570
128.577948
116.015673
93.833804
78.691840
57.182908
43.385625
28.351545
22.028685
17.807484
17.783642
16.772747
16.343594
16.070604
15.137792
16.420484
16.256571
16.614795
17.526746
16.407967
17.502904
15.709996
16.002655
14.930964
15.889406
15.442967
14.083982
15.158653
14.358759
13.936758
15.482903
14.966726
14.762878
14.595985
14.429688
15.153885
15.918612
15.405416
15.465617
15.834570
17.903447
18.085837
18.484592
20.390749
20.235777
22.884607
23.422837
25.778413
27.853847
30.325651
31.710863
33.100843
32.318830
33.150911
34.449697
34.356713
34.204721
32.318830
33.551455
32.287836
31.568408
33.032894
31.974912
31.755567
32.515526
33.110976
33.138990
33.973455
33.272505
33.635497
33.791661
32.107830
##ZVALUE=250
1.726747
1.884699
1.846552
2.205968
1.927614
2.295971
3.998876
15.447736
72.989464
149.032474
345.070958
535.902977
761.627555
1008.009911
1015.672684
1015.672684
1015.672684
934.383869
741.278529
473.175645
297.548771
188.251734
112.423897
97.102523
108.758807
126.891732
140.179992
148.456693
142.149925
129.561424
112.856627
89.092851
67.696571
47.407746
34.928918
26.283860
22.583604
22.543669
20.547509
20.057559
20.373464
20.263791
18.593669
19.446611
19.900799
18.232465
18.133521
17.843843
17.835498
17.097592
16.264915
18.015504
17.602444
17.290711
15.650988
15.740991
15.701652
16.169548
16.172528
15.043616
15.404820
15.007854
16.363859
15.137792
16.339421
17.237663
18.544793
18.238425
19.101501
21.042824
22.950768
24.900436
25.649667
29.389858
28.958917
30.572414
31.043887
30.010939
30.912757
30.462742
32.992959
30.570626
28.944612
31.752586
29.941797
30.309558
30.981898
30.885935
29.964447
31.535625
31.231642
29.968619
29.559731
31.398535
32.268763
31.817555
##ZVALUE=255
1.912713
1.405478
1.558661
1.708865
1.642704
1.832843
2.050996
2.109408
2.553463
4.705787
27.108788
76.720715
218.726993
372.461677
624.555945
867.470503
1015.695930
1015.695930
1015.695930
1015.695930
940.055847
645.861030
444.048643
238.083005
142.086744
94.747543
92.625618
113.813877
130.924582
151.472688
157.879591
156.622529
144.531727
118.490458
98.141432
73.021650
54.886937
37.764907
32.180548
26.097894
24.834871
24.688840
24.237633
23.906827
24.058819
21.543503
22.098422
19.983649
20.166636
19.421577
18.169880
17.824769
17.177463
17.544627
17.012954
16.213655
15.924573
14.517903
15.150905
15.583634
14.884472
15.416741
14.958978
14.825463
15.634894
16.161799
17.059445
17.173886
18.401742
17.912984
19.875765
21.146536
22.352934
24.077892
23.893714
24.794936
24.333000
25.668740
25.831461
26.150942
27.948618
27.096868
26.969910
27.449727
27.518868
27.787685
26.837587
27.945638
27.668476
28.191805
27.688742
28.597713
28.653741
27.852654
28.757453
30.815601
##ZVALUE=260
1.413822
1.401901
1.205802
1.507998
1.343489
1.381636
1.611710
1.535416
1.539588
1.775622
1.983643
2.759695
7.897615
33.717752
73.527694
188.151598
326.975584
558.275580
755.063891
985.457897
1015.696526
1015.696526
873.550773
687.829852
431.994796
283.012986
160.770416
108.103752
83.489418
95.939636
117.577910
145.142674
163.371563
173.165798
173.257589
153.036714
135.955811
106.192827
82.464814
59.832931
48.036575
35.131574
31.399727
28.612614
28.072000
25.980473
25.198460
25.090575
23.784637
23.088455
21.448731
21.067858
19.833446
17.628670
17.093420
16.715527
17.424822
15.643835
15.553832
14.917850
14.440417
15.446544
14.947653
14.645457
14.909506
14.925599
15.149713
16.512871
16.086698
16.856790
17.863512
18.573999
19.398928
20.225644
21.615624
22.090673
23.009777
23.673773
22.457838
23.804903
24.123788
23.476481
24.292469
25.517941
24.542809
25.528669
25.241971
25.803447
25.832653
26.655793
26.707649
26.221871
25.886893
27.364492
27.032495
28.167963
##ZVALUE=265
1.537800
1.290441
1.290441
1.557469
1.654625
1.583695
1.339912
1.564622
1.637936
1.729727
1.745820
2.007484
2.000928
2.319813
4.707575
22.976995
55.808425
152.507424
280.969739
520.725846
720.155835
896.880627
1015.845537
1013.763547
877.469778
725.781918
503.885746
354.407430
195.102692
132.789612
91.570616
88.655949
102.155805
133.100748
157.477856
177.045465
185.190439
177.428722
160.773993
135.047436
112.274885
83.513856
65.048933
47.631860
39.418936
32.001734
30.255914
27.914643
26.671886
24.559498
23.437738
21.815896
20.456910
20.337701
19.009709
18.498898
18.037558
16.810894
15.505552
15.863776
15.051961
14.612675
14.951825
14.595985
14.851689
14.717579
14.835000
15.685558
14.509559
16.412735
16.950965
17.743707
18.288493
18.822551
19.405484
19.622445
20.652413
20.847917
21.316409
21.812916
22.859573
22.486448
22.750497
23.172498
23.670793
24.026632
23.651719
24.554729
25.128722
24.272799
24.908781
25.724769
25.028586
25.310516
25.888681
25.540590
##ZVALUE=270
1.137853
1.210570
1.089573
0.926852
1.207590
1.048446
1.261830
1.170635
1.261830
1.320839
1.330972
1.391768
1.584888
1.503825
1.806617
2.004504
2.489686
9.765625
29.802918
104.579926
204.727650
346.791744
579.561591
747.060776
899.756551
924.691558
880.554914
780.034661
601.792932
445.122719
308.486819
177.210569
115.161538
83.759427
86.347461
113.260746
134.695768
165.320635
176.693797
184.049606
179.303885
160.612464
136.981606
107.839704
81.807971
58.793426
44.723749
34.686923
29.865503
25.268793
22.193789
21.356940
20.997524
19.385815
18.553734
17.141700
17.358661
16.666651
16.277432
15.367866
15.169978
14.787912
14.087558
14.472604
15.042424
13.945699
14.179945
14.596581
14.641881
16.121864
16.414523
17.094612
17.085671
18.473864
18.382668
19.444823
19.992590
20.278692
19.637942
20.254850
21.367669
20.743608
21.959543
21.978617
22.784472
22.245646
23.512840
23.070574
22.797585
23.559928
23.348927
23.279786
23.409724
25.263429
24.773479
24.066567
##ZVALUE=275
0.971556
0.900626
1.259446
0.920892
1.020432
0.929832
1.012683
1.268983
1.285672
1.374483
1.160502
1.338720
1.330972
1.345873
1.298785
1.395941
1.632571
1.976490
1.962781
4.826784
20.007491
60.926676
174.224973
303.732753
519.790649
662.301779
820.163488
890.805721
901.075602
837.773681
735.673904
537.883639
386.855006
215.659738
136.073828
78.279972
68.359971
80.758929
100.658536
129.729509
149.968863
170.269608
175.909996
169.465542
153.878927
126.500726
102.126598
74.052811
55.471659
38.693547
29.320717
23.307800
19.841790
18.119812
16.632676
16.300678
15.664697
14.742613
14.957786
14.997721
14.359951
14.290810
14.340878
14.254451
13.981462
14.362931
13.643503
14.512539
15.051961
15.224814
16.079545
16.712546
17.185807
18.293858
18.951893
18.503666
19.480586
19.582510
20.410419
20.761490
20.779967
20.820498
20.961761
21.248460
22.309422
21.737814
21.995902
22.392869
21.499991
22.587776
21.859407
23.016930
22.834539
22.518635
23.030639
23.533702
##ZVALUE=280
0.924468
0.889897
0.889897
0.832677
1.060963
0.922680
1.070499
1.167655
1.168847
1.090765
1.295805
1.320839
1.292825
1.165867
1.227856
1.421571
1.452565
1.492500
1.359582
1.609921
1.907945
2.780557
10.386705
55.575967
126.312971
266.361833
396.249890
592.250824
729.660988
856.907964
905.971527
868.833661
774.317980
586.692691
440.522432
260.353684
162.160993
80.640912
54.667592
51.870942
66.877604
93.179941
114.854574
142.054558
155.700445
161.370635
159.562826
137.550831
118.121505
90.814829
69.641471
47.304630
33.521652
22.418499
17.128587
14.100671
13.194680
13.034940
13.268590
13.649464
13.230443
12.744665
13.007522
13.538599
13.007522
13.406873
14.211535
15.033484
14.363527
15.628934
16.219616
16.391873
16.849637
17.424822
18.280745
18.269420
19.359589
19.281507
20.391941
20.221472
20.576715
21.111965
21.068454
21.246672
22.256970
21.345615
21.870732
21.082759
21.971464
22.364855
22.103786
22.129416
21.427870
22.546649
22.095442
22.193789
##ZVALUE=285
0.954866
0.904799
0.984669
0.998974
1.028776
1.004934
1.142621
1.012683
0.894666
1.080632
1.183748
1.052618
1.206994
1.102686
1.160502
1.232624
1.259446
1.367927
1.083612
1.504421
1.384616
1.598597
1.817942
2.157688
6.253719
22.555590
78.637600
159.614682
321.161747
468.625426
663.805008
796.178579
886.852741
916.904807
854.086876
687.539577
533.379912
336.318016
209.782720
102.919936
57.423711
36.584735
38.101673
59.300661
79.235435
109.753609
127.828717
144.591928
150.147676
145.606995
134.205818
110.512972
89.749694
63.472986
45.168996
28.664470
20.830631
14.566779
12.776852
11.789799
11.872649
11.912584
12.826920
12.471676
13.123751
13.262630
13.748407
14.276505
14.635921
15.917420
15.648603
16.528964
16.866922
18.048882
18.068552
18.773675
19.215941
19.501448
19.477606
20.415783
20.522475
20.696521
20.373464
21.711588
21.761656
22.181869
21.820664
21.649599
21.598935
22.219419
21.884441
21.374822
21.770000
21.822453
21.955967
21.795630
##ZVALUE=290
0.873804
0.912547
0.968575
0.864863
1.090765
0.924468
0.798702
0.755787
0.929832
1.082420
0.866652
0.940561
0.930429
0.894666
1.064539
1.038909
1.116991
1.132488
1.072884
1.219511
1.162887
1.278520
1.422763
1.397729
1.582503
1.987815
2.574921
8.714795
42.081475
98.909736
182.975531
355.151892
515.872836
716.497898
831.866860
906.182528
876.567960
752.846599
616.339445
413.506627
272.786617
138.997436
75.783730
34.419894
26.671886
36.329627
50.574541
72.886944
93.213916
120.972991
135.862827
144.003630
141.248703
127.111673
110.935569
82.549453
61.885715
40.235519
29.006600
19.149780
14.640689
12.755990
12.255907
12.657642
12.814999
12.816787
13.620853
13.586879
15.130639
15.457869
16.054511
17.314553
17.793775
17.875433
18.021464
18.220544
18.687844
19.646883
19.910932
20.421743
20.818710
20.641685
21.256804
20.778775
21.018982
21.722913
21.945834
22.190809
21.486878
21.655560
21.898746
22.278428
21.565557
21.688938
21.348000
21.816492
##ZVALUE=295
0.723600
0.734925
0.796914
0.935793
0.831485
1.051426
0.816584
0.917912
0.885725
0.803471
0.964999
0.879765
0.980496
0.875592
0.951886
0.976920
0.959635
0.929832
1.079440
0.972748
1.232624
1.196861
1.415610
1.196861
1.322627
1.418591
1.687407
1.591444
1.794696
3.618598
12.334585
54.597855
121.328831
268.145800
413.125753
621.551871
755.268931
872.174501
889.142752
807.168484
688.935518
488.425493
340.827703
182.902813
99.519491
40.289760
23.129582
21.570921
29.482841
48.353672
66.349506
90.938807
110.864639
128.809810
135.930777
133.503675
122.483969
101.949573
82.481503
58.876872
43.162704
27.802587
20.383000
15.683770
13.923645
12.683868
12.965798
13.825893
14.654994
15.453696
15.905499
16.206503
17.107725
17.745495
18.860698
18.985868
19.940734
19.920468
20.258427
20.671487
21.460652
21.534562
21.540523
22.045970
21.285415
22.000670
21.910667
21.892786
22.469759
22.294521
22.192597
21.616817
21.396875
21.603703
21.052957
21.305680
##ZVALUE=300
0.850558
0.779629
0.762939
0.785589
0.682473
0.676513
0.862479
0.665784
0.791550
0.689626
0.638962
0.884533
1.062751
0.960827
1.031756
1.002550
1.070499
1.020432
0.948906
1.045465
1.148582
0.957847
1.141429
1.176000
1.107454
1.242757
1.304746
1.484752
1.730919
1.489520
1.666546
2.143979
8.003712
26.188493
88.096857
165.873766
325.631499
476.019979
672.754645
788.425803
870.595574
854.682922
740.329623
603.408813
397.741795
261.241794
130.808949
70.778728
28.619766
17.375946
19.393563
26.728511
42.716861
57.819486
83.745718
102.168918
121.520758
129.047632
128.989816
120.812654
102.355480
83.778501
60.307980
45.247674
30.200481
22.271872
16.872883
15.164614
14.784932
14.906526
15.453696
16.641617
17.483830
17.129779
18.218756
18.718839
19.633770
19.612908
20.271540
20.908713
20.952821
21.792650
22.414923
21.869540
22.676587
22.275448
22.633672
22.605658
22.842884
22.396445
22.540689
22.641420
22.222996
21.504760
21.786690
21.758676
##ZVALUE=305
0.813603
0.797510
0.870824
0.911951
0.693798
0.807643
0.943542
0.864863
0.613928
0.754595
0.875592
0.931621
0.821948
0.724792
0.793934
1.012683
1.039505
0.904799
0.891685
0.917912
0.900626
1.090765
1.033545
0.966787
1.097918
1.188517
1.143813
1.119971
1.266599
1.300573
1.507998
1.365542
1.536608
1.831651
3.094673
20.312667
56.871772
149.056911
254.296660
440.286994
586.746931
757.035017
840.534568
860.407948
797.999501
630.739927
488.201976
310.832858
193.683505
88.872910
44.238567
18.071532
13.476610
17.516613
25.347471
40.721893
57.511926
79.384446
97.552538
115.997791
125.004649
121.796727
115.682483
96.299648
79.865456
57.439804
44.344664
30.128956
23.523569
18.412471
17.385483
17.496943
17.344952
18.122792
18.326640
19.489527
20.080805
20.194650
20.941496
21.796823
21.979809
22.095442
22.745728
23.177862
23.284554
23.022890
23.822784
23.331642
23.249984
23.802519
23.384690
22.879839
22.562742
22.637844
22.557974
22.724867
##ZVALUE=310
0.687838
0.799894
0.669956
0.635982
0.845790
0.760555
0.768900
0.739694
0.738502
0.690818
0.782609
0.710487
0.683665
0.828505
0.731945
0.774860
0.764728
0.801682
0.664592
0.768900
0.943542
0.941753
0.893474
0.849962
1.087785
0.910759
1.007915
1.148582
1.097918
1.105666
1.253486
1.284480
1.188517
1.338720
1.634955
1.741648
2.145767
9.738803
31.199455
99.361539
185.437799
345.775485
500.403643
697.439909
801.589489
869.629979
845.320821
725.326538
598.737597
398.054719
265.197754
134.605765
72.108507
27.212501
13.966560
11.855960
15.747547
24.356842
35.106540
54.092407
70.100427
93.608499
106.470585
118.582845
118.684769
109.938979
97.169876
80.090761
63.339472
44.338703
34.687519
25.907755
22.259951
19.413829
19.462705
19.347668
19.732714
20.485520
21.067858
22.191405
21.906495
23.183823
23.524761
23.477674
23.821592
24.223924
24.201870
24.323463
24.002790
24.142861
23.688674
22.876859
23.245811
22.735000
22.727847
23.006797
##ZVALUE=315
0.744462
0.814795
0.743866
0.716448
0.827909
0.686646
0.605583
0.759959
0.870824
0.864863
0.756979
0.756979
0.957847
0.970960
0.761747
0.890493
0.962615
0.860691
0.806451
1.015663
0.847578
0.959635
0.864863
1.038909
1.041889
1.018643
0.926852
1.064539
0.883937
1.070499
1.073480
1.253486
1.227856
1.190901
1.265407
1.473427
1.499653
1.646876
1.872778
4.128814
15.639663
62.495470
131.927729
275.456905
421.360731
629.737973
747.219920
839.044452
856.208801
779.238939
664.215684
477.309823
336.685777
181.246996
99.317431
38.460493
18.065572
10.729432
10.992885
15.509725
21.330714
34.985542
47.935843
68.465471
84.590912
104.315877
112.005472
114.347935
109.091997
93.239546
78.707933
60.519576
47.539473
33.949614
27.126670
23.286939
21.239519
20.900965
21.482706
21.520853
22.540689
23.088455
22.958517
23.754835
23.741722
24.193525
24.071932
24.561882
24.275780
24.090409
23.930669
23.704767
23.744702
23.463964
22.821426
23.298860
##ZVALUE=320
0.703931
0.738502
0.652671
0.646710
0.716448
0.563860
0.773668
0.670552
0.706911
0.788569
0.849962
0.698566
0.780821
0.828505
0.524521
0.734925
0.878572
0.879765
0.663996
0.819564
0.854731
0.816584
0.928640
0.759959
0.958443
1.019835
0.976920
0.881553
1.090765
1.021624
0.994802
1.073480
1.108646
1.033545
1.108646
1.117587
1.108646
1.214743
1.219511
1.428723
1.592636
2.186894
6.799698
33.439994
82.192421
200.281739
313.795805
493.239760
631.352663
784.042478
841.423869
816.727877
735.381842
558.334589
407.215953
226.718783
130.933523
56.992769
27.319789
12.036562
9.674430
11.463761
14.318824
21.622777
29.523969
46.269894
63.029528
83.939433
97.055435
108.257532
110.384822
104.426742
94.171762
76.446533
61.408877
46.065450
36.808848
28.926730
25.644898
23.047924
22.792816
23.158789
23.117661
24.588704
24.004579
24.241805
24.163723
24.117827
24.367571
24.215579
24.446845
24.003983
24.153590
23.838878
23.556948
23.279786
##ZVALUE=325
0.699759
0.839829
0.690818
0.838637
0.776649
0.658631
0.724792
0.691414
0.812411
0.655651
0.808835
0.853539
0.755787
0.650883
0.645518
0.774860
0.667572
0.742674
0.722408
0.650883
0.809431
0.695586
0.819564
0.862479
0.929832
0.979900
0.875592
0.874996
0.950694
0.881553
0.924468
0.826716
1.041889
0.841618
1.032948
1.075864
1.076460
1.167655
1.169443
1.087785
1.162887
1.518726
1.608729
1.743436
3.401637
19.675493
49.597621
123.284459
216.567516
389.722586
528.100729
697.947741
785.344839
815.182924
753.955841
597.957969
454.023480
278.576612
169.121623
74.998736
38.704872
14.906526
10.392666
10.384917
11.597872
15.348792
21.331906
32.330751
44.670701
64.262748
79.458952
94.857812
103.187561
105.211735
100.470781
86.078644
75.345635
58.759451
48.105717
35.956502
29.680729
26.075840
24.505854
23.912787
23.636818
23.496747
23.537874
23.775697
24.005771
24.160743
24.188757
24.247766
23.249984
23.537874
23.701787
23.365617
##ZVALUE=330
0.715852
0.832677
0.864863
0.750422
0.770688
0.823736
0.751615
0.851750
0.884533
0.708699
0.736713
0.894666
0.861883
0.681877
0.710487
0.891685
0.882745
0.892878
0.834465
0.809431
0.812411
0.897646
0.767708
0.776649
0.967979
0.978708
0.869632
0.813603
0.860691
0.946522
0.934601
0.840425
0.781417
1.026988
1.086593
0.978708
1.045465
1.222491
1.110435
1.320839
1.214743
1.140833
1.290441
1.447797
1.381636
1.522899
2.074838
7.440448
23.010969
76.315999
145.339966
287.546515
419.981480
608.208776
720.911026
794.662833
768.254995
650.503635
520.069003
336.162448
217.756629
104.313493
54.442883
22.851825
12.433529
10.604858
10.537505
12.230873
15.244484
22.985935
31.194687
45.265555
59.576631
78.040957
89.965463
100.415945
100.661516
95.232725
86.755753
70.048571
57.988763
44.751763
37.139654
30.581951
27.489662
24.508834
24.263859
23.800731
23.676753
23.791790
23.596883
23.115873
23.434758
23.001432
23.048520
23.359656
##ZVALUE=335
0.620484
0.572801
0.669956
0.664592
0.715852
0.573993
0.544786
0.596642
0.663996
0.571609
0.675917
0.470877
0.498891
0.606775
0.696778
0.547767
0.618696
0.584722
0.702739
0.691414
0.671744
0.695586
0.752807
0.842810
0.740886
0.736713
0.865459
0.820756
0.870824
0.770688
0.908971
0.730753
0.781417
1.006722
0.899434
0.717640
0.786781
0.862479
0.979900
0.914931
0.756979
1.005530
1.101494
1.101494
0.993609
1.131892
1.521707
1.413822
1.552701
3.400445
11.972785
46.563745
97.277761
213.842988
340.666771
529.104471
654.062629
757.466555
766.972899
686.340928
577.043891
397.481918
268.556476
141.828656
77.196956
28.614998
15.323758
10.794997
10.849833
11.634827
12.824535
16.595721
21.277666
32.811761
43.147802
59.985518
73.346496
87.506771
93.226433
94.856620
90.491772
80.436468
69.748759
57.639480
47.351718
36.710501
30.804873
26.725531
24.627447
23.468733
23.062825
22.986531
22.499561
22.030473
22.587776
22.358894
##ZVALUE=340
0.792742
0.717640
0.568628
0.570416
0.711679
0.723600
0.853539
0.740886
0.832677
0.831485
0.689626
0.779629
0.766516
0.755787
0.794530
0.713468
0.786781
0.661612
0.822544
0.633597
0.826716
0.668764
0.803471
0.870824
0.861883
0.927448
0.740886
0.758767
0.834465
0.685453
0.935793
0.773668
0.789762
0.970960
0.835657
0.982881
0.965595
0.998974
1.057982
0.948906
0.913739
1.105666
1.197457
1.002550
1.222491
1.138449
1.316667
1.279712
1.285672
1.321435
1.569986
2.148747
6.173849
27.572513
68.143606
165.170431
276.062489
447.916985
581.159592
708.238482
752.491951
706.011653
617.727637
456.922650
322.421789
170.407891
95.835924
41.587949
20.062923
11.437535
11.023879
11.250973
12.419820
13.933778
17.166734
23.653507
31.479001
43.711662
56.474805
72.153807
82.154870
90.074539
90.700984
86.719990
79.210997
67.245960
56.041479
44.351816
37.678480
29.788613
26.232600
23.619533
22.560954
22.201538
21.943450
21.934509
##ZVALUE=345
0.565648
0.604987
0.646710
0.707507
0.599623
0.767708
0.718832
0.570416
0.507832
0.578761
0.561476
0.664592
0.505447
0.635982
0.702739
0.626445
0.658631
0.699759
0.687838
0.725985
0.540614
0.692606
0.629425
0.702739
0.657439
0.606775
0.667572
0.628829
0.588894
0.718832
0.573993
0.749826
0.749826
0.843406
0.742674
0.850558
0.954866
0.852942
0.848770
0.801682
0.788569
0.899434
0.932813
0.848770
0.953674
1.032948
1.053810
0.931621
1.063943
1.119971
1.146793
1.238585
1.456738
1.723766
2.804995
16.123652
43.691993
113.971829
199.689865
356.564522
492.045879
646.233559
714.860559
719.267726
659.514666
510.733724
376.299620
216.169953
124.179721
54.515600
27.059913
13.071895
10.935664
11.147857
11.485815
12.467504
13.813972
17.069578
21.249652
30.412674
39.883852
54.346919
65.155625
76.245666
82.788467
84.628463
82.570910
75.169802
66.908002
53.563714
44.583678
34.612417
29.597878
25.009513
22.834539
21.243691
##ZVALUE=350
0.632405
0.496507
0.618696
0.704527
0.609756
0.695586
0.550747
0.532866
0.616908
0.513792
0.607967
0.489950
0.702739
0.625849
0.623465
0.690818
0.563860
0.651479
0.699759
0.719428
0.681877
0.661612
0.710487
0.671744
0.592470
0.674725
0.701547
0.532866
0.674725
0.748634
0.678897
0.636578
0.693798
0.905991
0.752807
0.808835
0.731945
0.765920
0.873804
0.750422
0.883937
0.699759
0.654459
0.821948
0.781417
0.999570
0.856519
0.907779
0.860691
0.989437
1.052618
1.085997
1.188517
1.262426
1.263618
1.347661
1.761913
8.782744
25.546551
76.181889
143.806934
280.856490
405.908823
558.553934
656.715631
705.920458
671.756864
554.913878
428.701639
257.159472
159.269571
75.879693
37.197471
14.926791
11.078715
10.709763
11.212826
11.639595
12.034774
13.740659
15.912652
21.683574
27.489662
36.677718
45.926571
58.682561
67.891479
75.118542
78.270435
76.531768
70.861578
60.214996
51.423907
40.967464
33.802986
27.699471
##ZVALUE=355
0.619888
0.669956
0.608563
0.643730
0.530481
0.734925
0.710487
0.724792
0.572801
0.738502
0.604987
0.485778
0.576973
0.578761
0.586510
0.615716
0.627637
0.562668
0.690818
0.704527
0.587702
0.867844
0.703931
0.817776
0.719428
0.599623
0.687838
0.669956
0.755787
0.789762
0.728965
0.699759
0.722408
0.758767
0.817776
0.791550
0.789762
0.798702
0.693798
0.687838
0.846982
0.779629
0.716448
0.798702
0.895858
0.813603
0.879765
1.079440
1.049638
0.821948
0.907779
1.066923
0.935793
1.100898
1.090765
1.094937
1.267791
1.288652
1.384616
4.033446
13.588667
50.151944
101.104975
211.820602
327.572823
501.278639
604.081750
683.422685
676.676631
578.069687
468.142629
309.605002
197.674632
89.870691
45.399666
17.663836
11.101961
10.013580
10.446906
11.055470
11.332631
12.013912
13.124943
15.357733
18.474460
25.032759
32.008886
42.671561
50.430894
60.989857
67.790747
71.249604
70.308447
63.720942
57.465434
48.049688
##ZVALUE=360
0.587702
0.475645
0.527501
0.525713
0.633597
0.611544
0.610948
0.436902
0.682473
0.640750
0.587702
0.483990
0.510812
0.642538
0.528693
0.541806
0.707507
0.530481
0.618696
0.647902
0.659823
0.704527
0.620484
0.747442
0.692606
0.633597
0.576973
0.618696
0.755787
0.873804
0.639558
0.707507
0.769496
0.517964
0.665784
0.804663
0.609756
0.496507
0.771880
0.697970
0.670552
0.798702
0.701547
0.859499
0.828505
0.548959
0.769496
0.793934
0.703931
0.765920
0.847578
0.937581
0.875592
0.965595
0.987649
1.000762
1.040697
1.163483
1.206994
1.246929
1.321435
2.296567
6.121397
26.212931
62.460899
153.361559
251.154900
405.075550
527.368784
641.091466
665.061474
616.619587
521.145463
358.020663
239.253640
119.344592
63.614845
26.485920
13.505816
9.679794
9.730458
10.180473
10.537505
10.887980
11.109710
11.963844
13.451576
16.599894
20.355582
26.896000
34.641623
45.669675
52.876472
60.536861
64.017773
63.627958
##ZVALUE=365
0.530481
0.550747
0.574589
0.568628
0.610948
0.527501
0.691414
0.607967
0.529885
0.552535
0.602603
0.580549
0.600815
0.550747
0.546575
0.646710
0.667572
0.578761
0.658631
0.651479
0.595450
0.586510
0.626445
0.653863
0.563860
0.565648
0.688434
0.610948
0.793934
0.699759
0.664592
0.730753
0.720620
0.658631
0.542998
0.676513
0.823736
0.563860
0.658631
0.669956
0.655651
0.740886
0.715852
0.710487
0.654459
0.750422
0.759959
0.874996
0.800490
0.921488
0.934601
0.776649
0.891685
0.897646
0.871420
1.012683
0.903606
0.814795
1.009703
0.992417
1.053810
1.233816
1.476407
1.638532
2.901554
14.839768
38.856864
100.902915
184.990764
339.666009
455.789566
582.032800
639.119744
626.101494
549.712777
406.435728
289.750695
161.770582
89.226961
34.704804
16.528964
9.355545
8.831620
9.067655
9.057522
9.563565
9.759665
10.077953
11.010766
12.288690
13.943911
18.450618
22.771955
31.273961
38.055778
47.208667
##ZVALUE=370
0.559688
0.637770
0.529885
0.561476
0.517964
0.660419
0.449419
0.651479
0.685453
0.547767
0.553727
0.545979
0.443459
0.628829
0.520945
0.515580
0.561476
0.593662
0.559688
0.537634
0.558496
0.748634
0.443459
0.504851
0.679493
0.637770
0.655651
0.701547
0.767708
0.820756
0.708699
0.623465
0.602603
0.681877
0.735521
0.541806
0.711679
0.622869
0.683665
0.719428
0.633597
0.689626
0.729561
0.676513
0.781417
0.613928
0.758767
0.757575
0.855923
0.879765
0.707507
0.909567
0.834465
0.855923
0.752807
0.994802
0.942945
0.858903
0.843406
1.049638
1.027584
1.151562
1.164675
1.228452
1.227856
1.520514
1.909733
8.306503
25.238991
77.084899
142.669678
271.746516
390.816927
541.192889
615.088940
627.936721
574.593544
450.539589
337.356925
193.134546
111.763477
47.173500
23.035407
10.629892
8.391738
8.164644
8.524656
8.809566
8.952618
9.295940
9.529591
10.212660
10.669827
12.789965
15.665889
20.128489
##ZVALUE=375
0.696778
0.575781
0.514984
0.529885
0.577569
0.588894
0.715852
0.631809
0.659823
0.512600
0.604987
0.523925
0.462532
0.573993
0.451803
0.666976
0.575781
0.602603
0.598431
0.619888
0.693798
0.526905
0.527501
0.543594
0.545979
0.652671
0.621676
0.461936
0.515580
0.720620
0.575781
0.673532
0.539422
0.771880
0.602603
0.688434
0.728965
0.634789
0.732541
0.730753
0.640750
0.625849
0.707507
0.710487
0.714660
0.610948
0.815988
0.720620
0.700951
0.754595
0.722408
0.628829
0.670552
0.737906
0.782609
0.783801
0.819564
0.756979
0.664592
0.788569
0.838637
0.875592
0.809431
1.014471
0.946522
1.006722
1.087785
1.339912
1.527667
4.079938
13.351440
45.523643
96.597672
213.354826
324.647427
479.867458
569.935441
624.803901
606.333017
500.568748
388.959646
238.615870
151.894689
77.671409
40.222406
15.507936
9.085536
7.592440
7.572770
7.779598
8.084774
8.322597
8.395910
8.827448
8.964539
9.971857
##ZVALUE=380
0.533462
0.512600
0.536442
0.531673
0.684857
0.564456
0.611544
0.564456
0.450611
0.694990
0.571609
0.593662
0.516772
0.771880
0.462532
0.561476
0.503659
0.498891
0.609756
0.421405
0.461936
0.341535
0.666976
0.634789
0.488758
0.595450
0.545979
0.533462
0.644922
0.571609
0.621676
0.636578
0.625849
0.659823
0.622869
0.654459
0.526905
0.603795
0.733733
0.715852
0.667572
0.658631
0.670552
0.489950
0.653863
0.727773
0.520945
0.516772
0.699759
0.647902
0.636578
0.896454
0.556707
0.641942
0.751615
0.718832
0.623465
0.590682
0.663996
0.904799
0.730753
0.847578
0.870824
0.800490
0.819564
0.836849
1.065731
1.039505
1.230836
1.199841
1.293421
2.209544
7.632971
33.047795
74.750781
171.184540
274.332762
420.565009
526.725650
614.009500
618.553758
537.557006
438.665748
298.083425
199.910998
101.071000
53.796768
20.962954
11.011958
7.558465
7.193685
7.207990
7.468462
7.730722
7.890463
7.937551
##ZVALUE=385
0.586510
0.588894
0.610948
0.559688
0.567436
0.581741
0.575781
0.394583
0.580549
0.674725
0.520945
0.287890
0.577569
0.591874
0.577569
0.547767
0.674725
0.529885
0.614524
0.508428
0.636578
0.586510
0.267625
0.566840
0.526905
0.614524
0.632405
0.525713
0.622869
0.509620
0.506639
0.677705
0.543594
0.565648
0.561476
0.715852
0.619888
0.866652
0.691414
0.550747
0.657439
0.599623
0.532866
0.535846
0.564456
0.608563
0.654459
0.640750
0.599623
0.676513
0.756979
0.742674
0.752807
0.609756
0.699759
0.555515
0.846982
0.611544
0.691414
0.712872
0.681877
0.771880
0.667572
0.774860
0.647902
0.900626
0.821948
0.900626
0.859499
0.980496
1.137853
1.141429
1.203418
1.490712
3.701448
18.689632
47.191978
116.677880
203.890800
354.517698
468.823910
578.606725
607.043505
578.043461
504.876971
371.501446
264.244676
145.175457
83.129406
36.087632
16.860962
7.537603
6.591678
6.274581
6.670952
6.816983
##ZVALUE=390
0.513792
0.487566
0.504851
0.478625
0.386834
0.589490
0.544786
0.424981
0.526905
0.468493
0.558496
0.572801
0.531673
0.585914
0.483990
0.512600
0.542998
0.428557
0.620484
0.502467
0.509620
0.493526
0.496507
0.555515
0.659823
0.556707
0.515580
0.641942
0.633597
0.355840
0.565648
0.579953
0.664592
0.604987
0.692606
0.823736
0.705719
0.785589
0.720620
0.565648
0.548959
0.618696
0.565648
0.630617
0.489950
0.628829
0.755787
0.655651
0.662804
0.723600
0.665784
0.615716
0.864863
0.603795
0.612736
0.705719
0.715852
0.741482
0.628829
0.677705
0.829697
0.736713
0.706911
0.688434
0.637770
0.895858
0.874996
0.901818
0.924468
0.953674
1.054406
0.988841
1.118779
1.190901
1.191497
1.238585
2.098680
9.765625
28.771758
84.469914
158.343911
295.272470
405.098796
533.374548
593.519807
605.942011
560.003519
438.084602
337.702632
205.065608
121.281743
51.685572
25.285482
10.039806
6.527901
6.032586
##ZVALUE=395
0.466704
0.542998
0.574589
0.527501
0.542998
0.594854
0.567436
0.485778
0.557899
0.452995
0.486970
0.474453
0.588894
0.558496
0.570416
0.503659
0.495911
0.640750
0.593662
0.624657
0.632405
0.472665
0.466704
0.566840
0.612736
0.486970
0.599623
0.572801
0.619888
0.772476
0.652671
0.699759
0.687838
0.667572
0.712872
0.718832
0.745654
0.669956
0.667572
0.467896
0.803471
0.710487
0.613928
0.729561
0.707507
0.557899
0.639558
0.674725
0.627637
0.768900
0.675917
0.755787
0.725985
0.803471
0.644922
0.658631
0.756979
0.686646
0.739694
0.675917
0.512600
0.809431
0.615716
0.747442
0.693798
0.795722
0.749826
0.870824
0.954866
0.962615
1.017451
0.993609
0.944734
1.064539
1.046658
1.048446
1.067519
1.399517
1.513958
5.464554
18.803477
63.021779
121.061802
236.518979
342.342854
487.048626
571.276546
621.756911
604.819655
508.780479
399.784446
245.996714
157.613754
75.961947
37.496686
14.170408
##ZVALUE=400
0.552535
0.574589
0.573993
0.433922
0.408888
0.515580
0.452995
0.482798
0.368953
0.388622
0.503659
0.537634
0.438690
0.409484
0.579953
0.520945
0.602603
0.416636
0.696778
0.564456
0.601411
0.542998
0.502467
0.555515
0.531673
0.604987
0.692606
0.529885
0.493526
0.732541
0.640750
0.583529
0.648499
0.638962
0.721812
0.670552
0.823736
0.832677
0.666976
0.795722
0.686646
0.515580
0.791550
0.665784
0.759959
0.691414
0.573993
0.669956
0.831485
0.639558
0.675917
0.641942
0.642538
0.561476
0.804663
0.650883
0.710487
0.701547
0.568628
0.694990
0.747442
0.740886
0.605583
0.755787
0.738502
0.826716
0.778437
0.716448
0.826716
0.884533
1.069903
0.991821
0.789762
0.906587
0.890493
0.939965
0.928640
1.087785
1.074672
1.281500
1.516938
3.249645
10.815859
36.533475
78.260899
173.142552
272.975564
419.918895
517.740846
597.031713
604.139566
533.543825
436.538458
290.208459
192.415714
97.378492
##END
