##TITLE=FQP00652
##FORMAT=SPECTACLE-ASCII V-1.2
##DATA TYPE=ULTRAVIOLET SPECTRUM
##SECOND TYPE=ULTRAVIOLET SPECTRUM
##DATE=02/08/18
##TIME=15:39:03
##SPECTROMETER/DATA SYSTEM=SPECTACLE
##XUNITS=NM EM
##YUNITS=ENERGY
##YFACTOR=1
##FIRSTX=220
##LASTX=410
##NPOINTS=96
##3DDATA=Equidistant
##ZUNITS=NM EX
##FIRSTZ=210
##LASTZ=400
##ZPOINTS=39
##XYDATA=(Y..Y)
##ZVALUE=210
2.133846
2.339482
1.877546
2.569556
2.658963
2.696514
3.227592
2.757907
1.919866
2.093911
1.962781
2.260804
2.744794
2.111793
2.093911
2.319813
1.949668
2.591610
3.158450
3.810525
3.224611
3.615618
3.400445
3.194809
3.858805
4.641414
4.355907
4.767776
5.981922
5.297661
6.675720
6.138682
6.382465
6.702542
6.826520
6.613731
7.476807
6.583929
6.895661
7.225871
6.341934
7.805824
5.465746
6.502867
6.258488
6.627440
6.566644
6.904602
6.229877
6.131530
6.446838
6.005764
5.733967
6.508827
6.838441
6.709695
5.796552
6.851554
6.404519
6.770492
6.608963
5.878806
6.535649
7.091761
6.892681
6.317496
7.210970
6.332994
8.650422
10.156631
11.997819
13.584495
15.906692
18.211603
18.969774
20.637512
20.790696
22.090673
18.893480
19.766688
19.147992
17.965436
14.034510
13.550520
11.002421
10.011792
7.478595
7.646680
6.999969
6.013513
6.513596
6.904602
6.617904
6.269813
6.475449
6.413460
##ZVALUE=215
5.808473
5.881786
5.696416
4.744530
4.313588
3.860593
3.467798
4.657507
5.496740
4.846454
4.288554
4.279613
3.653765
2.574921
2.981424
2.931952
2.785921
2.880692
2.749562
2.957582
2.830625
3.257990
4.108548
3.691912
4.644990
3.958941
4.637837
5.774498
7.187724
7.429719
8.626580
9.620786
9.620786
10.174513
10.102987
10.179877
9.178519
9.755492
9.378791
10.476708
10.271668
8.888841
9.301901
8.225441
8.586645
7.667542
7.851720
8.020997
7.610917
7.733703
7.783771
8.545518
7.996559
7.439852
6.827712
6.911755
6.921887
6.168485
7.560849
6.724000
6.866455
5.620718
7.137656
7.664561
6.102920
7.849932
7.718801
8.259416
8.585453
10.833740
11.666417
12.876987
14.739633
17.623901
19.247532
20.093918
21.647811
22.327900
21.338463
21.830797
21.213889
19.014478
16.779900
13.388991
13.785958
10.965466
9.524822
8.105636
5.909801
6.807446
6.928444
5.472898
6.269813
5.555749
5.293489
6.910563
##ZVALUE=220
21.316409
19.536614
23.426414
21.250844
19.874573
15.729666
13.139844
12.436509
9.797812
11.414886
11.877418
12.541413
11.427999
10.689497
9.174943
8.591413
4.862547
4.635453
3.626943
3.386736
4.016757
3.559589
3.647804
4.530549
4.046559
5.347729
6.618500
8.525848
8.344650
10.447502
13.592839
13.522506
14.464855
14.539957
14.994740
15.571713
16.178489
14.193654
14.274716
16.615987
13.363957
13.395548
13.239980
13.474822
12.029409
11.063814
11.024475
10.632873
10.268688
10.510683
9.045601
8.726716
9.728670
7.880926
7.530451
8.819699
8.362532
8.135438
8.317828
7.690787
8.401871
7.345676
7.859468
7.077456
7.506609
7.539988
7.893443
8.991957
9.344816
10.051727
9.850860
11.974573
13.735890
13.986826
16.769767
16.787648
17.336607
17.722845
17.732978
18.302798
17.039776
16.590953
15.042424
13.380647
11.100769
9.724498
8.216500
7.958412
7.229447
7.010698
6.940961
6.068945
6.340742
5.994439
7.965565
6.489754
##ZVALUE=225
41.952729
45.906901
57.742000
71.586967
73.240995
72.653890
68.130493
49.440861
38.109422
28.860569
24.536848
24.057627
24.180412
27.353764
26.431680
23.509860
20.224452
16.551614
11.232495
9.177923
5.708933
4.137754
4.076958
4.384518
5.482435
6.458759
7.506609
9.891987
10.821819
13.512969
14.157891
17.697811
18.409491
17.239451
18.908978
19.539595
18.765926
18.766522
18.811822
18.738508
16.551614
16.885996
15.994906
15.450716
13.605952
13.660789
11.917949
12.559891
13.288856
12.122989
10.338426
12.216568
11.217594
10.397434
10.567904
10.076761
10.428429
9.740591
10.710955
8.719563
9.785891
8.861423
9.304881
9.917617
9.128451
8.570552
10.030866
9.430647
10.977983
11.850595
13.806820
13.497472
15.342832
18.825531
18.671751
18.881559
17.684698
19.160509
18.461943
16.589761
16.654730
15.453696
14.662743
13.229847
11.084676
10.438561
9.874701
8.545518
7.795691
9.295940
9.386539
9.182692
8.619428
7.915497
8.339882
7.413626
##ZVALUE=230
46.477914
50.252676
79.950690
131.332874
159.473419
195.730925
213.375688
206.679702
177.736878
149.719715
102.032423
70.665479
51.854849
46.370625
47.633648
49.496889
53.043962
51.395893
46.256781
35.341978
28.611422
18.986464
12.725592
8.926988
7.651448
6.880760
8.423924
9.603500
9.323955
12.232661
12.704730
16.231537
15.584826
18.783808
16.230941
17.370582
18.634796
18.380880
18.391609
17.234683
17.114878
15.281439
16.822815
14.810562
15.504956
13.979673
14.272928
13.143420
12.896657
13.594627
12.301803
11.631846
12.265444
11.401772
12.462735
11.532903
11.463761
11.258721
10.938644
10.642409
10.881424
10.675788
11.113882
10.718703
11.563897
11.692643
11.712909
11.993647
13.302565
14.569759
15.419722
16.327500
17.398596
19.358993
21.061897
21.381974
23.001432
22.795796
21.518469
20.405650
19.223690
18.703938
16.737580
15.988946
13.911724
14.796853
12.825727
12.482405
12.514591
12.249947
11.849999
11.596680
12.207627
11.192560
12.031794
11.770725
##ZVALUE=235
18.547773
20.577908
43.400526
100.941658
161.271691
253.232718
328.006744
402.241945
434.139967
418.303609
372.186899
278.939009
208.613873
132.206678
101.905465
79.947710
75.096488
75.429678
84.417462
83.307624
78.544617
65.212846
52.963495
38.786530
27.346611
17.717481
12.272596
10.744929
9.896755
10.421872
11.948943
12.574792
11.845827
11.828542
14.223456
13.687611
14.120936
14.545918
15.753508
15.868545
15.570521
14.610887
14.194846
14.915466
14.197826
14.240742
13.828874
14.521480
14.956594
13.386607
14.451742
12.761950
13.048649
13.249516
12.042522
12.303591
11.984706
12.632608
13.255477
13.698936
13.092756
12.961626
13.520718
12.898445
14.074445
14.359951
14.113784
15.304685
15.879869
18.300414
19.416809
21.763444
22.580624
25.793910
26.884675
26.908517
29.415488
29.151440
30.133724
26.902556
26.083589
23.967624
23.324490
20.816922
19.971728
17.730594
17.381907
17.046928
17.729998
16.160607
16.294718
16.709566
16.690493
16.023517
15.521646
15.317798
##ZVALUE=240
1.930594
2.980828
6.733537
29.450655
64.521432
132.529736
223.554969
377.157927
503.532887
597.565770
661.292672
642.464757
538.387895
445.068479
309.019685
215.878487
125.583410
103.682876
89.066625
97.722411
105.508566
116.537809
111.348629
98.269582
83.502531
63.840747
47.536492
29.605627
20.888448
15.056729
12.739897
12.056828
10.397434
12.195706
13.085604
14.486909
12.695789
13.368726
13.911724
16.105771
14.714599
15.446544
14.884472
14.025569
14.934540
16.147494
14.595985
15.195608
14.909506
13.287663
14.663935
14.156699
14.521480
12.852550
12.858510
11.974573
13.059974
12.367964
12.839437
14.010668
14.043450
13.509989
13.041496
15.130639
13.903975
13.482571
15.261769
15.395880
16.387701
17.418861
20.768642
23.140907
22.753477
25.333762
27.704835
28.541684
28.413534
28.682947
29.459000
29.829741
27.102828
24.315715
24.488568
23.530722
19.979477
21.565557
20.352602
21.978617
19.656420
18.424988
20.045638
18.992424
18.981695
18.595457
19.344687
18.933415
##ZVALUE=245
1.604557
1.669526
1.874566
1.989603
5.323887
18.285513
66.080689
132.631660
280.995965
413.964987
607.495904
717.961788
790.140629
769.082904
710.567832
546.268821
428.012609
274.644494
180.244446
113.901496
91.099739
93.897581
111.399889
121.152997
125.198960
123.142600
109.903812
93.597770
73.458552
56.035519
41.968822
27.008653
21.100640
15.670657
15.800595
14.796853
15.273690
16.433001
16.288757
16.773939
16.700625
15.205741
16.536713
16.954541
15.987754
16.066432
16.466975
15.138984
16.082525
14.918447
14.560819
14.389753
14.178753
13.835430
12.741685
12.275577
12.349486
13.037920
12.705922
12.058616
11.952519
12.583733
12.469888
12.775660
12.717843
13.112426
13.156533
14.693737
15.079975
16.988516
18.045902
20.268559
20.165443
22.097826
23.167729
23.709536
25.224686
25.429726
24.904609
24.628639
23.356676
22.096634
23.441911
21.925569
19.524693
19.942522
19.815564
19.721985
18.991828
19.303560
19.059777
19.135475
18.682480
18.640757
18.826723
17.450452
##ZVALUE=250
1.438856
1.465678
1.611710
1.726747
1.730919
1.965761
2.808571
17.809868
48.896670
103.277564
234.039426
369.422436
564.306974
677.267909
793.210864
818.562508
777.933002
683.632493
529.613495
378.264785
254.722834
144.833922
108.693838
95.303655
100.093484
122.124553
133.229494
138.530731
135.366917
124.818683
108.099580
79.481602
61.200857
42.279959
32.866597
24.340749
20.509958
17.704964
17.741919
17.788410
18.319488
19.146800
19.780993
19.200444
18.686652
17.081499
17.106533
16.002655
16.528964
16.391873
15.164614
14.203787
13.860464
13.366938
12.726784
12.753606
11.419654
11.830926
11.565685
10.713935
10.438561
11.352897
11.455417
11.271834
11.632442
11.332631
11.764765
12.581944
13.130903
14.425516
14.606714
15.935898
16.534925
17.434955
18.780828
19.884706
19.336939
20.613670
20.061731
19.944906
19.169450
20.146966
18.752813
17.748475
17.525554
17.495751
17.298460
17.180443
16.804934
17.180443
16.869903
17.639995
17.129779
18.266439
17.466545
17.621517
##ZVALUE=255
1.040697
1.073480
1.588464
1.358986
1.453757
1.504421
1.543760
1.457930
1.951456
7.215738
24.222732
77.491403
146.181583
283.935666
398.164988
574.991703
693.977475
783.634782
833.796859
799.904466
673.933625
527.421832
316.911936
203.701854
114.714503
89.995861
90.935826
101.888776
127.398968
142.239928
150.075555
148.502588
134.785771
114.347935
91.326833
68.733692
50.494671
34.541488
28.541684
22.955537
22.087693
21.553636
21.119714
20.780563
20.217896
18.328428
18.465519
17.198920
16.793609
16.154647
14.947653
14.197826
14.377832
13.659000
12.094975
11.715889
10.862947
10.903478
10.274649
10.511875
10.787845
9.608865
10.486841
9.591579
9.503961
10.244846
9.811521
10.548830
10.244846
11.106730
11.696815
13.508797
13.653636
14.446974
15.213490
15.731454
15.465617
15.821457
15.775561
15.211701
16.109943
15.216470
14.884472
15.510917
15.427470
15.503764
15.215874
15.279651
14.972687
16.246438
15.654564
15.479922
15.508533
15.562773
16.142726
17.020702
##ZVALUE=260
1.259446
0.986457
1.133680
0.831485
0.941753
1.145601
1.193881
1.345873
1.485944
1.579523
1.577735
2.808571
9.912848
44.110417
91.476440
197.947621
304.109454
472.303629
612.075925
792.379975
880.842805
888.696909
795.652866
648.779869
428.738594
289.771557
163.769722
107.811689
80.624819
88.378787
111.888647
137.102604
152.808428
163.036585
161.447525
141.761899
126.173496
98.115802
76.366663
55.428743
41.317940
30.332804
26.176572
23.036599
22.536516
20.416975
20.421743
18.337965
17.253757
17.037988
15.700459
15.294552
14.586449
14.469624
12.643933
11.790991
10.897517
11.070967
10.978580
9.678602
9.677410
9.481907
9.134412
8.844733
8.816719
9.997487
9.189844
9.482503
10.016561
10.186434
11.664629
11.874437
12.234449
13.243556
13.029575
12.965798
13.374686
13.815761
13.891459
13.960600
13.504624
13.959408
13.137460
13.951659
14.358759
13.898611
15.265942
14.095902
14.517903
15.085936
14.892817
14.583468
15.187860
14.140606
13.905764
15.474558
##ZVALUE=265
1.083612
0.976920
1.279712
1.220703
1.100898
1.189709
1.336932
1.163483
1.408458
1.307726
1.371503
1.489520
1.685619
1.659989
5.171895
21.407604
78.923702
149.108768
249.697566
434.860587
584.565997
757.901669
839.964747
844.630599
775.310993
617.927909
480.261445
311.013460
205.477476
117.280483
84.319711
80.830455
94.347000
128.253698
148.450732
169.191957
169.979930
163.765550
149.276853
123.715997
101.157427
73.424578
55.458546
38.368702
29.948950
24.769902
22.008419
19.478798
17.936826
17.116666
16.895533
15.740991
14.075637
13.575554
12.809634
12.217760
11.356473
11.311769
10.079741
10.023713
9.013414
9.836555
9.178519
8.824468
9.759665
9.213686
9.124875
9.237528
9.407997
9.218454
10.046959
10.183454
11.157990
11.316538
11.509657
11.738539
11.674762
11.784434
12.618899
12.158751
12.247562
12.226701
12.454987
13.021827
13.015866
12.447834
12.715459
13.829470
13.205409
13.705492
13.396740
12.908578
13.593435
13.368726
14.460683
13.878942
##ZVALUE=270
0.902414
0.837445
0.863671
0.853539
1.054406
0.994802
1.183748
1.111627
1.080632
0.947714
1.021624
1.271963
1.502633
1.644492
1.366735
1.791716
2.159476
10.137558
30.482411
94.401836
184.886456
308.575630
502.987504
641.451478
768.679976
804.899931
775.439739
689.125657
538.604856
412.471890
284.415483
162.371993
106.301904
75.863600
78.863502
100.754499
123.857856
149.093866
163.190961
171.292424
166.730881
145.641565
125.381947
94.755888
72.422624
48.445463
36.277771
25.935769
20.602942
17.339587
15.891790
13.927817
14.109612
13.440847
12.844801
12.232661
11.405945
11.107922
10.170937
9.970665
10.190606
9.443760
9.581447
9.116530
9.732842
9.232759
8.888841
9.503961
9.422898
9.500980
9.834766
10.324717
10.367632
10.901690
11.287928
11.520982
11.792779
11.048913
12.112856
11.507869
11.827946
11.967421
11.401772
12.327433
11.953712
12.638569
12.148619
12.195706
11.869669
12.039542
12.603998
12.845993
12.785792
13.130903
12.935996
13.606548
##ZVALUE=275
0.849962
0.677705
0.778437
0.948906
0.788569
1.072884
1.145601
0.990629
1.099706
1.117587
0.753999
0.922680
0.925660
1.156926
1.139641
1.407862
1.406670
1.377463
1.532435
4.595518
14.233589
42.893887
117.375851
213.439465
388.090014
523.133874
680.860877
768.423676
802.520514
761.131644
666.161776
490.567684
356.940627
199.265480
122.634768
69.911480
60.859919
71.668625
90.144873
118.700862
135.957003
154.099464
159.710646
153.308511
138.556957
111.485720
90.041757
64.548850
47.795773
29.914975
21.784902
15.899539
13.358593
12.115836
11.185408
11.032820
10.525584
10.680556
10.318756
10.022521
10.368824
9.562969
9.391904
9.879470
9.329915
9.955764
9.564757
10.325909
9.900928
10.634661
10.062456
10.813475
10.702610
10.781884
11.180639
11.177659
11.585951
11.614561
11.469722
12.110472
12.212992
11.287928
11.454821
12.079477
11.933446
12.211800
12.273788
12.076497
12.014508
11.928678
11.597872
12.392998
11.875629
12.021661
12.121797
11.658669
##ZVALUE=280
0.765920
0.944734
0.704527
0.850558
0.773668
0.849962
0.756979
0.930429
0.904799
0.945926
0.892878
0.757575
0.895858
1.077652
0.821948
1.061559
1.155734
1.216531
1.124740
1.427531
1.476407
1.894832
9.312630
29.663444
90.912580
165.374875
301.654935
436.308980
614.677668
730.949640
795.068741
790.082812
716.133714
546.739697
406.601429
235.731006
142.160654
72.115660
46.696663
44.563413
58.092475
83.525777
104.388595
128.946900
142.480731
148.554444
144.093633
126.716495
110.139847
79.978704
60.299635
39.308667
27.777553
17.447472
13.147593
10.735989
9.956956
9.717941
9.612441
9.906888
9.672642
9.816885
10.448694
10.406971
10.073781
9.984970
9.773970
10.634661
11.036992
11.396408
10.871887
11.429787
11.672974
11.579990
11.646748
12.134910
11.761785
11.701584
11.947751
12.169480
12.021661
12.319684
12.404919
12.307763
11.626482
12.142658
11.972785
12.192726
12.183785
12.181997
12.090802
11.783838
11.879802
11.668801
10.939837
11.778474
##ZVALUE=285
0.746846
0.697970
0.556707
0.642538
0.735521
0.712872
0.792742
0.818968
0.837445
0.819564
0.830889
0.940561
0.873804
0.936985
1.004934
1.073480
0.968575
0.951886
1.048446
1.090765
1.246929
1.457930
1.491904
1.655817
4.437566
14.860630
50.024986
102.347732
223.366022
342.018604
475.092530
651.719570
756.832957
803.806782
762.272477
621.976852
489.184856
305.445790
194.777846
93.678832
52.653551
30.461550
33.741593
52.511692
71.841478
100.213885
118.364692
134.833455
143.510699
137.337446
125.951767
103.297830
84.220767
58.842897
42.175651
25.308728
17.799735
12.408495
11.146665
10.197759
10.232925
10.230541
10.109544
10.496974
10.741949
11.256933
11.074543
11.221766
11.339784
11.947751
12.298822
12.645721
12.490749
12.931824
12.806654
12.435913
12.677908
12.713671
12.779832
12.606978
12.813807
12.797713
12.463927
12.277961
12.714863
12.685657
12.728572
12.486577
12.457967
12.033582
11.734962
11.598468
11.785626
12.124777
11.971593
11.109710
##ZVALUE=290
0.639558
0.761747
0.798702
0.731945
0.835657
0.790954
0.684857
0.747442
0.643730
0.579953
0.680685
0.659823
0.670552
0.642538
0.904799
0.970960
0.937581
0.744462
0.840425
0.912547
0.972748
1.088977
1.181960
1.208782
1.349449
1.415610
2.166629
5.949736
27.654767
63.990951
126.485825
262.934566
398.703814
596.649647
712.674856
807.567835
796.479583
691.903830
568.040013
383.892655
254.770517
129.179955
69.028735
31.477809
24.195910
33.056736
47.275424
68.886876
88.969469
114.666820
127.132535
137.096643
135.432482
121.427774
106.050968
78.687668
60.504675
40.255785
28.418899
18.963814
14.718771
11.922717
11.621714
11.241436
11.579990
11.782646
12.440681
12.416840
13.211966
12.871623
13.577938
14.019608
13.798475
13.913512
14.052987
13.992786
14.079809
13.948679
13.769865
13.930798
14.078617
13.641715
13.481975
13.217926
12.973547
12.930632
12.826920
12.591481
13.109446
12.902617
12.201667
12.013912
12.309551
11.903644
11.619925
11.758804
##ZVALUE=295
0.708699
0.811815
0.723600
0.710487
0.651479
0.664592
0.486970
0.678897
0.619888
0.722408
0.834465
0.781417
0.710487
0.752807
0.855923
0.708699
0.916719
0.831485
0.957847
0.962615
0.842810
0.937581
0.946522
1.024604
1.285672
1.217723
1.394749
1.439452
1.645684
2.721548
13.654828
39.293766
88.775754
206.204653
329.840779
521.245003
655.891895
779.184699
803.302526
742.892623
641.937852
459.529757
316.749811
167.255998
93.177557
38.162470
22.561550
20.616651
27.702451
45.553446
62.617660
86.764693
105.281472
125.301480
131.510496
129.538774
118.640661
96.217990
80.460906
58.120489
43.262839
28.642416
21.412969
15.902519
14.382601
12.961626
13.293624
12.910962
13.085604
13.647676
14.019608
14.357567
14.433861
14.446974
14.892817
14.635921
14.705658
14.507771
14.491677
14.565587
14.686584
14.267564
14.061928
13.778806
13.705492
13.475418
13.111830
13.528466
13.361573
12.630820
13.156533
12.668967
12.264848
11.958480
12.020469
11.717677
##ZVALUE=300
0.574589
0.709891
0.740886
0.669956
0.582933
0.721812
0.592470
0.524521
0.670552
0.785589
0.674725
0.715852
0.674725
0.687838
0.742674
0.638962
0.777841
0.692606
0.815988
0.809431
0.866652
0.850558
0.839829
0.840425
0.898838
1.110435
1.104474
1.194477
1.171827
1.268983
1.437664
1.469851
6.125569
20.291805
69.092512
133.275986
270.083547
408.402681
597.100854
709.324479
793.426633
785.871744
675.687790
557.725430
374.507904
246.449709
124.663711
69.120526
28.040409
16.798973
18.567443
25.615692
41.228533
57.648420
79.886913
100.188851
118.985772
125.970840
124.105811
118.419528
98.456740
81.779957
60.622692
45.619607
30.350685
23.084879
17.047524
15.250444
13.850927
14.165640
14.131665
14.407635
14.233589
14.871955
14.876723
14.739633
14.616847
15.134811
14.591813
14.481544
14.743805
14.571548
14.403462
13.814569
14.132857
14.318824
14.127493
13.669729
13.140440
13.224483
13.063550
12.412667
12.720823
12.570620
12.079477
12.074709
##ZVALUE=305
0.686646
0.588894
0.472665
0.459552
0.579953
0.629425
0.662804
0.686646
0.552535
0.633597
0.720620
0.554919
0.663996
0.550747
0.701547
0.666976
0.646710
0.598431
0.890493
0.785589
0.796914
0.842810
0.756979
0.832677
0.869632
0.941753
1.062751
1.064539
1.072884
1.172423
1.185536
1.156926
1.481771
1.652837
3.199577
11.355877
44.064522
97.347498
214.617848
332.594514
513.786674
645.807981
762.576461
788.740516
720.263720
615.220666
442.151427
307.262540
162.895918
92.429519
38.493872
19.492507
13.663769
16.568899
26.096702
38.126707
60.136914
75.189471
97.736716
110.743642
121.214986
120.720863
110.603571
96.810460
76.071620
60.115457
41.606426
30.995607
21.149516
17.596483
14.900565
14.070868
14.271736
13.889670
14.261603
13.880730
14.358759
14.506578
14.352798
14.456511
14.516711
14.253855
14.382601
14.140606
14.353991
13.863444
13.773441
13.606548
13.750792
13.124943
12.809634
12.530684
12.563467
12.017488
12.048483
12.159944
##ZVALUE=310
0.598431
0.542998
0.577569
0.526905
0.648499
0.557899
0.530481
0.572801
0.664592
0.618696
0.589490
0.565648
0.596642
0.678897
0.643730
0.700951
0.624657
0.578761
0.717640
0.757575
0.786781
0.650883
0.669956
0.746846
0.869632
0.708699
0.856519
0.953674
0.823736
0.946522
0.991821
0.988841
1.145601
1.160502
1.263618
1.442432
1.534820
5.969405
19.734502
65.189600
126.976967
259.482861
398.513675
585.555434
705.806613
784.018636
777.180791
680.315495
557.131767
375.846624
250.872970
126.564503
68.563819
26.951432
14.057755
12.403727
15.448928
23.615956
33.657551
52.533746
67.552924
90.167522
102.394819
114.007592
115.518570
106.240511
93.758702
74.722767
58.516860
41.026473
31.135678
21.958947
17.672777
14.997721
14.103651
13.812780
13.660789
13.505816
13.902783
13.993979
14.001727
13.783574
13.415813
13.950467
13.589859
13.547540
13.608932
13.691783
13.572574
12.791753
13.029575
12.937784
12.348890
12.372732
11.898875
11.832714
##ZVALUE=315
0.480413
0.512600
0.453591
0.442863
0.481606
0.430942
0.612736
0.668764
0.502467
0.599623
0.675917
0.567436
0.520945
0.511408
0.649691
0.624657
0.683665
0.630617
0.720620
0.630617
0.575781
0.656843
0.774860
0.604987
0.720620
0.758767
0.717640
0.708699
0.810623
0.940561
0.897646
1.000762
0.862479
1.052618
1.077652
1.100898
1.217723
1.292825
1.308918
2.727509
9.799600
39.447546
88.894963
202.128887
320.679545
510.127544
634.367466
752.679706
779.397488
717.191696
617.674589
448.725820
316.796899
169.265866
93.878508
36.754608
17.381907
10.422468
11.277795
15.646815
20.934939
33.948421
46.099424
64.432621
80.646873
98.327994
106.666684
107.553601
101.543665
86.882710
72.209835
53.501725
40.674806
27.980804
20.899773
16.769767
14.754534
13.196468
12.757778
13.275743
13.191700
12.929440
13.385415
13.333559
13.442636
12.738705
13.324618
12.788773
12.947917
13.154745
12.492537
12.269616
12.208819
11.772513
12.265444
12.012720
##ZVALUE=320
0.588894
0.579953
0.460744
0.543594
0.496507
0.710487
0.555515
0.670552
0.678897
0.623465
0.633597
0.708699
0.630617
0.553727
0.600815
0.498891
0.547767
0.596642
0.464916
0.702739
0.683665
0.520945
0.775456
0.687838
0.755787
0.722408
0.782609
0.872612
0.748634
0.736713
0.820756
0.866652
0.797510
0.837445
0.914931
0.935793
0.878572
0.937581
1.044869
1.270771
1.431704
1.647472
4.569888
23.980737
58.531761
147.953629
244.725943
408.283472
539.161563
688.920021
751.052499
743.070841
672.602654
516.754985
379.373431
214.521885
119.774938
50.184727
24.774671
11.599660
8.996725
10.518432
13.001561
19.230843
27.855635
43.712854
57.175756
75.798631
89.652538
100.594759
101.968646
96.286535
85.905790
67.536831
53.609610
36.849976
27.862787
19.851923
15.993714
13.419986
12.403727
12.408495
12.376904
12.837648
12.495518
12.637973
12.410879
12.664795
12.342930
12.269616
12.451410
11.756420
12.299418
11.992455
11.793971
11.664629
##ZVALUE=325
0.253916
0.239611
0.264645
0.320673
0.383854
0.319481
0.274777
0.248551
0.379682
0.331998
0.243783
0.300407
0.469685
0.585914
0.352859
0.449419
0.242591
0.366569
0.364780
0.333786
0.291467
0.366569
0.558496
0.461936
0.346899
0.638962
0.457764
0.544786
0.613928
0.564456
0.592470
0.615716
0.456572
0.510812
0.519753
0.650883
0.839829
0.794530
0.749826
0.834465
0.969768
1.048446
1.152754
1.212955
2.475977
14.330745
38.102865
98.274946
178.626776
333.973765
464.735627
624.529719
713.334680
743.346810
693.202615
551.921725
420.084000
256.871581
157.201886
70.805550
34.536719
13.191700
8.665919
8.086562
9.055734
12.695789
17.536879
27.465820
38.739443
57.618618
71.485639
85.794926
93.467832
95.466971
90.051889
75.337887
64.112544
47.005415
36.434531
24.651885
19.306540
14.546514
13.335943
12.242794
11.971593
11.706948
11.922717
11.734962
11.960864
11.545420
11.839867
11.669993
11.657476
11.637807
11.454821
11.222959
##ZVALUE=330
0.198483
0.474453
0.398755
0.397563
0.311732
0.430942
0.314713
0.328422
0.550747
0.321865
0.248551
0.393987
0.366569
0.390410
0.418425
0.261664
0.252724
0.392795
0.387430
0.542998
0.569820
0.496507
0.592470
0.394583
0.510812
0.486970
0.498891
0.541806
0.521541
0.532866
0.370741
0.475645
0.526905
0.581741
0.528693
0.591874
0.623465
0.583529
0.750422
0.728965
0.688434
0.766516
0.808835
0.920892
1.063943
1.112819
1.336932
6.043911
20.079613
66.156983
127.172470
255.864859
377.110839
547.546744
653.976798
726.836920
704.522729
589.945912
476.727486
312.833786
202.322602
95.604658
49.382448
19.341707
10.096431
8.013844
7.705688
8.690953
11.155605
17.759800
25.182962
38.526654
51.301718
69.128871
80.086589
88.871717
89.905858
83.906651
73.830485
59.219599
46.350956
32.693744
25.612712
19.309521
15.630722
13.182759
12.616515
12.091994
11.530519
11.461973
11.421442
11.467934
11.153817
10.954738
11.047721
11.126995
##ZVALUE=335
0.436902
0.437498
0.486970
0.469685
0.541806
0.444651
0.529885
0.482798
0.522733
0.580549
0.548959
0.503659
0.615716
0.384450
0.551939
0.549555
0.541806
0.642538
0.510812
0.643730
0.505447
0.614524
0.674725
0.600815
0.501871
0.540614
0.551939
0.586510
0.661612
0.561476
0.531673
0.718832
0.713468
0.638962
0.683665
0.744462
0.825524
0.802875
0.673532
0.748634
0.782609
0.851750
0.994802
0.972748
0.772476
0.927448
1.246929
1.176000
1.423955
2.390742
13.093948
35.599470
98.147988
175.702572
323.714018
456.221700
621.638894
694.633722
713.246465
659.061670
520.950556
395.545959
239.644647
145.005584
62.389970
30.315518
11.865497
8.391738
7.601976
8.125901
9.682775
12.109876
17.045736
24.539828
37.616491
49.064755
63.996911
75.794458
83.595514
85.113645
78.601837
69.798827
57.442784
47.442913
34.254789
26.785731
18.896461
16.025901
13.177991
11.957884
11.348724
11.136532
10.849833
11.179447
10.874867
10.792613
##ZVALUE=340
0.540614
0.500679
0.514984
0.495911
0.460744
0.401735
0.450611
0.556707
0.430942
0.497699
0.396967
0.421405
0.456572
0.595450
0.654459
0.522733
0.515580
0.512600
0.544786
0.485778
0.557899
0.334978
0.574589
0.613928
0.673532
0.591874
0.610948
0.645518
0.660419
0.630617
0.609756
0.603795
0.762939
0.709891
0.775456
0.678897
0.692606
0.709891
0.571609
0.718832
0.740886
0.779629
0.771880
0.962615
0.743866
0.844598
0.926852
1.069903
1.063943
1.073480
1.227856
1.948476
5.355477
24.850965
61.228871
155.922771
263.257623
440.913439
579.800010
720.679760
767.378807
717.377663
619.350672
447.883606
313.782692
168.341994
90.602636
35.359859
16.582608
8.722544
7.859468
8.025765
8.088946
9.602904
11.667609
17.497540
24.278760
36.072731
47.117472
61.790943
70.971847
78.668594
79.634786
74.808002
67.855716
55.181980
45.113564
33.623576
25.916696
19.490719
15.269518
12.748837
11.361837
10.864735
10.709763
10.697842
##ZVALUE=345
0.386834
0.566840
0.494719
0.383854
0.407696
0.370741
0.423789
0.487566
0.357628
0.376701
0.572801
0.381470
0.595450
0.401735
0.545979
0.585914
0.554919
0.574589
0.623465
0.551939
0.591874
0.614524
0.692606
0.521541
0.408888
0.559688
0.553727
0.585914
0.506639
0.556707
0.547767
0.532866
0.572801
0.506639
0.485778
0.460744
0.537634
0.567436
0.818968
0.538826
0.740886
0.609756
0.694990
0.729561
0.778437
0.843406
0.789762
0.711679
0.854731
0.876784
0.912547
1.052618
1.150966
1.500845
2.554655
14.024973
38.265586
101.948977
184.786916
335.453749
459.802747
612.090826
680.688620
689.951777
628.760457
481.274724
354.777575
208.612680
119.686723
48.242807
23.486614
10.301471
7.846951
7.505417
7.863641
8.074641
8.721948
11.232495
15.473962
23.627877
32.918453
45.322776
55.936575
65.370798
70.585608
73.405504
70.550442
63.290596
54.868460
43.125749
34.055710
24.159551
19.217730
14.235973
12.043715
10.842681
##ZVALUE=350
0.358820
0.464916
0.356436
0.438690
0.588894
0.471473
0.374913
0.387430
0.430942
0.488758
0.529885
0.501871
0.460744
0.381470
0.551939
0.444651
0.415444
0.536442
0.469685
0.507832
0.472665
0.344515
0.534654
0.489950
0.554919
0.685453
0.555515
0.491738
0.605583
0.559688
0.546575
0.627637
0.483990
0.574589
0.558496
0.736713
0.631809
0.664592
0.565648
0.722408
0.578761
0.641942
0.752807
0.733733
0.907779
0.766516
0.886917
0.868440
0.787973
0.887513
0.752807
0.794530
0.874996
0.917912
0.999570
1.344681
1.658797
6.922483
22.022724
68.831444
130.154490
261.178613
381.329656
534.770489
632.558465
680.948496
650.298595
535.772443
409.771800
242.912769
149.189830
69.753528
33.824444
12.300611
7.942915
7.143617
7.217526
7.488728
7.833838
8.775592
10.622740
15.278459
20.408630
29.137731
37.622452
49.659610
58.144927
64.857602
67.879558
66.162944
60.406923
49.980879
41.862726
30.683875
24.249554
17.533898
##ZVALUE=355
0.327826
0.446439
0.496507
0.502467
0.298619
0.446439
0.516772
0.556707
0.503659
0.618696
0.513792
0.638962
0.454783
0.505447
0.421405
0.498891
0.547767
0.587702
0.531673
0.513792
0.626445
0.652671
0.519753
0.543594
0.542998
0.522733
0.505447
0.641942
0.404716
0.544786
0.446439
0.556707
0.588894
0.530481
0.541806
0.558496
0.479817
0.489950
0.633597
0.601411
0.590682
0.699759
0.759959
0.761747
0.715852
0.655651
0.600815
0.852942
0.889897
0.749826
0.727773
0.770688
0.731945
0.938773
0.945926
1.142621
1.174808
1.125932
1.430511
3.419518
12.024641
45.088530
94.296932
198.774934
319.108963
497.104526
613.856912
699.057579
697.255731
592.252016
472.893715
310.760736
191.441774
85.290670
41.984916
15.057921
8.749962
7.137656
7.055998
7.044673
7.037520
7.415414
8.198619
9.724498
12.802482
18.591881
24.617910
34.665465
42.937994
52.204728
57.682991
61.355829
60.209632
54.103732
48.050880
38.360953
##ZVALUE=360
0.523925
0.501871
0.536442
0.645518
0.648499
0.458956
0.430942
0.516772
0.533462
0.549555
0.367761
0.525713
0.464916
0.459552
0.352859
0.527501
0.481606
0.526905
0.512600
0.565648
0.563860
0.385642
0.600815
0.635982
0.548959
0.535846
0.365973
0.497699
0.511408
0.486970
0.578761
0.680685
0.531673
0.677705
0.626445
0.690818
0.605583
0.740886
0.711679
0.654459
0.683665
0.713468
0.513792
0.669956
0.739694
0.622869
0.592470
0.755787
0.723600
0.910759
0.692606
0.808835
0.830889
0.855923
0.799894
0.809431
0.867844
1.030564
0.969768
1.150966
1.300573
1.659989
6.401539
19.677877
63.257813
122.125745
243.584514
365.034938
535.591841
629.142523
666.192770
627.726912
502.693653
379.292965
222.030878
130.786896
57.374835
26.294589
9.824634
6.989837
6.794930
6.477833
6.622672
6.639957
6.861687
7.301569
8.545518
10.312796
15.131831
20.131469
28.315783
36.171675
45.401454
51.272511
55.025816
55.686831
##ZVALUE=365
0.480413
0.408888
0.542998
0.413656
0.466704
0.551939
0.443459
0.435710
0.625849
0.412464
0.427961
0.326633
0.549555
0.408888
0.435710
0.439882
0.589490
0.425577
0.370741
0.570416
0.434518
0.606775
0.445843
0.645518
0.509620
0.441670
0.522733
0.525713
0.470877
0.466704
0.648499
0.554919
0.507832
0.527501
0.519753
0.647902
0.609756
0.641942
0.620484
0.610948
0.562668
0.592470
0.646710
0.658631
0.677705
0.689626
0.740886
0.634789
0.749826
0.759959
0.859499
0.775456
0.842810
0.700951
0.876784
0.843406
0.791550
0.959635
0.788569
0.941753
0.942945
1.194477
1.160502
1.351833
2.989769
9.795427
38.245916
82.884431
189.616680
299.086571
453.835726
548.208952
617.038012
612.760782
523.263812
421.437621
270.502567
168.048739
73.572993
35.877824
12.373924
7.433891
6.194711
6.087422
6.113648
6.217957
6.026626
6.230474
6.511807
7.144809
9.402633
12.248755
17.670989
23.324490
32.227635
38.415790
##ZVALUE=370
0.455976
0.448823
0.439882
0.493526
0.552535
0.504851
0.516772
0.389814
0.555515
0.446439
0.466704
0.523925
0.332594
0.526905
0.373721
0.610948
0.587702
0.529885
0.448823
0.517964
0.572801
0.481606
0.511408
0.423789
0.557899
0.516772
0.582933
0.621676
0.541806
0.596642
0.707507
0.633597
0.362992
0.419617
0.556707
0.496507
0.677705
0.531673
0.721812
0.531673
0.589490
0.472665
0.498891
0.640750
0.592470
0.629425
0.541806
0.725985
0.731945
0.740886
0.789762
0.597835
0.685453
0.723600
0.705719
0.784993
0.775456
0.773668
0.650883
0.911951
1.008511
0.918508
1.030564
0.937581
1.256466
1.145601
1.859665
5.501509
26.596785
60.820580
141.897798
238.270760
405.083895
524.367690
624.861717
651.711822
594.880581
491.454005
325.486660
208.712816
96.071959
49.085617
19.744635
9.856820
6.006956
5.659461
5.685687
5.694628
5.591512
5.470514
5.689859
5.843639
6.734729
8.076429
10.980964
14.547706
##ZVALUE=375
0.407696
0.407696
0.501871
0.452995
0.315905
0.449419
0.365973
0.502467
0.515580
0.516772
0.512600
0.514984
0.464916
0.430942
0.482798
0.520945
0.409484
0.438690
0.400543
0.499487
0.560880
0.576973
0.375509
0.470877
0.583529
0.617504
0.506639
0.499487
0.514984
0.607967
0.597835
0.500679
0.561476
0.495911
0.580549
0.646710
0.490546
0.562668
0.649691
0.552535
0.607967
0.683665
0.575781
0.485778
0.639558
0.538826
0.591874
0.495911
0.578761
0.647902
0.488758
0.770688
0.691414
0.625849
0.804663
0.721812
0.890493
0.716448
0.585914
0.705719
0.789762
0.720620
0.803471
1.004934
0.923872
1.137853
1.089573
1.379848
1.517534
3.791451
11.643767
41.060448
88.630915
206.387639
336.613655
548.316836
702.039003
830.906630
837.609768
716.539621
562.871695
333.153605
197.765827
83.965659
39.733648
13.669729
7.395744
5.751848
5.649924
5.392432
5.375743
5.191565
5.178452
5.179644
5.203485
6.010532
##ZVALUE=380
0.368953
0.464916
0.409484
0.526905
0.508428
0.371933
0.478625
0.392795
0.479817
0.385642
0.575781
0.579953
0.547767
0.454783
0.562668
0.380874
0.468493
0.452995
0.538826
0.522733
0.468493
0.444651
0.372529
0.636578
0.621676
0.625849
0.522733
0.519753
0.416636
0.489950
0.659823
0.609756
0.470877
0.584722
0.631809
0.719428
0.450611
0.644922
0.273585
0.448823
0.438690
0.330806
0.569820
0.534654
0.438690
0.583529
0.521541
0.435710
0.624657
0.635982
0.593662
0.420809
0.694990
0.628829
0.503659
0.519753
0.622869
0.632405
0.667572
0.626445
0.788569
0.611544
0.713468
0.642538
0.712872
0.766516
0.816584
0.764728
0.963807
1.195669
1.194477
1.702905
7.909536
23.938417
70.609450
131.761432
252.425671
368.027687
511.516929
584.120750
598.181486
546.116829
429.608822
324.261785
189.317465
110.890865
45.952797
22.322536
8.069873
5.446672
4.916787
4.856586
4.752874
4.823804
4.812479
4.882812
##ZVALUE=385
0.477433
0.428557
0.485778
0.554919
0.394583
0.412464
0.349879
0.466704
0.378489
0.458956
0.410676
0.419617
0.369549
0.489950
0.359416
0.321865
0.471473
0.504851
0.360608
0.563860
0.521541
0.509620
0.378489
0.524521
0.364780
0.619888
0.581741
0.443459
0.579953
0.517964
0.583529
0.569820
0.464916
0.624657
0.516772
0.490546
0.401735
0.497699
0.408888
0.541806
0.491738
0.572801
0.515580
0.462532
0.599623
0.594854
0.599623
0.508428
0.456572
0.679493
0.571609
0.622869
0.585914
0.494719
0.649691
0.608563
0.629425
0.470877
0.560880
0.630617
0.702739
0.559688
0.624657
0.729561
0.620484
0.670552
0.890493
0.802875
0.828505
0.889897
0.991821
1.165867
1.116991
1.373887
3.164411
16.398430
40.805936
103.189945
180.707574
322.578549
436.957479
563.256741
610.355735
590.307713
524.918437
389.862657
277.931690
151.981711
86.330771
35.623908
15.284419
5.813837
4.633665
4.539490
4.392862
4.220605
##ZVALUE=390
0.347495
0.286698
0.369549
0.490546
0.396967
0.393987
0.430942
0.275970
0.496507
0.574589
0.450611
0.405908
0.307560
0.422597
0.418425
0.338554
0.433922
0.400543
0.457764
0.524521
0.461936
0.445843
0.532866
0.511408
0.527501
0.491738
0.541806
0.636578
0.516772
0.454783
0.595450
0.476837
0.487566
0.519753
0.560880
0.643730
0.446439
0.621676
0.518560
0.507832
0.489950
0.497699
0.609756
0.461936
0.434518
0.618696
0.554919
0.605583
0.673532
0.576973
0.571609
0.441670
0.449419
0.533462
0.605583
0.601411
0.602603
0.666976
0.622869
0.567436
0.757575
0.714660
0.679493
0.804663
0.647902
0.819564
0.776649
0.803471
0.931621
0.908971
1.052618
1.020432
1.199841
1.165867
1.022816
1.237988
1.815557
8.510947
26.227832
80.406666
150.857568
284.408927
396.892428
539.087653
629.479885
688.952804
660.382509
549.243689
425.747633
260.513425
150.704980
59.310794
26.419759
8.518696
4.990697
4.207492
##ZVALUE=395
0.398755
0.357628
0.402927
0.387430
0.369549
0.570416
0.451803
0.444651
0.447631
0.484586
0.615716
0.518560
0.421405
0.363588
0.454783
0.407696
0.438690
0.341535
0.367761
0.462532
0.619888
0.527501
0.479817
0.330806
0.443459
0.505447
0.327826
0.580549
0.521541
0.436902
0.458956
0.452995
0.547767
0.351667
0.451803
0.412464
0.524521
0.672936
0.638962
0.693798
0.576973
0.591874
0.776649
0.531673
0.591874
0.582933
0.509620
0.611544
0.540614
0.644922
0.617504
0.580549
0.528693
0.432730
0.649691
0.545979
0.617504
0.498891
0.587702
0.728965
0.651479
0.573993
0.752807
0.767708
0.437498
0.695586
0.631809
0.728965
0.627637
0.795722
0.790954
0.795722
0.866652
0.818968
1.013875
0.954866
0.926852
0.980496
1.381636
4.878640
15.777946
57.613850
179.282427
212.526917
338.715911
438.065529
584.086776
584.462881
571.415424
488.101840
387.045741
242.123008
154.748559
73.193908
35.761595
12.768507
##ZVALUE=400
0.472665
0.355840
0.382662
0.452995
0.385642
0.327826
0.497699
0.456572
0.448823
0.393987
0.466704
0.473857
0.364780
0.428557
0.440478
0.298619
0.399947
0.333786
0.408888
0.456572
0.400543
0.555515
0.500679
0.497699
0.557899
0.421405
0.480413
0.546575
0.533462
0.506639
0.539422
0.537634
0.513792
0.641942
0.492930
0.470877
0.466704
0.552535
0.571609
0.657439
0.587702
0.619888
0.466704
0.506639
0.701547
0.621676
0.461936
0.578761
0.509620
0.516772
0.391603
0.598431
0.538826
0.552535
0.566840
0.555515
0.609756
0.529885
0.594854
0.551939
0.643730
0.489950
0.536442
0.645518
0.517964
0.611544
0.694990
0.741482
0.862479
0.894666
0.810623
0.967979
0.894666
0.918508
0.795722
0.908971
0.837445
0.915527
0.985861
1.029968
1.009703
2.978444
10.589957
38.261414
82.193613
177.078843
269.082785
399.625897
503.886938
600.238442
612.363815
549.356937
463.056564
324.790478
216.648579
109.045506
##END
