##TITLE=FQP00651
##FORMAT=SPECTACLE-ASCII V-1.2
##DATA TYPE=ULTRAVIOLET SPECTRUM
##SECOND TYPE=ULTRAVIOLET SPECTRUM
##DATE=02/08/18
##TIME=15:35:40
##SPECTROMETER/DATA SYSTEM=SPECTACLE
##XUNITS=NM EM
##YUNITS=ENERGY
##YFACTOR=1
##FIRSTX=220
##LASTX=410
##NPOINTS=96
##3DDATA=Equidistant
##ZUNITS=NM EX
##FIRSTZ=210
##LASTZ=400
##ZPOINTS=39
##XYDATA=(Y..Y)
##ZVALUE=210
2.062917
2.258420
2.549887
2.154708
2.295971
2.585649
2.975464
2.522469
2.378821
2.504587
2.066493
2.099872
2.132654
2.078414
2.780557
2.561808
2.650619
2.777576
2.823472
2.800822
2.762675
3.005862
2.940893
3.551841
3.017783
3.997684
3.932714
3.683567
4.549623
4.385710
4.572868
4.604459
4.798770
5.587935
5.072951
5.355477
4.242659
5.339980
5.083680
5.449653
5.657673
5.208850
5.629659
4.756451
4.710555
5.664825
5.202889
6.077886
4.649758
5.123615
5.199909
4.934669
6.234646
6.420612
5.561709
4.877448
4.912615
4.865527
4.947782
5.745888
5.343556
5.434752
6.177425
5.256534
6.344914
5.764961
8.214712
7.483959
7.618666
9.010434
11.085868
13.754964
13.380647
16.720891
17.024875
17.707944
18.575788
19.606948
17.835498
16.426444
15.288591
12.287498
10.674596
9.710789
8.857846
7.662773
6.023645
5.161762
5.983710
5.898476
5.607605
6.393790
5.724430
5.849600
6.623864
6.639957
##ZVALUE=215
7.512569
7.081628
6.456971
5.190969
5.298853
4.358888
5.129576
4.060864
4.102588
4.806519
5.610585
4.954934
3.798604
3.119707
3.277659
2.228618
2.461672
2.523661
3.483891
3.109574
3.244877
2.666712
3.370643
3.758669
4.035830
4.785657
4.557967
4.732609
5.729795
5.586743
5.931854
6.740689
6.232858
6.823540
7.117987
6.843805
6.653666
6.884933
6.552935
6.804466
5.898476
6.638765
6.668568
7.508993
5.600452
6.152987
5.740523
6.477833
5.869865
6.513000
6.282926
6.072521
6.166697
5.983710
7.077456
6.571412
5.747676
5.819798
6.297827
6.434917
6.922483
6.464720
6.220937
6.127954
6.010532
6.613731
6.485581
7.571578
10.143518
10.229945
11.817813
13.238788
14.080405
16.714931
19.632578
20.448565
19.158721
20.944476
19.450784
18.521547
14.944673
15.464425
12.220740
11.429787
9.601712
8.221865
6.960630
6.631613
6.973743
6.709695
6.569624
5.778670
5.702972
6.528497
6.500483
5.871654
##ZVALUE=220
21.680593
22.944808
23.613572
25.299788
23.354888
19.656420
15.442967
12.883544
12.255907
10.137558
12.375712
12.234449
10.689497
10.917783
8.898973
7.753968
5.941987
4.608631
4.271865
3.651977
3.915429
4.162788
4.314780
4.757643
5.075932
4.796982
4.682541
7.645488
6.719828
7.944703
8.468628
9.326935
9.449720
9.941459
9.795427
9.887815
8.901954
10.045767
9.566545
10.195971
8.826852
9.630919
8.297563
8.422732
8.592606
8.820891
8.823872
8.623600
8.205771
8.564591
7.975698
7.543564
7.173419
7.031560
8.272529
7.594824
7.959604
7.942915
8.671880
7.347465
8.001924
7.421970
8.222461
8.075833
7.495880
8.306503
9.553432
8.273721
10.042787
11.160970
12.846589
14.995933
16.663671
18.955469
20.683408
21.379590
21.282434
21.875501
20.578504
20.843744
18.889904
18.064976
14.944673
14.034510
13.348460
11.260509
10.354519
9.648800
8.083582
7.036924
7.144809
6.771684
7.121563
8.322597
6.337762
7.924438
##ZVALUE=225
38.351417
43.121576
56.275725
71.689487
77.771544
76.699853
70.707798
54.998994
40.968657
29.500723
24.230480
22.364855
23.698807
26.262999
26.771426
23.885965
20.948648
16.151667
12.506843
9.582639
6.287694
4.487634
3.768802
4.377961
4.550815
4.901886
5.328655
7.327795
7.479787
7.563829
8.729696
9.430647
11.038780
10.193586
10.778904
11.165738
10.401607
11.997819
11.110902
10.934472
9.757876
9.642839
10.203719
10.015965
8.578897
9.371638
8.666515
7.659793
7.876754
7.553697
8.877516
7.913709
7.625818
9.288788
7.702708
7.332563
8.485913
7.805824
8.575916
7.544756
6.653666
8.044839
7.492900
8.744597
8.525848
8.018613
9.427667
9.517670
9.867549
11.458993
11.952519
13.283491
14.568567
15.238523
18.165708
18.200874
18.246770
17.588735
17.936826
16.476512
15.990734
15.007854
15.039444
12.607574
12.520552
10.901690
9.264946
8.495450
8.387566
7.738471
7.731915
8.511543
7.883906
8.299947
7.985830
7.971525
##ZVALUE=230
35.221577
38.585663
58.918595
100.092888
127.227902
159.775615
177.340508
180.510879
166.546702
134.444833
90.273619
67.044497
47.287941
42.390823
44.833422
47.013760
50.904751
50.755739
43.642521
37.853718
31.633973
17.642975
12.228489
7.684827
6.142855
4.279613
6.505847
6.863475
7.252693
7.696748
8.644462
9.243488
9.872913
10.133982
11.115670
9.908676
11.269450
10.756850
10.101795
11.132956
10.166764
11.692643
10.810494
10.334849
10.176897
9.559989
9.401441
8.760691
8.166432
7.857680
9.130836
7.873774
8.710623
8.837581
8.601546
7.572770
9.005666
8.624792
9.229779
8.045435
8.600950
9.016991
9.540915
9.045601
9.677410
9.263754
10.141730
10.538697
11.644959
11.409521
12.976527
14.344454
15.787482
16.363859
17.935634
18.931627
20.493865
18.668771
18.593669
17.501712
17.082691
16.452670
15.282631
13.554692
12.906790
13.022423
11.289716
9.522438
11.048913
10.411739
11.066794
10.791421
10.966659
10.619760
9.869933
10.340810
##ZVALUE=235
11.576414
15.079975
28.565526
69.180727
107.664466
179.695487
231.753588
304.694772
330.372453
333.912969
295.239687
243.350863
167.468786
126.495957
87.849498
73.415637
74.768662
81.758499
84.071755
88.909864
81.336498
67.427754
53.747892
34.566522
25.279522
15.491843
12.224913
9.110570
8.821487
8.394718
8.679628
9.266734
8.731484
9.304881
9.114742
9.706616
9.749532
10.072589
9.821653
10.045767
9.817481
9.176731
10.501742
9.547472
10.157824
9.244680
9.192824
8.466840
9.298921
8.591413
9.490848
9.107590
8.729696
8.374453
7.293820
8.932948
7.846951
9.157658
8.758903
9.217858
9.229779
10.423660
9.803772
9.534955
10.136962
10.245442
10.656714
10.903478
11.630654
12.214780
14.839768
14.551878
15.296936
15.181899
17.280579
19.124746
18.628836
17.633438
18.655658
17.789602
17.012954
16.597509
16.579628
15.775561
14.782548
14.651418
13.376474
15.809536
14.585853
13.859868
13.970733
12.878776
13.693571
12.582541
14.013648
13.471842
##ZVALUE=240
1.832843
1.928806
6.466508
15.545487
39.989948
74.067712
150.766969
228.864551
342.404842
414.714813
474.466681
460.615754
438.321829
348.322988
266.074538
171.943903
126.864910
94.445944
87.452531
96.114874
109.986663
112.143755
107.448697
102.035999
77.523589
63.401461
45.609474
31.067729
17.813444
13.747811
10.083914
8.991957
9.449720
8.664727
8.066893
8.036494
9.421706
9.068847
9.756684
9.742975
10.159612
9.194613
8.891821
10.472536
9.076595
9.580851
8.836985
9.305477
9.158850
8.666515
8.391738
9.393692
9.067655
8.445978
8.861423
8.645654
8.633733
9.572506
9.927750
9.550452
9.581447
8.534789
9.431839
10.642409
10.391474
11.523962
11.491776
12.166500
12.143850
12.141466
14.243722
16.446710
16.922951
16.966462
17.212629
18.875599
19.134879
18.730760
17.554760
18.073916
18.408895
19.111633
17.284751
17.447472
16.689897
16.601682
18.127561
16.739964
15.724897
16.132593
17.236471
17.188787
15.113950
15.747547
15.629530
16.286969
##ZVALUE=245
1.574755
1.691580
1.562834
1.645684
4.021525
10.326505
35.853982
68.928599
155.074596
238.678455
373.678803
468.050838
536.952615
570.397973
547.923446
452.332497
369.496942
248.240829
177.193880
116.318464
92.599988
94.988942
112.097859
121.459961
126.746893
121.042728
107.634664
91.145635
67.209005
51.596761
38.750768
24.117827
15.958548
11.455417
10.501742
9.669662
9.314418
10.357499
9.566545
10.492802
11.215806
9.737611
9.914637
9.968877
9.122491
9.607673
9.691715
9.761453
8.501410
8.789897
8.561611
8.208752
8.615851
8.303523
7.266998
8.447766
7.973909
7.952452
7.681847
9.359717
8.397698
9.343624
9.259582
10.211468
10.666847
9.726882
9.723902
10.981560
11.258721
12.334585
13.193488
15.273690
15.140772
17.184615
16.787648
17.662644
17.927885
17.323494
18.149614
16.754866
17.628670
17.476678
17.811656
16.763806
17.308593
16.513467
17.285943
16.491413
17.935634
17.105937
16.225576
15.825629
17.185807
16.199946
15.929937
15.881658
##ZVALUE=250
1.362562
1.282692
1.224875
1.503825
1.205802
1.515746
2.151728
8.033514
23.766756
62.512755
121.857524
230.539441
336.039662
477.061868
554.642677
617.105961
611.788630
538.407564
459.452868
323.768854
226.680636
158.848763
98.115802
91.067553
104.461908
115.513802
130.220652
133.427978
126.039982
117.951632
96.419454
77.275634
58.073997
36.910772
27.299523
16.020536
13.842583
11.878610
10.696650
11.107922
10.897517
10.354519
10.458827
10.302663
10.287762
10.093451
9.622574
10.021925
9.202957
9.340644
8.909702
8.501410
8.289814
8.818507
8.978844
8.115768
8.535981
8.373857
7.424951
7.647872
8.606911
8.150935
8.447766
8.119941
8.659959
8.569956
9.425879
9.323955
11.237860
11.967421
12.250543
13.753772
13.717413
13.990998
15.913844
16.133785
16.150475
17.086864
16.553998
16.833544
16.112924
15.673637
16.178489
16.571879
16.175508
16.635656
15.491843
16.414523
16.876459
16.060472
15.422702
16.376972
15.443563
16.231537
16.374588
16.266704
##ZVALUE=255
0.988841
1.020432
1.234412
0.960827
1.305938
1.168847
1.151562
1.209974
1.745820
4.959702
14.891624
49.461722
99.695921
213.317871
320.944786
491.804481
617.147684
721.630454
755.775571
693.864822
603.304505
481.277704
294.857621
188.991427
109.081864
87.161660
87.322593
102.662444
125.928521
137.300491
142.171979
142.980814
124.725699
108.755827
81.120729
59.405565
37.401915
26.619434
17.521977
12.881756
11.734962
11.063814
11.232495
10.792613
10.156631
10.865927
10.014772
10.545850
9.991527
9.332895
9.530783
9.298921
8.797646
8.921623
8.320808
8.785725
8.443594
7.775426
7.153749
7.876754
7.414818
7.715821
7.948875
7.906556
8.172989
8.265972
8.063912
8.435845
9.638667
11.182427
11.478662
12.182593
12.454987
12.748837
14.562607
14.313459
14.365911
15.960932
14.942884
15.525818
14.523864
15.013814
15.173554
14.547706
14.372468
15.029907
15.201569
14.654994
14.503598
15.165806
15.668869
15.435815
15.160441
14.956594
16.196966
14.766455
##ZVALUE=260
1.142621
1.309514
1.123548
0.954866
0.998974
1.113415
1.133680
1.374483
1.321435
1.510978
1.517534
2.374649
9.371638
27.699471
71.940422
139.358640
285.055637
414.587855
595.970750
718.388557
811.878443
799.996853
686.804652
558.984876
436.104536
248.605609
162.033439
92.989802
76.710582
83.829761
100.579858
129.749775
143.087506
152.066946
146.888494
129.335523
111.777782
81.208944
63.854456
41.243434
27.808547
19.062757
14.354587
12.307763
11.437535
10.881424
10.625720
10.530949
10.380745
10.450482
9.605885
9.282827
9.188652
8.534789
8.676648
7.639527
7.795691
7.565618
7.039905
7.700920
7.756948
7.818937
7.652640
6.892681
7.646680
7.750988
8.006692
8.158684
8.447766
9.429455
9.240508
10.353923
10.933876
11.555552
11.807680
12.655854
12.820959
12.903810
13.106465
13.106465
12.658834
12.903810
13.525486
12.704730
12.528896
13.416409
13.175607
14.224648
13.847947
13.666749
13.810992
13.945699
13.741851
13.851523
13.876557
15.034676
##ZVALUE=265
0.832677
0.946522
0.880957
1.134872
0.984669
0.976920
1.203418
1.057982
1.112819
1.133680
1.246929
1.473427
1.587868
1.686811
3.558993
18.678904
46.336651
117.082596
207.382441
385.694504
528.873801
676.241517
802.581906
832.155943
756.095648
649.304986
481.868982
339.635015
189.449787
121.081471
78.181624
71.179867
83.041787
111.253858
132.153630
147.215724
153.027773
150.442719
135.584474
108.271837
85.701942
57.738423
40.929914
25.298595
18.585920
13.001561
10.436773
10.552406
9.969473
10.033846
9.117723
8.706450
9.187460
8.398890
7.950664
7.914901
8.254647
7.372499
7.562637
7.155538
6.862879
7.261634
6.832480
7.335544
7.157922
7.492900
7.270575
7.319450
7.817745
8.763671
8.451939
9.333491
9.743571
10.538697
11.328459
10.743737
11.113882
11.418462
11.479855
11.854768
12.039542
12.433529
11.569858
12.413859
12.430549
12.177825
12.322664
13.158917
12.837648
11.949539
12.830496
12.980700
12.906790
13.179779
12.809634
13.022423
##ZVALUE=270
0.860691
0.987649
0.894666
0.805855
0.787973
0.803471
0.853539
1.015663
0.892878
1.090765
1.080632
0.977516
1.188517
1.133680
1.470447
1.427531
2.328753
6.771684
30.480623
72.086453
172.742009
300.460458
512.321591
664.442778
817.667842
865.139961
859.995484
729.199648
607.152581
421.535969
284.865499
154.027939
93.805790
61.568618
63.686967
84.636807
106.546879
133.674741
147.069693
153.937936
149.271488
128.508806
112.441778
82.212687
60.027838
38.150549
27.473569
17.190576
12.918711
9.984970
8.927584
8.571744
8.320808
7.962584
7.869601
7.904768
7.136464
7.274747
7.466674
7.310510
7.029772
6.644726
7.053614
7.566810
6.725788
6.992817
7.994771
7.595420
8.296967
8.288622
8.694530
9.183884
9.807944
9.634495
10.598898
10.956526
10.525584
10.935664
10.734797
10.338426
11.178851
10.913610
11.153817
10.695457
10.958910
11.340976
11.565685
11.669993
12.252927
11.478662
11.875629
11.563897
11.955500
11.936426
11.655688
12.728572
##ZVALUE=275
0.835657
0.909567
0.721812
0.882745
0.735521
0.695586
0.723600
0.769496
0.849962
0.823736
0.988841
0.982881
0.956655
0.933409
1.209974
1.612902
1.302958
1.403689
1.581907
4.279613
15.749931
44.844747
131.627917
238.834620
437.143445
584.422946
749.444962
844.560862
876.888037
821.066499
717.287660
534.838438
378.672481
204.220414
121.054649
60.400963
49.891472
59.980750
77.826977
107.338428
125.514865
145.232677
150.781870
143.575668
130.599737
102.944970
81.576705
56.012869
42.340755
24.290681
17.087460
11.218786
8.944869
7.845759
7.562637
7.447600
7.158518
7.475615
7.377863
6.818771
7.259846
7.131696
7.147789
7.065535
6.871819
7.127523
7.039905
7.482767
8.399487
8.589625
8.941889
9.128451
9.459853
9.927750
10.302663
10.287762
10.147691
10.004640
9.882450
10.321736
10.950565
10.757446
10.874867
10.651946
10.566711
10.769963
10.727644
10.760427
10.780692
10.534525
11.135936
10.897517
10.996461
11.441708
10.857582
11.476874
##ZVALUE=280
0.848770
0.759959
0.912547
0.710487
1.048446
1.004934
0.934601
0.891685
1.024604
1.088977
1.067519
1.053810
1.025796
1.181960
1.189709
1.222491
1.304746
1.255870
1.495481
1.476407
1.630783
1.902580
9.958744
33.718944
106.009841
188.507438
342.884660
488.834977
684.645772
804.843903
878.221989
867.441893
783.804655
599.215627
442.322493
255.318880
152.737498
70.678592
44.299960
40.765405
53.003430
79.463720
99.137425
124.887824
138.355494
146.646500
141.064525
122.627616
105.226636
77.217817
58.276653
36.656857
25.386810
14.633536
10.392666
7.951856
6.895661
6.967783
6.529689
7.061958
6.538630
6.655455
6.852746
6.817579
7.266998
7.542968
7.598996
7.650852
7.822514
8.235574
8.015633
9.108782
8.920431
9.779930
9.812713
9.918809
10.314584
10.444522
9.774566
10.580420
10.514855
10.325909
10.602474
10.437965
10.714531
10.657907
11.010766
10.676980
10.453463
11.077523
11.013746
10.813475
10.686517
11.134744
10.696650
10.674596
##ZVALUE=285
0.511408
0.584722
0.560880
0.575781
0.642538
0.662804
0.656843
0.570416
0.461936
0.680685
0.505447
0.537634
0.728965
0.714660
0.696778
0.967979
0.821948
1.000762
1.062751
1.019835
1.223683
1.240969
1.284480
1.439452
4.674792
16.159415
58.072805
120.748878
255.266428
391.613841
537.721515
738.164783
849.386454
904.681683
851.711631
692.486763
543.703437
337.576866
214.242935
102.655888
53.701997
30.222535
32.665730
50.987601
68.390965
98.827481
115.833879
133.072734
138.845444
136.061907
124.318004
101.483464
82.081556
54.931641
38.955808
21.931529
14.825463
9.065866
7.255673
6.656647
6.963611
6.422997
6.340742
6.449819
6.985664
6.992817
7.348657
7.376671
8.132458
8.447766
8.418560
8.424520
8.825660
9.360909
8.970499
9.219646
9.551644
10.041595
9.725690
10.018945
9.901524
9.979606
9.729862
10.397434
10.369420
10.743737
10.858774
10.367632
10.037422
10.214448
10.376573
10.149479
10.182858
10.287762
10.289550
10.219812
##ZVALUE=290
0.665784
0.586510
0.777841
0.640750
0.802875
0.772476
0.855923
0.880957
0.822544
0.783801
1.010895
0.742674
0.910759
0.883937
0.907779
0.760555
0.782609
0.874996
1.011491
0.991821
0.977516
1.102686
1.251698
1.422763
1.423955
1.698732
2.206564
7.277727
33.564568
75.981617
177.858472
300.386548
457.949638
675.703883
806.049705
893.618464
884.860754
764.878988
625.696778
420.444012
277.700424
139.588714
72.453618
30.940771
23.499727
32.273531
45.378804
69.068670
88.168979
113.247633
124.462843
134.929419
135.566592
118.879676
103.235841
76.533556
56.683421
36.072731
24.359822
14.715791
10.583997
8.086562
6.905794
6.648898
7.305741
7.220507
7.258654
7.511973
7.622838
8.018613
8.672476
9.025931
9.321570
9.454489
9.945631
9.555817
10.041595
9.961724
10.212660
10.660887
10.408759
10.760427
10.321736
10.540485
10.456443
10.512471
10.741949
10.238886
10.569692
10.536909
10.187626
10.327697
10.486841
10.138750
10.558963
10.307431
##ZVALUE=295
0.686646
0.632405
0.670552
0.616908
0.606775
0.685453
0.763535
0.592470
0.655651
0.570416
0.702739
0.736713
0.724792
0.773668
0.713468
0.868440
0.742674
0.994802
0.780821
0.902414
0.920892
1.024604
0.979900
1.106858
1.101494
1.248717
1.421571
1.550913
1.764894
3.227592
11.200905
46.725869
108.369589
248.102546
393.059850
611.726642
755.654573
874.950886
891.034007
813.609958
692.932606
493.858457
344.411731
184.112787
103.304982
39.492846
22.354722
19.820929
26.785731
44.298768
60.172677
85.221529
102.450848
121.936798
129.473805
126.258731
114.999413
94.556808
76.602697
52.775741
38.603544
23.195744
16.436577
10.744929
8.600950
7.724762
7.668734
8.085966
7.906556
8.132458
8.876920
9.340644
9.277463
9.690523
9.861588
10.050535
9.950995
10.286570
10.523796
10.384917
10.845661
10.661483
10.378957
10.606647
10.703802
10.716915
10.972619
10.555983
10.771751
10.329485
10.621548
10.440946
10.687709
10.160804
10.368824
9.828806
##ZVALUE=300
0.651479
0.576973
0.697970
0.679493
0.627637
0.458956
0.612736
0.631809
0.677705
0.707507
0.558496
0.789762
0.681877
0.698566
0.763535
0.721812
0.670552
0.808835
0.664592
0.778437
0.761747
0.777841
0.869632
0.902414
1.033545
1.067519
1.212955
1.207590
1.298785
1.538992
1.545548
1.802444
7.561445
25.841594
85.559487
165.332556
324.956775
478.049517
676.862001
792.579651
865.025520
854.298472
734.919906
604.742765
404.223800
267.717838
134.865642
71.631670
26.838779
15.779734
17.357469
24.054646
40.047765
55.053830
77.793598
98.056793
115.935802
122.776628
121.008754
112.414956
94.461441
76.638460
54.850578
39.705634
24.818778
17.638803
11.670589
9.807944
8.811951
8.717775
8.707643
8.882880
9.667873
9.309649
9.791851
9.797812
10.416508
10.293722
10.317564
10.632873
10.668635
10.466576
10.877848
10.813475
10.768771
11.357665
10.965466
11.116862
10.347962
10.993481
10.736585
10.309815
10.319948
10.070801
10.097623
10.285974
##ZVALUE=305
0.610948
0.504851
0.487566
0.555515
0.569820
0.623465
0.787973
0.510812
0.705719
0.594854
0.652671
0.690818
0.626445
0.547767
0.564456
0.756979
0.674725
0.783801
0.704527
0.732541
0.783801
0.845790
0.876784
0.948906
0.825524
0.966787
1.088977
1.016855
1.253486
1.188517
1.051426
1.211762
1.434684
1.635551
2.825856
16.503930
46.999454
127.842426
224.627852
403.448939
553.059578
734.772682
825.405717
860.864520
803.158879
642.697811
504.368544
321.735740
202.968717
92.423558
45.892596
17.891526
12.483597
15.707612
22.499561
37.758946
53.404570
75.687766
91.544986
109.659433
114.759803
114.807487
107.123852
89.470744
73.728561
51.183701
38.107634
24.581552
16.935468
12.026429
10.024905
9.632707
9.530783
9.546876
9.492636
9.860992
10.031462
10.200739
10.331869
10.664463
10.948777
10.686517
10.882616
11.362433
10.966659
10.830760
10.986924
10.672808
10.813475
11.104941
10.652542
11.216998
10.655522
10.343790
10.562539
10.566711
##ZVALUE=310
0.584722
0.579953
0.671744
0.443459
0.532866
0.512600
0.458956
0.539422
0.629425
0.499487
0.492930
0.598431
0.628829
0.541806
0.651479
0.758767
0.586510
0.598431
0.732541
0.714660
0.880957
0.708699
0.609756
0.799894
0.743866
0.868440
0.951886
0.840425
0.766516
1.082420
0.825524
0.937581
1.002550
1.303554
1.332760
1.429915
1.866817
6.913543
22.905469
75.883865
146.883726
295.509696
439.117551
634.414554
763.896704
858.654976
844.565630
744.106770
612.605810
415.755510
276.759863
139.934421
75.291991
27.437806
13.211966
10.881424
13.840795
21.423697
31.266809
49.189925
64.964890
85.363984
99.006891
109.058619
110.408664
101.578832
90.455413
71.506500
55.637956
36.230683
26.454926
18.187761
13.742447
10.953546
10.154843
10.012984
10.100603
10.323524
10.299683
10.558963
11.101961
10.532737
10.798573
10.870695
11.340976
11.308789
10.962486
11.086464
11.224747
11.045933
11.173487
10.890961
10.555983
10.878444
10.435581
10.202527
##ZVALUE=315
0.478625
0.672936
0.677705
0.668764
0.752807
0.566840
0.601411
0.562668
0.543594
0.506639
0.583529
0.589490
0.503659
0.436902
0.556707
0.518560
0.756979
0.765920
0.746846
0.706911
0.685453
0.618696
0.668764
0.849962
0.777841
0.644922
0.869632
0.840425
0.869632
0.871420
0.962615
0.848770
0.984669
0.969768
1.005530
1.200438
1.303554
1.394749
1.455545
2.990961
10.795593
44.957995
100.215673
226.691961
357.867479
560.411811
697.152019
821.026564
855.540633
795.747638
689.335465
501.909852
355.947018
187.910795
102.208853
39.616823
17.164946
9.436607
9.666681
13.178587
18.865466
31.048656
43.147802
62.426925
78.640580
95.753670
103.529692
104.590654
98.462701
81.834793
70.010424
51.351786
38.918853
25.928617
18.392801
13.348460
11.802912
10.370612
10.641813
10.650754
10.680556
10.681748
10.628700
11.080503
11.249781
11.400580
11.215806
11.657476
11.237860
11.243820
10.994673
10.749698
10.754466
10.803938
10.698438
10.688901
##ZVALUE=320
0.548959
0.403523
0.421405
0.550747
0.639558
0.564456
0.579953
0.486970
0.714660
0.526905
0.580549
0.643730
0.436902
0.664592
0.609756
0.562668
0.684857
0.729561
0.630617
0.661612
0.658631
0.705719
0.757575
0.723600
0.694990
0.777841
0.699759
0.745654
0.860691
0.805855
0.870824
0.821948
1.091957
1.045465
1.017451
0.962615
1.008511
1.089573
1.132488
1.467466
1.402497
1.811981
5.183816
27.088523
67.231655
170.370936
279.346704
459.868908
606.961846
777.267814
854.404569
843.767524
763.961673
589.919686
428.586602
239.265561
136.380792
57.979822
27.708411
10.685921
8.367896
9.302497
11.845827
17.927885
26.234984
41.183829
55.615902
75.724721
88.531971
98.103881
100.604892
94.637871
82.063675
65.088868
51.049590
35.429001
26.169419
18.322468
14.643669
11.553764
11.435747
11.058450
11.120439
11.179447
11.279583
11.091828
11.212826
11.217594
10.944605
11.244416
11.231899
10.789633
10.867715
10.695457
10.581613
10.781884
##ZVALUE=325
0.459552
0.421405
0.422597
0.604987
0.607967
0.474453
0.411868
0.548959
0.513792
0.500679
0.587702
0.524521
0.670552
0.588894
0.546575
0.473857
0.603795
0.409484
0.447631
0.706911
0.613928
0.708699
0.551939
0.769496
0.818968
0.623465
0.677705
0.597835
0.715852
0.859499
0.974536
0.811815
0.760555
0.813603
0.977516
0.979900
0.967979
1.054406
1.057982
1.030564
1.258850
1.180768
1.439452
1.511574
3.517866
12.899637
49.616694
104.774833
231.952667
361.442566
557.034612
698.501468
831.671953
859.854817
781.196952
660.140514
450.317860
311.118960
164.084435
91.016889
34.492612
16.431808
8.364916
7.980466
9.364486
11.454821
17.458797
25.654435
41.243434
55.269599
73.722601
84.538460
93.389750
94.366670
86.792707
77.542663
61.636567
48.867464
33.749938
24.914742
17.727613
14.665723
11.927485
11.374950
11.495948
10.919571
10.984540
11.074543
11.360645
10.767579
10.974407
10.995865
10.540485
10.490417
10.420680
10.773540
##ZVALUE=330
0.534654
0.374913
0.339746
0.393987
0.489950
0.511408
0.513792
0.608563
0.639558
0.528693
0.584722
0.614524
0.566840
0.563860
0.607967
0.452995
0.628829
0.628829
0.592470
0.696778
0.563860
0.590682
0.681877
0.720620
0.624657
0.564456
0.788569
0.733733
0.844598
0.855923
0.793934
0.848770
0.704527
0.659823
0.856519
0.700951
0.689626
1.000762
0.923872
0.884533
1.150966
1.007915
1.167655
1.024604
1.357794
1.507998
1.756549
7.441640
24.580956
79.550743
150.455832
305.269957
448.517799
650.658011
779.427886
856.634974
832.396746
700.242519
555.820465
358.017683
229.277611
109.153986
56.541562
21.224618
10.943413
7.630587
7.874966
8.990765
11.478662
17.964840
25.263429
38.064718
50.686002
68.946481
79.777837
87.633729
88.050961
81.899762
73.601604
58.612823
46.749711
32.615662
25.004745
18.075705
14.832616
12.257695
11.372566
10.886788
10.790825
10.436773
10.846853
10.509491
10.136962
10.545850
10.205507
10.241866
##ZVALUE=335
0.509620
0.473857
0.469685
0.340939
0.513792
0.568628
0.460744
0.513792
0.556707
0.587702
0.606775
0.545979
0.594854
0.453591
0.576973
0.525713
0.533462
0.560880
0.683665
0.648499
0.538826
0.446439
0.518560
0.547767
0.658631
0.598431
0.583529
0.581741
0.579953
0.576973
0.739694
0.699759
0.734925
0.808835
0.739694
0.831485
0.818968
0.861883
0.875592
0.959635
0.858903
0.932813
0.979900
1.041889
1.068711
1.140833
1.240969
1.395941
1.444817
3.352761
12.334585
48.045516
102.698803
228.525400
370.086432
583.242774
730.080605
850.393772
861.941576
773.222446
651.072860
449.345708
305.891633
161.564946
85.258484
30.912757
13.967752
7.953644
7.801652
7.973909
8.931756
11.656880
16.193986
25.951862
36.490560
50.983429
62.592626
75.804591
82.099438
83.456635
77.861547
66.243410
56.701899
44.473410
35.612583
24.483800
19.285679
14.575720
12.583733
11.110902
10.724664
10.365844
10.470748
10.251999
10.126829
9.935498
##ZVALUE=340
0.444651
0.583529
0.535846
0.619888
0.576973
0.592470
0.607967
0.613928
0.494719
0.473857
0.588894
0.460744
0.459552
0.495911
0.426769
0.374913
0.445843
0.500679
0.526905
0.583529
0.503659
0.651479
0.567436
0.455976
0.597835
0.630617
0.437498
0.540614
0.658631
0.496507
0.612736
0.541806
0.771880
0.557899
0.679493
0.738502
0.614524
0.617504
0.598431
0.827909
0.932813
0.822544
0.840425
0.824928
0.839829
1.045465
0.957847
1.112819
1.185536
1.195669
1.424551
2.056956
6.165504
28.950572
71.038008
180.407763
305.522680
505.124927
661.391020
820.138454
873.621702
833.624005
734.092593
552.458763
395.050645
207.701921
116.244555
47.446489
19.588470
8.775592
7.736683
7.804632
8.032918
9.362698
11.487603
17.413497
23.581982
35.953522
46.498775
61.616898
70.851445
78.083873
78.553557
73.622465
66.771507
53.813457
44.287443
32.382607
18.999577
15.003681
14.202595
11.953712
9.941459
10.128617
9.578466
9.755492
##ZVALUE=345
0.550747
0.384450
0.570416
0.498891
0.521541
0.678897
0.419617
0.388622
0.490546
0.425577
0.449419
0.610948
0.552535
0.455976
0.506639
0.512600
0.670552
0.340939
0.454783
0.437498
0.589490
0.731945
0.567436
0.586510
0.733733
0.447631
0.478625
0.529885
0.487566
0.547767
0.609756
0.633597
0.707507
0.665784
0.779629
0.682473
0.703931
0.727773
0.633597
0.678897
0.867844
0.661612
0.937581
0.773668
0.831485
0.805855
0.873804
0.968575
1.095533
0.997782
1.061559
1.159906
1.334548
1.503825
3.353953
12.641549
51.794648
107.736588
228.111744
353.480577
550.908446
681.660771
792.033672
802.668929
713.232756
588.502884
399.950743
262.826681
122.875571
61.404705
21.968484
11.404753
7.862449
7.493496
7.407665
7.839799
9.035468
10.825992
15.417933
21.296740
33.110976
43.415427
54.955482
63.376427
70.987940
72.867870
69.396496
63.389540
52.383542
43.685436
31.921864
24.865866
17.551780
14.015436
11.322498
10.474920
##ZVALUE=350
0.597835
0.448823
0.612736
0.440478
0.748634
0.607967
0.526905
0.507832
0.593662
0.563860
0.497699
0.423789
0.423789
0.507832
0.656843
0.591874
0.605583
0.619888
0.624657
0.710487
0.736713
0.545979
0.610948
0.674725
0.610948
0.679493
0.527501
0.596642
0.695586
0.618696
0.758767
0.716448
0.565648
0.781417
0.678897
0.672936
0.677705
0.796914
0.840425
0.736713
0.773668
0.840425
0.761747
0.815988
0.900626
0.797510
0.732541
0.721812
0.854731
1.066923
0.944734
0.977516
1.006722
1.191497
1.224875
1.541972
1.912713
8.173585
25.281906
79.880953
152.753592
302.348733
436.331630
602.054000
702.015758
745.360851
701.880455
574.790835
439.576507
264.649987
164.135695
79.012513
38.211942
12.970567
8.111596
7.428527
7.116795
7.040501
7.669926
8.429885
10.251999
14.746785
20.069480
29.019713
37.680864
49.483776
58.203936
64.393878
66.482425
64.910650
59.049726
49.339533
41.554570
31.010509
24.461746
17.640591
##ZVALUE=355
0.454783
0.526905
0.439882
0.361800
0.431538
0.450611
0.487566
0.457764
0.520945
0.395775
0.456572
0.488758
0.409484
0.591874
0.502467
0.578761
0.621676
0.575781
0.599623
0.485778
0.636578
0.494719
0.684857
0.543594
0.519753
0.633597
0.612736
0.558496
0.587702
0.447631
0.509620
0.615716
0.519753
0.592470
0.630617
0.574589
0.532866
0.650883
0.702739
0.559688
0.853539
0.732541
0.727773
0.738502
0.804663
0.786781
0.795722
0.808835
0.868440
0.764728
0.916719
0.710487
0.785589
0.897646
0.972748
1.197457
1.234412
1.372695
1.418591
4.045963
13.435483
52.896738
111.265779
234.171748
362.969637
546.955466
657.417774
734.031796
722.406507
609.315634
492.302775
330.080986
209.295750
95.822811
47.215819
15.968680
8.575916
7.008910
6.693602
6.703734
6.621480
7.043481
7.858872
9.421706
11.824965
17.925501
23.879409
34.146905
41.728616
51.412582
57.300925
60.462952
59.440732
53.684711
47.391653
37.859678
##ZVALUE=360
0.440478
0.530481
0.474453
0.351667
0.373721
0.409484
0.476837
0.497699
0.452995
0.544786
0.435710
0.393987
0.373721
0.475645
0.562668
0.526905
0.575781
0.433922
0.555515
0.639558
0.605583
0.545979
0.562668
0.558496
0.570416
0.543594
0.483990
0.519753
0.564456
0.609756
0.498891
0.708699
0.478625
0.642538
0.559688
0.651479
0.667572
0.563860
0.597835
0.605583
0.699759
0.545979
0.529885
0.699759
0.608563
0.706911
0.618696
0.747442
0.726581
0.808835
0.845790
0.894666
0.936985
0.880957
0.759959
0.869632
1.153946
1.166463
0.998974
1.275539
1.487732
1.962781
5.946755
27.766824
68.597794
167.257786
275.571942
436.849594
566.768050
678.063631
699.490905
635.576844
538.652539
365.349650
247.425437
123.064518
65.689683
24.960637
11.455417
6.731749
6.567836
6.427765
6.481409
6.522536
6.396770
7.092953
8.169413
10.602474
13.758540
20.077825
27.450919
36.980510
43.912530
51.057935
54.793954
54.460764
##ZVALUE=365
0.402927
0.489950
0.385642
0.447631
0.411868
0.512600
0.476837
0.511408
0.540614
0.552535
0.617504
0.596642
0.604987
0.515580
0.521541
0.346899
0.488758
0.400543
0.454783
0.594854
0.545979
0.578761
0.740886
0.570416
0.683665
0.575781
0.555515
0.594854
0.553727
0.674725
0.543594
0.636578
0.485778
0.533462
0.497699
0.551939
0.702739
0.718832
0.696778
0.595450
0.566840
0.593662
0.591874
0.753999
0.704527
0.652671
0.515580
0.576973
0.581741
0.677705
0.678897
0.810623
0.813603
0.732541
0.679493
0.905991
0.859499
0.897646
0.804663
1.054406
1.111627
1.112819
1.360774
1.562834
2.688766
14.173985
41.124821
114.509463
204.719901
358.586907
480.981469
611.834526
661.465526
637.637973
556.246638
405.414701
289.413929
160.340667
89.330673
34.643412
15.635490
7.214546
6.060600
5.928874
5.914569
5.856752
5.820990
5.929470
6.230474
7.120967
8.613467
12.574792
16.645789
23.079515
29.888749
38.231611
##ZVALUE=370
0.569820
0.533462
0.552535
0.608563
0.479817
0.665784
0.495911
0.753999
0.579953
0.504851
0.637770
0.551939
0.698566
0.624657
0.557899
0.583529
0.668764
0.680685
0.598431
0.475645
0.545979
0.689626
0.628829
0.449419
0.660419
0.577569
0.661612
0.764728
0.756979
0.633597
0.589490
0.649691
0.668764
0.729561
0.540614
0.668764
0.635982
0.789762
0.777841
0.754595
0.803471
0.665784
0.670552
0.757575
0.780821
0.763535
0.865459
0.745654
0.798702
0.709891
0.764728
0.718832
0.684857
0.822544
1.043677
0.748634
0.796914
1.032948
0.835657
0.851750
1.039505
1.109838
1.144409
1.170635
1.210570
1.391768
1.800656
8.104444
26.367903
84.241629
154.315829
285.453796
408.341885
558.149815
629.251599
638.544559
588.850975
459.234715
337.828994
190.850496
109.074712
44.679642
21.898746
9.415746
6.333590
5.812645
5.495548
5.434752
5.265474
5.327463
5.697608
5.933642
6.331801
8.294582
10.722876
15.418530
##ZVALUE=375
0.325441
0.461936
0.552535
0.348687
0.454783
0.617504
0.384450
0.589490
0.508428
0.494719
0.385642
0.277758
0.402927
0.425577
0.505447
0.446439
0.252724
0.367761
0.356436
0.540614
0.421405
0.549555
0.363588
0.425577
0.395775
0.532866
0.372529
0.549555
0.627637
0.480413
0.562668
0.583529
0.525713
0.520945
0.521541
0.496507
0.424981
0.413656
0.423789
0.610948
0.516772
0.663996
0.645518
0.583529
0.677705
0.669956
0.437498
0.586510
0.472665
0.596642
0.606775
0.658631
0.655651
0.672936
0.693798
0.594854
0.680685
0.605583
0.720620
0.646710
0.604987
0.801682
0.772476
0.902414
0.874996
0.927448
1.112819
1.065731
1.342893
3.913641
14.224648
50.001740
106.098652
228.435397
345.132947
501.791835
589.690804
637.591481
614.741445
508.374572
397.970676
247.996449
156.564713
75.055957
39.061904
14.298558
7.101893
4.966855
5.142689
4.941821
4.845858
5.137920
4.904866
4.841685
5.167723
5.660653
##ZVALUE=380
0.500679
0.430942
0.521541
0.578761
0.316501
0.345707
0.457764
0.383854
0.349879
0.293851
0.366569
0.437498
0.755787
0.448823
0.512600
0.569820
0.532866
0.335574
0.460744
0.470877
0.460744
0.448823
0.515580
0.575781
0.423789
0.583529
0.391603
0.433922
0.451803
0.413656
0.467896
0.558496
0.642538
0.430942
0.556707
0.488758
0.461936
0.573993
0.550747
0.580549
0.619888
0.416636
0.667572
0.519753
0.474453
0.496507
0.559688
0.637770
0.448823
0.624657
0.544786
0.521541
0.478625
0.624657
0.720620
0.706911
0.652671
0.527501
0.644922
0.738502
0.719428
0.814795
0.653863
0.770688
0.707507
0.798702
0.862479
0.920892
0.917912
1.173615
1.235604
1.956820
7.211566
35.049915
80.500841
182.420015
286.977887
435.535908
541.157722
622.001886
621.827841
540.990829
449.401736
320.573449
218.163729
111.627579
59.567690
22.337437
10.190606
5.292892
4.791617
4.715919
4.640818
4.745722
4.775524
4.676580
##ZVALUE=385
0.345707
0.370741
0.394583
0.442863
0.309944
0.390410
0.311732
0.371933
0.404716
0.381470
0.392795
0.412464
0.451803
0.448823
0.412464
0.407696
0.401735
0.469685
0.449419
0.459552
0.413656
0.390410
0.370741
0.428557
0.495911
0.421405
0.424981
0.435710
0.429749
0.284910
0.764728
0.539422
0.379682
0.374913
0.522733
0.510812
0.493526
0.500679
0.467896
0.534654
0.529885
0.479817
0.484586
0.479817
0.531673
0.564456
0.675917
0.680685
0.615716
0.551939
0.591874
0.671744
0.474453
0.449419
0.648499
0.403523
0.475645
0.592470
0.602603
0.610948
0.560880
0.431538
0.714660
0.617504
0.600815
0.770688
0.841618
0.841618
0.849962
1.004934
1.034737
1.084805
1.207590
1.458526
3.746748
21.167994
52.876472
130.286813
223.783851
378.994942
488.772988
594.110489
618.601441
585.106015
512.077808
376.114845
268.477798
150.043964
86.342692
36.499500
16.451478
5.846620
4.493594
4.216433
4.178882
4.191995
##ZVALUE=390
0.428557
0.359416
0.320673
0.282526
0.384450
0.365973
0.374913
0.393987
0.400543
0.435710
0.352859
0.423789
0.332594
0.276566
0.342727
0.349879
0.393987
0.299811
0.439882
0.475645
0.371933
0.345707
0.311732
0.532866
0.417829
0.503659
0.374913
0.502467
0.416636
0.448823
0.497699
0.513792
0.460744
0.483990
0.437498
0.505447
0.468493
0.372529
0.521541
0.593662
0.537634
0.615716
0.496507
0.510812
0.611544
0.521541
0.542998
0.559688
0.526905
0.495911
0.509620
0.553727
0.488758
0.567436
0.561476
0.625849
0.499487
0.545979
0.621676
0.588894
0.661612
0.700951
0.621676
0.540614
0.601411
0.793934
0.756979
0.697970
0.927448
0.841618
0.944734
0.947714
0.812411
1.044869
1.080632
1.139641
2.098680
13.185740
39.214492
110.451579
196.236968
344.093442
451.921821
560.500622
618.772507
625.244975
575.932860
455.991626
347.763896
214.658976
125.793815
53.438544
24.964809
8.020997
4.807711
4.294515
##ZVALUE=395
0.398755
0.368953
0.516772
0.353456
0.513792
0.510812
0.443459
0.534654
0.447631
0.468493
0.457764
0.552535
0.429749
0.380874
0.437498
0.495911
0.388622
0.424981
0.520945
0.487566
0.488758
0.642538
0.407696
0.477433
0.331998
0.330806
0.518560
0.521541
0.562668
0.424981
0.458956
0.452995
0.514984
0.505447
0.594854
0.540614
0.405908
0.543594
0.522733
0.492930
0.460744
0.495911
0.556707
0.318885
0.525713
0.414848
0.311732
0.619888
0.505447
0.554919
0.481606
0.514984
0.571609
0.499487
0.489950
0.571609
0.484586
0.587702
0.543594
0.569820
0.699759
0.649691
0.641942
0.632405
0.769496
0.780821
0.626445
0.655651
0.697970
0.878572
0.891685
0.987649
1.018643
1.008511
0.919700
1.138449
0.936985
1.088977
1.457930
6.307960
22.705793
74.514747
136.667490
248.990655
355.474949
502.375960
585.018992
633.091927
610.338449
518.180728
409.301519
258.103013
162.165761
72.814822
36.559701
12.732744
##ZVALUE=400
0.489950
0.438690
0.512600
0.369549
0.381470
0.389814
0.455976
0.367761
0.364780
0.444651
0.442863
0.485778
0.517964
0.336766
0.461936
0.418425
0.433922
0.403523
0.249743
0.506639
0.371933
0.471473
0.470877
0.503659
0.414848
0.239611
0.386834
0.426769
0.551939
0.440478
0.494719
0.565648
0.437498
0.466704
0.434518
0.310540
0.526905
0.508428
0.630617
0.352859
0.505447
0.465512
0.632405
0.511408
0.548959
0.459552
0.409484
0.491738
0.560880
0.570416
0.626445
0.536442
0.482798
0.423789
0.599623
0.610948
0.584722
0.589490
0.657439
0.607967
0.512600
0.591874
0.563860
0.610948
0.725985
0.635982
0.726581
0.669956
0.723600
0.859499
0.850558
0.907779
0.923872
0.876784
0.929832
0.973940
0.959635
0.999570
1.115799
1.118779
1.251698
3.241897
11.425614
43.294430
89.274645
192.340612
301.543474
464.287996
576.611757
662.384629
667.800903
592.026711
491.236448
334.210992
221.672654
111.565590
##END
