##TITLE=FQP00301
##FORMAT=SPECTACLE-ASCII V-1.2
##DATA TYPE=ULTRAVIOLET SPECTRUM
##SECOND TYPE=ULTRAVIOLET SPECTRUM
##DATE=02/08/18
##TIME=16:07:26
##SPECTROMETER/DATA SYSTEM=SPECTACLE
##XUNITS=NM EM
##YUNITS=ENERGY
##YFACTOR=1
##FIRSTX=220
##LASTX=410
##NPOINTS=96
##3DDATA=Equidistant
##ZUNITS=NM EX
##FIRSTZ=210
##LASTZ=400
##ZPOINTS=39
##XYDATA=(Y..Y)
##ZVALUE=210
2.645850
2.250671
2.749562
2.920628
2.890825
3.160834
3.396869
3.174543
2.968907
3.481507
3.248453
3.395677
3.469586
3.252625
3.572702
3.508925
3.743768
4.414916
4.566908
4.576445
4.781485
4.950762
5.151629
4.544854
5.523562
5.883574
6.227493
6.223917
6.902814
7.501841
7.245541
7.231832
7.272959
7.702708
7.859468
7.813573
8.178949
8.927584
9.024739
8.592606
9.015799
9.603500
8.759499
9.939671
10.444522
8.651614
9.280443
9.405613
9.459853
9.962916
9.209514
8.725524
9.632707
9.343624
9.989738
10.028481
10.716915
10.223985
10.624528
10.605454
10.750890
10.207891
10.489821
11.170506
10.754466
11.437535
12.484789
13.274550
14.792681
17.385483
20.707846
24.192929
29.756427
34.193993
38.868785
41.264892
42.870641
45.420527
45.632720
46.398640
42.683482
41.164756
39.176941
32.687783
26.954412
22.736788
19.272566
15.521646
13.222694
11.678934
11.858940
11.592507
11.239648
10.828972
12.529492
12.003779
##ZVALUE=215
10.370612
9.283423
9.295940
8.036494
6.884933
6.244779
6.091595
5.734563
5.752444
6.005764
5.306602
5.474687
5.169511
4.590750
4.136562
3.925562
4.218817
4.257560
4.143715
4.256964
4.722476
4.317760
5.767941
5.693436
6.397963
6.313920
7.275939
7.154942
7.839799
9.134412
9.014606
9.177923
9.867549
9.846687
10.941625
10.616779
10.087490
10.454655
10.121465
9.984970
10.488629
11.024475
10.292530
10.697842
9.439588
9.807944
10.840893
10.705590
11.152625
9.414554
10.739565
10.485649
9.904504
10.033846
11.473894
10.512471
10.753870
12.901425
12.317896
11.383891
10.318756
11.043549
11.406541
11.472702
10.751486
10.800958
12.547970
13.301969
15.291572
16.445518
20.854473
24.184585
27.149916
30.500889
33.583641
38.680434
39.269924
42.617917
43.173432
42.202473
41.488409
36.286712
32.086968
30.430555
27.207732
21.099448
17.871857
14.175773
11.938810
11.694431
10.627508
9.442568
9.857416
10.349751
11.089444
11.221766
##ZVALUE=220
32.709837
35.594702
34.357905
36.060810
31.563640
24.761558
20.102859
13.585687
12.069941
11.603832
11.604428
11.467934
12.039542
11.377931
10.210872
8.371472
7.568598
6.105900
4.801750
5.098581
5.057454
5.420446
5.675554
5.423427
6.291866
6.002784
6.920695
7.501841
8.970499
10.485649
10.733604
10.209680
11.829734
11.207461
11.797547
12.020469
11.829734
12.094975
11.730790
13.494492
12.524724
11.321902
10.435581
12.499690
10.711551
12.208819
11.732578
11.799932
11.238456
10.899901
11.643767
11.463761
11.913776
10.658503
10.820627
11.779666
11.178851
12.011528
10.593534
11.203885
11.776686
10.709763
10.939837
12.178421
11.073947
11.623502
12.931824
14.002919
16.256571
17.266870
19.953847
22.295713
26.510954
28.635859
31.236410
32.900572
35.152435
36.614537
38.562417
37.823915
36.194921
33.950806
30.904412
29.409528
25.371909
20.200610
15.287995
13.148785
13.216734
11.903644
11.165738
12.225509
12.237430
10.928512
11.371970
11.393428
##ZVALUE=225
57.745576
61.904788
77.924728
101.769567
113.014579
103.901625
92.150569
69.704652
52.242875
37.743449
27.998686
25.036931
24.597645
28.292537
26.550889
25.107861
21.902919
17.502904
13.158917
11.009574
7.026792
6.049871
6.148815
6.207824
6.451607
7.450581
7.825494
9.467602
10.034442
11.239648
12.327433
12.298822
12.477636
14.281869
14.650822
13.004541
14.139414
13.554692
15.124679
14.027953
13.589859
12.802482
12.293458
12.413859
12.863874
12.880564
12.326837
12.031794
11.729598
12.121797
10.900497
10.881424
11.092424
11.560917
10.906458
11.693835
10.550618
11.922717
12.075901
11.609793
11.557937
10.420680
10.369420
11.709929
12.265444
12.957454
13.386607
15.554428
14.611483
16.329885
16.805530
20.647645
24.752617
24.791956
24.658442
28.996468
28.613806
27.765632
30.302405
25.716424
24.681687
24.001598
20.613670
21.078587
17.301440
16.373992
15.221834
13.941526
14.348626
14.712811
13.737679
12.491941
13.135672
13.168454
13.177991
14.378428
##ZVALUE=230
59.741735
67.556500
103.293657
172.726512
226.771832
274.009705
297.501683
296.740532
259.674788
202.668905
135.291815
93.264580
59.742928
46.749711
45.208931
49.170852
51.543713
48.609972
46.337843
36.449432
29.092431
19.999743
15.131831
10.445714
9.074807
7.401705
8.130670
9.012818
8.874536
11.917949
11.397600
11.488795
10.968447
15.474558
13.636947
14.552474
14.744997
14.987588
14.901757
13.786554
16.126633
14.348626
13.731718
13.355613
14.377832
11.851788
12.473464
12.460947
12.548566
13.578534
14.303923
13.644695
12.283921
12.773871
13.095737
12.315512
13.734698
13.553500
14.726520
13.201833
13.544559
13.932586
15.030503
15.947819
15.247464
15.913844
15.642643
16.256571
20.555854
22.273660
23.128986
25.699735
28.311610
30.827522
33.214688
33.029914
33.705831
32.723546
30.497909
28.984547
29.496551
27.762651
25.507808
23.114681
22.888780
21.168590
21.114945
21.263957
20.148754
21.396875
22.016764
19.733906
20.909905
19.957423
19.822717
19.243956
##ZVALUE=235
24.180412
25.416613
66.290498
130.536556
242.963433
356.826782
504.914522
611.521006
693.121552
675.097704
575.104952
446.725488
315.977931
181.329846
121.404529
79.638958
72.783828
79.057813
82.590580
83.300471
78.876615
70.329905
54.784417
37.179589
26.250482
18.557906
14.204979
11.430979
11.065602
10.030866
10.824800
12.681484
12.586713
11.960864
13.628602
12.798905
13.696551
12.838840
12.377501
12.536645
13.542771
13.934970
13.144612
13.815761
13.261437
13.481975
14.972687
12.946725
13.136864
12.432933
13.148785
13.143420
11.799932
13.114810
13.657808
13.927817
13.796687
14.568567
14.540553
14.736652
15.762448
15.771985
16.699433
17.699599
17.341971
19.062757
17.704964
20.411611
21.797419
24.217963
25.829673
27.352571
29.130578
34.479499
34.883618
34.691691
34.369826
35.907626
34.047961
34.493804
31.821728
32.890439
31.488538
29.570460
27.649999
28.161407
28.058887
26.938915
27.387738
27.364492
27.563572
27.874708
26.051998
26.245713
26.996732
26.939511
##ZVALUE=240
2.597570
3.080964
8.930564
25.338531
71.489811
135.059953
282.980800
449.663997
693.655014
836.373568
992.815495
1015.695930
935.294032
765.011907
592.523813
353.253484
231.007934
142.366886
111.394525
102.322698
109.495521
119.878650
112.391710
101.036429
83.225965
67.867637
48.899651
35.939813
22.669435
17.236471
13.897419
12.164712
12.246966
12.614727
12.978911
12.239814
12.394786
12.732744
13.019443
12.940764
11.989474
11.361837
13.156533
11.276603
12.824535
13.037920
12.895465
12.059808
12.744665
12.692809
12.972951
12.153983
13.340712
13.832450
13.596416
13.316870
13.254881
15.105605
14.243722
15.625954
15.878677
14.976859
16.213655
17.928481
18.284917
17.178655
18.580556
20.149946
22.211671
25.993586
26.055574
29.387474
31.901598
34.150481
32.747984
34.565926
34.911633
35.917759
35.870671
34.179688
33.217669
33.453703
33.650994
33.300519
33.620596
32.448769
32.611489
31.414628
31.225681
33.177733
32.093525
32.986999
32.219887
32.388568
32.872558
30.349493
##ZVALUE=245
2.075434
2.261996
2.432466
2.385974
5.347729
14.337897
47.438741
105.883479
262.751579
427.065492
668.334961
835.832953
936.632752
961.916447
878.775716
688.385963
535.563827
341.217518
233.025551
143.181682
107.107759
97.992420
112.521648
127.524734
131.662488
129.010677
115.670562
98.374486
76.036453
56.676865
41.978955
25.977492
20.166636
13.624430
13.158917
13.106465
11.266470
11.038780
11.525750
10.581613
11.867881
11.770725
12.448430
12.133718
10.965466
11.401772
10.637641
11.023879
11.238456
10.536909
10.360479
11.151433
11.077523
10.426641
11.143684
10.599494
11.000633
12.182593
11.883974
11.637807
12.428761
12.647510
13.198853
13.458729
14.662743
15.719533
17.525554
16.839504
18.346906
21.289587
21.569729
24.042726
27.034879
26.966929
28.436780
29.446483
29.994845
30.875802
31.661987
30.690432
31.681657
31.230450
32.075644
31.904578
31.595826
30.506849
30.843616
32.693744
32.498837
31.677485
31.165481
30.927658
31.718612
30.639768
29.717684
31.435490
##ZVALUE=250
1.658797
2.066493
1.531839
1.827478
2.119541
2.158880
2.973676
7.846951
32.591820
72.782636
170.929432
293.924809
431.731939
631.831884
745.842457
838.920474
817.659497
727.220774
600.611567
411.222577
278.936625
180.965662
109.021664
96.026659
104.801655
122.058988
134.280920
139.933825
135.825872
128.262639
105.758905
83.946586
63.651800
41.545630
27.431846
18.714666
15.927553
12.943745
12.540817
12.884736
11.987686
12.003779
11.468530
11.614561
12.219548
11.062622
10.999441
11.265874
10.158420
9.968877
11.332631
10.763407
10.388494
10.957718
9.930730
10.288954
10.818839
10.350943
10.465980
10.150671
10.413527
11.958480
11.175871
12.302995
12.883544
13.370514
12.903810
14.740825
14.773607
17.459989
17.810464
20.882487
20.373464
21.790862
22.518635
25.466681
24.561882
25.510788
26.746988
27.292967
27.914643
28.418899
29.387474
29.984713
29.232502
28.524995
28.338432
30.395985
28.050542
28.243661
28.792620
29.889941
28.299689
28.949976
29.268861
28.725863
##ZVALUE=255
1.408458
1.313686
1.276731
1.498461
1.502633
1.343489
1.619458
1.755953
2.218485
4.727840
21.511912
50.053596
102.061629
221.413970
341.053009
538.213849
663.083792
784.566998
808.515549
743.627548
640.323758
500.378013
302.232504
194.126964
110.661983
89.533925
89.954734
106.598735
128.565431
142.364502
148.624778
143.383741
133.727789
109.204650
89.623928
60.491562
44.396520
27.463436
19.824505
13.937950
12.883544
12.440681
12.616515
12.289882
11.722445
11.329651
11.590719
11.086464
10.463595
10.464787
9.986758
10.202527
9.853840
10.023713
9.654760
9.315610
9.944439
8.569956
9.623766
9.573698
9.404421
9.529591
9.764433
10.670424
11.736751
11.601448
11.463761
12.954473
13.489723
14.591813
15.457869
16.152859
18.272996
17.787814
20.214915
20.129681
21.045804
20.499825
21.992922
23.726821
23.995638
24.787784
24.019480
25.299788
24.125576
25.593638
25.315881
26.047826
25.729537
26.427507
26.555657
26.077628
26.879907
26.668906
27.392507
27.512908
##ZVALUE=260
1.148582
1.387596
1.411438
1.513958
1.189709
1.522899
1.330972
1.754761
1.655817
1.976490
1.921654
2.738833
8.158684
31.287670
71.769953
171.431899
282.248855
460.228920
600.317717
765.808821
824.875832
826.023817
706.138015
579.634905
377.215743
257.381797
150.884986
102.709532
79.829693
86.683631
104.735494
131.538510
148.938894
157.317519
153.979659
138.520598
116.435885
84.188581
65.053701
42.359829
30.662417
20.746589
16.316772
14.230609
13.358593
12.374520
12.093782
13.118982
12.108684
11.353493
10.800958
10.352731
11.281967
10.197759
9.796619
9.297729
9.510517
8.990765
9.208918
9.404421
9.262562
9.764433
10.149479
9.818673
10.937452
11.331439
11.904836
12.064576
13.056993
13.706684
14.649630
15.932918
16.298890
17.197728
18.016696
19.647479
19.980669
20.361543
20.888448
21.282434
21.305680
21.713972
22.217631
22.689700
23.157001
24.812818
22.888780
24.377704
24.215579
24.315715
26.073456
25.164485
24.950504
25.415421
26.265979
26.300550
##ZVALUE=265
1.531839
1.044869
1.424551
1.232624
1.256466
1.282692
1.416802
1.254678
1.329780
1.526475
1.569986
1.638532
1.581907
2.284646
6.228685
17.908812
63.193440
124.823451
219.174623
412.985682
583.337545
793.152452
902.353525
911.940932
834.590793
670.436025
521.809459
329.255462
217.494965
120.460987
82.847476
73.424578
89.524984
117.638707
140.402913
157.318711
162.972808
156.243443
139.379501
113.976002
90.357661
61.144829
45.167804
28.644800
21.303892
16.318560
13.638735
13.486743
12.752414
12.537837
12.023449
11.861920
11.210442
10.818839
10.619760
10.279417
9.748936
9.651780
9.468794
9.657741
9.825826
9.553432
10.476708
10.084510
10.286570
10.689497
10.990500
12.036562
12.134910
13.179779
13.953447
14.848709
15.263557
16.325712
16.081929
17.740726
18.775463
18.818974
19.463897
19.395947
20.367503
20.470619
21.694899
21.681786
21.897554
22.532940
22.782683
22.988915
23.746490
22.501945
24.812818
24.767518
24.743676
24.045706
24.624467
23.894906
##ZVALUE=270
1.105666
1.229644
1.286864
1.197457
1.058578
1.384616
1.201630
1.310706
1.127720
1.377463
1.455545
1.339912
1.365542
1.553893
1.609921
1.915693
2.465844
11.741519
31.383634
94.445944
179.889798
315.098763
589.933991
818.911791
1015.695930
1015.695930
1015.695930
990.105867
738.617778
536.587834
375.955701
184.072852
107.183456
66.854954
68.063736
91.832876
115.252733
141.955614
156.244636
164.137483
157.033801
138.788819
117.474794
86.656809
65.650940
43.139458
30.816793
20.215511
16.034842
13.083816
12.011528
11.067986
10.956526
10.046959
10.839701
10.518432
10.147691
9.898543
10.334849
9.790659
9.291768
10.040998
10.432601
10.183454
10.328889
10.966659
11.265874
11.472702
12.337565
13.381839
13.351440
14.278889
14.639497
16.117692
16.119480
17.124414
17.505884
17.433763
18.037558
18.691421
19.113421
19.997954
20.136833
21.160841
21.208525
21.041632
21.477938
21.513700
21.822453
21.506548
21.343827
22.499561
23.217797
21.818876
23.024678
22.626519
##ZVALUE=275
1.113415
1.224875
0.974536
1.159906
1.088977
1.300573
1.186728
1.269579
1.140833
1.331568
1.287460
1.353621
1.395941
1.451969
1.448989
1.494884
1.874566
1.965761
2.022982
5.593896
18.975735
49.046874
136.196613
254.102945
506.485701
721.053481
977.842808
1015.695930
1015.695930
1015.695930
988.944769
713.881850
488.198996
244.545937
137.619972
66.926479
54.552555
65.585971
85.986853
114.916563
134.926438
154.571533
158.167481
153.108835
138.134956
111.491680
87.859631
62.287450
45.938492
27.899742
19.849539
13.875961
11.446476
9.848475
9.711981
9.950995
9.815693
9.766817
9.907484
9.736419
9.842515
9.766817
10.021925
10.398626
10.256767
10.908842
11.149645
11.903644
11.879802
12.475848
13.514757
14.539957
15.215874
15.694499
16.699433
17.049909
17.822981
17.956495
17.590523
17.889738
19.040704
19.151568
19.088984
19.717813
19.896626
20.062923
20.609498
20.582676
21.018982
21.460652
21.504760
21.964908
21.575689
21.724701
21.497607
21.370649
##ZVALUE=280
1.044869
0.963807
1.105666
1.111627
0.958443
1.049638
1.191497
1.046658
0.953674
1.393557
1.193881
1.200438
1.319647
1.327991
1.211762
1.475811
1.264811
1.475811
1.318455
1.926422
1.787543
2.873540
12.677908
37.175417
109.126568
195.993781
368.849635
555.293560
815.887451
980.945826
1015.695930
1015.695930
998.610854
761.345029
554.189682
304.564834
176.975727
78.916550
48.806667
45.273900
57.017803
84.331632
108.077526
133.904815
147.770643
153.452754
147.967935
131.277442
111.083984
82.096457
61.873794
40.506721
27.930737
17.082691
12.811422
9.804964
9.507537
9.323955
9.197593
9.116530
9.343624
9.852648
10.145903
10.621548
10.680556
11.601448
11.321902
12.237430
12.547970
12.986660
14.485717
14.508963
15.559793
15.954971
16.287565
16.385913
16.707778
17.286539
17.799735
18.420815
18.780828
18.969774
19.311905
19.580722
19.866824
20.721555
19.703507
20.384789
20.442605
20.642877
20.404458
21.214485
20.724535
20.536780
21.572709
21.326542
##ZVALUE=285
0.861883
0.911951
0.978708
1.019835
1.039505
0.891685
0.856519
1.049638
1.064539
1.118779
1.138449
1.050830
1.084805
1.099706
1.205802
1.244545
1.197457
1.514554
1.353621
1.602769
1.599789
1.520514
1.802444
2.094507
6.324649
20.183921
61.323643
122.485757
257.715583
401.382446
570.846796
791.916847
914.688706
976.973772
921.582580
754.458904
586.793423
357.283950
223.791003
105.645657
57.868958
32.345653
36.613941
55.038929
75.676441
104.920864
123.753548
141.434669
148.561001
142.787695
130.961537
107.081532
88.746548
60.058832
42.184591
25.361776
17.861724
12.177825
10.099411
9.150505
9.682775
9.848475
9.793639
9.926558
10.398626
11.013746
11.694431
12.592673
12.641549
13.547540
14.017820
14.436841
15.060902
15.778542
16.069412
17.090440
17.368793
17.354488
17.632842
17.886758
18.676519
19.161701
19.253492
20.165443
18.971562
20.261407
20.030737
20.788908
20.273924
20.497441
20.359755
20.274520
19.997954
20.181537
20.583868
20.414591
##ZVALUE=290
0.816584
0.840425
0.888705
0.613928
0.928640
0.948906
0.976920
0.899434
0.839829
1.009703
1.013875
1.045465
1.031756
1.108646
0.990629
0.892878
1.094937
1.172423
1.059771
1.208782
1.089573
1.431704
1.335740
1.418591
1.533628
1.657605
2.321601
10.950565
30.770898
86.542964
159.328580
319.668651
470.244884
680.027008
810.479522
907.107592
893.758535
770.353675
627.643466
417.099595
277.967453
138.799548
74.735880
32.780766
24.835467
33.882856
48.203468
72.891712
92.476606
118.372440
133.497715
141.219497
140.168667
126.077533
106.924772
81.039667
60.972571
39.515495
28.299689
17.866492
13.183951
10.800958
10.079741
10.055900
10.447502
10.745525
11.434555
12.644529
13.032556
13.610721
14.241934
14.977455
15.426874
15.636683
16.550422
17.401576
17.486811
17.637610
18.100739
18.869638
18.786788
19.429922
18.985868
19.900799
19.944906
20.114779
20.214915
20.567775
20.185709
20.124912
20.845532
20.609498
20.054579
20.286441
20.263791
20.279884
##ZVALUE=295
0.625849
0.775456
0.973940
0.835657
0.849962
0.887513
0.878572
0.764728
0.922680
0.920892
0.917912
0.840425
0.854731
0.945926
0.891685
1.040697
1.019835
1.008511
1.089573
1.149774
1.257658
1.229644
1.360774
1.111627
1.427531
1.493692
1.605749
1.630783
1.798868
3.429651
12.864470
50.038695
106.217861
240.480900
379.109979
596.305728
740.149021
870.875716
898.595452
824.527740
708.415508
504.216552
352.408886
186.117887
102.287531
40.019751
22.790432
20.959973
28.508902
46.489835
64.407587
90.267658
109.218955
129.302740
135.583878
134.129524
122.655630
101.396441
82.975626
57.760477
42.988658
26.712418
19.623637
14.335513
11.930466
11.634827
12.123585
12.556911
12.886524
13.644695
14.191866
15.555620
16.070604
16.135573
17.250776
17.405748
17.715693
18.637776
18.863678
19.606948
19.475818
20.207763
20.269752
20.160675
20.357966
20.496845
21.028519
20.303726
21.029711
21.003485
20.141602
20.713806
20.100474
19.921660
20.031929
20.454526
##ZVALUE=300
0.712872
0.833869
0.718832
0.844598
0.920892
0.764728
0.798702
0.898838
0.966787
0.861883
0.791550
0.846982
0.889897
1.002550
0.872612
0.936985
0.826716
0.902414
0.815988
1.066923
1.156926
1.084805
1.084805
1.097918
1.173615
1.173615
1.455545
1.382828
1.473427
1.681447
1.780987
1.908541
5.705953
29.459596
69.911480
174.502730
289.949775
489.763618
645.123720
817.919970
888.105035
872.652531
782.504678
598.414540
432.727933
237.208605
142.830610
65.625906
32.005906
16.297698
17.086864
27.155876
38.926601
60.893893
80.171824
104.798675
118.770599
130.630732
126.962662
116.033554
102.775693
78.656673
60.813427
41.798949
29.853582
20.681620
16.437769
14.506578
13.397932
13.880730
15.063882
14.864802
15.718937
16.489625
17.159581
18.146634
18.059611
18.698573
19.105673
19.502640
20.021796
20.586848
20.748973
21.110773
21.012425
21.065474
21.195412
21.526814
21.576881
21.089911
21.178722
21.398664
20.855665
20.561814
20.601749
20.579696
##ZVALUE=305
0.504851
0.660419
0.677705
0.799894
0.783801
0.735521
0.815988
0.845790
0.713468
0.778437
0.825524
0.858903
0.782609
0.768900
0.743866
0.879765
0.926852
0.951886
0.918508
0.889897
0.862479
0.934601
0.990629
0.997782
1.047850
1.152754
1.081824
1.329780
1.245737
1.434684
1.400709
1.412630
1.589656
1.867414
4.030466
14.569759
53.285956
113.976598
250.600576
384.691954
590.570569
730.755925
866.490602
893.062949
816.243887
686.395764
488.951802
340.745449
178.864002
99.230409
40.766001
19.558668
12.399554
15.680790
25.416613
37.833452
59.576631
77.482462
98.702908
113.605857
122.938752
124.076605
112.855434
99.817514
76.422691
61.636567
41.799545
31.240582
22.027493
17.868876
16.151667
16.078949
16.523600
16.646981
16.902685
17.986894
18.514991
18.730760
19.753575
19.886494
20.952821
21.235943
21.878481
21.711588
22.065639
22.040606
21.748543
21.385550
21.764636
21.920800
21.909475
21.444559
21.674633
21.026731
21.095872
20.270944
##ZVALUE=310
0.549555
0.752807
0.724792
0.737906
0.615716
0.913739
0.661612
0.729561
0.590682
0.799894
0.913739
0.839829
0.721812
0.717640
0.783801
0.819564
0.780821
0.902414
0.831485
0.821948
0.823736
0.975728
0.873804
1.098514
1.002550
0.893474
1.028776
1.112819
1.134872
1.212955
1.169443
1.209974
1.313686
1.401901
1.567602
1.642704
2.122521
7.385612
24.181604
76.868534
149.336457
303.644538
453.608036
660.851002
793.254972
883.634686
866.826773
755.638480
622.518659
414.623618
273.200870
138.431787
73.508620
27.581453
14.024973
11.833906
15.412569
23.761988
34.038424
52.765608
69.459677
92.617869
106.234550
117.462873
119.070411
109.752417
96.913576
78.459978
62.249899
43.898821
33.519864
25.503635
21.281838
18.951893
18.399954
19.094944
18.849969
19.626617
20.135641
20.917654
20.599961
21.171570
22.198558
22.089481
22.456646
22.314787
22.894740
22.435784
22.337437
22.524595
22.115707
21.626949
21.624565
22.106767
21.255612
21.493435
##ZVALUE=315
0.727773
0.698566
0.728965
0.730753
0.741482
0.788569
0.736713
0.631809
0.682473
0.613928
0.645518
0.757575
0.665784
0.711679
0.946522
0.888705
0.892878
0.779629
0.688434
0.851750
0.877976
0.880957
0.798702
0.833869
0.898838
0.940561
0.832677
0.858903
1.088977
1.203418
1.042485
0.973940
1.100898
1.301765
1.212955
1.332760
1.497865
1.609921
1.858473
3.565550
12.396574
49.107671
105.420947
231.727958
371.341705
591.046810
725.511909
850.734711
881.277919
805.940628
691.591501
498.628616
347.127914
184.318423
100.926757
38.887858
18.152595
10.560751
10.893941
15.297532
21.502972
34.645796
47.754645
68.222880
84.879994
103.266835
111.443996
112.747550
107.551813
91.851950
78.669786
60.373545
46.947598
33.050776
27.162433
21.966696
20.424724
19.655824
19.847751
20.858645
21.320581
21.908879
22.163987
22.334456
22.399426
23.125410
22.546649
22.498965
22.529960
22.566915
22.308826
22.573471
22.725463
21.942854
22.107959
21.520853
##ZVALUE=320
0.763535
0.714660
0.665784
0.649691
0.478625
0.671744
0.744462
0.714660
0.625849
0.774860
0.592470
0.549555
0.730753
0.761747
0.700951
0.751615
0.763535
0.799894
0.714660
0.813603
0.662804
0.756979
0.748634
0.891685
0.737906
0.755787
0.989437
0.854731
0.784993
0.917912
0.974536
0.929832
1.030564
1.165867
1.210570
1.220703
1.310706
1.287460
1.354814
1.430511
1.553893
2.177954
5.617738
28.571486
70.528984
176.251531
288.117528
470.890999
619.229674
786.858797
856.135488
840.896964
760.217905
575.861931
421.988964
234.439969
135.284662
58.957934
27.916431
12.153983
9.849668
11.148453
14.141798
21.439791
29.952526
46.425462
61.222911
82.869530
96.333623
107.643604
110.144615
102.998614
92.819929
74.481964
60.692430
44.021606
35.567880
28.046966
23.931861
22.481680
21.397471
21.740794
22.232533
22.025704
22.515655
23.570657
22.983551
22.641420
23.080707
22.645593
22.896528
22.024512
22.474527
22.896528
22.542477
22.172928
##ZVALUE=325
0.714660
0.653863
0.673532
0.590682
0.616908
0.678897
0.725985
0.746846
0.809431
0.813603
0.726581
0.658631
0.712872
0.857711
0.764728
0.630617
0.721812
0.638962
0.925660
0.645518
0.865459
0.678897
0.794530
0.884533
0.839829
0.842810
0.746846
0.930429
0.830889
0.987649
0.743866
1.069903
1.004934
0.994802
0.974536
1.190901
1.025796
1.211762
1.133680
1.205802
1.348853
1.347661
1.415610
1.624823
3.324747
18.802881
47.660470
120.704770
215.275884
396.082997
545.884967
726.546645
819.069743
842.647552
782.451034
621.228814
468.947887
289.869905
175.623894
77.702999
38.917661
15.087724
10.145903
9.966493
11.127591
15.694499
21.019578
32.371879
44.843554
65.684915
78.798532
94.678998
103.490949
105.111599
100.336671
85.604787
73.268414
56.858659
45.907497
34.330487
28.659701
24.587512
23.087859
22.290945
22.603869
22.236705
22.547841
22.721887
23.577809
22.915602
22.785664
22.793412
22.806525
22.101998
21.920800
22.085905
##ZVALUE=330
0.484586
0.571609
0.546575
0.564456
0.612736
0.651479
0.614524
0.700951
0.684857
0.729561
0.748634
0.707507
0.638962
0.683665
0.631809
0.757575
0.777841
0.534654
0.717640
0.716448
0.710487
0.708699
0.846982
0.771880
0.877976
0.799894
0.825524
0.818968
0.742674
0.966787
0.747442
0.799894
0.834465
0.953674
0.916719
1.013875
0.956655
1.031756
1.040697
1.183748
1.201630
1.152754
1.154542
1.172423
1.484752
1.533628
1.881719
8.033514
26.080608
80.751777
154.064894
303.581953
444.236994
638.008714
754.946470
828.716755
797.470808
674.819946
539.953709
348.841548
225.665569
107.440948
55.893660
22.296906
12.497902
10.168552
10.220408
12.163520
14.919639
22.806525
30.748844
44.775605
59.231520
78.249574
88.396668
99.044442
100.523829
93.660951
83.851814
69.575906
57.226419
43.530464
35.913587
29.297471
26.255846
23.763776
22.610426
22.873878
22.044778
22.531748
22.264719
22.173524
22.153854
21.924973
21.651983
21.822453
##ZVALUE=335
0.612736
0.585914
0.702739
0.563860
0.671744
0.537634
0.704527
0.510812
0.671744
0.688434
0.680685
0.637770
0.621676
0.700951
0.596642
0.749826
0.737906
0.701547
0.809431
0.741482
0.691414
0.816584
0.705719
0.745654
0.801682
0.807643
0.679493
0.919700
0.787973
0.761747
0.716448
0.816584
0.793934
0.910759
0.783801
0.675917
0.889897
0.758767
0.815988
0.995994
0.985861
1.172423
0.977516
1.078844
1.303554
1.282692
1.213551
1.367927
1.592636
3.670454
13.454556
51.302910
105.099678
229.812860
359.199047
559.024811
689.520836
792.468786
805.992484
716.604590
598.526597
412.618518
278.531909
146.016479
78.016520
29.242635
15.116930
10.642409
10.112524
11.417866
12.602806
16.076565
20.823479
31.930804
42.327642
60.109496
72.722435
86.432695
93.007684
95.028877
92.018843
80.001950
69.409609
55.849552
45.612454
35.429001
29.961467
25.391579
23.615956
22.562742
21.907687
21.645427
21.562576
21.261573
21.144748
21.588802
##ZVALUE=340
0.576973
0.619888
0.598431
0.606775
0.439882
0.714660
0.689626
0.732541
0.598431
0.536442
0.670552
0.742674
0.629425
0.557899
0.563860
0.519753
0.649691
0.743866
0.719428
0.760555
0.748634
0.707507
0.582933
0.618696
0.629425
0.657439
0.772476
0.554919
0.724792
0.813603
0.733733
0.865459
0.782609
0.733733
0.697970
0.728965
0.789762
0.959635
0.949502
0.839829
1.022816
0.915527
0.967979
0.934601
0.871420
1.031756
1.194477
1.232624
1.275539
1.281500
1.431704
1.828671
8.562803
26.179552
82.624555
159.346461
319.483876
455.187559
627.431870
729.592443
788.005590
753.924847
630.744696
498.554707
313.332677
196.072459
92.661977
46.362877
17.723441
11.392832
10.835528
10.919571
11.667609
13.432503
17.072558
21.649003
31.695962
41.271448
57.872534
69.993734
82.706809
89.473724
90.301633
86.898804
77.886581
67.291856
54.270625
45.518875
34.908652
29.203892
24.771690
22.346973
20.954609
20.831823
20.425916
20.643473
##ZVALUE=345
0.613928
0.591874
0.615716
0.545979
0.597835
0.758767
0.631809
0.616908
0.714660
0.561476
0.594854
0.509620
0.594854
0.561476
0.677705
0.702739
0.516772
0.633597
0.562668
0.601411
0.695586
0.865459
0.610948
0.677705
0.758767
0.682473
0.820756
0.584722
0.741482
0.573993
0.774860
0.837445
0.575781
0.855923
0.684857
0.716448
0.733733
0.764728
0.851750
0.940561
0.922680
0.822544
0.752807
0.901818
0.919700
0.869632
0.923872
1.028776
1.067519
1.087785
1.242757
1.254678
1.329780
1.356602
3.745556
14.014840
55.465698
111.318827
229.048729
352.131724
532.949567
655.916929
753.319860
756.050944
668.860674
551.418662
376.873612
246.981978
116.247535
59.276819
23.180842
13.549924
11.084676
11.024475
11.818409
11.789799
13.584495
15.938878
21.941662
29.088855
40.787458
51.870942
65.669417
74.640512
82.784891
84.803700
81.321001
74.953437
63.239932
54.090619
42.475462
34.636855
27.389526
23.578405
21.085739
20.803809
##ZVALUE=350
0.682473
0.572801
0.724792
0.600815
0.630617
0.741482
0.621676
0.768900
0.713468
0.643730
0.717640
0.714660
0.639558
0.819564
0.676513
0.829697
0.743866
0.687838
0.758767
0.732541
0.738502
0.647902
0.701547
0.745654
0.770688
0.681877
0.824928
0.893474
0.833869
0.869632
0.789762
0.840425
0.946522
0.877976
0.887513
0.904799
0.862479
0.712872
0.845790
0.916719
0.867844
1.015663
1.016855
0.974536
0.910759
0.996590
1.049638
0.950694
1.048446
0.974536
1.154542
1.253486
1.154542
1.110435
1.256466
1.495481
2.116561
9.122491
28.072596
83.927512
157.029629
304.746628
435.435772
598.659515
697.806478
749.374032
707.212687
582.237840
446.537733
265.594721
163.633823
77.087879
37.360787
15.290976
11.018515
10.720491
11.174679
11.374950
11.914968
13.639927
16.031861
21.443963
27.511716
36.784410
45.119524
59.073567
67.546964
74.914694
78.300834
75.837970
70.403814
60.041547
51.194429
40.444732
33.442974
26.890635
##ZVALUE=355
0.598431
0.577569
0.788569
0.709891
0.478625
0.545979
0.776649
0.624657
0.682473
0.585914
0.541806
0.429749
0.621676
0.614524
0.649691
0.788569
0.579953
0.674725
0.666976
0.536442
0.631809
0.612736
0.476837
0.718832
0.559688
0.505447
0.753999
0.716448
0.766516
0.698566
0.713468
0.789762
0.775456
0.650883
0.673532
0.668764
0.703931
0.778437
0.561476
0.756979
0.797510
0.764728
0.811815
0.744462
0.787973
0.802875
0.839829
0.879765
0.787973
0.990629
0.944734
1.176000
1.124740
1.151562
1.137853
1.028776
1.284480
1.353621
1.416802
4.279613
15.347600
56.639910
111.651421
232.028961
356.927514
537.854433
645.325780
721.369982
715.535879
605.844855
485.495925
320.995450
204.787850
92.871785
46.789646
17.925501
11.209846
10.156631
10.356903
10.219812
11.001825
11.794567
12.707710
14.908910
18.223524
24.634600
31.228662
42.231679
50.834417
60.199499
66.464543
70.916414
69.936514
63.168406
57.436824
47.163963
##ZVALUE=360
0.628829
0.482798
0.585914
0.488758
0.709891
0.697970
0.644922
0.503659
0.602603
0.727773
0.500679
0.542998
0.569820
0.483990
0.541806
0.653863
0.679493
0.489950
0.584722
0.483990
0.666976
0.677705
0.838637
0.693798
0.525713
0.767708
0.714660
0.591874
0.721812
0.565648
0.801682
0.670552
0.687838
0.843406
0.854731
0.649691
0.607967
0.462532
0.593662
0.812411
0.803471
0.718832
0.827909
0.804663
0.632405
1.030564
0.842810
0.837445
0.946522
0.940561
0.748634
1.104474
1.029968
1.056790
1.030564
1.111627
0.990629
1.055598
1.233816
1.315475
1.358986
2.312660
6.692410
29.942989
70.106983
168.161988
273.917913
434.707999
563.330650
681.355596
706.881881
646.575689
544.070601
369.260907
247.069597
122.282505
65.172911
26.432872
13.844967
9.742975
9.501576
9.691715
9.856820
10.445714
10.782480
11.707544
12.850761
15.922785
20.049810
26.813745
34.315586
44.794679
52.661896
60.250759
63.784719
64.459443
##ZVALUE=365
0.564456
0.646710
0.521541
0.710487
0.613928
0.597835
0.732541
0.608563
0.571609
0.654459
0.672936
0.646710
0.463724
0.739694
0.579953
0.652671
0.605583
0.564456
0.528693
0.683665
0.725985
0.685453
0.621676
0.590682
0.847578
0.717640
0.571609
0.570416
0.602603
0.633597
0.727773
0.521541
0.822544
0.623465
0.567436
0.657439
0.622869
0.944734
0.806451
0.729561
0.789762
0.800490
0.750422
0.807643
0.841618
0.904799
0.888705
0.708699
0.780821
0.744462
0.898838
0.972748
0.947714
0.853539
1.008511
1.025796
0.960827
1.044869
1.068711
1.165867
1.170635
1.210570
1.523495
1.615882
3.593564
12.979507
48.141479
101.620555
227.202773
348.932743
506.050587
610.760450
682.942867
669.963956
569.560528
456.728935
292.627811
180.590749
81.729889
39.872527
15.300512
9.788871
8.951426
8.969903
9.157658
9.730458
9.625554
9.877682
10.583997
11.486411
14.199615
17.251968
23.188591
29.831529
39.442778
45.672655
##ZVALUE=370
0.564456
0.500679
0.650883
0.576973
0.611544
0.731945
0.460744
0.606775
0.618696
0.583529
0.470877
0.536442
0.632405
0.502467
0.406504
0.466704
0.633597
0.529885
0.633597
0.671744
0.612736
0.652671
0.623465
0.752807
0.601411
0.565648
0.650883
0.576973
0.670552
0.690818
0.549555
0.594854
0.456572
0.525713
0.666976
0.616908
0.676513
0.786781
0.753999
0.794530
0.870824
0.762939
0.737906
0.672936
0.709891
0.593662
0.734925
0.843406
0.792742
0.612736
0.713468
0.739694
0.760555
0.818968
0.789762
1.017451
0.927448
0.781417
0.994802
0.886917
0.976920
1.090765
1.138449
1.228452
1.267791
1.177788
1.841784
8.364916
27.042627
85.370541
156.607628
290.637612
419.011712
578.836799
653.682947
665.904880
608.959794
479.381680
353.515744
198.658705
113.613605
45.719743
23.058653
10.951757
8.228421
8.101463
8.410811
8.608699
8.503795
8.873940
9.246469
9.846687
10.957718
12.902617
15.457869
20.710826
##ZVALUE=375
0.550747
0.571609
0.667572
0.405908
0.628829
0.733733
0.615716
0.556707
0.538826
0.529885
0.581741
0.618696
0.799894
0.540614
0.598431
0.691414
0.596642
0.751615
0.639558
0.547767
0.751615
0.690818
0.571609
0.778437
0.651479
0.641942
0.696778
0.636578
0.647902
0.659823
0.672936
0.657439
0.628829
0.834465
0.587702
0.604987
0.720620
0.638962
0.676513
0.777841
0.548959
0.647902
0.664592
0.661612
0.644922
0.749826
0.735521
0.744462
0.944734
0.828505
0.752807
0.688434
0.771880
0.802875
0.918508
0.865459
0.873804
0.676513
0.727773
0.820756
0.853539
0.877976
0.858903
1.015663
1.025796
1.144409
1.204610
1.318455
1.513958
4.373789
15.194416
51.312447
107.698441
234.116912
354.497433
519.316792
612.716675
667.609572
644.642711
529.678464
408.179760
248.769522
157.396793
78.985691
40.388703
15.614629
9.284616
7.494688
7.598996
7.692575
7.753968
7.907748
8.193851
8.501410
8.888841
9.741783
##ZVALUE=380
0.522733
0.599623
0.522733
0.462532
0.482798
0.689626
0.548959
0.561476
0.564456
0.541806
0.445843
0.565648
0.517964
0.574589
0.527501
0.602603
0.675917
0.473857
0.597835
0.626445
0.540614
0.644922
0.549555
0.577569
0.324845
0.702739
0.716448
0.471473
0.522733
0.597835
0.584722
0.661612
0.498891
0.731945
0.609756
0.558496
0.622869
0.758767
0.727773
0.690818
0.599623
0.636578
0.762939
0.711679
0.638962
0.614524
0.625849
0.678897
0.693798
0.802875
0.777841
0.619888
0.717640
0.723600
0.770688
0.801682
0.655651
0.593662
0.777841
0.759959
0.818968
0.792742
0.852942
1.007915
1.053810
0.902414
1.092553
1.088977
1.320839
1.208782
1.422763
2.303720
7.906556
36.627650
82.090497
187.171698
298.436880
454.609990
568.455458
657.836795
655.206442
564.049482
461.832881
319.896936
214.832425
107.182860
56.495667
21.723509
10.965466
7.180572
6.914735
7.156730
7.192492
7.281899
7.475615
7.744431
##ZVALUE=385
0.505447
0.581741
0.720620
0.648499
0.575781
0.529885
0.554919
0.481606
0.518560
0.571609
0.517964
0.550747
0.632405
0.682473
0.632405
0.744462
0.626445
0.526905
0.573993
0.544786
0.573993
0.662804
0.627637
0.579953
0.647902
0.609756
0.604987
0.738502
0.731945
0.651479
0.639558
0.611544
0.617504
0.596642
0.666976
0.664592
0.632405
0.781417
0.613928
0.621676
0.552535
0.699759
0.686646
0.836849
0.757575
0.917912
0.765920
0.808835
0.655651
0.678897
0.667572
0.815988
0.700951
0.774860
0.869632
0.820756
0.758767
0.613928
0.847578
1.038909
0.802875
0.802875
0.844598
0.792742
0.956655
0.905991
0.931621
1.090765
1.059771
1.263618
1.097918
1.317859
1.373887
1.736879
3.988743
21.484494
53.849816
130.555630
228.036642
391.860604
512.415767
625.876784
656.666756
616.084933
536.182523
390.502810
275.807977
150.572658
86.803436
36.708713
16.976595
7.649660
6.478429
6.474853
6.559491
6.828904
##ZVALUE=390
0.417829
0.438690
0.473857
0.476837
0.619888
0.547767
0.489950
0.503659
0.568628
0.457764
0.511408
0.697970
0.501871
0.459552
0.320673
0.505447
0.523925
0.630617
0.551939
0.619888
0.461936
0.597835
0.672936
0.551939
0.644922
0.513792
0.603795
0.515580
0.517964
0.548959
0.616908
0.634789
0.681877
0.656843
0.717640
0.616908
0.681877
0.486970
0.527501
0.699759
0.659823
0.656843
0.628829
0.576973
0.653863
0.645518
0.698566
0.659823
0.794530
0.746846
0.646710
0.617504
0.768900
0.724792
0.642538
0.532866
0.671744
0.615716
0.730753
0.588894
0.827909
0.746846
0.837445
0.720620
0.754595
0.743866
0.824928
0.981688
0.930429
0.964999
1.022816
1.049638
1.143813
1.105666
1.207590
1.266599
2.213717
11.211634
34.318566
100.168586
185.023546
338.189006
450.747609
574.127436
639.379025
651.164651
596.484542
468.325615
355.463624
215.869546
126.044750
53.014755
24.813414
9.219646
6.457567
5.903840
##ZVALUE=395
0.364780
0.437498
0.505447
0.526905
0.595450
0.476837
0.605583
0.636578
0.546575
0.467896
0.499487
0.579953
0.449419
0.460744
0.478625
0.514984
0.582933
0.474453
0.553727
0.583529
0.453591
0.430942
0.525713
0.554919
0.620484
0.570416
0.530481
0.527501
0.584722
0.693798
0.648499
0.555515
0.619888
0.644922
0.527501
0.646710
0.569820
0.602603
0.634789
0.610948
0.628829
0.634789
0.843406
0.553727
0.651479
0.651479
0.612736
0.545979
0.683665
0.673532
0.491738
0.561476
0.679493
0.772476
0.761747
0.852942
0.813603
0.695586
0.671744
0.652671
0.793934
0.696778
0.642538
0.761747
0.841618
0.842810
0.868440
0.883937
1.048446
0.951886
1.126528
1.046658
1.128912
1.021624
1.238585
1.165867
1.192689
1.119971
1.587868
6.695986
22.478700
74.382424
136.963725
254.080892
370.778441
526.405573
618.355870
668.908954
645.421743
542.920828
424.386859
262.368917
164.505839
71.902871
35.438538
13.169646
##ZVALUE=400
0.512600
0.448823
0.509620
0.492930
0.645518
0.411868
0.491738
0.609756
0.499487
0.443459
0.507832
0.520945
0.440478
0.447631
0.581741
0.547767
0.465512
0.538826
0.500679
0.658631
0.499487
0.540614
0.681877
0.477433
0.398755
0.478625
0.628829
0.480413
0.411868
0.589490
0.360608
0.651479
0.522733
0.609756
0.574589
0.415444
0.568628
0.479817
0.511408
0.536442
0.506639
0.588894
0.671744
0.685453
0.601411
0.611544
0.583529
0.673532
0.755787
0.639558
0.645518
0.564456
0.753999
0.592470
0.658631
0.744462
0.696778
0.593662
0.677705
0.534654
0.730753
0.632405
0.689626
0.705719
0.754595
0.749826
0.874996
0.674725
0.758767
0.766516
0.828505
0.929832
0.929832
0.986457
1.094937
0.998974
0.934601
1.106858
1.040697
1.131892
1.289845
3.381968
11.679530
41.590929
87.995529
192.244649
301.475525
459.033847
562.530756
644.165874
648.197532
566.293597
462.813973
304.244757
199.339986
101.260543
##END
