##TITLE=FQP00602
##FORMAT=SPECTACLE-ASCII V-1.2
##DATA TYPE=ULTRAVIOLET SPECTRUM
##SECOND TYPE=ULTRAVIOLET SPECTRUM
##DATE=02/08/18
##TIME=16:25:01
##SPECTROMETER/DATA SYSTEM=SPECTACLE
##XUNITS=NM EM
##YUNITS=ENERGY
##YFACTOR=1
##FIRSTX=220
##LASTX=410
##NPOINTS=96
##3DDATA=Equidistant
##ZUNITS=NM EX
##FIRSTZ=210
##LASTZ=400
##ZPOINTS=39
##XYDATA=(Y..Y)
##ZVALUE=210
2.041459
2.789497
2.584457
2.517700
2.978444
2.554655
3.187656
3.295541
2.734661
2.755523
2.936721
2.272725
2.443790
2.526641
2.906919
2.577901
2.659559
3.026724
2.921820
3.383756
3.176928
3.536940
3.201962
4.130602
3.532767
3.917813
3.687739
5.197525
5.513430
5.462766
6.163716
6.153584
7.254481
6.225705
6.762743
6.578565
6.912947
6.378889
6.041527
6.527901
6.712675
5.353689
5.555749
6.240606
6.492734
5.961657
5.745888
6.022453
4.818439
5.766749
6.110668
5.745888
5.885959
5.086660
4.691482
5.802512
5.391836
5.745888
4.975796
5.588531
5.222559
4.897714
5.174875
5.640984
5.313754
5.102754
5.721450
5.695820
6.894469
6.880760
7.409453
8.646846
9.131432
10.707974
10.517836
10.819435
9.924769
9.545684
9.928942
8.631945
8.942485
7.929802
8.401871
6.943941
6.564856
5.743504
5.093813
5.107522
4.674792
4.759431
4.134774
5.457997
5.138516
5.122423
5.380511
5.887747
##ZVALUE=215
7.114410
7.290840
5.633831
5.387664
4.403591
4.674792
4.297495
5.482435
5.849600
4.918575
5.379915
4.455447
4.759431
4.418492
3.125668
2.976656
3.310442
3.802776
2.889633
3.453493
3.220439
3.399849
3.769994
3.550649
4.100800
4.647970
4.997849
6.328821
7.121563
7.676482
7.859468
9.559989
8.448958
10.165572
9.065866
10.844469
9.590983
10.510683
10.918975
9.750724
9.045601
7.960796
8.416772
8.377433
8.371472
9.472966
6.743670
7.484555
7.903576
7.683635
6.728768
6.831884
7.668734
6.329417
6.382465
6.121993
6.491542
6.606579
6.626844
5.684495
5.962849
6.902814
6.068945
5.822778
5.187988
5.990863
6.444454
7.099509
6.482601
7.838607
8.142591
8.479953
9.444952
11.167526
12.465715
10.779500
12.391806
11.645555
11.164546
10.182858
10.696650
9.496808
8.804798
7.581711
7.250905
6.746650
5.894899
5.478859
6.137490
5.044937
5.589724
6.056428
5.725622
5.975962
5.367994
6.106496
##ZVALUE=220
23.108721
22.319555
21.950603
22.537708
19.409657
16.895533
14.108419
12.224913
10.805726
11.710525
11.350513
13.450980
12.193918
10.047555
9.338856
6.736517
5.308986
4.851818
4.107952
3.150702
3.820658
3.812909
3.567934
3.916621
4.043579
5.918741
7.228851
7.727742
9.976625
10.772943
12.129545
12.536645
14.782548
15.606880
16.457438
15.914440
15.892982
15.617609
16.213655
14.098883
13.772845
12.683868
13.710856
12.717843
12.967587
10.998845
10.612607
10.121465
10.982752
10.544658
9.632707
9.693503
9.639859
8.571744
9.076595
8.720756
8.252859
8.103848
8.796453
8.276701
7.314682
7.631779
6.976724
8.042455
7.347465
8.096695
8.339882
8.098483
8.462667
8.748770
9.034872
10.723472
12.127757
13.120770
14.006495
12.917519
13.659596
13.654828
13.629794
13.999939
12.902617
12.697577
11.766553
11.634827
8.365512
8.143783
7.653832
6.557703
6.893873
7.386804
7.479787
7.520914
6.642938
7.824898
7.024407
6.946921
##ZVALUE=225
34.955740
37.955642
47.149658
58.628917
63.284636
60.472488
54.769516
44.311881
34.294724
26.861429
22.185445
22.958517
25.259852
27.512908
25.472641
23.937821
19.486547
17.255545
12.789965
9.442568
6.255507
4.711747
4.574656
4.573464
5.242825
5.880594
6.775856
8.736849
9.531975
10.903478
13.078451
15.175939
16.621947
17.545819
19.040704
20.043850
17.864704
20.621419
18.380880
20.513535
18.309951
16.325712
16.912818
14.709830
15.648603
14.255643
14.285445
13.212562
11.930466
12.021661
11.337996
12.305975
11.102557
11.559725
11.421442
10.789633
9.789467
9.852648
9.339452
9.464622
9.818673
9.696484
9.397864
10.369420
9.312630
9.326935
10.482669
9.657741
10.939837
10.720491
11.737943
12.392998
13.361573
15.000701
15.120506
15.027523
16.123652
15.939474
16.763806
16.009808
15.568733
13.066530
12.670755
13.163686
11.910796
11.276603
11.938810
11.520982
11.331439
10.364652
11.031628
10.381937
9.314418
9.115934
10.605454
10.334849
##ZVALUE=230
32.670498
38.364530
57.602525
96.037984
120.815635
151.231885
161.473751
150.162578
137.539506
112.041831
77.978969
56.260824
42.788982
41.614771
40.270686
48.657656
50.119758
45.784712
41.329861
34.047961
27.357936
18.441677
12.460947
7.646680
6.603599
6.646514
6.509423
7.851720
9.057522
10.463595
13.199449
12.923479
14.943480
15.441775
16.045570
17.180443
16.894937
16.189814
15.854836
16.905665
16.653538
16.664863
17.177463
16.319752
14.930964
14.387965
15.023947
13.476610
13.712645
12.657642
12.084842
11.780858
12.478828
12.206435
11.583567
12.264848
11.645555
11.501908
11.006594
11.121631
12.042522
11.954904
12.659431
12.251735
11.486411
11.135936
12.878776
12.837648
13.127923
14.525652
16.652942
16.372800
17.599463
18.911958
19.360781
18.052459
17.267466
20.340681
17.822981
18.926859
19.216537
17.796755
17.746687
16.952753
15.790462
16.357899
16.128421
15.845895
16.702414
16.350746
16.979575
14.781952
15.577674
14.628768
14.877915
14.366508
##ZVALUE=235
12.007952
14.901757
29.626489
69.349408
115.119815
183.638930
236.912966
295.627713
322.906971
311.876535
279.532671
220.772624
147.241950
110.086799
82.247853
68.872571
71.305633
73.063970
80.583692
80.236793
76.610446
63.298941
51.857829
34.698844
25.605559
15.334487
12.838840
8.998513
9.008646
9.780526
8.917451
10.272861
10.616779
11.227727
12.154579
12.421608
11.870861
13.645887
12.773871
13.202429
13.990998
14.844537
12.683868
12.997985
13.549924
12.743473
13.345480
12.073517
12.215972
12.862682
12.342930
13.071895
12.786984
13.266802
11.564493
11.757612
12.095571
13.696551
12.486577
13.127923
13.305545
13.977885
12.771487
14.788508
14.413595
14.247894
14.794469
16.919971
18.018484
18.684864
19.357800
21.847486
21.948814
22.752881
23.613572
24.250746
26.322603
24.957657
23.946762
25.557876
23.331642
26.770830
25.216937
25.826693
24.441481
23.858547
22.355914
24.350882
23.157001
24.480820
24.604797
23.092628
22.953749
25.183558
22.706985
23.457408
##ZVALUE=240
2.563596
2.813935
6.586909
16.395450
47.648549
88.424683
168.214440
261.294842
387.231708
480.233431
537.154675
529.029965
477.804542
380.399823
287.949443
178.834796
131.020546
96.647739
91.233850
99.817514
111.297965
116.848946
112.004876
101.919770
79.548955
65.340996
47.187805
34.625530
21.685958
15.559793
12.618899
11.856556
11.206865
13.332963
10.795593
11.636615
12.691617
12.485981
12.063980
12.879968
11.941791
13.298988
13.317466
12.948513
12.485981
14.298558
11.758804
12.739897
13.948679
13.765693
12.651682
13.516545
14.084578
13.712645
13.591647
13.732910
13.174415
11.916757
14.546514
14.441609
14.256835
16.190410
15.989542
15.808940
17.317533
15.702844
17.088652
18.887520
20.086765
21.221638
21.360517
22.976995
24.247766
28.821826
28.182864
29.825568
28.465986
29.923916
28.547645
30.730963
32.308698
29.495955
29.410720
28.171539
28.269887
31.822920
29.723644
30.885935
30.425787
30.280948
30.972958
30.094981
30.022860
29.793978
29.212832
30.446649
##ZVALUE=245
1.800656
1.677871
1.979470
2.180934
4.078746
13.205409
30.849576
80.642700
142.209530
225.967765
361.703634
458.640456
550.626516
562.730432
519.328713
456.343889
325.587988
245.482922
174.871683
114.669800
96.879601
97.691417
111.784935
126.828551
127.950907
124.752522
111.863613
93.472004
77.280998
54.058433
40.678978
26.101470
19.933581
15.875697
15.250444
13.151765
13.674498
14.301538
13.578534
15.570521
12.906790
14.147758
14.119744
13.892651
13.352633
13.455749
13.469458
13.682842
13.347864
12.466908
12.477636
11.731982
12.972951
12.391806
12.272596
12.885928
12.950897
12.616515
12.811422
13.973713
12.903810
13.174415
13.795495
12.927651
14.478564
15.251637
15.521646
16.902685
16.559958
20.174980
19.717813
22.590756
23.321509
24.565458
25.099516
25.889874
27.910471
28.331876
27.516484
28.866529
28.678775
29.910803
30.617714
29.822588
30.244589
29.781461
30.960441
30.143857
31.508803
29.831529
30.252934
30.514598
29.387474
30.339956
29.704571
30.594468
##ZVALUE=250
1.483560
1.451969
1.508594
1.826882
1.708865
2.240539
2.436638
6.743670
27.565956
56.865811
137.000680
225.174427
328.618884
474.413633
570.133924
657.747984
660.841465
581.914783
489.277840
342.530608
230.999589
156.718493
101.102591
91.620684
107.442737
123.990774
138.467550
143.145919
138.534904
129.398704
108.818412
85.813999
67.476630
45.867562
34.019947
24.419427
19.367933
18.058419
17.816424
17.514825
17.011762
16.969442
17.409921
17.013550
16.649961
15.214682
14.777780
15.086532
13.530850
14.412999
13.985634
13.881922
13.069510
13.433695
14.014840
13.435483
12.813807
13.971925
12.946725
14.162660
13.058782
13.127923
13.945699
14.050603
13.486743
15.105605
14.903545
17.199516
17.492771
18.002987
18.271804
19.709468
21.212697
21.712780
23.472905
24.683475
24.176836
24.534464
26.514530
26.426911
27.335882
26.447773
27.298927
26.610494
26.788712
28.804541
28.244853
27.982593
29.399991
28.468966
28.075576
29.598475
29.690862
28.497577
30.337572
29.272437
##ZVALUE=255
1.368523
1.605749
1.512766
1.398921
1.615882
1.499653
1.772642
2.051592
2.171993
4.179478
19.907951
47.402978
95.204711
200.061798
318.081975
490.083694
614.614487
727.362633
766.922832
713.908672
620.747805
493.952632
314.099789
209.136009
118.424892
92.272758
90.650916
109.129548
134.739876
147.117972
154.608488
152.386427
141.786933
118.729472
96.202493
69.603920
52.865744
36.749840
29.505491
24.707913
22.732615
22.180676
23.473501
20.110607
21.226406
19.774437
19.707680
19.949675
17.277598
18.000603
17.620921
17.018914
17.062426
15.672445
15.866756
15.108585
15.351772
13.260841
13.908744
13.627410
14.224648
14.688969
14.786720
14.082789
13.629794
14.987588
15.579462
14.478564
15.249848
17.459989
18.163919
18.679500
20.193458
19.889474
21.632910
22.481680
23.182631
22.758842
24.611950
25.185943
24.680495
25.845766
26.417971
25.585890
26.674867
27.365685
26.571751
26.441813
26.296973
26.997924
27.609468
27.569532
28.195977
27.987957
28.468966
28.773546
##ZVALUE=260
1.272559
1.213551
1.423955
1.351833
1.617670
1.342893
1.839995
1.945496
1.935959
1.673698
1.734495
2.782941
9.364486
28.266907
74.708462
150.118470
307.283998
443.867445
587.346554
780.887008
863.953829
854.550600
768.295527
593.675971
426.800847
253.373981
167.117715
102.393627
85.936785
93.896985
116.923451
144.237876
164.116621
171.146989
169.474483
155.143738
137.552619
103.240609
81.598759
58.929920
45.467615
34.662485
29.673576
27.390718
25.302768
24.726987
24.435520
22.656918
22.152662
21.348000
21.367669
18.999577
19.617677
19.066930
17.607808
16.256571
16.812682
15.348792
15.980601
15.910864
14.460683
14.139414
14.011860
14.525652
15.215874
14.661551
15.771985
16.116500
16.257763
16.307831
16.643405
18.111467
18.794537
20.362735
20.518899
20.308495
21.433830
22.471547
23.537874
23.482442
22.556782
24.380684
24.063587
24.166703
25.029778
24.824739
25.330782
26.209950
24.833679
25.120974
25.928617
27.078986
25.980473
25.739670
27.107596
27.227998
##ZVALUE=265
1.139641
1.328588
1.300573
1.176000
1.248717
1.296997
1.358986
1.404881
1.399517
1.288652
1.571774
1.689792
1.848936
2.351999
4.256964
21.048784
49.275756
129.400492
229.227543
429.994464
611.095428
775.438547
931.928754
951.766968
834.839940
703.493953
508.400798
353.111625
201.993585
127.791762
92.916489
86.034536
102.715492
136.383772
158.192515
175.134540
183.956623
178.665519
162.955523
133.893490
111.284852
82.406998
64.599514
46.257973
38.767457
31.277537
28.121471
27.222633
25.597811
24.513602
22.881627
21.883845
20.939708
19.437671
19.801855
18.078685
17.739534
16.816854
17.315745
16.504526
16.150475
14.785528
14.913678
15.449524
14.882684
14.870763
15.577674
15.002489
16.134977
16.994476
17.054677
17.924905
19.265413
19.773841
19.806623
19.497871
21.063685
21.495819
20.942688
21.868944
22.210479
23.290515
23.569465
22.498965
23.319721
23.591518
23.553967
24.109483
23.202896
24.007559
23.231506
23.905635
24.581552
24.218559
23.884773
25.022626
##ZVALUE=270
0.773668
1.116991
1.275539
1.221895
1.079440
1.214743
1.334548
1.037717
1.470447
1.490712
1.474619
1.329780
1.496673
1.508594
1.591444
1.941919
2.794862
8.468628
24.266839
80.125928
172.292590
365.310907
544.603467
776.488781
911.499858
973.766446
925.355554
782.193542
635.094643
427.996516
292.300582
161.989927
108.202696
82.193613
86.631775
112.507939
136.694908
163.604617
178.886652
187.615752
180.091858
161.247849
138.204694
107.930899
84.053874
58.561563
45.562983
34.530759
29.065609
25.732517
24.266839
23.495555
21.961927
20.195842
19.209981
18.271804
18.267632
16.456842
16.275644
16.616583
15.951991
14.940500
15.386939
15.186667
14.712811
14.312863
15.372634
15.599728
16.013980
16.118884
16.913414
16.729832
18.115640
19.076467
19.183755
19.532442
20.101666
20.595789
20.590425
20.724535
20.486712
21.690726
21.915436
21.714568
22.843480
22.103786
22.390485
22.167563
23.276806
23.267865
22.915602
23.892522
23.850799
23.695827
23.101568
24.682879
##ZVALUE=275
1.102686
1.025796
0.989437
1.113415
0.976920
1.193881
1.237988
1.093745
1.059771
0.944734
1.198649
1.267791
1.157522
1.281500
1.384616
1.533628
1.631975
1.729727
1.769662
4.784465
17.472506
46.179891
140.296817
264.059901
482.836962
651.262999
825.336576
917.758942
931.387544
854.932666
733.421445
534.276962
384.292603
212.257504
133.643746
80.176592
67.843795
83.198547
103.593469
131.474733
152.701735
171.430707
179.119706
169.730783
154.293776
124.715567
103.342533
77.705979
57.528615
39.342642
30.046701
23.409724
20.888448
18.407702
17.763972
16.541481
16.029477
15.683770
15.593767
15.499592
14.804602
15.074611
14.542937
13.974905
14.798641
14.746785
14.980435
15.537739
15.206933
15.257597
16.038418
17.358661
17.839670
18.248558
18.621683
18.481612
18.750429
20.069480
20.946860
20.397902
20.130873
21.348596
20.738840
21.471977
22.036433
21.694899
21.193624
21.367669
21.750927
22.467971
22.104979
22.145510
23.067594
22.565722
22.690892
21.822453
##ZVALUE=280
0.937581
0.856519
0.991821
1.077652
1.005530
0.930429
1.189709
1.196861
1.138449
1.209974
1.222491
0.971556
1.059771
1.166463
1.385808
1.296997
1.375675
1.473427
1.258850
1.743436
1.896620
2.063513
10.172725
33.938885
106.996894
191.643834
347.698927
499.146581
696.398616
811.813474
879.656672
869.153738
780.983567
595.549941
442.517996
257.232785
159.931779
80.656409
54.096580
53.343773
66.636801
94.632506
116.175413
143.984556
157.689452
163.898468
157.137513
139.922500
120.298862
89.673996
69.174767
46.132803
34.413934
23.266673
17.977953
15.083551
14.422536
14.129877
13.910532
14.280677
14.388561
13.906956
14.638901
14.526844
14.453530
14.645457
15.201569
15.174747
15.358925
15.250444
16.498566
16.709566
17.580986
17.483830
18.028617
18.994808
18.639565
19.624829
19.994974
20.393729
19.897819
20.825863
20.300746
21.210909
20.805597
21.471977
21.717548
21.250844
21.248460
21.665692
22.391677
21.583438
21.422505
22.274852
21.581650
21.916628
##ZVALUE=285
0.752807
0.765920
0.999570
1.043677
1.020432
0.830889
0.949502
0.996590
0.986457
1.094937
1.095533
1.115799
1.026988
0.853539
1.208782
1.281500
1.233816
1.049638
1.090765
1.181960
1.334548
1.687407
1.769662
1.791716
5.357862
17.597675
59.732795
120.770931
253.290534
393.103957
543.046594
736.195445
837.993622
882.908702
822.044015
666.552782
521.414876
326.420665
207.287669
101.577640
57.709813
37.406683
39.941669
59.750676
80.037713
108.306408
130.696893
144.415498
152.231455
147.796869
136.909485
110.519528
90.678930
63.890815
46.176910
29.527545
20.818710
15.733838
13.312697
12.836456
12.719631
12.444854
12.848973
13.351440
13.576746
13.421774
15.029907
14.137626
15.290976
15.561581
16.222000
16.180873
17.604828
17.439723
18.337965
18.817782
19.350648
19.591451
20.339489
20.445585
20.546913
20.761490
21.292567
20.715594
21.377802
21.518469
21.612644
22.388697
21.776557
21.330714
21.458864
21.648407
21.562576
22.109747
21.305680
21.708608
##ZVALUE=290
0.780821
0.871420
0.832677
0.930429
0.839829
0.867844
0.949502
1.042485
0.970960
1.104474
0.787973
0.818968
0.834465
0.984669
0.913739
1.091957
1.170635
1.073480
1.168847
1.089573
1.050830
1.278520
1.241565
1.305938
1.490712
1.603961
2.491474
6.979704
31.687617
75.899959
145.817995
302.096605
455.445647
664.488673
792.965889
882.233977
863.258839
739.747882
606.181026
407.816768
269.996524
136.998892
74.791908
34.831762
26.229620
36.629438
49.986839
74.130893
94.900727
122.345686
137.041807
144.859552
143.303871
127.914548
110.359788
81.563592
63.090920
41.019917
29.837489
19.252896
15.520453
12.772679
12.445450
12.376904
12.680888
13.757944
13.897419
14.320612
14.804602
16.076565
16.376972
16.762614
17.047524
18.143654
18.124580
18.432736
19.164681
19.739866
19.551516
20.564795
20.473599
21.452904
20.203590
21.231771
21.240711
21.469593
21.922588
21.898746
21.837950
21.651983
21.574497
21.774769
21.412969
20.895600
21.164417
21.241903
##ZVALUE=295
0.694990
0.799894
0.737906
0.842810
0.902414
0.730753
0.877976
0.901818
0.829697
0.883937
0.973940
0.940561
0.856519
1.073480
0.967979
0.873804
0.977516
1.102686
0.961423
0.992417
1.095533
1.134872
1.269579
1.243949
1.387596
1.249909
1.528859
1.561642
1.725554
3.235936
10.781884
45.385957
101.696849
237.321854
374.113917
579.393506
714.594722
845.278502
869.436860
794.144869
682.510734
487.706661
337.563753
180.741549
100.669861
39.626956
23.506880
21.814704
29.822588
47.524571
65.820813
92.654824
110.794902
130.322576
137.732625
134.092569
124.173760
102.338791
82.806945
59.198737
43.201447
28.272867
20.988584
15.714765
13.704896
12.934804
13.148785
13.634562
13.811588
14.922619
15.603900
16.686916
16.993880
17.804503
17.921925
18.568635
18.891692
19.905567
19.838810
19.940734
21.236539
20.909905
21.521449
21.711588
21.939874
21.349788
21.379590
21.665692
21.996498
21.512508
21.528602
21.298528
21.310449
21.512508
21.357536
21.420717
##ZVALUE=300
0.832677
0.658631
0.754595
0.744462
0.627637
1.009703
0.715852
0.790954
0.727773
0.791550
0.776649
0.746846
0.860691
0.734925
0.929832
0.923872
0.776649
1.049638
0.821948
1.094937
0.909567
0.931621
1.119971
1.083612
1.081824
1.085997
1.204610
1.221895
1.269579
1.605749
1.739860
2.088547
7.208586
23.855567
77.842474
150.075555
303.555727
451.639891
655.537844
773.018599
858.374834
841.728449
724.752545
593.052506
393.554568
255.972743
130.691528
69.026947
27.620792
16.780496
18.903613
26.609898
42.219758
58.910847
84.061623
103.330612
121.310949
129.209757
128.394961
119.795799
99.948645
82.540512
60.202479
44.770837
29.494762
22.739768
16.875863
14.869571
14.205575
14.884472
15.383959
15.573502
16.591549
17.521977
17.954707
18.551946
18.987656
19.823909
20.845532
20.123720
21.153688
21.091700
21.953583
21.951795
22.633672
22.176504
22.594929
22.560954
22.094846
21.999478
21.676421
21.396875
21.820664
22.088885
21.720529
21.667480
##ZVALUE=305
0.724792
0.906587
0.708699
0.809431
0.840425
0.663996
0.713468
0.759959
0.633597
0.793934
0.830889
0.824928
0.836849
0.812411
0.756979
0.868440
0.807643
0.974536
0.802875
0.890493
0.987649
0.969768
1.019835
0.744462
0.957847
1.005530
1.153946
1.111627
1.326799
1.176000
1.421571
1.476407
1.627803
1.785755
3.137589
15.672445
42.943954
119.751692
213.690400
389.290452
538.030863
718.555450
816.599727
842.497945
787.601471
622.219443
482.332706
304.441452
190.372467
85.755587
43.532848
17.901659
13.077855
17.612576
25.442839
40.940642
57.709813
80.558658
98.859668
115.988851
123.766661
123.164654
113.660693
96.868873
79.891682
57.325959
43.974519
30.704737
23.195744
18.057823
17.102957
16.787648
16.660690
17.606616
18.406510
18.797517
19.688606
19.717813
20.456910
21.181703
21.651983
21.888614
22.660494
22.883415
22.179484
23.285747
22.820830
22.921562
23.048520
22.185445
22.501945
22.955537
22.041798
22.303462
22.075772
21.802783
##ZVALUE=310
0.674725
0.663996
0.617504
0.802875
0.621676
0.674725
0.736713
0.706911
0.693798
0.856519
0.581741
0.724792
0.823736
0.772476
0.812411
0.768900
0.817776
0.835657
0.892878
1.073480
0.982881
0.955462
0.893474
0.998974
1.032948
0.946522
1.050830
1.035929
1.017451
1.146793
1.062751
0.931621
1.281500
1.221895
1.381636
1.762509
1.684427
5.341768
27.721524
65.084696
156.663656
267.033577
455.348492
603.563786
770.865679
840.824842
823.817849
736.891627
564.555526
417.315960
243.340731
144.095421
61.071515
29.715896
13.234615
11.203885
16.051531
22.743940
35.882592
50.956607
71.411729
90.346932
108.953714
117.634535
118.583441
113.519430
97.181797
81.504583
59.859753
45.695901
32.078624
24.936795
21.582842
19.731522
18.813610
18.975735
19.820929
20.016432
20.332932
21.159649
21.651983
22.357702
22.928715
23.399591
23.329854
23.686886
23.687482
23.789406
23.569465
23.368597
22.830963
22.670627
22.660494
22.783875
22.624731
22.677779
##ZVALUE=315
0.714660
0.768900
0.655651
0.782609
0.837445
0.754595
0.645518
0.826716
0.456572
0.800490
0.625849
0.545979
0.781417
0.749826
0.871420
0.829697
1.038909
0.788569
0.795722
0.712872
0.869632
0.690818
0.637770
0.930429
0.979900
0.928640
0.990629
0.963807
1.068711
1.013875
0.976920
1.104474
1.131892
1.184940
1.168847
1.208782
1.189709
1.397729
1.702905
3.248453
11.139512
45.645833
99.142790
222.239494
356.557965
564.043522
693.668723
807.868838
837.590694
772.578716
655.561686
471.037626
332.193971
176.361799
96.497536
37.165880
17.631650
10.705590
10.913610
15.410781
21.903515
34.397840
48.547983
68.854690
84.542632
104.605556
112.869740
113.375783
107.705593
93.474984
79.054832
60.696602
47.690868
33.820868
27.463436
22.559762
21.992922
20.501614
21.447539
21.810532
22.341609
22.340417
23.101568
23.005605
23.633838
23.392439
24.255514
24.131536
23.918748
24.228692
23.786426
23.704767
23.307800
23.337603
23.818612
23.138523
##ZVALUE=320
0.567436
0.658631
0.522733
0.733733
0.712872
0.649691
0.769496
0.687838
0.769496
0.709891
0.789762
0.644922
0.779629
0.707507
0.688434
0.806451
0.802875
0.797510
0.875592
0.828505
0.706911
0.789762
0.918508
0.961423
0.760555
0.807643
0.787973
0.777841
0.864863
0.925660
1.101494
1.189709
1.053810
1.219511
1.188517
1.173615
1.115799
1.226664
1.386404
1.507998
1.477599
1.965761
5.508661
27.345419
66.067576
163.189769
270.680785
448.371768
590.533614
749.315023
815.261006
803.958774
719.730854
551.806688
403.806567
227.076411
127.825737
53.231716
26.742816
12.119412
10.144711
11.099577
14.269948
20.955801
30.589700
47.493577
62.417984
82.754493
97.245574
107.921958
110.520720
104.479790
93.623996
74.929595
61.112642
46.340823
37.198663
28.608441
24.649501
22.883415
22.376776
23.097992
23.224950
22.409558
23.647547
23.959875
24.218559
24.065971
23.797750
24.335980
24.253726
24.129748
23.819804
23.460984
23.110509
23.765564
##ZVALUE=325
0.827909
0.741482
0.730753
0.733733
0.846982
0.853539
0.812411
0.786781
0.749826
0.929832
0.713468
0.862479
0.866652
0.847578
0.834465
0.801682
0.910759
0.760555
0.687838
0.768900
0.879765
1.016855
0.857711
0.887513
0.996590
0.937581
1.082420
0.972748
0.989437
0.863671
1.070499
1.050830
0.952482
1.075864
1.151562
1.117587
1.196861
1.155734
1.299977
1.344681
1.377463
1.531839
1.751781
1.800656
3.156662
16.246438
43.014884
113.256574
201.486945
367.055535
508.831739
684.515834
773.533583
801.159739
745.986700
591.743588
449.521542
276.176929
167.074800
74.754953
37.676692
15.378594
10.415912
10.165572
11.432767
15.910864
20.729899
32.371879
44.671893
64.531565
79.920888
95.379949
102.663636
105.868578
100.331903
87.884665
74.644685
58.975816
47.322512
35.574436
29.413700
25.500655
23.910999
23.760796
23.094416
23.323894
24.075508
23.818612
24.111867
24.023652
24.163723
23.634434
23.558736
23.577809
23.431778
23.282766
##ZVALUE=330
0.647902
0.616908
0.653863
0.671744
0.551939
0.534654
0.812411
0.778437
0.680685
0.643730
0.649691
0.667572
0.632405
0.742674
0.691414
0.587702
0.705719
0.566840
0.744462
0.777841
0.669956
0.666976
0.656843
0.698566
0.725985
0.913739
0.865459
0.855923
0.755787
0.790954
0.860691
0.889897
0.843406
0.908971
0.866652
0.969768
1.027584
1.064539
1.036525
0.992417
1.179576
1.160502
1.315475
1.317859
1.277924
1.487732
1.969934
7.842779
24.011731
74.728727
142.325759
282.019973
417.371988
601.184964
716.320872
784.874558
760.883689
645.231009
514.945984
338.941813
216.820836
103.188753
53.713918
22.373796
12.168884
9.939671
10.639429
12.537837
15.733838
22.581816
30.961633
46.226978
59.183836
78.583956
90.645552
100.737810
100.333691
94.745755
86.283684
70.437789
58.547854
44.047832
37.303567
30.192733
27.032495
24.713874
24.377704
23.128986
23.597479
23.398995
23.664832
22.621751
22.509694
22.926927
22.678971
22.584796
##ZVALUE=335
0.601411
0.640750
0.679493
0.797510
0.720620
0.621676
0.490546
0.581741
0.675917
0.521541
0.582933
0.584722
0.515580
0.633597
0.723600
0.708699
0.578761
0.696778
0.618696
0.722408
0.659823
0.638962
0.715852
0.596642
0.755787
0.708699
0.812411
0.734925
0.839829
0.776649
0.716448
0.732541
0.792742
0.698566
0.933409
0.658631
0.784993
0.872612
0.887513
0.946522
0.795722
1.107454
1.012683
1.103878
1.138449
1.050830
1.316667
1.160502
1.634955
3.387928
12.214780
45.865774
96.520782
213.591456
339.131951
527.708530
652.977824
752.182007
764.592886
683.344007
572.932959
393.280983
267.998576
141.232610
76.267719
28.030872
14.778972
10.604858
10.429621
11.629462
12.640953
16.773939
21.253824
32.203794
43.758750
60.175657
73.524714
87.242723
94.672441
96.137524
91.045499
79.383850
69.728494
56.972504
47.190785
37.115812
31.314492
26.871562
24.745464
23.371577
22.542477
22.694468
22.448897
22.504926
21.910667
22.667646
##ZVALUE=340
0.566840
0.579953
0.557899
0.679493
0.651479
0.642538
0.505447
0.765920
0.608563
0.520945
0.549555
0.535846
0.706911
0.771880
0.631809
0.651479
0.526905
0.698566
0.733733
0.570416
0.506639
0.649691
0.636578
0.636578
0.647902
0.729561
0.656843
0.656843
0.753999
0.761747
0.792742
0.582933
0.720620
0.745654
0.775456
0.808835
0.749826
0.796914
0.871420
0.873804
0.863671
0.909567
0.844598
1.066923
1.050830
1.002550
1.103878
0.934601
1.157522
1.316667
1.300573
1.923442
5.932450
27.748942
67.855716
165.273547
274.064541
445.562601
576.846600
703.959465
745.633841
699.578524
610.016584
448.769927
320.018530
167.287588
92.793703
40.555000
19.604564
11.068583
10.901690
11.583567
12.086630
13.830662
16.821623
23.399591
30.589700
43.488741
55.876970
72.030425
81.966519
90.527534
91.782808
86.245537
78.861713
66.104531
56.734681
44.026971
36.804676
29.763579
25.861859
23.205876
22.147894
21.265745
21.886826
21.133423
##ZVALUE=345
0.636578
0.520945
0.627637
0.585914
0.565648
0.629425
0.692606
0.616908
0.493526
0.473857
0.526905
0.538826
0.558496
0.608563
0.620484
0.775456
0.690818
0.561476
0.759959
0.842810
0.666976
0.691414
0.717640
0.722408
0.592470
0.744462
0.554919
0.560880
0.652671
0.706911
0.654459
0.648499
0.610948
0.784993
0.569820
0.786781
0.724792
0.775456
0.890493
0.716448
0.927448
0.791550
0.804663
0.906587
0.890493
0.950694
0.866652
0.872612
1.123548
1.154542
0.992417
1.178980
1.376867
1.421571
2.803802
15.680790
42.669773
112.234950
199.620724
358.561873
487.528443
640.171766
709.066987
714.972019
651.207566
496.604443
371.568799
219.498873
127.178431
52.117705
26.026964
13.192892
10.813475
10.924935
11.609793
12.435913
13.533831
16.876459
21.728873
30.331612
40.107965
54.578781
64.969659
76.546669
82.020760
84.653497
83.206892
74.288845
66.391826
54.264665
45.242906
34.095645
29.091835
24.192929
22.177696
21.147728
##ZVALUE=350
0.585914
0.594854
0.594854
0.668764
0.635982
0.547767
0.665784
0.594854
0.646710
0.626445
0.660419
0.595450
0.749826
0.646710
0.629425
0.627637
0.662804
0.525713
0.621676
0.500679
0.641942
0.611544
0.738502
0.536442
0.692606
0.657439
0.586510
0.723600
0.699759
0.616908
0.529885
0.627637
0.706911
0.766516
0.762939
0.770688
0.646710
0.731945
0.678897
0.712872
0.755787
0.778437
0.749826
0.953674
0.917912
0.990629
0.967979
0.914931
0.952482
0.804663
0.860691
0.931621
1.079440
1.171827
1.162887
1.439452
1.904964
7.878542
24.614930
76.652765
143.321753
282.412767
405.137539
561.452508
656.331778
704.802871
668.814778
548.233986
422.939658
253.505707
157.970786
73.596835
36.955476
15.097857
10.938644
10.490417
11.102557
11.461973
12.399554
13.734698
16.443729
21.639466
27.229786
36.928654
45.970678
58.924556
67.694783
75.523853
77.789426
76.393485
71.031451
60.685873
51.839948
40.198565
33.193827
27.150512
##ZVALUE=355
0.578761
0.548959
0.615716
0.528693
0.450611
0.505447
0.556707
0.524521
0.500679
0.539422
0.508428
0.603795
0.492930
0.452995
0.458956
0.722408
0.513792
0.603795
0.727773
0.612736
0.611544
0.719428
0.613928
0.525713
0.578761
0.462532
0.565648
0.575781
0.553727
0.476837
0.750422
0.694990
0.673532
0.612736
0.700951
0.667572
0.636578
0.789762
0.684857
0.640750
0.588894
0.827909
0.838637
0.639558
0.684857
0.855923
0.788569
0.736713
0.904799
0.766516
0.909567
0.928640
0.996590
0.936985
1.003742
1.113415
1.018643
1.351833
1.535416
2.994537
15.821457
42.482615
111.459494
195.635557
352.018476
475.837588
613.843799
672.791600
661.229491
582.791567
432.089567
315.535665
179.482698
101.207495
40.926933
21.241903
11.024475
9.993911
10.051727
10.440946
11.145473
11.619925
13.062954
15.004873
19.609928
23.683906
32.750964
40.811896
52.705407
61.185956
68.306923
70.868731
69.773793
65.088868
56.910515
49.058795
##ZVALUE=360
0.571609
0.592470
0.618696
0.630617
0.581741
0.593662
0.500679
0.673532
0.738502
0.439882
0.529885
0.700951
0.560880
0.533462
0.674725
0.676513
0.560880
0.656843
0.657439
0.499487
0.745654
0.496507
0.516772
0.646710
0.574589
0.658631
0.636578
0.661612
0.622869
0.721812
0.650883
0.762939
0.711679
0.760555
0.772476
0.612736
0.668764
0.773668
0.714660
0.624657
0.743866
0.683665
0.663996
0.804663
0.852942
0.781417
0.720620
0.939965
0.884533
0.814795
0.858903
0.943542
0.896454
1.028776
1.039505
1.067519
1.040697
1.026988
1.283884
1.174808
1.449585
1.799464
6.990433
22.052526
69.931746
134.503841
261.320472
383.274555
544.285774
630.105734
663.477778
616.961718
497.447848
379.558802
227.404833
137.713552
61.687827
29.679537
12.276769
9.768605
9.711981
9.841919
10.235906
10.650754
11.421442
12.120605
13.296604
15.843511
21.149516
26.613474
35.636425
43.551922
53.801537
59.929490
64.307451
65.565705
##ZVALUE=365
0.433922
0.524521
0.506639
0.497699
0.436902
0.461936
0.633597
0.479817
0.516772
0.561476
0.509620
0.407696
0.445843
0.632405
0.416636
0.404716
0.503659
0.371933
0.400543
0.468493
0.614524
0.570416
0.530481
0.466704
0.561476
0.493526
0.518560
0.508428
0.511408
0.576973
0.667572
0.522733
0.597835
0.601411
0.585914
0.668764
0.419617
0.518560
0.656843
0.515580
0.592470
0.552535
0.594854
0.675917
0.727773
0.771880
0.622869
0.653863
0.597835
0.728965
0.847578
0.757575
0.716448
0.841618
0.705719
0.897646
0.949502
0.871420
1.028776
1.110435
0.988841
1.033545
1.293421
1.395941
3.005862
14.667511
38.870573
101.367831
184.710026
335.846543
450.791717
576.016903
632.510781
619.003773
545.392632
399.867892
285.639763
157.668591
87.498426
33.851862
16.382933
9.378791
8.875728
8.568764
9.055734
9.315610
9.772778
10.023713
10.533929
12.028813
13.933778
17.730594
22.808909
30.835867
37.878752
47.022700
##ZVALUE=370
0.595450
0.461936
0.625849
0.537634
0.478625
0.500679
0.640750
0.588894
0.515580
0.513792
0.558496
0.510812
0.491738
0.537634
0.440478
0.551939
0.560880
0.590682
0.642538
0.667572
0.652671
0.645518
0.682473
0.704527
0.547767
0.654459
0.470877
0.692606
0.709891
0.724792
0.497699
0.593662
0.492930
0.585914
0.426769
0.664592
0.736713
0.720620
0.693798
0.524521
0.541806
0.636578
0.657439
0.769496
0.711679
0.682473
0.611544
0.866652
0.833869
0.642538
0.722408
0.702739
0.732541
0.762939
0.772476
0.754595
0.910759
0.797510
0.846982
0.934601
0.948906
0.872612
1.152754
1.294613
1.364946
1.423955
1.876950
6.177425
30.075908
70.461631
163.375735
256.662965
403.376818
513.558984
610.220432
629.314780
567.978621
471.020937
316.941738
206.718445
99.734664
53.349733
22.360682
11.869669
8.212924
7.981658
8.290410
8.386970
9.041429
8.845925
9.559989
9.768605
10.825992
12.159944
16.123652
20.095706
##ZVALUE=375
0.414848
0.593662
0.462532
0.462532
0.388622
0.513792
0.568628
0.563860
0.727773
0.605583
0.591874
0.717640
0.542998
0.428557
0.518560
0.457764
0.702739
0.606775
0.593662
0.615716
0.499487
0.682473
0.404716
0.717640
0.559688
0.468493
0.678897
0.531673
0.569820
0.562668
0.507832
0.603795
0.587702
0.577569
0.855923
0.721812
0.643730
0.669956
0.639558
0.666976
0.562668
0.621676
0.507832
0.578761
0.707507
0.670552
0.749826
0.737906
0.791550
0.792742
0.832677
0.739694
0.884533
0.806451
0.675917
0.804663
0.832677
0.835657
0.886917
0.788569
0.932813
0.631809
0.836849
0.951886
0.995994
1.077652
1.138449
1.347661
1.432896
3.950000
12.967587
46.394467
96.839666
211.569667
322.261453
473.380685
562.634468
624.206662
612.697601
512.103438
411.877632
260.858536
164.690614
76.484680
39.630532
15.243888
9.084940
7.493496
7.720590
7.691979
7.923841
8.089542
8.337498
8.497834
8.726716
9.624958
##ZVALUE=380
0.588894
0.474453
0.599623
0.413656
0.453591
0.541806
0.625849
0.551939
0.482798
0.585914
0.683665
0.571609
0.607967
0.533462
0.501871
0.480413
0.466704
0.365973
0.400543
0.480413
0.450611
0.606775
0.594854
0.574589
0.646710
0.654459
0.602603
0.696778
0.545979
0.548959
0.551939
0.544786
0.557899
0.496507
0.591874
0.515580
0.526905
0.780821
0.550747
0.531673
0.696778
0.522733
0.717640
0.665784
0.645518
0.674725
0.737906
0.714660
0.755787
0.653863
0.690818
0.705719
0.614524
0.659823
0.637770
0.615716
0.544786
0.705719
0.808835
0.931621
0.758767
0.723600
0.886917
0.884533
0.783801
1.012683
0.975728
0.894666
0.970960
1.186728
1.256466
2.195835
6.981492
32.694936
73.153973
168.483853
267.655849
411.882997
519.206524
603.302717
606.777668
526.647568
434.978604
303.358436
206.037760
103.982687
54.632425
21.443963
11.071563
7.249713
6.842613
7.158518
6.908774
7.391572
7.422566
7.954836
##ZVALUE=385
0.528693
0.428557
0.543594
0.535846
0.360608
0.430942
0.419617
0.470877
0.620484
0.710487
0.524521
0.550747
0.461936
0.494719
0.486970
0.424981
0.519753
0.459552
0.425577
0.492930
0.570416
0.579953
0.500679
0.532866
0.656843
0.455976
0.571609
0.524521
0.641942
0.640750
0.732541
0.562668
0.519753
0.622869
0.652671
0.622869
0.671744
0.591874
0.638962
0.422597
0.617504
0.605583
0.568628
0.646710
0.716448
0.542998
0.663996
0.727773
0.488758
0.746846
0.784993
0.595450
0.744462
0.652671
0.682473
0.587702
0.737906
0.633597
0.636578
0.725985
0.682473
0.797510
0.745654
0.671744
0.678897
0.746846
0.926852
0.825524
0.934601
1.075864
1.051426
1.221895
1.269579
1.435876
3.666878
18.534660
47.018528
115.945935
200.597644
345.627666
457.238555
566.000938
597.136617
565.638542
492.427945
364.921689
259.584785
141.954422
81.187487
35.426617
16.403794
7.436872
6.218553
6.279945
6.290674
6.544590
##ZVALUE=390
0.520945
0.691414
0.651479
0.470877
0.719428
0.724792
0.455976
0.396967
0.458956
0.573993
0.462532
0.386834
0.484586
0.609756
0.638962
0.554919
0.568628
0.531673
0.451803
0.609756
0.494719
0.556707
0.436902
0.540614
0.622869
0.607967
0.664592
0.595450
0.706911
0.623465
0.583529
0.718832
0.747442
0.703931
0.714660
0.786781
0.645518
0.740886
0.647902
0.708699
0.685453
0.745654
0.863671
0.841618
0.672936
0.643730
0.810623
0.749826
0.666976
0.637770
0.759959
0.831485
0.654459
0.671744
0.754595
0.721812
0.782609
0.722408
0.782609
0.683665
0.743866
0.946522
0.789762
0.762939
0.819564
0.857711
0.744462
1.054406
0.853539
0.997782
1.018643
1.049638
1.230836
1.101494
1.325607
1.278520
2.017617
9.805560
29.073954
87.421536
163.126588
298.873782
404.011011
519.900918
583.829880
600.067973
551.672578
434.961915
331.790447
202.931762
119.271874
50.025582
24.017692
9.187460
6.279945
5.935431
##ZVALUE=395
0.621676
0.661612
0.592470
0.716448
0.716448
0.613928
0.675917
0.634789
0.652671
0.632405
0.673532
0.676513
0.783801
0.692606
0.503659
0.743866
0.503659
0.601411
0.698566
0.776649
0.581741
0.757575
0.793934
0.691414
0.634789
0.605583
0.738502
0.778437
0.788569
0.833869
0.770688
0.712872
0.775456
0.799894
0.755787
0.704527
0.830889
0.773668
0.734925
0.882745
0.788569
0.788569
0.645518
0.791550
0.815988
0.843406
0.884533
0.803471
0.806451
0.780821
0.852942
0.692606
0.884533
0.809431
0.862479
0.782609
0.919700
0.812411
0.875592
0.808835
0.744462
0.761747
0.905991
0.798702
0.634789
0.756979
0.857711
0.971556
1.016855
1.205802
1.153946
1.154542
1.072884
1.211762
1.242757
1.280904
1.231432
1.415610
1.453757
5.474687
19.278526
64.901710
120.627880
224.834681
330.233574
475.381017
562.382936
614.889860
596.997738
504.696965
397.194624
244.807005
153.784752
68.450570
33.664703
13.245940
##ZVALUE=400
0.471473
0.623465
0.554919
0.521541
0.541806
0.363588
0.552535
0.538826
0.470877
0.495911
0.614524
0.521541
0.676513
0.481606
0.434518
0.513792
0.536442
0.538826
0.451803
0.482798
0.568628
0.568628
0.584722
0.509620
0.529885
0.517964
0.528693
0.623465
0.522733
0.475645
0.612736
0.683665
0.512600
0.483990
0.645518
0.726581
0.697970
0.678897
0.605583
0.750422
0.694990
0.541806
0.760555
0.643730
0.541806
0.559688
0.656843
0.754595
0.674725
0.664592
0.652671
0.785589
0.645518
0.845790
0.668764
0.664592
0.733733
0.590682
0.684857
0.759959
0.510812
0.642538
0.778437
0.666976
0.678897
0.706911
0.792742
0.764728
0.952482
0.775456
0.997782
0.994802
1.128912
0.988841
1.003742
1.016855
0.876784
1.189709
1.044869
1.176596
1.280904
3.147721
10.418892
36.326647
77.153444
170.074701
269.472599
412.796736
508.973598
590.018630
601.205826
526.589751
431.501865
286.361575
188.810825
96.242428
##END
