##TITLE=QP00301
##FORMAT=SPECTACLE-ASCII V-1.2
##DATA TYPE=ULTRAVIOLET SPECTRUM
##SECOND TYPE=ULTRAVIOLET SPECTRUM
##DATE=02/08/18
##TIME=16:00:27
##SPECTROMETER/DATA SYSTEM=SPECTACLE
##XUNITS=NM EM
##YUNITS=ENERGY
##YFACTOR=1
##FIRSTX=220
##LASTX=410
##NPOINTS=96
##3DDATA=Equidistant
##ZUNITS=NM EX
##FIRSTZ=210
##LASTZ=400
##ZPOINTS=39
##XYDATA=(Y..Y)
##ZVALUE=210
2.498627
2.744794
2.438426
2.462864
2.966523
2.823472
2.755523
3.309846
3.192425
3.123879
2.694726
2.398491
2.963543
2.206564
2.996922
3.302693
2.778769
3.310442
3.998876
3.182888
4.114509
4.289746
3.711581
3.778934
4.418492
5.132556
4.259944
4.695654
5.344748
4.759431
5.249977
5.439520
5.480647
5.134940
5.996823
5.653501
5.814433
6.148815
5.595684
6.056428
6.049871
5.850792
5.807877
5.721450
5.381703
6.214976
6.989837
6.326437
5.352497
7.294416
6.705523
5.978942
6.559491
6.086826
5.595684
5.626678
6.370544
6.697774
7.769465
6.820560
6.613731
5.825758
6.255507
5.965829
7.010698
7.220507
5.945563
7.458925
9.227991
10.109544
12.460947
14.004707
16.669631
17.540455
19.703507
19.354820
18.142462
21.341443
17.906427
16.093850
13.142824
12.989640
11.128783
10.350943
8.684993
7.197857
6.985664
6.644726
6.800890
6.967783
6.112456
6.138682
7.038713
6.672740
7.420778
7.591844
##ZVALUE=215
7.640719
7.199645
6.330609
5.815625
4.639626
4.867911
4.901886
5.063415
4.879832
6.403923
5.474687
4.485846
3.720522
3.864765
2.903938
3.278852
3.030896
3.107786
3.442764
3.211498
3.241897
3.502965
3.572702
3.609657
4.596710
3.767610
4.413724
4.099607
4.045963
5.337596
4.369617
5.419850
4.438758
4.935861
4.668832
3.945827
5.592704
4.718900
5.368590
5.069971
4.668832
4.871488
4.900694
5.412698
5.387664
5.791783
5.457997
5.241632
5.392432
5.458593
5.809665
5.587935
5.896688
5.527735
5.066991
5.169511
5.408525
5.899668
5.219579
5.621910
6.199479
5.085468
5.670786
4.942417
4.927516
5.754828
6.016493
6.171465
7.258654
7.589459
8.877516
9.534955
11.672974
11.202693
12.173653
13.201833
13.285875
14.261603
13.228655
11.763573
11.497736
10.943413
9.074807
8.179545
7.929802
6.278753
6.742477
5.279779
6.231666
5.813837
4.981756
5.902648
5.959868
4.946589
5.380511
5.898476
##ZVALUE=220
21.333694
19.977689
20.491481
21.647811
20.608902
17.471910
14.887452
10.786653
10.885000
10.456443
11.538863
12.418628
12.788773
10.433793
9.602904
8.392930
5.276799
4.024506
3.877878
3.359914
3.126860
2.976656
3.645420
4.392862
4.179478
2.972484
3.352761
4.213452
3.518462
4.684925
4.356503
4.343987
4.253983
3.819466
4.411936
4.958510
4.888773
4.553795
4.885793
4.798770
4.548430
4.738569
5.715489
4.591942
4.936457
5.229712
5.766749
5.117655
5.293489
5.878806
5.420446
4.939437
5.408525
5.746484
5.398989
5.258918
5.343556
5.571842
6.201863
6.097555
5.675554
6.343722
6.396770
5.984902
6.560683
6.826520
6.224513
7.104874
8.001924
9.162426
10.649562
11.672974
11.808872
11.901855
14.088750
14.492869
14.714599
14.650822
15.107989
13.564825
14.034510
13.358593
13.626814
10.250807
9.486675
8.753538
8.905530
8.264780
8.049607
7.447600
7.314682
7.659793
7.434487
8.224845
7.840991
6.827712
##ZVALUE=225
37.009716
43.113828
52.239895
63.842535
65.954924
64.601898
57.910681
45.836568
35.858750
30.739903
25.000572
21.120906
23.428798
25.080442
23.742914
25.999546
21.106601
15.848875
12.641549
9.127855
6.646514
4.372597
4.002452
4.141927
4.094839
3.677607
4.023910
5.247593
3.968477
4.302859
4.053712
5.107522
5.107522
4.968643
5.265474
5.952716
5.380511
5.629659
4.753470
6.390810
5.310774
5.437732
6.728768
5.757809
5.787611
6.328821
5.840659
5.416870
5.837679
6.062984
5.692840
6.562471
6.610751
6.593466
5.936623
6.533861
6.395578
7.755756
7.216930
7.078648
6.809831
7.286668
7.812977
7.679462
7.159710
9.166598
8.709431
9.230971
10.280609
10.573864
12.545586
13.967752
14.976859
16.424656
16.534925
18.034577
17.520785
18.442869
16.751885
18.337965
15.655756
16.295910
14.811754
13.415813
12.936592
12.837648
11.256933
10.569692
11.430979
11.543632
9.322762
11.653900
10.632873
10.948777
10.533929
10.871887
##ZVALUE=230
34.258962
37.264824
65.099001
93.388557
130.230784
150.195956
167.526603
164.123774
145.902634
123.599768
85.423589
65.106750
51.052570
45.028925
46.038628
52.131414
50.253868
49.010515
41.758418
34.525990
25.589466
20.638704
12.177825
8.720756
6.758571
6.078482
5.586743
5.859733
5.971789
6.176829
6.160736
5.718470
5.920529
6.954670
6.104708
6.705523
6.839633
7.079840
7.822514
6.564856
6.617904
8.126497
6.958842
7.764697
7.570982
6.636977
7.382631
7.889867
7.545948
8.143783
7.941723
7.958412
8.388758
9.358525
8.924603
9.476542
10.285974
9.701848
9.738803
10.642409
11.143684
10.084510
11.562705
11.766553
11.030436
12.884736
13.596416
13.873577
15.188456
16.563535
18.683672
20.227432
22.585988
24.300814
27.193427
27.206540
29.343963
28.707981
29.135942
28.943419
25.956631
24.408698
24.336576
22.566915
19.970536
18.864870
19.519925
18.376708
18.982887
18.803477
18.150806
17.787814
17.270446
17.813444
16.506910
17.955899
##ZVALUE=235
13.346672
14.501810
30.489564
70.653558
123.691559
198.429823
267.291665
351.666808
395.326614
408.347845
386.739969
328.097939
241.429806
179.023743
110.407472
84.200501
75.246692
79.701543
82.144737
82.838535
75.917840
68.565607
49.584508
39.936900
22.952557
16.751885
11.805892
9.103417
8.637905
8.889437
7.968545
8.182526
6.335974
8.598566
8.624792
7.960796
8.290410
9.071827
8.977652
8.062720
8.280873
7.842779
8.140802
8.096695
8.169413
8.545518
8.923411
9.039640
9.088516
9.166598
9.866953
8.774996
10.431409
10.203719
11.462569
10.076761
10.922551
10.599494
11.860728
13.333559
11.425614
12.829900
14.302731
14.577508
13.727546
15.360713
15.062690
18.009543
17.855763
20.269752
22.670627
25.664568
27.652979
31.163692
33.307672
33.967495
34.244657
33.622980
36.437511
34.316778
35.903454
30.970573
30.785799
29.328465
28.262734
27.830601
26.914477
26.171803
26.851892
26.454926
24.460554
23.392439
25.813580
25.634766
24.594665
24.770498
##ZVALUE=240
2.201796
2.249479
7.030964
15.792847
43.582916
81.782937
172.208548
265.519619
399.820805
498.715639
596.440434
609.966516
569.739938
466.334820
375.884771
245.723724
176.398754
117.703676
100.638866
102.328658
107.416511
114.174485
115.966797
103.333592
84.019899
67.120790
48.216581
33.508539
19.520521
16.067624
11.724830
9.257793
8.997917
9.420514
9.614825
9.227991
8.593798
7.703900
7.067919
8.047819
7.343888
7.411838
8.546710
7.395744
8.174777
8.051991
8.198619
7.569790
7.696748
7.660985
7.860661
8.259416
8.231997
8.656979
8.349419
8.732677
9.322762
8.814931
10.334849
9.969473
11.226535
11.878610
13.074875
11.882782
13.583899
15.767813
15.036464
17.245412
18.253922
20.118952
21.935701
25.908947
27.107596
28.055906
28.238893
30.837655
29.769540
32.492876
33.659935
30.807853
32.459497
31.949878
31.782985
31.558871
29.581785
31.396747
30.512810
30.084848
28.529763
29.986501
28.674603
29.530525
29.156804
27.536750
29.523969
28.496981
##ZVALUE=245
1.707673
2.069473
1.942515
1.877546
3.212690
14.114976
31.264424
84.209442
149.941444
272.896886
382.495522
482.117534
570.981503
592.104793
552.030802
487.882495
368.322730
271.749496
175.259709
131.418705
99.606514
98.796487
116.885900
125.894547
129.419565
125.693679
115.327835
93.322992
74.025989
49.357414
36.751628
21.658540
16.426444
10.436773
7.911921
7.670522
8.413792
7.620454
7.199645
6.796718
6.894469
6.654859
6.931424
6.123781
6.615520
6.254911
6.161928
6.084442
5.993843
5.871654
5.950928
6.707907
6.357431
7.379651
6.822944
7.308722
7.839799
7.499456
7.754564
7.956624
8.595586
9.485483
10.344982
10.586977
11.446476
13.088584
13.345480
14.475584
15.260577
18.526912
17.649531
19.495487
22.516847
24.311543
25.340915
28.019547
27.079582
28.249621
27.897954
28.064847
30.111670
29.083490
29.896498
28.326511
28.784871
28.176904
29.390454
28.686523
29.986501
28.821826
29.267669
27.513504
28.721690
27.473569
28.046966
28.828979
##ZVALUE=250
1.739860
1.668930
1.503825
1.632571
1.650453
1.943707
2.931952
7.238984
32.126904
65.768957
150.909424
249.033570
355.619788
512.115955
608.934760
677.070022
665.910840
587.613583
496.323705
346.835852
238.929987
161.822438
102.934837
92.287660
104.815960
118.989944
135.178566
141.951442
130.927563
121.559501
102.921724
77.840686
60.068965
35.895705
21.756887
13.467669
10.823607
7.503629
7.254481
7.142425
6.984472
6.549954
6.034970
6.548762
6.319880
6.753802
6.079674
5.906820
6.292462
6.533861
5.913973
6.109476
6.488562
6.265640
6.374717
6.262660
6.507635
7.169843
7.836819
7.413626
8.137822
8.706450
8.726716
9.814501
10.384917
10.291934
10.827780
12.677908
14.952421
14.460683
15.746951
17.518997
19.741654
20.929575
20.798445
23.329854
22.593737
23.738742
24.185777
24.443865
23.283958
25.253892
26.468635
25.559664
25.983453
28.173923
26.142597
26.322603
26.215911
27.281642
28.589964
26.431680
27.686954
26.736856
28.292537
28.599501
##ZVALUE=255
1.581907
1.303554
1.322627
1.685619
1.323819
1.532435
1.647472
1.849532
1.708865
4.275441
20.397902
46.876669
95.442533
199.444890
306.453705
472.384691
583.681464
689.914823
718.945861
680.575967
596.866012
475.816727
301.246643
201.963782
118.140578
91.886520
87.694526
102.915764
125.536919
137.069821
144.096613
141.863823
128.049850
104.427934
79.368949
53.140521
37.981868
20.972490
13.943911
8.055568
6.149411
5.489588
5.669594
5.224943
5.910993
5.164742
5.215406
5.486608
5.360842
5.864501
5.113482
5.047917
4.529953
4.989505
6.160736
5.686879
5.737543
6.170869
5.931854
6.416440
6.333590
7.462502
7.055998
8.270741
7.958412
9.103417
10.440946
10.639429
11.178851
12.073517
13.274550
14.731884
15.889406
17.038584
17.947555
18.256903
19.419789
19.651651
21.138787
20.473599
21.861792
22.006631
22.808909
23.055673
23.397803
23.736954
23.766756
24.412870
24.655461
24.445653
24.836659
25.522709
25.332570
25.474429
25.514960
26.212931
##ZVALUE=260
1.150966
1.112819
1.205802
1.470447
1.252890
1.507998
1.415610
1.436472
1.570582
1.677871
1.544952
2.451539
7.733703
31.171441
68.569779
161.829591
263.347626
420.242548
553.126931
707.041621
772.535801
772.320032
673.989654
559.016466
374.746919
257.654786
149.363875
99.892616
76.634884
81.092715
98.983645
128.411651
139.808655
150.155425
146.307945
127.830505
106.421709
79.164505
58.315992
34.388900
21.357536
12.325644
8.178949
5.934834
5.107522
5.075932
5.019903
4.737973
4.549623
4.849434
4.728436
5.211830
5.321503
5.516410
5.117655
5.093813
4.929900
5.363822
5.448461
5.903840
6.445646
6.474853
6.793737
7.642508
7.711649
8.453727
8.775592
9.519458
10.830760
11.462569
12.034774
13.063550
14.435649
16.083717
15.599728
17.144680
18.021464
18.369555
18.668771
19.870996
19.785762
20.513535
20.274520
21.642447
21.394491
21.942854
22.915602
22.713542
23.254752
22.804737
22.567511
23.645759
23.209453
25.034547
23.040771
23.883581
##ZVALUE=265
1.181960
1.261830
1.211762
1.124740
0.951886
1.449585
1.453757
1.213551
1.281500
1.311898
1.448989
1.537800
1.431704
2.008677
4.124641
21.097660
51.397681
121.425986
217.560530
389.546752
546.625853
687.103868
827.242732
847.263932
775.758028
670.989752
491.272807
349.571705
195.063949
119.091868
80.356002
66.016912
77.484846
109.158754
128.763914
146.621466
150.191784
146.276951
129.329562
100.753903
81.117749
53.001642
36.378503
18.764734
12.286901
7.044673
5.629659
5.112886
5.083680
4.431605
4.747510
4.706979
5.248785
5.077720
5.345941
5.389452
5.310774
5.502701
5.746484
6.364584
5.977750
6.624460
7.418990
7.365942
7.768869
7.801652
8.471608
8.996725
9.637475
11.191964
11.635423
12.854934
13.342500
14.320612
14.647841
15.639663
15.965700
16.785860
17.991662
18.306971
17.873645
19.177794
17.596483
18.949509
20.034909
20.822883
21.138787
20.577908
21.259785
21.691918
21.134615
22.172928
21.808743
23.124814
22.983551
23.351908
##ZVALUE=270
1.102686
1.107454
1.122952
1.182556
1.243949
1.200438
1.070499
1.233816
1.350641
1.225471
1.270771
1.558661
1.532435
1.367927
1.556873
1.548529
3.076792
8.714795
24.846792
81.235766
161.144733
331.692696
487.762690
696.412921
831.493735
908.709764
884.175897
768.940449
637.430549
435.739756
298.759937
154.152513
92.382431
58.826804
58.841705
82.689524
104.657412
133.465528
146.736503
154.613853
148.389935
127.720833
107.155442
77.767968
57.489872
34.428835
22.024512
12.541413
7.866621
5.813837
4.999638
5.299449
5.046725
4.991889
5.524755
5.517602
5.750656
5.908608
6.340742
6.093979
6.424785
6.730556
6.966591
7.504821
7.755756
7.636547
8.620620
8.854866
10.607839
10.520816
11.191964
12.256503
13.305545
13.887882
14.894605
14.458895
15.963912
16.174912
17.325878
17.761588
17.314553
17.821789
18.567443
18.839836
19.110441
19.600987
19.686818
19.391775
19.906759
21.154881
21.135807
21.057725
21.079779
20.188689
21.357536
21.476746
##ZVALUE=275
1.158714
1.010895
1.076460
0.988841
1.157522
1.126528
1.032948
1.083612
1.143813
1.014471
1.062751
1.254678
1.200438
1.290441
1.508594
1.393557
1.448989
1.569986
2.046824
4.787445
17.010570
60.262680
132.054687
242.839456
442.476869
598.573685
788.961649
890.640020
925.168991
873.286724
727.157593
576.757789
365.284681
227.208734
110.289454
64.667463
47.222972
55.657625
81.889629
102.688670
128.120780
143.424869
152.154565
147.716403
128.091574
107.368827
80.189705
58.468580
35.257936
23.851991
13.457537
8.715987
6.297827
5.853772
5.671978
6.023645
5.482435
6.153584
6.706715
6.264448
6.946921
6.994605
7.537603
7.528663
8.213520
8.215904
9.124875
9.624958
10.746717
11.008978
11.558533
11.785626
12.791753
14.078617
14.667511
14.369488
16.399622
15.456676
16.564727
16.962886
16.722679
17.522573
17.776489
18.005967
18.579960
18.602610
19.157529
19.495487
19.353628
19.534826
19.596815
19.011497
19.804835
19.977689
19.574761
20.203590
##ZVALUE=280
1.057982
0.945926
1.016855
0.953674
0.883937
1.164675
0.980496
1.143813
1.237988
0.971556
1.009703
1.244545
1.172423
1.151562
1.339912
1.260638
1.210570
1.507998
1.555681
1.608729
1.752973
2.301931
11.335611
36.239624
108.334422
194.332600
353.620648
514.433980
724.951029
852.136016
944.349766
926.889777
802.314878
647.895932
427.826643
282.352567
141.735673
79.723597
41.983724
39.208531
56.400895
75.104833
103.709698
123.802423
140.752792
149.277449
141.206980
129.746795
102.780461
81.755519
54.892898
37.694573
22.143722
14.401674
8.835793
7.232428
6.179810
6.442666
5.913973
6.920695
7.111430
6.963611
7.833838
7.797480
8.299947
8.741617
9.909868
10.056496
10.941625
11.408925
12.059808
12.709498
12.716651
13.836622
14.453530
14.947653
15.457869
16.122460
16.797781
16.652942
16.893744
17.734766
17.088652
17.412901
17.978549
17.897487
18.645525
18.782616
18.168688
18.812418
18.689632
18.678904
19.234419
18.372536
19.231439
19.141436
##ZVALUE=285
1.115799
0.833869
0.920892
0.829697
0.887513
1.001954
0.917912
0.871420
0.855923
1.092553
1.150966
1.125932
1.035929
1.050830
0.966787
1.206994
1.178980
1.404881
1.116991
1.599789
1.437664
1.728535
1.714826
1.856685
5.508661
17.705560
58.063865
119.397640
252.812505
398.093462
556.770563
767.505765
889.181495
947.359800
900.090933
735.590458
579.474568
358.603597
224.509835
107.740760
57.857633
31.318665
34.054518
51.604509
72.167516
100.443959
119.513869
137.410760
143.570900
138.603449
127.849579
104.326606
84.130764
56.966543
40.261745
23.291707
15.049577
10.228753
8.283854
7.554889
7.196665
7.720590
8.099675
8.372664
8.991957
9.041429
10.073781
10.787845
10.973811
11.629462
11.974573
13.242960
13.842583
14.104843
15.186667
15.041828
15.461445
15.944839
16.263723
16.686916
16.977787
17.349720
18.049479
18.119812
17.542839
18.397570
18.315911
18.513799
18.553734
18.889904
18.744469
18.904805
18.958449
18.883944
18.390417
18.290877
##ZVALUE=290
0.910759
0.849962
1.108646
0.946522
0.832677
0.895858
0.893474
0.859499
0.946522
0.858903
0.797510
0.938773
0.906587
1.168847
1.030564
1.172423
1.132488
1.159906
1.209974
1.286864
1.500845
1.330972
1.331568
1.555681
1.620650
1.618862
2.506971
6.980896
32.364726
76.581836
148.868561
307.582617
468.461514
699.386597
844.038725
951.702595
939.624906
812.973976
669.361949
455.233455
304.265618
152.794719
81.096888
34.032464
23.638606
33.508539
47.286749
69.301724
90.557933
117.080808
130.579472
142.249465
138.929486
124.084949
106.309652
77.367425
59.446692
37.395954
25.514960
15.840530
11.969805
9.970665
8.682609
8.527637
9.280443
9.978414
10.043979
10.758638
11.639595
12.106895
12.530684
13.514757
13.816953
14.803410
15.634894
16.019940
16.175508
16.280413
17.167926
16.628504
17.245412
18.037558
17.254949
18.394589
18.312931
18.311739
18.293858
19.060969
18.773675
19.115806
19.016862
18.578768
19.031763
18.672943
18.906593
18.360615
##ZVALUE=295
0.819564
0.919700
0.892878
0.834465
0.800490
0.932813
0.852942
0.914931
0.803471
0.928640
0.994802
0.855923
0.839829
0.951886
0.996590
0.894666
1.084805
1.081824
1.050830
0.973940
1.275539
1.230836
1.338720
1.348853
1.564622
1.440644
1.536608
1.724958
1.922846
3.872514
13.586879
55.212975
114.650726
253.512859
396.159887
620.015860
777.419806
921.760798
953.176618
878.480673
759.971738
545.173883
380.063653
204.667449
113.386512
42.434931
22.226572
20.540953
27.976632
46.068430
63.729882
89.655519
108.425617
127.132535
132.164955
131.106973
119.874477
98.862648
80.285668
56.634545
39.653778
25.573969
18.086433
13.252497
11.185408
10.516644
10.703802
11.181831
11.449456
12.698770
13.333559
13.991594
14.011860
15.161633
15.797615
15.744567
16.123652
16.573668
17.318726
17.813444
17.534494
18.429756
18.626451
18.125772
18.764734
18.346906
18.992424
18.903613
18.603802
19.015670
19.751787
18.249750
18.878579
18.662810
19.064546
18.226504
##ZVALUE=300
0.816584
0.781417
0.827909
0.739694
0.732541
0.750422
0.733733
0.679493
0.935793
0.833869
0.825524
0.720620
1.049638
0.770688
0.870824
0.937581
0.871420
0.971556
0.859499
1.057982
1.017451
1.068711
1.067519
1.091957
1.120567
1.190901
1.262426
1.166463
1.615882
1.547933
1.838803
2.008677
5.492568
28.895736
72.385669
179.492831
302.762985
512.211919
680.091977
865.859985
943.513513
937.849879
844.628811
648.612976
475.455523
268.583894
159.903765
71.293712
34.993887
16.408563
16.888976
26.826859
39.196610
60.315728
79.543591
103.520751
118.477941
127.110481
127.448440
114.210844
100.881457
77.334642
60.046911
41.218996
29.550791
19.275546
14.964938
13.066530
12.967587
13.157725
14.014840
14.380813
14.860630
15.338659
15.856624
15.999675
16.707778
17.680526
17.768741
18.323660
18.601418
18.791556
19.189715
19.361973
19.005537
19.883513
20.463467
19.579530
19.412637
19.625425
19.619465
19.362569
19.263625
19.211769
18.787980
19.208789
##ZVALUE=305
0.841618
0.699759
0.653863
0.858903
0.669956
0.713468
0.801682
0.859499
0.693798
0.837445
0.873804
0.857711
0.797510
0.950694
0.827909
0.806451
0.728965
0.943542
0.908971
1.156926
0.993609
0.995994
1.075864
1.023412
1.097918
1.076460
1.160502
1.070499
1.154542
1.255870
1.315475
1.344681
1.540780
1.789927
3.047585
17.054677
47.189593
134.062767
238.735676
433.105826
596.708655
803.614855
908.524990
937.753916
876.099467
690.749884
542.390943
347.632766
217.162967
101.806521
52.237511
19.402504
12.888908
16.704798
23.908615
39.883852
56.393743
78.904629
97.200871
113.704801
120.957494
120.224953
111.154914
95.640421
80.094934
55.249929
41.320920
29.258728
21.812916
16.943812
15.556812
15.099645
14.990568
16.101599
16.181469
16.983747
17.553568
17.830729
18.830895
18.180609
18.845797
19.651651
19.792914
20.410419
20.036697
19.811988
20.381808
19.947886
20.438433
20.007491
19.625425
19.930601
19.655824
19.845963
19.987822
19.319654
##ZVALUE=310
0.696778
0.679493
0.614524
0.734925
0.766516
0.743866
0.823736
0.591874
0.767708
0.545979
0.790954
0.804663
0.782609
0.727773
0.877976
0.727773
0.722408
0.733733
0.879765
0.668764
0.888705
0.909567
0.877976
0.911951
0.989437
1.050830
0.942945
1.112819
0.858903
1.219511
1.103878
1.208782
1.323819
1.422763
1.522899
1.618862
1.980662
7.482767
25.410652
84.929466
166.806579
333.437920
502.609015
720.790029
855.708718
947.175026
924.610496
799.034834
658.012033
435.252786
288.242698
144.080520
76.886415
29.174685
14.295578
12.131929
14.774799
23.416877
34.016967
52.175522
68.537593
91.537833
105.700493
115.719438
116.141438
109.385848
97.335577
76.993704
61.114430
41.612983
32.522678
23.643970
20.207763
17.625690
16.984940
17.222762
17.614961
18.649697
18.575788
18.997788
19.315481
20.044446
20.766854
20.495653
21.153688
20.523667
20.669699
20.942688
21.407604
20.753741
20.892620
20.964742
20.469427
19.860864
20.024776
19.856691
##ZVALUE=315
0.564456
0.646710
0.657439
0.586510
0.518560
0.642538
0.575781
0.549555
0.623465
0.579953
0.793934
0.641942
0.705719
0.548959
0.716448
0.701547
0.677705
0.617504
0.731945
0.770688
0.735521
0.752807
0.726581
0.756979
0.836849
0.804663
0.938773
0.898838
0.920892
0.984669
0.911951
1.072884
1.065731
1.172423
1.207590
1.296997
1.478791
1.764894
1.637936
3.482699
12.525916
51.294565
116.141438
265.758634
418.090820
648.479462
796.777010
922.366977
949.975848
864.271522
738.380551
528.277755
373.484492
198.848844
108.518600
40.686727
18.113852
10.363460
11.298656
14.929771
20.892620
34.108758
47.319531
67.266822
84.623694
102.195740
110.554695
112.531781
107.911825
92.575550
77.747703
59.332848
45.807958
32.059550
25.334954
20.836592
19.319654
18.400550
18.947721
19.001961
19.858479
20.014644
20.074844
20.587444
21.243691
21.382570
21.021962
21.217465
21.295547
21.352768
20.712614
20.911694
20.916462
20.594597
20.095706
19.752979
##ZVALUE=320
0.569820
0.533462
0.527501
0.562668
0.561476
0.550747
0.586510
0.624657
0.698566
0.680685
0.674725
0.601411
0.458956
0.641942
0.693798
0.559688
0.720620
0.558496
0.741482
0.695586
0.677705
0.564456
0.680685
0.867844
0.769496
0.806451
0.762939
0.719428
0.950694
0.835657
0.911951
0.828505
0.968575
0.984669
1.150966
1.197457
1.051426
1.332760
1.221895
1.428723
1.502633
2.068877
5.542636
27.840734
70.675611
184.634924
305.648446
505.137444
670.002699
860.617757
938.676000
927.003026
837.283731
638.878942
467.160940
260.340571
150.224566
63.273907
29.322505
12.078881
9.421706
10.995865
13.638735
20.722747
29.657483
46.895742
61.557889
80.441833
94.811916
106.830001
107.612610
102.400780
92.747808
74.256659
59.352517
43.624640
33.954978
26.738644
23.395419
21.292567
20.296574
20.250678
20.447969
20.637512
20.771623
20.978451
21.318793
21.234751
21.068454
21.235943
21.206737
21.019578
21.002889
20.549893
20.579696
20.785928
##ZVALUE=325
0.758767
0.791550
0.705719
0.674725
0.663996
0.611544
0.776649
0.656843
0.805855
0.770688
0.658631
0.651479
0.824928
0.882745
0.700951
0.695586
0.740886
0.709891
0.839829
0.815988
0.663996
0.527501
0.858903
0.862479
0.865459
0.862479
0.801682
0.762939
0.977516
0.780821
0.973940
0.934601
0.795722
1.068711
1.058578
0.943542
0.924468
0.996590
1.142621
1.256466
1.238585
1.532435
1.374483
1.818538
4.007816
14.151931
52.755475
110.501647
243.467689
391.122699
617.100596
765.129924
903.542638
932.119489
852.242708
720.715523
490.997434
340.759754
181.676745
100.085735
38.383603
18.034577
10.444522
9.630919
11.659861
14.244914
21.526814
29.790401
47.055483
62.089562
80.854893
92.339516
102.465749
102.346539
97.016692
87.517500
70.991516
57.485700
42.673945
34.152865
26.962757
23.679733
22.345781
21.668673
21.289587
21.586418
21.160841
21.847486
21.425486
21.234751
21.324754
21.174550
20.598769
20.627975
20.902753
20.457506
##ZVALUE=330
0.620484
0.640750
0.602603
0.590682
0.545979
0.570416
0.597835
0.578761
0.747442
0.705719
0.745654
0.641942
0.598431
0.677705
0.826716
0.692606
0.723600
0.774860
0.851750
0.726581
0.746846
0.787973
0.869632
0.752807
0.800490
0.898838
0.941753
0.649691
0.770688
0.816584
0.728965
0.827909
0.840425
0.906587
0.982881
1.070499
1.010895
0.959635
1.112819
1.139641
1.204610
1.357794
1.366735
1.412630
1.536608
1.608729
2.060533
8.373857
25.624633
83.282590
160.604715
322.589874
476.574898
690.854788
826.240778
916.138887
890.669823
756.810904
606.449842
398.225784
258.216858
121.707916
62.796474
24.329424
12.481809
10.147691
10.338426
12.027621
14.756918
22.326708
29.966831
44.609904
57.604909
76.858997
88.675618
97.640753
98.418593
92.918873
83.270669
68.332553
56.046844
42.773485
34.005642
28.473735
24.822950
22.176504
21.856427
20.666718
21.139979
20.782948
20.507574
21.099448
20.512938
20.287633
20.146966
20.192862
##ZVALUE=335
0.602603
0.576973
0.581741
0.664592
0.556707
0.624657
0.466704
0.675917
0.707507
0.601411
0.611544
0.497699
0.685453
0.603795
0.583529
0.830889
0.712872
0.667572
0.805855
0.822544
0.761747
0.695586
0.638962
0.742674
0.787973
0.667572
0.667572
0.657439
0.800490
0.762939
0.743866
0.818968
0.841618
0.904799
0.874996
0.982881
1.007915
0.763535
0.912547
1.026988
0.895858
1.028776
1.176596
1.155734
1.215935
1.198649
1.439452
1.377463
1.657605
3.915429
13.361573
52.775741
108.492970
240.398645
386.941433
603.764653
747.535825
866.928697
880.374908
792.156458
660.376549
456.044674
310.308933
160.888433
86.287856
31.613708
15.563965
10.324717
10.317564
10.866523
12.591481
15.857816
21.238923
31.474829
41.923523
58.710575
71.786642
85.171461
92.090964
93.617439
88.702440
78.043938
67.158937
54.456592
45.181513
34.157634
28.982759
24.248958
21.970868
20.870566
20.328760
20.061731
20.238757
19.781590
19.714832
19.991994
##ZVALUE=340
0.559688
0.480413
0.545979
0.629425
0.545979
0.555515
0.715852
0.559688
0.506639
0.556707
0.555515
0.610948
0.483990
0.549555
0.561476
0.578761
0.559688
0.584722
0.612736
0.614524
0.565648
0.753999
0.487566
0.665784
0.535846
0.637770
0.583529
0.747442
0.837445
0.622869
0.625849
0.646710
0.630617
0.589490
0.801682
0.747442
0.887513
0.593662
0.772476
0.896454
0.871420
1.001954
0.920892
0.976920
0.946522
0.917912
0.939965
1.098514
1.093745
1.376867
1.508594
2.353787
6.559491
32.154918
76.096654
185.284615
309.790969
507.202744
655.374527
809.078813
858.397484
815.299749
711.897612
529.778600
371.968746
195.139647
109.252930
45.584440
21.329522
11.256933
10.452867
10.641813
11.614561
13.335943
16.000867
22.446513
29.746890
42.761564
54.658651
70.221424
81.259608
88.471770
88.869929
83.688498
77.555776
63.906908
54.657459
42.345524
35.347939
27.706623
24.001598
21.186471
20.333529
19.308925
19.348860
19.346476
##ZVALUE=345
0.562668
0.701547
0.596642
0.604987
0.586510
0.553727
0.634789
0.686646
0.584722
0.705719
0.712872
0.670552
0.653863
0.637770
0.518560
0.601411
0.693798
0.703931
0.772476
0.626445
0.705719
0.621676
0.645518
0.590682
0.624657
0.740886
0.735521
0.743866
0.644922
0.771880
0.556707
0.878572
0.753999
0.686646
0.683665
0.719428
0.865459
0.819564
0.741482
0.751615
0.840425
0.890493
0.831485
1.043677
1.052618
0.999570
1.036525
0.967979
1.019835
1.279712
1.190901
1.274943
1.545548
1.672506
3.158450
17.797947
48.635602
127.174854
225.642920
404.513478
554.239750
737.282634
831.755996
847.201943
772.773623
601.498485
446.458459
252.112746
144.252777
61.879754
29.787421
13.200641
10.821819
11.187792
11.222959
12.299418
13.347864
16.236901
20.077825
29.430985
38.409829
52.167773
63.130856
74.826479
80.854893
82.581639
80.379844
72.230697
63.842535
52.025914
42.822957
32.730699
27.435422
22.415519
20.512938
19.145608
##ZVALUE=350
0.544786
0.747442
0.809431
0.685453
0.465512
0.560880
0.382662
0.638962
0.502467
0.611544
0.620484
0.696778
0.586510
0.528693
0.539422
0.500679
0.673532
0.722408
0.684857
0.487566
0.699759
0.643730
0.661612
0.674725
0.724792
0.716448
0.619888
0.598431
0.797510
0.818968
0.686646
0.744462
0.594854
0.775456
0.908971
0.725985
0.785589
0.882745
0.733733
0.809431
0.684857
0.822544
0.849962
0.992417
0.929832
0.953674
0.831485
0.910759
0.957847
1.031756
1.034737
1.142621
1.190901
1.234412
1.416802
1.366735
2.125502
9.412766
29.471517
90.031624
167.774558
325.437784
468.449593
647.901893
759.891868
823.670030
788.294673
651.943684
504.308939
299.107432
186.361670
87.777972
41.929483
15.437603
10.805726
10.250807
10.239482
11.117458
11.827946
13.228655
15.385747
20.997524
26.397705
36.251545
44.674873
57.524443
66.816807
73.830485
76.644421
74.142814
68.614483
58.022738
49.381852
38.621426
32.297969
25.682449
##ZVALUE=355
0.569820
0.633597
0.556707
0.577569
0.634789
0.679493
0.420809
0.487566
0.570416
0.668764
0.551939
0.628829
0.619888
0.583529
0.630617
0.607967
0.714660
0.614524
0.636578
0.598431
0.679493
0.557899
0.539422
0.791550
0.689626
0.688434
0.649691
0.698566
0.632405
0.690818
0.748634
0.665784
0.738502
0.686646
0.773668
0.757575
0.710487
0.728965
0.710487
0.909567
0.874996
0.931621
0.756979
0.841618
0.917912
0.836849
1.035929
0.795722
0.885725
0.988841
1.020432
1.071692
1.019835
1.002550
1.114607
1.259446
1.320839
1.390576
1.608729
4.798770
17.346740
67.014694
132.744908
260.723829
397.174954
595.279932
723.930597
813.549757
811.648965
698.786974
562.543869
372.411013
234.456658
104.720592
51.104426
19.063950
11.251569
9.854436
9.922981
10.369420
10.790825
11.721849
12.594461
14.772415
17.571449
24.008751
30.446649
39.947629
49.222708
59.956908
66.045523
68.799853
68.018436
62.911510
56.184530
47.005415
##ZVALUE=360
0.577569
0.596642
0.590682
0.636578
0.599623
0.669956
0.640750
0.647902
0.499487
0.652671
0.523925
0.532866
0.537634
0.585914
0.683665
0.707507
0.667572
0.646710
0.646710
0.747442
0.622869
0.614524
0.670552
0.668764
0.692606
0.522733
0.709891
0.682473
0.639558
0.683665
0.743866
0.637770
0.570416
0.648499
0.655651
0.849962
0.680685
0.724792
0.769496
0.708699
0.721812
0.858903
0.800490
0.794530
0.694990
0.792742
0.773668
0.822544
0.886917
0.864863
1.143813
1.126528
1.080632
1.094937
1.123548
1.035929
1.106858
1.261830
1.220703
1.210570
1.581907
2.069473
8.850694
27.151704
84.873438
161.237717
308.872461
444.830656
631.413460
730.683804
769.566894
729.290843
582.143664
444.621444
273.841023
165.897608
72.054863
33.290982
12.992620
9.637475
9.406805
9.833574
9.592772
10.166764
10.647774
11.114478
13.063550
15.248656
20.467639
25.814772
34.775734
41.961670
52.570701
57.925582
62.617660
62.577724
##ZVALUE=365
0.529885
0.501871
0.647902
0.515580
0.495911
0.839829
0.560880
0.579953
0.621676
0.537634
0.511408
0.623465
0.516772
0.613928
0.598431
0.590682
0.702739
0.528693
0.610948
0.704527
0.759959
0.697970
0.630617
0.610948
0.621676
0.624657
0.609756
0.576973
0.783801
0.709891
0.727773
0.738502
0.806451
0.792742
0.797510
0.669956
0.737906
0.770688
0.895858
0.632405
0.852942
0.863671
0.797510
0.709891
0.735521
0.841618
0.924468
0.802875
0.892878
0.861883
0.920892
0.923872
1.039505
0.741482
1.101494
1.096725
0.930429
1.139641
1.048446
1.239777
1.239777
1.323819
1.528859
1.788735
3.526807
18.731952
49.462914
124.724507
225.780606
406.271815
540.847778
689.059496
755.167007
734.788775
649.061799
490.755439
354.560018
188.441873
103.347898
39.808750
18.055439
9.293556
8.507967
8.522868
8.775592
9.343624
9.264946
9.691715
10.048747
11.210442
13.234615
17.207861
21.958947
30.447841
36.819577
46.669841
##ZVALUE=370
0.419617
0.420809
0.558496
0.525713
0.574589
0.655651
0.553727
0.610948
0.726581
0.659823
0.619888
0.563860
0.739694
0.394583
0.537634
0.431538
0.519753
0.560880
0.644922
0.641942
0.643730
0.641942
0.662804
0.535846
0.643730
0.689626
0.621676
0.741482
0.605583
0.757575
0.568628
0.687838
0.574589
0.576973
0.652671
0.709891
0.600815
0.679493
0.584722
0.777841
0.681877
0.587702
0.766516
0.706911
0.780821
0.830889
0.818968
0.701547
0.776649
0.771880
0.880957
0.760555
0.728965
0.901818
0.937581
0.939965
0.941753
0.760555
0.966787
0.948906
1.026988
1.064539
1.224875
1.362562
1.338720
1.573563
2.162457
9.659529
30.720830
97.137690
176.877975
326.648951
472.014546
652.703643
739.458799
759.857893
694.378614
545.397997
403.222442
225.835443
126.868486
50.990582
24.887919
11.384487
8.422732
7.821918
8.268952
8.427501
8.523464
8.654594
8.770823
9.456873
10.335445
12.211800
14.685988
19.685626
##ZVALUE=375
0.563860
0.370741
0.418425
0.481606
0.544786
0.570416
0.700951
0.479817
0.601411
0.423789
0.577569
0.490546
0.551939
0.592470
0.515580
0.564456
0.592470
0.548959
0.531673
0.599623
0.391603
0.784993
0.551939
0.583529
0.617504
0.628829
0.697970
0.643730
0.586510
0.694990
0.575781
0.488758
0.581741
0.517964
0.595450
0.607967
0.621676
0.597835
0.632405
0.699759
0.697970
0.703931
0.806451
0.720620
0.691414
0.630617
0.654459
0.696778
0.783801
0.780821
0.846982
0.759959
0.833869
0.859499
0.824928
0.728965
0.702739
0.732541
0.829697
0.890493
0.941753
0.960827
1.154542
0.975728
1.115799
1.145601
1.201630
1.482964
1.687407
4.723668
16.624928
58.334470
124.801993
267.402530
402.856469
587.914586
690.546632
751.807690
726.842880
598.946810
462.767482
280.946493
176.096559
87.277889
44.528842
16.253591
9.111762
7.450581
7.305741
7.560849
7.561445
7.828474
7.950664
8.185506
8.491874
9.459853
##ZVALUE=380
0.601411
0.417829
0.517964
0.616908
0.427961
0.448823
0.540614
0.485778
0.522733
0.566840
0.575781
0.583529
0.521541
0.500679
0.619888
0.630617
0.550747
0.479817
0.559688
0.595450
0.586510
0.541806
0.675917
0.508428
0.541806
0.754595
0.684857
0.583529
0.626445
0.645518
0.664592
0.481606
0.584722
0.644922
0.697970
0.709891
0.543594
0.610948
0.754595
0.633597
0.528693
0.623465
0.696778
0.585914
0.675917
0.675917
0.666976
0.689626
0.542998
0.824928
0.869632
0.643730
0.562668
0.716448
0.811815
0.723600
0.760555
0.561476
0.797510
0.818968
0.935793
0.871420
0.752807
0.901818
1.069903
1.080632
1.085997
1.067519
1.326799
1.305938
1.581907
2.382398
8.718967
41.899681
96.651912
223.508477
353.338718
531.303883
652.799010
749.182701
746.946931
646.342635
529.554486
369.747877
246.422887
120.816827
62.589645
23.486614
11.321902
7.249713
6.948709
7.064939
7.091761
7.019639
7.402897
7.550716
##ZVALUE=385
0.481606
0.577569
0.607967
0.712872
0.531673
0.515580
0.321865
0.523925
0.504851
0.569820
0.557899
0.478625
0.439882
0.566840
0.460744
0.506639
0.664592
0.709891
0.560880
0.386834
0.425577
0.599623
0.462532
0.620484
0.670552
0.449419
0.399947
0.362992
0.598431
0.480413
0.650883
0.519753
0.664592
0.628829
0.652671
0.647902
0.453591
0.565648
0.630617
0.729561
0.615716
0.544786
0.590682
0.656843
0.603795
0.719428
0.704527
0.733733
0.498891
0.600815
0.740886
0.741482
0.726581
0.839829
0.801682
0.748634
0.653863
0.788569
0.731945
0.790954
0.760555
0.903606
0.751615
0.846982
0.890493
0.915527
1.017451
1.015663
1.086593
1.201630
1.211762
1.331568
1.433492
1.820922
4.630685
24.454594
61.582923
152.691007
265.302658
450.724959
584.126711
710.582733
740.415454
694.992542
610.845685
446.855426
316.593647
171.861649
97.977519
41.233897
18.131733
7.596612
6.268620
6.257892
6.231666
6.558895
##ZVALUE=390
0.582933
0.404716
0.604987
0.391603
0.554919
0.575781
0.572801
0.600815
0.575781
0.537634
0.465512
0.595450
0.455976
0.556707
0.543594
0.508428
0.652671
0.469685
0.586510
0.514984
0.523925
0.536442
0.498891
0.677705
0.604987
0.562668
0.518560
0.583529
0.593662
0.474453
0.593662
0.752807
0.682473
0.560880
0.608563
0.559688
0.612736
0.583529
0.546575
0.710487
0.666976
0.548959
0.568628
0.514984
0.533462
0.612736
0.475645
0.668764
0.674725
0.682473
0.703931
0.748634
0.675917
0.827909
0.693798
0.716448
0.654459
0.689626
0.816584
0.801682
0.590682
0.636578
0.883937
0.945926
0.704527
0.858903
1.075864
0.901818
1.190901
1.077652
1.421571
1.280904
1.310706
1.298785
1.423955
1.434684
2.778769
10.857582
48.382878
108.818412
246.504545
378.853679
556.306839
671.690702
778.573751
785.241723
697.838664
581.572056
394.562483
262.812972
135.086775
70.301890
25.089979
11.035800
6.077886
5.909801
##ZVALUE=395
0.413656
0.508428
0.525713
0.485778
0.645518
0.441670
0.522733
0.511408
0.496507
0.516772
0.524521
0.418425
0.470877
0.364780
0.481606
0.623465
0.583529
0.441670
0.650883
0.496507
0.518560
0.501871
0.323653
0.517964
0.475645
0.461936
0.373721
0.485778
0.516772
0.493526
0.432730
0.567436
0.528693
0.468493
0.484586
0.538826
0.621676
0.618696
0.665784
0.588894
0.598431
0.550747
0.545979
0.621676
0.538826
0.625849
0.544786
0.544786
0.540614
0.643730
0.738502
0.661612
0.616908
0.659823
0.674725
0.664592
0.697970
0.630617
0.551939
0.687838
0.645518
0.669956
0.590682
0.845790
0.766516
0.789762
0.828505
0.941753
0.915527
0.922680
1.073480
1.269579
1.259446
1.149774
1.057982
1.162887
1.244545
1.201630
1.777411
9.019971
31.011701
98.103881
179.205537
326.811671
471.423864
647.825599
747.655630
792.235732
754.565001
624.905825
483.101606
296.893716
186.658502
82.773566
39.875507
14.416575
##ZVALUE=400
0.401735
0.473857
0.549555
0.627637
0.601411
0.570416
0.675917
0.553727
0.643730
0.507832
0.491738
0.568628
0.336766
0.459552
0.579953
0.407696
0.514984
0.506639
0.566840
0.556707
0.561476
0.633597
0.615716
0.423789
0.510812
0.641942
0.587702
0.756979
0.498891
0.526905
0.729561
0.555515
0.597835
0.664592
0.627637
0.492930
0.590682
0.684857
0.515580
0.707507
0.585914
0.728965
0.637770
0.649691
0.776649
0.698566
0.659823
0.535846
0.623465
0.752807
0.569820
0.596642
0.668764
0.772476
0.779629
0.649691
0.672936
0.746846
0.730753
0.814795
0.750422
0.807643
0.683665
0.930429
0.817776
0.765920
0.779629
0.907779
1.024604
1.020432
1.005530
1.038909
1.014471
0.966787
1.134872
1.052618
1.097918
1.234412
1.240969
1.436472
1.601577
4.301667
16.503930
61.666965
124.939680
253.544450
391.343832
572.080016
686.933994
776.321888
777.050853
668.627620
547.183752
374.404788
247.187614
124.095678
##END
