##TITLE=QP00651
##FORMAT=SPECTACLE-ASCII V-1.2
##DATA TYPE=ULTRAVIOLET SPECTRUM
##SECOND TYPE=ULTRAVIOLET SPECTRUM
##DATE=02/08/18
##TIME=15:26:59
##SPECTROMETER/DATA SYSTEM=SPECTACLE
##XUNITS=NM EM
##YUNITS=ENERGY
##YFACTOR=1
##FIRSTX=220
##LASTX=410
##NPOINTS=96
##3DDATA=Equidistant
##ZUNITS=NM EX
##FIRSTZ=210
##LASTZ=400
##ZPOINTS=39
##XYDATA=(Y..Y)
##ZVALUE=210
1.612902
2.061725
1.493692
1.631975
2.197623
2.081990
2.725720
2.439618
2.258420
2.338886
1.910925
2.253652
2.364516
2.360940
2.216697
2.438426
2.204776
3.077984
3.589988
3.018975
3.166795
3.002882
4.313588
4.169941
4.353523
4.191995
3.782511
4.011989
4.656911
5.672574
4.274845
4.805923
5.212426
4.904866
6.022453
5.699992
5.193949
5.520582
6.083846
5.493760
6.943941
6.448627
6.444454
7.565618
6.335974
7.460713
7.939935
7.292628
6.549954
7.326603
7.600784
7.435679
8.067489
7.058978
6.684661
7.325411
7.389784
6.792545
8.113980
7.903576
8.815527
8.083582
8.078814
9.075999
8.965731
9.963512
9.978414
10.319948
12.270808
15.012622
16.902685
21.506548
22.893548
26.408434
28.549433
30.834675
30.096769
31.181574
29.413700
28.200746
24.840832
25.621653
18.372536
16.608834
13.475418
11.402965
10.478497
9.595752
8.265972
8.014441
8.524656
8.782744
7.973909
8.724928
7.904768
10.281801
##ZVALUE=215
8.238554
7.270575
6.839633
5.744696
6.004572
5.740523
5.651712
5.754828
5.515814
5.250573
5.523562
4.754663
5.421638
3.962517
3.751516
3.629923
3.735423
4.318953
4.646778
4.447699
4.441738
4.307628
4.725456
4.681945
4.888773
4.671812
4.838705
5.259514
6.027818
5.290508
6.682873
6.301999
6.133914
6.318688
6.039739
7.178783
6.246567
6.296635
6.583929
7.141829
7.514954
7.381439
8.429885
7.771850
7.384419
7.833838
7.915497
8.412600
6.955862
7.747412
8.338690
7.788539
8.010864
7.992983
8.092523
8.719563
8.361936
8.598566
9.241700
9.275675
9.195805
9.729862
8.914471
9.087920
9.949803
10.059476
9.849668
10.974407
11.025667
14.218688
17.312765
19.067526
21.273494
24.424791
26.033521
27.634501
27.294755
27.849674
25.940537
25.038719
22.005439
19.051433
17.261505
16.348958
13.917685
11.905432
11.927485
10.282993
9.722710
8.908510
8.941889
8.863807
8.149743
8.744597
8.859634
9.038448
##ZVALUE=220
22.741556
24.374723
23.157001
26.107430
21.260977
17.780662
16.242862
12.298822
10.820627
10.185838
10.498762
13.079643
10.536909
10.296702
9.361506
7.541776
5.556941
5.209446
3.671646
3.300905
3.690720
3.954768
3.963709
4.977584
4.303455
4.918575
5.194545
4.334450
5.280972
4.699826
5.082488
5.447865
5.355477
5.777478
5.750656
6.683469
6.390810
6.554723
5.758405
6.375909
7.051826
7.338524
5.799532
7.358789
6.614923
6.350875
6.565452
7.583499
8.890629
7.936954
8.427501
8.528829
7.720590
8.335710
7.419586
7.415414
9.382963
8.705854
7.857680
8.339882
8.155704
9.543896
9.733438
8.661747
9.828806
9.150505
10.139942
11.055470
13.520718
13.944507
18.728971
19.102693
21.919608
23.972988
25.589466
26.744604
26.784539
25.862455
25.455952
22.902489
20.064712
19.983649
17.730594
15.303493
13.204813
12.302995
10.569692
9.451509
9.756684
10.064840
9.549856
9.547472
9.528995
9.012818
9.079576
9.386539
##ZVALUE=225
43.683648
45.440793
57.668686
72.048903
81.055760
78.439713
72.410703
60.786605
46.227574
35.556555
24.501681
22.844672
22.965670
26.853681
26.708841
24.176836
20.655990
16.931891
10.637641
9.075999
7.964969
4.970431
5.893707
4.506707
4.869699
4.605651
5.721450
5.804896
5.959868
5.316734
5.812645
5.246997
6.605983
5.892515
5.900860
6.571412
7.041693
6.635785
6.408691
7.603765
8.060932
7.341504
7.739663
8.119941
8.417964
7.222891
7.308722
8.677840
7.565618
8.204579
7.354617
9.171963
8.164644
9.034872
9.127855
9.532571
9.909868
10.049939
9.867549
9.636879
10.417700
9.857416
9.757876
9.870529
11.805892
11.527538
12.072921
13.037920
13.911724
17.055869
17.643571
19.650459
23.679733
23.985505
26.643872
26.646852
27.345419
25.956631
25.492907
22.562742
22.761822
19.247532
17.251968
15.269518
15.063882
13.189912
12.244582
12.346506
11.492968
10.733604
11.025667
10.810494
9.439588
11.123419
10.931492
10.919571
##ZVALUE=230
41.686893
42.804480
72.228909
118.927956
156.404972
192.744732
205.644965
202.876925
185.435414
154.443979
107.171535
77.256560
53.014755
48.981905
46.667457
50.318837
55.455565
49.436688
46.034455
36.995411
28.652549
18.809438
13.264418
9.487867
6.670952
5.814433
5.305409
6.031990
6.546974
6.320477
6.410480
6.737709
7.117987
7.238984
7.676482
7.159710
7.416606
6.396770
6.957650
7.258654
7.587671
8.409619
7.797480
8.573532
7.326603
8.721948
7.661581
8.343458
9.256601
9.313822
9.238720
9.809732
10.860562
9.447932
10.628700
10.515451
11.089444
10.681748
10.877848
11.795759
11.376739
10.867715
10.972619
12.142658
12.838840
12.845993
13.604760
15.653968
16.657710
19.062757
21.392703
25.304556
27.264953
29.907823
31.402707
33.822656
31.939745
30.535460
28.339624
27.401447
27.339458
22.841692
21.715760
19.615889
19.033551
16.781688
15.641451
15.874505
13.495684
15.265942
15.419722
13.976693
13.279915
14.209747
14.358759
13.575554
##ZVALUE=235
15.056729
16.772747
42.743683
79.060793
154.003501
217.903852
315.565467
376.362801
428.527594
425.719619
362.256765
306.211710
223.849416
144.360662
108.189583
75.321794
78.220963
82.397461
85.218549
85.651875
80.663562
71.153641
53.755641
39.684772
24.715662
18.006563
10.182858
10.018945
7.968545
7.853508
7.925630
7.916689
8.477569
7.909536
8.068681
9.718537
8.625984
9.400845
8.581877
9.790659
9.538531
8.870959
9.315610
8.771420
9.258986
9.043813
9.515882
9.689927
10.407567
10.122657
10.038614
10.888577
11.724830
9.996891
13.062954
10.301471
12.109876
11.314750
13.078451
12.311935
13.483763
12.154579
12.914538
13.623834
14.378428
15.716553
16.545653
17.220974
19.273758
22.266507
22.777915
27.564764
29.663444
34.245849
33.354759
35.135746
34.276843
32.953620
33.863783
29.506683
29.967427
26.209950
24.761558
22.246838
20.389557
20.165443
20.679832
19.855499
18.234849
18.934608
19.359589
18.838644
17.893910
18.731952
17.395616
18.591881
##ZVALUE=240
1.482964
1.912713
5.241632
21.163821
47.509670
106.768608
186.001658
326.169729
443.061590
535.143614
629.831553
626.984835
556.678772
462.387800
333.576798
233.462453
142.861605
110.755563
98.724961
97.702742
109.059811
113.100410
108.084679
96.948743
80.562830
62.707663
45.650601
30.285716
20.224452
13.618469
11.088848
9.600520
9.261966
8.856654
9.434819
9.873509
8.367896
8.690953
8.470416
9.275675
7.350445
7.908940
8.459687
9.096861
7.928610
8.190870
8.720756
9.480715
9.739995
8.892417
8.993745
10.107756
10.750890
9.627938
10.182858
11.537671
9.204745
9.774566
12.146831
11.637807
10.934472
12.269616
12.386441
13.075471
13.656616
16.208887
15.634894
16.910434
19.541979
19.772649
23.241639
25.992990
27.130842
33.413768
33.261776
30.667782
32.848716
30.171871
29.871464
27.649999
27.943850
24.701953
26.309490
23.248792
20.638704
21.454692
21.432638
21.131635
20.828843
18.805861
20.696521
18.831491
19.540787
19.917488
19.111633
18.436909
##ZVALUE=245
1.550913
1.304746
1.680851
1.836419
4.738569
13.374686
45.674443
100.566745
222.525001
347.439647
527.083874
664.971471
757.008791
782.022476
731.145740
595.725775
474.931598
317.157507
213.039517
130.147934
103.655457
95.585585
109.156966
123.021603
124.679804
124.207735
106.278658
91.832876
68.540573
50.650835
37.852526
22.978783
17.078519
11.766553
10.030866
9.639859
8.850694
8.843541
9.113550
8.317828
8.759499
8.440614
7.975698
9.032488
7.230639
8.087754
7.870793
8.559823
8.699894
8.775592
8.650422
8.898973
8.636713
8.921623
9.014606
9.954572
9.532571
9.852648
10.139942
9.198785
9.499788
10.619760
10.860562
12.565851
11.981726
12.926459
12.867451
15.347600
17.243624
18.127561
20.464659
23.034811
25.459528
26.692748
26.244521
29.351711
26.118755
26.593804
26.391745
24.696589
24.137497
23.105741
22.771955
22.068620
20.831823
20.333529
20.567775
19.591451
19.322634
19.783974
17.930865
20.518899
17.598867
19.004941
18.111467
18.085837
##ZVALUE=250
1.318455
1.371503
1.111627
1.415610
1.314878
1.441836
3.084540
9.114742
37.121773
79.426765
200.876594
331.814885
493.860841
708.488822
839.824677
934.322476
908.413529
790.458918
649.898648
435.312986
294.396877
187.561512
111.035705
95.049739
104.034543
116.368532
131.362677
133.461952
129.811764
114.598870
101.337433
76.424479
55.597425
35.119653
23.593903
15.167594
10.591745
8.464456
8.489490
8.408427
8.033514
7.828474
7.508993
7.834435
7.100701
7.470846
6.842613
6.771684
7.964969
6.669760
7.829666
7.075667
7.821918
7.480979
7.154942
7.424951
7.721782
7.703900
7.760525
8.123517
9.498000
8.077621
9.442568
9.440780
10.050535
11.111498
11.658669
13.354421
14.166832
16.033649
17.768741
19.100904
20.568967
22.149682
23.171902
22.504926
23.768544
23.174882
20.371675
22.023916
21.676421
19.869804
18.946528
18.301606
18.154979
18.432736
18.097758
18.315911
17.086864
17.498732
18.245578
18.796921
18.027425
17.692447
18.131733
18.203855
##ZVALUE=255
1.058578
1.073480
1.244545
1.012683
1.201630
1.451969
1.317859
1.618862
1.965761
5.205870
18.785596
68.161488
137.542486
297.665596
451.498628
692.337751
862.177610
1009.039879
1015.688777
963.158011
822.148919
654.828548
405.576825
251.998901
137.996674
97.693801
89.876652
100.700855
122.529864
132.858753
138.170719
136.689544
123.913884
99.668503
79.959631
53.337812
38.206577
21.333694
14.488697
8.810759
7.983446
7.724762
6.573796
6.994605
6.687641
7.056594
7.200837
6.354451
6.773472
6.762743
6.805658
6.460547
6.600618
6.314516
6.809831
6.720424
6.439686
7.105470
7.267594
7.886887
7.947683
7.299781
7.491708
7.916689
8.227825
9.008646
8.901954
10.148883
12.110472
13.107657
14.702678
15.291572
16.767979
17.301440
19.110441
19.096732
19.246936
18.056631
17.214417
17.134547
16.896725
15.938878
16.743541
16.661882
16.548634
15.523434
16.157627
15.704632
16.737580
16.036630
16.070604
15.790462
17.002821
15.697479
16.644597
15.470982
##ZVALUE=260
1.176000
1.529455
1.111627
1.355410
1.356602
1.519918
1.545548
1.552701
1.742840
1.766682
1.764894
2.583861
9.484887
39.721727
91.510415
227.467418
384.480953
638.315678
851.112604
1015.747786
1015.747786
1015.747786
1015.747786
834.598541
547.589660
366.844535
204.220414
127.663612
82.083941
81.180930
97.359419
120.595694
139.477849
143.979788
141.833425
124.128461
106.798410
76.046586
56.670904
35.464764
23.071766
14.197826
9.073615
7.435679
6.768703
6.785989
6.862879
6.908774
6.205440
6.744862
6.278753
6.666780
6.325841
6.675720
6.521940
6.675720
6.568432
6.356835
6.879568
6.902814
7.458925
7.004738
7.367730
8.030534
7.721782
8.168817
8.812547
9.502769
10.888577
11.230707
12.780428
14.363527
14.614463
15.618801
16.796589
17.531514
16.713738
17.036796
15.919805
15.481710
15.456676
15.239716
14.895797
14.681816
14.348626
15.137792
14.293790
14.781952
15.162826
15.009642
14.676452
14.990568
14.347434
14.795661
14.672875
15.259981
##ZVALUE=265
0.997782
1.002550
0.944734
1.060963
1.431704
1.139641
1.087785
1.337528
1.196861
1.351833
1.425743
1.704693
1.608729
2.104640
6.034970
22.649765
83.051920
167.727470
298.991799
569.294691
819.277763
1015.695930
1015.695930
1015.695930
1015.695930
969.867706
762.387514
483.160615
305.469632
154.404640
96.960664
70.073605
80.029964
105.993748
124.362707
142.362714
147.597790
137.743950
123.946667
100.394487
78.556538
52.321553
35.090446
20.955801
14.210939
8.639693
6.999969
6.738901
6.078482
6.340742
6.775856
6.431937
5.948544
6.158948
6.158948
6.164908
5.861521
5.956888
6.451607
5.969405
6.239414
6.743670
6.429553
6.518960
7.260442
7.785559
7.406473
8.296967
8.719563
10.258555
11.410713
12.201667
13.087988
13.956428
13.738871
14.208555
13.978481
13.688803
13.500452
13.298988
13.100505
13.174415
13.147593
12.487769
12.832880
13.374686
12.937784
12.308955
12.674928
12.728572
12.442470
13.094544
13.192892
13.225675
12.479424
13.584495
##ZVALUE=270
0.998974
0.807643
1.170635
1.106858
0.881553
1.068711
0.983477
0.875592
1.150966
1.171827
1.521707
1.192689
1.380444
1.634955
1.603961
1.831651
2.519488
11.689663
36.966801
126.526952
260.255933
449.086428
803.514719
1015.637517
1015.637517
1015.637517
1015.637517
1015.637517
978.021622
718.298554
485.136509
248.135924
137.152672
67.519546
60.132742
79.303980
98.681450
126.128793
139.185786
145.892501
142.117739
123.784542
105.016828
76.739788
56.167841
33.746958
22.819638
13.549924
9.829998
6.533861
6.096959
6.314516
6.246567
5.981922
6.098747
5.905628
6.177425
5.926490
6.434917
6.384850
6.298423
6.714463
6.035566
6.647706
6.816983
7.005930
7.307529
8.019805
8.736849
10.061860
10.855794
11.582971
12.435913
13.232827
13.301969
13.440847
13.158917
13.275743
12.970567
12.925863
12.049675
11.399984
12.160540
11.790991
11.854768
11.760592
11.799932
11.826754
11.647940
12.281537
11.986494
11.635423
12.250543
12.184978
11.855960
11.917949
##ZVALUE=275
0.938773
0.826716
0.763535
0.976920
1.032948
0.800490
0.927448
1.014471
1.110435
1.051426
1.231432
1.150966
1.439452
1.361966
1.353621
1.482964
1.667738
1.902580
2.125502
5.840659
23.981929
71.663857
211.749673
395.865440
731.189847
980.435014
1015.695930
1015.695930
1015.695930
1015.695930
1015.695930
918.200016
645.401478
329.649448
184.254646
79.486966
52.146912
57.044625
75.182915
101.963878
119.991899
137.622952
142.303705
136.968493
124.414563
98.411441
77.661872
52.968860
37.820935
22.305846
15.096664
9.193420
7.380843
6.387830
6.453991
6.155968
6.037951
6.210804
6.146431
6.481409
6.359816
6.720424
6.616712
6.862879
6.707907
6.781816
7.353425
8.040667
8.248687
9.634495
10.457635
10.709763
12.101531
12.561679
12.664795
12.626648
13.136864
12.290478
12.479424
11.868477
11.527538
11.614561
11.270642
10.482669
11.223555
11.395812
11.240840
10.741949
10.817647
10.877848
10.654926
11.230707
11.677742
11.313558
11.202693
11.170506
##ZVALUE=280
0.918508
0.816584
0.807643
0.927448
0.926852
0.899434
0.907779
0.775456
0.954866
0.999570
0.937581
1.198649
1.355410
0.959635
1.185536
1.417994
1.579523
1.483560
1.751781
1.819730
2.300739
2.629757
14.531612
51.555634
174.642801
321.090817
597.636700
861.145854
1015.696526
1015.696526
1015.696526
1015.696526
1015.696526
1013.336778
775.322914
435.382724
254.548788
106.574893
57.255626
41.347742
50.945878
76.204538
95.698833
120.248795
134.585500
140.428543
134.344697
118.855834
103.042722
73.445439
55.842996
34.568906
23.677945
13.481975
9.366870
6.412864
6.061792
5.732775
5.850792
5.830526
6.311536
6.304979
6.333590
6.645918
6.633997
6.908774
7.192492
7.471442
7.936954
8.706450
9.322762
10.192990
10.685921
10.811687
11.069775
11.630654
11.722445
11.468530
11.570454
10.545850
10.903478
10.936856
10.652542
10.120869
10.334849
10.091662
10.697842
10.107756
10.368824
11.361837
10.618567
10.921955
10.685921
10.220408
10.380745
9.971857
##ZVALUE=285
0.803471
0.827909
0.859499
0.919700
1.098514
0.764728
0.832677
0.984669
0.899434
0.919700
0.964999
0.895858
1.015663
1.054406
1.121759
1.144409
0.971556
1.423955
1.392961
1.544952
1.507998
1.873970
2.103448
2.337694
7.214546
26.029944
101.143718
223.438740
485.633612
747.751594
1001.615524
1015.695930
1015.695930
1015.695930
1015.695930
1015.695930
986.294746
611.036420
373.842716
167.397857
82.616806
36.597848
34.127831
51.918626
70.109963
96.334815
113.757849
130.152702
135.431886
132.113695
121.536851
98.402500
79.281926
54.313540
38.388968
22.702813
14.857650
9.411573
7.730722
6.138682
6.298423
6.211996
6.789565
6.620884
6.580949
7.282495
7.036924
7.928610
8.023977
9.170771
9.089708
9.925961
10.604858
11.151433
11.401772
11.063814
11.549592
11.436939
10.680556
10.471940
10.245442
10.879636
10.484457
10.303855
10.179877
9.595752
10.064840
10.105968
10.217428
9.956956
10.322928
10.173917
10.200739
9.746552
10.039806
9.958744
##ZVALUE=290
0.836849
0.716448
0.694990
0.766516
0.835657
0.718832
0.909567
0.822544
0.815988
0.902414
1.008511
0.823736
0.907779
0.758767
1.023412
1.001954
1.311898
1.260638
1.390576
1.338720
1.518726
1.583695
1.780987
1.944900
2.275705
2.399683
3.118515
10.852814
58.364868
140.766501
278.233886
585.100651
891.577601
1015.695930
1015.695930
1015.695930
1015.695930
1015.695930
1015.695930
819.598436
529.327989
252.562761
124.166608
45.478940
27.583838
33.467412
45.637488
67.468882
85.619688
111.283660
123.035908
131.896734
130.572915
116.608739
100.528002
74.318647
56.154728
35.640597
24.129748
14.176965
10.018945
7.724762
7.010698
6.721616
6.611943
7.063746
7.106662
7.491708
7.756948
8.574724
9.268522
9.545684
10.652542
10.908842
10.878444
11.365414
10.681748
9.968877
10.546446
10.501742
10.375977
10.326505
10.260940
10.200739
10.416508
9.992719
10.083914
10.133982
10.320544
9.989738
10.135770
9.828806
9.808540
9.688735
9.435415
9.840727
##ZVALUE=295
0.775456
0.819564
0.764728
0.915527
0.709891
0.798702
1.020432
0.777841
0.886917
0.687838
0.855923
0.846982
0.978708
0.888705
0.866652
1.087785
1.010895
0.968575
1.117587
1.298785
1.289845
1.341701
1.512766
1.492500
1.526475
1.601577
1.624823
2.092719
2.412796
4.298687
23.530722
69.405437
201.105475
378.462672
722.804666
999.015570
1015.695930
1015.695930
1015.695930
1015.695930
1015.695930
1015.695930
666.887760
400.929451
170.430541
77.993870
29.181838
21.641850
29.636621
41.565895
63.137412
80.638528
104.290843
117.268562
125.860572
124.275684
111.113787
96.299648
73.645711
55.158734
35.920739
24.749637
15.339851
10.689497
7.994771
7.802844
7.331967
7.998943
7.922649
8.190870
9.006858
9.614825
10.234714
10.596514
10.598898
11.045933
10.551810
10.456443
10.441542
9.896755
10.230541
10.050535
10.029674
10.087490
10.171533
10.449886
9.751916
10.607839
10.342598
10.291934
9.891987
9.750724
9.611845
9.800792
9.776950
9.692907
##ZVALUE=300
0.655651
0.538826
0.771880
0.782609
0.713468
0.725985
0.654459
0.713468
0.739694
0.778437
0.802875
0.936985
0.928640
0.852942
0.843406
1.006722
0.866652
1.085997
1.030564
0.971556
1.065731
1.219511
1.254678
1.348853
1.485944
1.460910
1.610518
1.717806
1.840591
2.090931
2.557635
3.118515
7.483959
44.889450
117.152929
313.146710
540.498495
945.672989
1015.695930
1015.695930
1015.695930
1015.695930
1015.695930
1015.695930
912.160873
504.826903
292.090774
119.748712
52.842498
19.564629
17.662644
26.863813
37.304759
56.954622
74.326992
98.356605
109.795928
120.359659
119.472742
107.413530
93.212724
70.660710
54.629445
36.390424
25.526881
15.359521
11.325479
9.030700
8.369684
8.581877
9.204745
9.321570
10.038614
10.378957
10.324717
10.356903
10.436773
10.687709
10.092854
10.119677
10.011792
10.191798
10.073781
10.130405
10.285974
10.660887
10.203719
10.015965
10.364652
9.932518
9.844899
9.563565
9.588599
9.902716
9.808540
9.729862
##ZVALUE=305
0.710487
0.585914
0.655651
0.623465
0.831485
0.635982
0.665784
0.767708
0.817776
0.878572
0.747442
0.790954
0.794530
0.807643
0.779629
0.785589
0.946522
0.974536
0.843406
1.031756
0.859499
1.012683
1.123548
1.159906
1.284480
1.287460
1.291633
1.420975
1.211762
1.607537
1.631975
1.925826
2.136827
2.448559
4.543662
25.126934
70.514679
208.475590
386.528969
734.688640
1007.188559
1015.695930
1015.695930
1015.695930
1015.695930
1015.695930
1015.695930
661.365986
404.774547
177.096725
82.639456
27.285814
14.792681
17.127991
24.000406
37.905574
53.419471
74.392557
90.836883
105.901957
113.060474
112.226605
104.384422
87.599754
72.757602
50.671697
37.184954
24.582744
16.923547
12.141466
10.298491
10.029674
10.167956
10.095835
10.308623
9.698868
9.970665
9.629726
9.851456
10.361671
10.150671
10.121465
10.187626
10.224581
10.385513
9.997487
10.106564
10.016561
10.171533
10.050535
9.878874
9.793639
9.902716
9.860992
9.651780
9.867549
##ZVALUE=310
0.634789
0.685453
0.742674
0.501871
0.839829
0.656843
0.729561
0.670552
0.841618
0.680685
0.971556
0.851750
0.768900
0.851750
0.801682
0.784993
0.786781
1.164675
0.988841
0.960827
0.919700
1.087785
0.942945
1.069903
1.291633
1.427531
1.244545
1.337528
1.218915
1.310706
1.487732
1.669526
1.769662
1.809597
2.175570
2.410412
2.990961
11.713505
40.016770
136.618018
273.597836
580.870509
896.873474
1015.731692
1015.731692
1015.731692
1015.731692
1015.731692
1015.731692
916.941762
593.166947
280.254483
143.013597
47.809482
19.152761
12.299418
14.898777
22.351742
31.351447
49.769878
63.572526
84.339976
98.348856
106.439590
108.911991
100.717545
88.800788
69.869757
53.940415
36.070943
26.913881
18.153787
14.313459
11.601448
10.771751
10.411739
10.276437
9.872913
9.992719
9.945631
9.795427
10.408759
10.016561
10.536909
10.581613
10.434985
9.994507
10.403991
10.336637
10.282993
10.116696
9.799600
9.802580
9.891987
9.522438
9.791851
##ZVALUE=315
0.686646
0.679493
0.704527
0.744462
0.525713
0.745654
0.637770
0.769496
0.645518
0.695586
0.628829
0.751615
0.785589
0.722408
0.743866
0.684857
0.886917
0.826716
0.870824
0.690818
0.952482
0.807643
0.848770
0.892878
1.045465
1.222491
1.182556
1.018643
1.170635
1.265407
1.461506
1.195669
1.327991
1.446605
1.641512
1.637936
1.956820
2.314448
2.418756
5.354881
19.270778
84.844828
195.646882
465.444922
779.724717
1015.691757
1015.691757
1015.691757
1015.691757
1015.691757
1015.691757
1015.691757
810.461044
409.888625
214.368701
71.687698
28.272867
11.800528
11.516809
14.067888
19.731522
31.392574
42.941570
61.282516
77.294707
93.435645
101.663470
102.420449
97.138882
82.005858
69.448948
51.496625
38.880706
25.717616
18.777847
13.700724
11.734962
10.622740
10.078549
10.077953
9.990931
10.112524
10.039806
10.546446
10.137558
10.498762
10.657907
10.460615
10.726452
10.416508
10.534525
9.987950
9.997487
10.007620
9.731650
10.136962
##ZVALUE=320
0.678897
0.663996
0.599623
0.776649
0.678897
0.559688
0.590682
0.616908
0.725985
0.695586
0.621676
0.717640
0.726581
0.849962
0.877976
0.723600
0.685453
0.861883
0.734925
0.826716
0.744462
0.777841
0.785589
0.782609
1.070499
1.068711
0.868440
1.043677
1.074672
1.079440
1.101494
1.336932
1.298785
1.264811
1.410842
1.355410
1.614690
1.518726
1.991987
2.117753
2.239943
3.181696
8.910894
49.231648
129.338503
346.955657
589.804649
982.739925
1015.695930
1015.695930
1015.695930
1015.695930
1015.695930
1015.695930
968.304873
531.250834
296.988487
121.703744
51.809549
15.493631
10.304451
10.477901
12.726784
18.560886
26.431680
41.634440
55.213571
73.118806
86.050630
97.391605
98.711848
92.839003
83.394647
65.413713
51.703453
36.033988
26.250482
18.108487
14.705658
11.528730
10.703802
10.200739
10.484457
10.262728
10.274649
10.548830
10.552406
10.008812
10.107756
10.250807
10.239482
10.336637
9.988546
10.182858
9.962916
9.963512
##ZVALUE=325
0.698566
0.558496
0.697970
0.533462
0.574589
0.643730
0.650883
0.690818
0.746846
0.685453
0.697970
0.520945
0.683665
0.584722
0.693798
0.625849
0.697970
0.753999
0.533462
0.812411
0.777841
1.000762
0.821948
0.924468
0.768900
0.890493
1.029968
0.846982
0.904799
0.978708
0.968575
0.888705
1.186728
1.153946
1.246929
1.201630
1.406670
1.376867
1.550913
1.478791
1.822710
2.209544
2.451539
2.560616
6.291866
23.942590
94.278455
207.682848
480.330586
803.195834
1015.654802
1015.654802
1015.654802
1015.654802
1015.654802
1015.654802
1015.654802
799.197555
411.632657
216.175914
74.707866
29.831529
11.030436
9.732842
10.034442
12.156963
18.255711
25.913715
41.497946
55.622458
73.812604
83.388686
91.863871
92.420578
86.309910
77.012777
61.488748
48.598647
33.130646
24.491549
16.889572
14.161468
11.736751
10.907650
10.605454
10.483861
10.540485
10.225773
10.079741
9.956956
10.465980
9.998679
9.998679
9.972453
9.853840
9.786487
##ZVALUE=330
0.524521
0.593662
0.453591
0.640750
0.544786
0.540614
0.574589
0.469685
0.627637
0.590682
0.585914
0.764728
0.653863
0.651479
0.619888
0.658631
0.701547
0.619888
0.615716
0.695586
0.727773
0.701547
0.727773
0.863671
0.755787
0.821948
0.833869
0.959635
1.072884
0.925660
1.021624
0.819564
0.974536
0.970960
0.971556
1.243949
1.423955
1.278520
1.276731
1.495481
1.570582
1.613498
1.850724
2.037883
2.088547
2.501607
3.172755
13.394952
44.030547
152.986646
308.034420
664.548874
989.547968
1015.686989
1015.686989
1015.686989
1015.686989
1015.686989
1015.686989
938.753486
590.572953
260.300636
124.820471
41.054487
15.919805
9.457469
9.409785
10.367632
12.459755
18.964410
25.958419
39.924979
52.299500
69.606900
79.360604
87.228417
86.646676
81.835985
71.360469
57.472587
45.247674
31.413436
24.478436
17.687678
14.627576
12.044907
10.952950
10.448694
10.218620
9.795427
10.032654
10.010600
9.908676
9.341836
9.567738
9.756684
##ZVALUE=335
0.562668
0.589490
0.624657
0.685453
0.619888
0.415444
0.598431
0.685453
0.723600
0.672936
0.638962
0.645518
0.499487
0.676513
0.711679
0.662804
0.701547
0.716448
0.611544
0.709891
0.765920
0.676513
0.878572
0.782609
0.882745
0.906587
0.962615
0.905991
0.913739
0.857711
0.963807
0.931621
1.014471
1.009703
1.037717
1.107454
1.129508
1.352429
1.091957
1.229644
1.331568
1.308918
1.359582
1.820922
1.837611
2.058744
1.987815
2.363920
2.611876
6.421804
23.996830
101.853609
225.514770
527.119637
871.017575
1015.731692
1015.731692
1015.731692
1015.731692
1015.731692
1015.731692
1015.731692
725.667477
362.152457
182.680488
58.165789
23.069978
10.474920
9.498596
9.729862
10.691881
13.043880
17.411709
26.513934
35.840869
50.719976
62.023997
74.559450
80.946684
81.148744
77.023506
65.468550
56.256652
43.662786
34.118891
23.873448
18.062592
14.250875
11.998415
10.678768
10.003448
9.681582
9.675622
9.412766
9.334683
9.261966
##ZVALUE=340
0.530481
0.600815
0.640750
0.739694
0.583529
0.488758
0.559688
0.659823
0.416636
0.528693
0.505447
0.555515
0.515580
0.567436
0.675917
0.742674
0.557899
0.446439
0.700951
0.596642
0.668764
0.782609
0.874996
0.699759
0.547767
0.613928
0.848770
0.681877
0.747442
0.883937
0.757575
0.756979
0.837445
0.943542
0.979900
0.883937
1.004934
0.970960
0.933409
1.139641
1.227856
1.313686
1.236796
1.391768
1.391768
1.446605
1.688600
1.706481
1.964569
2.114773
2.631545
3.779531
12.379885
61.810613
156.101584
399.072766
691.753030
1015.697718
1015.697718
1015.697718
1015.697718
1015.697718
1015.697718
1015.697718
933.170915
469.281673
251.393914
94.994903
35.704970
11.975765
9.871721
9.604692
9.833574
10.830760
12.865663
17.967820
24.185777
34.611821
45.397878
60.384870
69.194436
75.078607
76.471567
71.542859
64.974427
52.816868
43.075681
31.483769
24.491549
17.824769
13.721585
11.302829
9.965897
9.483695
9.311438
9.066463
##ZVALUE=345
0.656843
0.580549
0.555515
0.624657
0.459552
0.634789
0.519753
0.706911
0.615716
0.509620
0.560880
0.559688
0.526905
0.582933
0.479817
0.587702
0.644922
0.582933
0.641942
0.588894
0.683665
0.651479
0.799894
0.763535
0.706911
0.736713
0.650883
0.680685
0.700951
0.710487
0.746846
0.797510
0.946522
0.944734
0.993609
0.967979
0.995994
0.908971
0.985861
1.160502
0.985861
1.076460
1.342893
1.263618
1.178980
1.400709
1.477599
1.545548
1.675487
1.689792
2.019405
2.056956
2.337694
2.738833
5.637407
33.876896
96.009970
266.575813
492.585897
932.710767
1015.702486
1015.702486
1015.702486
1015.702486
1015.702486
1015.702486
1015.702486
652.391911
363.368988
139.056444
59.322715
18.569827
10.632873
9.804964
9.567738
9.361506
9.787679
12.068748
15.388727
22.781491
31.792521
44.294596
53.526759
63.868761
68.907738
71.045756
68.053603
60.787797
52.869916
41.636825
32.768846
22.606850
17.512441
13.047457
10.653734
9.520650
##ZVALUE=350
0.536442
0.524521
0.536442
0.459552
0.542998
0.552535
0.552535
0.514984
0.543594
0.423789
0.546575
0.570416
0.563860
0.511408
0.679493
0.468493
0.502467
0.515580
0.670552
0.599623
0.584722
0.491738
0.630617
0.608563
0.623465
0.826716
0.729561
0.766516
0.789762
0.855923
0.636578
0.638962
0.900626
0.710487
0.758767
0.975728
0.906587
1.009703
0.919700
0.800490
0.865459
0.952482
0.990629
1.128912
1.115799
1.186728
1.092553
1.250505
1.238585
1.363754
1.347661
1.556873
2.016425
2.063513
2.139807
2.481937
3.999472
13.824701
67.395568
162.999630
415.827632
709.815025
1015.630960
1015.630960
1015.630960
1015.630960
1015.630960
1015.630960
1015.630960
786.969662
381.983519
204.338431
74.922442
28.509498
10.647774
9.274483
8.626580
8.511543
8.453727
9.012818
11.230707
14.121532
20.663738
26.943684
37.783980
46.294928
56.848526
62.252879
65.315962
63.483715
57.429671
49.452782
38.842559
31.175613
22.103786
17.342567
##ZVALUE=355
0.544786
0.639558
0.553727
0.641942
0.694990
0.597835
0.653863
0.497699
0.567436
0.674725
0.608563
0.488758
0.628829
0.666976
0.581741
0.632405
0.671744
0.735521
0.765920
0.768900
0.671744
0.833869
0.874996
0.749826
0.691414
0.738502
0.654459
0.742674
0.725985
0.864863
0.900626
0.899434
0.998974
1.034737
0.658631
0.946522
0.834465
0.828505
0.723600
0.863671
0.886917
1.089573
0.961423
1.011491
1.177788
0.986457
1.151562
1.183748
1.020432
1.412630
1.424551
1.600981
1.502633
1.552701
1.761913
1.963973
2.178550
2.586842
2.808571
8.116961
30.315518
122.561455
256.745815
556.876659
884.871483
1015.695930
1015.695930
1015.695930
1015.695930
1015.695930
1015.695930
912.425518
571.785569
247.468948
114.173889
32.622814
13.212562
8.608699
8.223653
8.084774
7.622838
7.996559
8.456707
9.933710
12.625456
17.873645
24.232864
33.158660
40.885806
50.555468
56.461692
59.814453
58.987737
53.292513
46.992898
37.798882
##ZVALUE=360
0.617504
0.584722
0.791550
0.577569
0.641942
0.665784
0.592470
0.756979
0.667572
0.733733
0.638962
0.689626
0.838637
0.713468
0.768900
0.696778
0.589490
0.609756
0.672936
0.589490
0.750422
0.690818
0.850558
0.830889
0.622869
0.806451
0.939965
0.745654
0.870824
0.887513
0.947714
0.729561
0.889897
0.891685
0.946522
0.994802
0.833869
0.994802
0.880957
0.964999
1.014471
1.013875
1.118779
0.908971
1.164675
1.119971
1.150966
1.280904
1.263618
1.340508
1.375675
1.547933
1.486540
1.645684
1.711845
1.724958
1.753569
2.176762
2.188683
2.477765
2.825856
4.100800
12.832880
63.190460
155.189633
398.386717
681.940913
1015.684009
1015.684009
1015.684009
1015.684009
1015.684009
1015.684009
1015.684009
722.931027
338.657498
169.494748
58.349967
21.688938
9.081960
7.996559
7.574558
7.426739
7.179976
7.280707
7.452965
8.638501
10.809898
14.015436
20.187497
26.331544
35.795569
43.311715
50.140619
52.923560
52.692890
##ZVALUE=365
0.654459
0.714660
0.550747
0.547767
0.628829
0.673532
0.447631
0.588894
0.627637
0.546575
0.693798
0.613928
0.665784
0.750422
0.773668
0.668764
0.640750
0.815988
0.779629
0.600815
0.865459
0.640750
0.761747
0.833869
0.790954
0.803471
0.789762
0.780821
0.784993
0.706911
0.667572
0.729561
0.862479
0.754595
0.968575
0.914931
0.769496
0.726581
0.952482
0.988841
1.031756
0.862479
0.981688
0.974536
0.988841
0.760555
0.863671
1.078844
1.341701
1.152754
1.213551
1.099706
1.117587
1.146793
1.425743
1.473427
1.679659
1.597404
1.760721
1.881719
2.062917
2.244711
2.410412
2.999902
5.386472
30.236840
88.739991
259.555578
480.488539
899.630785
1015.695930
1015.695930
1015.695930
1015.695930
1015.695930
1015.695930
927.343965
498.811007
262.438655
90.801716
34.710765
10.336637
7.763505
7.053614
6.857514
6.761551
6.555915
6.634593
6.937981
7.481575
8.876920
12.356639
16.289949
22.848845
29.186606
37.684441
##ZVALUE=370
0.634789
0.562668
0.471473
0.481606
0.574589
0.611544
0.453591
0.508428
0.568628
0.532866
0.505447
0.544786
0.543594
0.676513
0.624657
0.570416
0.616908
0.554919
0.671744
0.683665
0.663996
0.628829
0.680685
0.565648
0.564456
0.703931
0.653863
0.687838
0.647902
0.636578
0.812411
0.855923
0.671744
0.810623
0.697970
0.789762
0.767708
0.642538
0.798702
0.935793
0.752807
0.692606
0.980496
0.949502
1.068711
0.967979
0.900626
0.810623
0.890493
1.082420
1.059771
1.155734
1.122952
1.216531
1.156926
1.228452
1.149774
1.264811
1.362562
1.442432
1.585484
1.784563
1.824498
2.101660
2.281666
2.757907
3.675818
16.784668
57.537556
191.823840
376.887918
770.182014
1015.696526
1015.696526
1015.696526
1015.696526
1015.696526
1015.696526
1001.896858
573.065877
313.400626
116.010904
50.586462
16.245842
8.245707
6.848574
6.636977
6.129742
5.937815
5.727410
5.910993
5.908608
6.423593
8.059740
10.196567
14.542937
##ZVALUE=375
0.659823
0.641942
0.509620
0.590682
0.428557
0.653863
0.388622
0.524521
0.755787
0.741482
0.691414
0.592470
0.707507
0.624657
0.659823
0.624657
0.578761
0.640750
0.556707
0.568628
0.586510
0.626445
0.457764
0.466704
0.473857
0.461936
0.729561
0.688434
0.696778
0.657439
0.561476
0.718832
0.542998
0.632405
0.559688
0.869632
0.498891
0.876784
0.690818
0.714660
0.615716
0.654459
0.775456
0.853539
0.718832
0.665784
0.684857
0.777841
0.854731
0.983477
0.816584
1.014471
1.029968
0.946522
1.011491
1.128912
0.936985
1.050830
1.222491
1.248717
1.320839
1.240969
1.379848
1.561642
1.683831
1.861453
2.180934
2.494454
2.865791
8.642673
30.684471
116.502047
258.556604
594.280958
944.985747
1015.695930
1015.695930
1015.695930
1015.695930
1015.695930
1015.695930
784.905553
484.341979
224.541426
106.015801
31.156540
11.589527
6.627440
6.250739
5.868673
5.741715
5.565882
5.293489
5.383492
5.456805
5.929470
##ZVALUE=380
0.554919
0.556707
0.551939
0.552535
0.516772
0.515580
0.592470
0.605583
0.474453
0.473857
0.448823
0.503659
0.515580
0.624657
0.442863
0.508428
0.664592
0.577569
0.530481
0.516772
0.431538
0.577569
0.555515
0.619888
0.665784
0.703931
0.502467
0.482798
0.691414
0.624657
0.282526
0.584722
0.635982
0.636578
0.650883
0.725985
0.524521
0.718832
0.637770
0.849962
0.678897
0.759959
0.701547
0.709891
0.697970
0.719428
0.723600
0.878572
0.696778
0.861883
0.839829
0.894666
0.842810
0.805855
0.897646
0.957847
0.961423
1.031756
1.026988
1.229644
1.093745
1.082420
1.453757
1.446605
1.520514
1.587868
1.800656
2.025962
2.158880
2.491474
2.916455
4.926920
17.041564
85.673928
211.945772
518.701673
864.099860
1015.695930
1015.695930
1015.695930
1015.695930
1015.695930
1015.695930
1015.695930
709.354877
335.857868
166.498423
53.184628
19.603968
7.205606
6.072521
5.520582
5.393624
4.940629
5.066991
5.059838
##ZVALUE=385
0.549555
0.516772
0.442863
0.470877
0.420809
0.555515
0.484586
0.547767
0.526905
0.408888
0.654459
0.446439
0.502467
0.517964
0.553727
0.513792
0.612736
0.451803
0.560880
0.559688
0.593662
0.554919
0.586510
0.657439
0.554919
0.631809
0.628829
0.656843
0.567436
0.624657
0.579953
0.723600
0.648499
0.651479
0.641942
0.724792
0.722408
0.525713
0.730753
0.531673
0.735521
0.853539
0.718832
0.696778
0.736713
0.780821
0.799894
0.740886
0.767708
0.773668
0.811815
0.766516
0.946522
0.950694
0.823736
0.952482
0.971556
0.894666
1.027584
0.950694
1.083612
1.058578
1.123548
1.217723
1.404881
1.399517
1.554489
1.663566
1.884699
2.048612
2.276897
2.588630
2.708435
3.342628
7.891655
46.231747
128.501058
351.066589
645.108819
1015.696526
1015.696526
1015.696526
1015.696526
1015.696526
1015.696526
1015.696526
961.852670
522.100925
283.632874
112.938881
42.659640
9.848475
5.909801
5.234480
5.090833
4.947782
##ZVALUE=390
0.403523
0.420809
0.510812
0.417829
0.448823
0.541806
0.407696
0.554919
0.511408
0.517964
0.370741
0.570416
0.436902
0.602603
0.385642
0.481606
0.586510
0.560880
0.553727
0.520945
0.545979
0.560880
0.577569
0.563860
0.519753
0.545979
0.660419
0.611544
0.644922
0.560880
0.651479
0.552535
0.621676
0.567436
0.567436
0.714660
0.600815
0.754595
0.569820
0.845790
0.796914
0.723600
0.759959
0.592470
0.562668
0.686646
0.704527
0.756979
0.841618
0.705719
0.867844
0.775456
0.826716
0.565648
0.756979
0.915527
0.830889
0.950694
0.954866
0.928640
1.051426
0.957847
1.085997
1.134872
1.158714
1.292825
1.278520
1.551509
1.566410
1.805425
2.087951
2.072453
2.338886
2.410412
2.409816
2.710819
4.178882
23.590922
77.550411
249.234438
488.145947
944.148898
1015.695930
1015.695930
1015.695930
1015.695930
1015.695930
1015.695930
1015.695930
691.013932
396.502614
154.685974
68.875551
18.893480
7.375479
5.070567
##ZVALUE=395
0.416636
0.473857
0.474453
0.464916
0.667572
0.352859
0.374913
0.585914
0.483990
0.385642
0.439882
0.478625
0.461936
0.521541
0.451803
0.429749
0.607967
0.430942
0.579953
0.451803
0.587702
0.496507
0.433922
0.536442
0.504851
0.565648
0.628829
0.637770
0.471473
0.553727
0.691414
0.560880
0.556707
0.533462
0.428557
0.607967
0.675917
0.628829
0.571609
0.687838
0.676513
0.656843
0.636578
0.725985
0.650883
0.792742
0.748634
0.623465
0.758767
0.704527
0.743866
0.627637
0.854731
0.896454
0.810623
0.825524
0.839829
0.721812
0.837445
0.965595
0.720620
1.057982
1.138449
1.152754
1.076460
1.078844
1.357794
1.298785
1.551509
1.698732
1.767874
1.724958
1.962781
1.736879
1.922846
2.067685
2.102852
2.364516
2.998710
13.849735
52.401423
190.298557
373.258591
731.086731
1015.695930
1015.695930
1015.695930
1015.695930
1015.695930
1015.695930
1015.695930
859.072804
529.521704
228.636861
106.800795
31.198859
##ZVALUE=400
0.329614
0.528693
0.486970
0.416636
0.417829
0.322461
0.357628
0.331998
0.515580
0.489950
0.345707
0.304580
0.462532
0.654459
0.363588
0.609756
0.496507
0.532866
0.335574
0.556707
0.573993
0.498891
0.526905
0.452995
0.591874
0.528693
0.499487
0.472665
0.690818
0.558496
0.457764
0.554919
0.534654
0.440478
0.498891
0.457764
0.587702
0.551939
0.674725
0.592470
0.581741
0.682473
0.647902
0.675917
0.621676
0.568628
0.797510
0.655651
0.610948
0.731945
0.908971
0.836849
0.747442
0.740886
0.600815
0.648499
0.723600
0.776649
0.762939
0.781417
0.884533
0.943542
0.887513
1.064539
1.069903
1.169443
1.178980
1.270771
1.388788
1.798868
1.824498
1.574755
1.735687
1.835823
1.912713
1.733899
1.732707
2.033710
2.178550
2.732873
2.823472
13.261437
32.805800
159.742832
276.958942
695.770979
907.177925
1015.695930
1015.695930
1015.695930
1015.695930
1015.695930
1015.695930
743.917823
657.441020
223.634839
##END
