##TITLE=QP00602
##FORMAT=SPECTACLE-ASCII V-1.2
##DATA TYPE=ULTRAVIOLET SPECTRUM
##SECOND TYPE=ULTRAVIOLET SPECTRUM
##DATE=02/08/18
##TIME=16:18:21
##SPECTROMETER/DATA SYSTEM=SPECTACLE
##XUNITS=NM EM
##YUNITS=ENERGY
##YFACTOR=1
##FIRSTX=220
##LASTX=410
##NPOINTS=96
##3DDATA=Equidistant
##ZUNITS=NM EX
##FIRSTZ=210
##LASTZ=400
##ZPOINTS=39
##XYDATA=(Y..Y)
##ZVALUE=210
2.297759
2.286434
2.584457
2.942681
2.844930
2.761483
3.515482
3.088713
3.193617
3.390908
2.873540
2.930760
3.006458
2.656579
3.228784
3.502965
3.256798
3.028512
3.977418
3.623962
3.808737
4.438758
4.280806
4.767776
5.136728
5.748868
5.130768
5.438924
4.973412
5.396605
4.959702
5.428791
6.081462
6.513000
6.244779
6.358624
6.057620
6.501675
6.523728
7.302761
7.612705
7.538795
6.763935
7.293820
8.401871
7.959604
8.140802
7.740855
8.508563
8.952618
9.755492
9.893775
9.420514
9.465814
9.063482
9.049773
10.377765
9.285808
10.927916
10.261536
11.236668
10.481477
9.487867
9.724498
10.865927
11.937618
12.031794
13.964772
16.716719
18.583536
23.960471
27.536750
31.607747
34.871697
38.618445
39.903522
40.826797
41.154623
40.076971
43.573976
35.234690
33.062696
30.454993
25.241971
20.775795
18.485785
13.671517
12.098551
10.441542
11.637807
11.655688
11.238456
11.006594
11.632442
10.445714
10.296702
##ZVALUE=215
7.951856
7.091761
6.297827
6.033778
5.473495
4.650950
4.705787
6.241798
5.382895
5.099773
5.441904
5.054474
4.324913
4.424453
3.525615
3.788471
3.721714
3.633499
4.271865
3.337860
3.937483
5.023479
4.234910
4.307628
4.882812
5.505681
4.917979
5.439520
5.077720
6.023645
6.352663
6.061792
7.555485
6.055832
6.422997
7.356405
7.060766
6.505847
7.358789
6.721616
7.487535
8.525848
7.618666
7.968545
7.633567
8.531809
9.253621
8.929968
8.950830
8.904934
9.872913
8.581877
8.823872
9.303689
10.516644
8.805990
9.338856
10.167956
10.447502
10.283589
10.083914
10.813475
10.745525
11.833906
10.249615
12.167692
12.659431
14.933944
14.800429
19.353628
20.374656
24.462938
28.042793
31.341910
35.558939
35.368800
36.554933
40.019751
39.502978
40.012598
34.424663
31.581521
28.014779
23.423433
19.861460
16.422868
14.661551
13.703704
11.132956
11.430979
11.037588
10.099411
10.727644
10.430813
10.602474
11.187792
##ZVALUE=220
24.546981
25.822520
28.214455
27.044415
23.878813
20.943880
16.209483
12.392998
11.720657
10.967851
10.826588
12.736917
12.746453
10.336637
9.236932
7.517934
6.469488
5.110502
4.430413
5.146861
4.091859
4.250407
4.641414
5.701780
5.630851
5.192757
6.102920
5.707741
6.284714
6.663799
6.699562
7.312894
7.161498
7.050633
7.357597
7.207990
7.013679
8.341670
8.328557
7.882714
8.030534
8.430481
8.215904
8.196831
8.580685
8.259416
10.209680
8.983612
9.399652
9.975433
9.392500
9.824634
9.899735
9.918809
10.046959
10.694861
10.588765
11.143684
9.903908
11.356473
10.764599
11.057854
11.715889
10.529757
12.753606
12.526512
12.983680
14.352798
16.952753
18.719435
20.752549
24.637580
27.817488
31.562448
33.477545
38.471818
37.625432
35.839677
38.733482
34.439564
33.166409
29.201508
29.391646
24.564862
21.495819
18.013716
14.187694
16.399622
12.873411
13.563633
11.896491
11.941791
11.960864
11.848807
12.782812
11.566877
##ZVALUE=225
46.426654
50.137639
61.064959
79.747438
87.244511
83.073974
79.850554
64.472556
47.730803
34.930706
28.441548
23.889542
24.858713
25.922656
26.127696
25.219917
22.610426
16.724467
13.092756
11.169910
8.182526
6.487966
6.377697
5.736947
6.011724
6.748438
6.330609
7.633567
7.744431
7.540584
8.255839
8.055568
8.101463
8.378625
9.421706
8.791685
8.160472
9.902716
9.690523
9.291768
9.700656
10.670424
11.069775
9.889603
10.736585
11.476874
10.123849
10.578632
11.542439
12.268424
11.477470
11.766553
13.133883
11.866689
11.840463
12.840629
12.174845
14.835596
13.895631
13.356805
13.311505
13.314486
13.984442
14.609694
15.285611
15.857816
15.706420
18.528700
19.410849
22.367835
23.307800
28.595924
30.842423
36.322474
34.975410
37.883520
37.514567
36.390424
36.649704
34.408569
32.233596
29.889941
27.963519
24.120808
22.385716
20.755529
18.584728
18.226504
17.070770
17.039776
16.970634
15.151501
14.781952
16.184449
16.272664
16.013980
##ZVALUE=230
38.629770
43.156743
72.018504
112.027526
149.385929
189.870596
204.145908
203.161836
188.903809
156.636834
103.692412
76.965690
51.388741
47.266483
46.130419
50.150752
53.251982
49.285889
44.755936
35.373569
31.134486
18.547773
13.299584
9.014606
7.014871
6.439686
5.979538
7.228851
5.946755
7.527471
6.858706
7.455945
7.753968
8.990765
8.305907
8.377433
8.549690
8.570552
8.458495
8.821487
8.974671
10.373592
8.927584
8.906722
10.153651
9.496808
9.661913
10.839701
10.140538
9.267926
10.386705
10.025501
10.657907
10.779500
10.458827
10.491610
12.567639
12.196898
11.900663
13.072491
13.880730
14.137626
14.088750
14.096498
15.251637
15.009642
17.091632
18.414855
19.776821
21.111965
24.084449
25.694966
27.070642
31.198859
31.461716
35.093427
34.733415
33.180714
31.741858
31.238794
27.749538
27.745962
27.100444
24.289489
23.784637
19.803643
21.020770
21.801591
20.731688
19.665956
18.756986
19.780993
19.184947
19.456744
19.252896
18.828511
##ZVALUE=235
15.611649
16.533732
34.749508
79.786777
131.374002
205.138922
270.749927
343.127847
377.761722
361.727476
327.753425
256.138444
194.751620
124.003887
92.776418
77.717900
71.975589
76.983571
86.778998
87.098479
76.149702
68.420768
51.511526
37.318468
23.960471
18.039942
12.242794
8.903742
7.506609
7.567406
8.174777
8.874536
9.084940
8.505583
8.894801
8.870959
8.417964
9.798408
8.465648
10.063648
8.612871
9.984970
9.456873
8.739829
10.578632
9.271502
9.764433
9.705424
10.641813
10.512471
12.055635
9.919405
11.691451
12.527704
11.647940
11.665821
11.793971
12.740493
12.061596
14.773607
14.350414
15.439987
13.712645
16.835928
16.681552
17.285943
19.545555
18.913746
20.954609
25.556684
28.193593
31.858683
33.732653
32.994747
33.942461
36.483407
37.793517
36.045909
36.324859
35.739541
33.250451
34.080744
31.489730
30.792952
30.309558
28.427839
26.905537
27.303696
26.943684
26.632547
27.833581
25.206804
26.924610
26.314855
28.398633
28.034449
##ZVALUE=240
2.321601
3.136992
6.265640
21.842718
49.720407
111.621618
189.855695
336.856842
459.514856
561.909676
662.536025
690.432787
616.332889
531.831980
382.418633
276.782513
161.100626
119.641423
102.484822
101.257563
110.885501
114.923716
109.906793
103.344917
89.214444
63.263774
50.677657
32.487512
22.207499
16.118884
13.006926
11.585951
11.925697
11.243820
11.004806
11.346936
11.803508
10.720491
10.982752
12.208819
12.168884
10.886788
10.486841
11.120439
12.246966
10.819435
12.013912
10.768771
10.863543
11.660457
11.699796
12.395978
12.437701
12.645721
13.453960
13.407469
13.941526
14.766455
16.661882
14.403462
17.825961
17.199516
17.789602
17.766953
19.337535
21.727681
22.364855
24.742484
24.659634
31.074882
33.090711
36.292672
40.518641
43.644905
45.295954
46.948791
51.964521
51.114559
49.589872
47.370791
49.473643
46.295524
41.307807
40.368438
38.864613
35.438538
38.342476
35.199523
35.647750
33.394694
35.213828
36.651492
33.939481
34.119487
32.991767
33.658743
##ZVALUE=245
2.203584
1.632571
1.953840
2.477765
5.645752
16.644001
60.769916
135.360956
301.223993
468.706489
724.994540
893.414617
1001.082659
1015.524864
961.472988
779.594779
618.520975
403.322577
267.189741
151.672959
114.734769
104.897618
120.152831
128.579736
130.812526
131.400824
116.297603
99.214911
75.267553
57.410002
42.458773
27.131438
21.097660
14.669895
12.638569
12.286901
11.888742
10.699630
11.547804
11.928678
10.689497
10.120869
11.098981
10.867715
11.571646
10.105968
12.295842
11.010766
11.159778
11.218786
11.091828
11.264682
11.223555
11.988878
11.988878
11.609793
13.481975
13.639927
14.286637
13.555884
14.134645
15.892982
16.400814
16.739964
16.976595
18.475652
20.242929
21.809936
22.937655
27.131438
29.087663
32.570958
37.056804
40.897727
41.440725
44.710636
45.404434
45.020580
44.695735
42.316914
41.016936
37.257671
37.405491
35.489798
35.426617
37.109852
35.998821
35.209656
35.610795
33.936501
34.322739
35.637617
33.884645
34.288764
33.921599
32.981634
##ZVALUE=250
1.842976
1.880527
2.182722
1.870990
2.321601
2.187490
3.162622
16.593933
47.221780
106.720924
253.389478
425.726771
683.826804
854.413509
1003.324986
1015.695930
1015.695930
906.207561
768.503547
537.767410
360.140800
204.030871
136.601925
103.905797
107.224584
124.420524
139.655471
140.884519
140.869617
123.347640
106.670856
78.222752
58.755875
39.276481
26.447773
16.223788
12.596846
10.513663
9.526610
10.610819
9.427667
10.367632
9.657741
8.829832
8.631945
9.156466
9.250641
8.737445
8.551478
8.261800
9.079576
9.640455
8.438826
9.673834
9.445548
9.949803
10.118484
10.600686
11.011958
10.726452
11.051893
11.233687
11.902452
13.346672
13.065934
14.284849
16.519427
17.616749
18.597841
20.594001
23.477674
25.962591
27.568936
29.931664
32.793880
32.341480
34.464598
34.454465
31.964779
31.358600
32.004714
31.081438
29.183626
31.018853
30.278563
31.133890
29.827952
29.198527
29.061437
29.571652
27.710795
29.431581
30.132532
30.394793
31.482577
30.582547
##ZVALUE=255
1.796484
1.836419
2.145767
2.071857
2.182722
2.044439
2.062917
1.928806
2.739429
5.864501
27.509928
67.722797
139.620900
301.156640
465.077758
730.671883
900.335908
1015.868783
1015.868783
1010.991931
901.883841
710.929632
445.820689
289.213657
157.468915
109.897852
95.797777
108.102560
128.552914
140.458941
145.703554
142.928958
131.844878
105.269551
82.294941
56.490898
39.582849
22.918582
16.868711
10.757446
9.221435
8.180737
8.202791
8.656979
7.247925
8.508563
7.491708
7.821918
8.208752
8.180737
8.628964
8.879900
8.155704
8.414984
9.267926
9.355545
9.006858
9.159446
9.385943
9.778738
9.459853
10.446906
11.939406
11.154413
12.135506
13.338923
14.395714
14.191866
16.037822
17.306805
20.308495
22.231936
23.859739
26.064515
27.032495
27.611852
27.758479
28.590560
27.895570
27.045608
28.814673
27.656555
26.204586
26.992559
26.354790
27.890801
28.304458
26.247501
26.525855
28.037429
28.552413
27.734637
28.406978
28.401613
29.151440
28.521419
##ZVALUE=260
1.372695
1.431704
1.622438
1.498461
1.522899
1.467466
1.484752
1.463890
1.809597
1.840591
2.525449
3.488660
10.052919
44.116974
100.579858
243.542790
399.154425
659.583807
866.492987
1015.695930
1015.695930
1015.695930
1015.695930
858.212709
570.728779
380.683541
216.833949
134.631395
86.954832
87.369680
102.536678
128.969550
142.779946
152.085423
149.463415
131.473541
112.061501
81.836581
61.730742
37.739873
26.069880
14.664531
10.220408
8.094907
7.631779
7.892847
7.906556
7.511973
7.474422
8.014441
8.450747
8.045435
7.636547
7.332563
7.991791
7.815957
8.403659
8.262992
8.668900
9.665489
9.207726
9.517670
9.709597
10.185838
10.859966
10.956526
11.746883
13.175607
14.400482
15.895963
17.624497
18.573999
20.580888
22.936463
23.279786
24.223924
24.452806
24.709702
24.398565
24.511814
24.084449
24.313927
25.277734
24.403930
23.585558
24.177432
23.989677
24.984479
25.644898
26.074648
25.892854
24.634600
25.651455
24.850965
25.543571
27.039647
##ZVALUE=265
1.369715
1.539588
1.361966
1.513958
1.455545
1.558661
1.684427
1.667738
1.687407
1.700521
2.009869
2.116561
2.228618
2.451539
5.377531
28.573871
70.316792
184.742808
331.217647
622.865558
885.604024
1015.695930
1015.695930
1015.695930
1015.695930
1015.695930
811.173916
571.824908
318.518877
184.231997
111.352801
74.412823
83.760619
113.224983
133.223534
151.505470
155.008435
147.463679
132.779479
106.906891
82.270503
56.991577
39.097667
22.219419
15.558600
10.671616
8.716583
8.339882
7.670522
7.339716
7.929802
8.228421
8.204579
8.127689
8.227825
8.623600
8.344650
8.753538
9.090900
9.143949
9.279847
9.273887
10.048747
10.054708
10.765791
11.851788
12.057424
12.591481
14.488697
15.711784
16.557574
18.291473
19.247532
20.898581
22.230744
22.528768
21.932721
23.227930
22.976995
22.523999
22.679567
22.537708
22.664666
23.612976
22.796988
22.702813
22.764802
23.462772
23.677945
24.113655
24.963617
24.023652
24.748445
24.302602
25.128722
24.547577
##ZVALUE=270
1.293421
1.260638
1.440644
1.492500
1.473427
1.133680
1.277924
1.591444
1.550913
1.630783
1.726747
1.877546
2.025962
1.952648
2.060533
2.458692
3.078580
13.248920
39.828420
133.516788
268.476605
477.424860
856.928825
1015.659571
1015.659571
1015.659571
1015.659571
1015.659571
1015.659571
825.831890
563.243628
291.821957
158.699751
76.049566
65.402985
85.921884
108.495951
137.864947
151.113868
156.899691
151.202679
132.254958
115.033984
82.247853
61.088800
37.397742
24.097562
15.974641
11.969805
8.885860
8.806586
8.404851
8.409619
8.354783
8.819699
8.723736
8.657575
8.832812
9.115934
9.514689
9.306669
10.113716
10.499954
10.308623
10.918975
11.357665
10.788441
11.824965
13.440847
15.213490
16.500950
18.064976
19.006729
19.546747
21.163821
21.780729
22.464991
22.157431
21.915436
21.305680
21.190643
21.394491
21.503568
21.274686
20.853877
21.099448
21.814704
22.104979
21.765828
22.239685
22.703409
22.596717
23.151636
23.062825
23.209453
23.692846
##ZVALUE=275
1.216531
1.300573
0.994802
1.306534
1.222491
1.195669
1.323819
1.466870
1.443624
1.276731
1.630783
1.412630
1.771450
1.760721
2.088547
1.952648
2.079606
2.431870
2.223849
6.436706
24.303794
71.408749
208.002925
391.708612
720.275640
992.251635
1015.695930
1015.695930
1015.695930
1015.695930
1015.695930
1015.695930
778.236985
413.868427
229.192972
97.167492
60.145855
62.046647
80.051422
111.812949
130.407810
149.740577
156.516433
147.930980
135.230422
108.183622
85.540414
60.043931
42.175651
25.596619
17.457604
12.062788
9.690523
8.804798
8.783937
8.868575
8.782744
8.918643
9.093881
9.433627
10.052919
10.179877
10.286570
11.000633
10.804534
11.458993
12.247562
12.717843
14.075637
14.873743
16.446710
17.987490
18.600821
19.583702
20.211935
21.481514
21.987557
21.578670
21.057725
21.091700
21.362901
20.099878
20.526648
21.221638
20.640492
20.577908
22.379756
21.777749
22.041798
21.882653
21.585822
21.304488
22.067428
21.857619
22.705793
22.904873
##ZVALUE=280
1.149774
0.994802
1.220703
1.230836
1.383424
1.414418
1.431704
1.157522
1.466870
1.294613
1.238585
1.271963
1.424551
1.620650
1.481771
1.532435
1.932979
1.939535
2.155900
2.011657
2.401471
3.132820
16.495585
54.456592
169.367790
317.784548
608.910918
908.101797
1015.695930
1015.695930
1015.695930
1015.695930
1015.695930
1015.695930
976.469517
560.699701
321.545601
137.147903
69.459677
46.984553
57.095885
82.550645
105.052590
131.470561
145.717859
150.972605
147.211552
128.627419
109.045506
80.757737
61.476827
39.491653
26.533604
16.168952
12.476444
9.723902
9.229779
8.584857
9.269714
9.575486
10.088682
10.148883
10.751486
11.031628
11.630654
12.122989
12.431741
12.479424
13.860464
14.813542
16.023517
17.353892
17.943978
19.482970
20.246506
21.239519
21.461844
20.747781
20.551682
21.303892
20.002723
20.446777
20.611882
20.761490
20.569563
20.991564
20.715594
21.217465
20.228624
21.197796
21.479726
20.798445
21.302700
22.329688
21.833777
21.678805
##ZVALUE=285
1.224875
1.155734
1.254678
1.098514
1.182556
1.033545
0.977516
1.374483
1.172423
1.184940
1.458526
1.465678
1.183748
1.594424
1.743436
1.681447
1.437664
1.589656
1.639724
1.877546
1.898408
2.079606
2.451539
2.918839
9.136796
30.698776
102.174878
213.255882
477.704406
772.128701
1015.695930
1015.695930
1015.695930
1015.695930
1015.695930
1015.695930
1015.695930
748.115778
469.647646
219.583511
108.342767
43.815970
37.476420
56.323409
74.880719
104.102492
123.924613
140.521526
148.140788
143.474936
133.211613
107.965469
87.674856
60.353875
42.837858
26.196837
18.589497
12.745857
11.069775
10.327697
10.020733
10.604858
10.558963
11.024475
11.408925
12.595654
13.049841
12.869835
14.164448
15.608668
16.775727
17.043948
17.992854
19.412637
19.871593
20.080805
21.072626
21.353960
20.313859
20.132661
20.558834
20.175576
19.822717
20.258427
20.658970
20.502806
20.980835
21.070838
20.854473
21.046996
21.460652
21.230578
21.174550
21.012425
22.169948
21.354556
##ZVALUE=290
1.198649
1.010895
1.156926
1.252890
1.083612
1.304746
1.307726
0.978708
1.274943
1.173615
1.190901
1.256466
1.232624
1.228452
1.386404
1.370907
1.355410
1.565814
1.689792
1.612902
1.750588
1.809597
2.101660
1.991987
2.379417
2.650619
4.168749
12.814999
59.697628
137.031674
271.170735
602.783561
955.649018
1015.685797
1015.685797
1015.685797
1015.685797
1015.685797
1015.685797
963.832736
644.731522
328.617692
176.202655
66.622496
34.141541
37.314892
50.369501
73.239803
93.726516
120.164752
134.908557
145.391822
141.332746
127.777457
108.291507
81.090927
61.371922
40.535927
28.570890
17.994642
14.219880
11.313558
11.325479
11.059642
11.760592
12.120605
12.081861
14.057755
14.156699
15.480518
15.700459
17.093420
18.096566
19.383430
19.827485
19.561648
20.238757
19.799471
19.419789
19.825697
19.947886
20.259619
20.810962
20.548701
21.048784
20.470619
20.634532
21.029711
20.914674
20.448565
20.977855
20.732880
21.369457
21.026731
21.536946
21.311641
##ZVALUE=295
1.020432
1.031756
1.126528
0.913739
1.045465
0.966787
1.129508
1.056790
1.020432
1.222491
1.209974
1.091957
1.187921
1.095533
1.124740
1.161695
1.482964
1.189709
1.483560
1.456738
1.378655
1.572967
1.746416
1.695752
1.874566
2.148747
2.058744
2.406836
2.891421
5.412698
19.351840
84.976554
195.477605
481.558442
784.070492
1015.695930
1015.695930
1015.695930
1015.695930
1015.695930
1015.695930
1015.695930
815.189481
426.414609
222.197771
74.384809
35.545826
24.383664
31.218529
48.045516
66.764951
90.730786
109.393597
131.238699
137.319565
133.261681
123.254657
102.592707
82.219839
57.491660
42.930841
27.393699
20.512938
14.974475
13.341904
12.658834
12.661815
13.405681
13.946891
15.186667
16.034842
17.264485
17.942786
18.782616
18.935800
20.105839
20.031929
19.835830
19.714832
19.738674
20.104647
19.949675
20.397902
20.565987
20.324588
21.340847
20.740628
20.707846
21.172762
21.151900
20.768642
21.276474
20.710826
20.581484
20.828843
21.174550
##ZVALUE=300
0.956655
0.932813
0.918508
0.798702
1.054406
0.981688
1.091957
1.033545
0.850558
1.064539
1.156926
1.125932
1.149774
1.072884
1.233816
1.101494
0.886917
1.156926
1.262426
1.479983
1.414418
1.444817
1.501441
1.486540
1.680851
1.782775
1.959801
2.009869
2.046824
2.343655
2.858639
3.307462
8.626580
51.219463
130.471587
342.997909
603.565574
1008.784771
1015.695930
1015.695930
1015.695930
1015.695930
1015.695930
1015.695930
972.898006
550.341010
322.188735
135.979652
60.855746
22.222996
19.573569
29.737949
41.424632
62.884688
81.120729
107.650757
122.132897
131.303668
132.094622
117.033720
103.231668
78.410506
61.641932
42.660832
31.182766
21.044612
16.925931
14.830828
14.434457
15.586615
16.344786
16.660690
17.623901
18.418431
18.650889
19.274950
19.558668
19.698739
20.223856
20.589828
20.134449
20.561814
21.137595
20.866990
21.279454
21.799803
20.908713
21.584630
21.190643
21.359921
21.138787
21.220446
20.826459
20.925999
21.039844
20.831823
##ZVALUE=305
0.970960
1.000762
0.965595
0.909567
0.918508
0.843406
0.970960
1.020432
1.100898
1.016855
1.013875
0.998974
1.180768
1.073480
1.063943
1.173615
1.015663
1.282692
1.265407
1.193881
1.191497
1.288652
1.423955
1.581907
1.318455
1.473427
1.556873
1.804829
1.752973
1.905560
1.888871
2.398491
2.578497
2.919436
5.131960
32.103658
89.482665
254.768729
469.079018
895.062685
1015.697718
1015.697718
1015.697718
1015.697718
1015.697718
1015.697718
1015.697718
751.949549
465.040803
206.033587
96.567869
31.079650
16.880631
19.163489
26.390553
42.139888
58.875680
82.202554
99.498630
118.311644
124.909878
123.004913
114.233494
97.492933
80.651641
57.725906
44.296980
31.277537
23.771524
18.825531
18.088818
17.743707
18.207431
18.834472
19.183755
19.712448
19.560456
20.225644
20.286441
20.338893
20.677447
21.093488
21.976829
22.002459
22.345781
22.229552
21.832585
21.882653
21.926761
21.943450
22.131801
21.765828
21.365881
21.570921
20.838976
20.654798
##ZVALUE=310
0.902414
0.833869
0.849962
0.929832
0.805855
0.855923
0.977516
1.064539
0.959635
1.046658
0.953674
0.915527
1.007915
1.015663
1.105666
0.926852
1.049638
1.131892
1.134872
1.053810
1.070499
1.328588
1.220703
1.060963
1.124740
1.391768
1.460910
1.496673
1.672506
1.577735
1.636744
1.881719
1.888871
2.113581
2.222657
2.623796
3.111959
12.757778
45.139790
151.683688
301.360488
645.411611
973.417759
1015.698910
1015.698910
1015.698910
1015.698910
1015.698910
1015.698910
922.889709
595.541000
283.619761
144.386888
49.165487
22.275448
13.612509
16.315579
25.786757
35.762787
54.716468
70.785880
93.067884
107.203722
118.577480
119.461417
110.870600
99.581480
79.130530
62.717795
44.247508
35.330653
26.195645
21.868944
19.646883
19.340515
19.525886
19.599795
19.736886
20.086765
20.510554
21.231771
21.171570
21.981597
21.965504
22.224784
22.540689
22.057891
22.246838
22.475719
22.224784
22.488832
21.481514
21.607876
21.474957
21.151900
21.107793
##ZVALUE=315
0.870824
0.863671
0.893474
0.826716
0.858903
0.730753
0.886917
0.933409
0.921488
0.990629
0.977516
0.892878
1.061559
0.966787
1.049638
1.050830
1.049638
1.036525
1.170635
1.144409
1.129508
1.081824
1.188517
1.314878
1.340508
1.396537
1.296997
1.327991
1.460910
1.529455
1.397729
1.495481
1.732707
1.784563
1.702905
2.074838
2.477765
2.733469
2.569556
6.175637
23.465753
102.448463
227.246881
509.381890
837.776661
1015.695930
1015.695930
1015.695930
1015.695930
1015.695930
1015.695930
1015.695930
781.846642
401.558876
209.468603
72.404742
28.576851
13.819933
12.951493
16.688704
22.923946
35.914779
49.392581
69.621801
85.920691
104.454756
112.515688
114.231706
109.262466
91.641545
79.762936
61.316490
48.209429
34.147501
27.651787
22.921562
21.499991
20.319819
20.327568
20.651817
21.024942
21.957755
21.245480
22.214651
22.509694
22.998452
22.813678
22.388697
22.456646
22.564530
22.301674
22.007823
21.856427
21.603703
21.951795
21.267533
##ZVALUE=320
0.753999
0.868440
0.827909
0.724792
0.846982
0.945926
1.074672
0.981688
0.849962
0.988841
0.942945
0.881553
0.877976
1.036525
0.939965
0.885725
0.969768
0.920892
0.882745
1.200438
1.099706
0.979900
1.195669
1.100898
1.108646
0.992417
1.295805
1.282692
1.208782
1.374483
1.406670
1.527667
1.645684
1.740456
1.777411
1.696944
1.906753
2.015829
2.264977
2.490878
2.714992
3.797412
12.131929
65.392852
161.239505
408.130884
690.366030
1015.695930
1015.695930
1015.695930
1015.695930
1015.695930
1015.695930
1015.695930
1006.187797
577.678680
316.861868
121.962428
52.059889
17.297864
12.890697
13.359785
15.910864
23.122430
31.660795
48.397779
62.795877
83.101988
97.228885
109.717846
111.049414
106.046796
95.493793
76.833963
62.380433
45.802593
36.955476
28.779507
25.103688
21.700859
21.853447
21.504760
22.591949
22.360682
22.481680
23.147464
22.928715
23.142695
22.558570
22.536516
22.649765
22.623539
22.466779
22.674799
21.628737
21.915436
##ZVALUE=325
0.760555
0.755787
1.009703
0.876784
0.970960
0.789762
0.842810
0.756979
1.015663
0.801682
0.802875
0.720620
0.920892
0.809431
0.893474
0.882745
0.814795
0.923872
1.141429
1.066923
1.108646
0.966787
1.069903
1.006722
1.108646
1.070499
1.107454
1.126528
1.143813
1.097918
1.302958
1.278520
1.397729
1.361966
1.494884
1.544952
1.584888
1.731515
1.785755
2.145767
2.019405
2.491474
2.544522
3.282428
6.049871
41.386485
109.474659
290.749669
526.798964
969.720483
1015.692949
1015.692949
1015.692949
1015.692949
1015.692949
1015.692949
1015.692949
734.180808
441.846848
193.415880
86.917877
25.312901
13.372898
12.325644
13.462901
16.962886
22.784472
33.107996
45.948625
65.256953
80.305934
96.391439
104.335546
105.376840
100.418925
87.277889
74.839592
57.015419
46.766996
35.189986
29.690862
24.759769
23.734570
22.667646
22.495985
22.570491
22.811890
22.765994
22.663474
22.435784
22.780895
22.378564
21.989942
21.983981
22.057891
21.677613
##ZVALUE=330
0.818968
0.717640
0.811815
0.664592
0.836849
0.820756
0.752807
0.895858
0.951886
0.901818
0.713468
1.031756
0.875592
0.800490
0.915527
0.853539
0.887513
1.015663
1.099706
0.821948
0.886917
1.087785
0.866652
0.935793
1.044869
1.118779
1.002550
1.095533
1.121759
1.131892
1.134872
1.146793
1.205802
1.374483
1.402497
1.421571
1.518726
1.518726
1.617670
1.698732
1.849532
1.877546
2.009869
2.512932
2.465844
2.780557
3.728867
16.707778
56.374669
193.890929
382.791758
791.991949
1015.696526
1015.696526
1015.696526
1015.696526
1015.696526
1015.696526
1015.696526
903.202891
585.137010
279.058814
141.491890
47.500730
19.000769
12.196898
12.363791
13.729930
17.226934
24.342537
31.991601
46.619773
59.843659
79.502463
90.796947
100.355744
102.313757
95.353723
86.210966
69.922805
57.250857
43.452978
36.032796
29.867887
26.140809
24.034977
23.119450
22.479892
22.236705
22.305846
22.281408
22.624731
21.611452
21.877885
21.527410
21.385550
##ZVALUE=335
0.703931
0.644922
0.830889
0.715852
0.742674
0.785589
0.827909
0.910759
0.842810
0.870824
0.702739
0.757575
0.813603
0.946522
0.714660
0.831485
0.901818
0.975728
0.857711
0.814795
1.002550
0.863671
1.003742
0.967979
0.937581
1.068711
0.972748
1.073480
0.965595
1.106858
1.150966
1.070499
1.049638
1.285672
1.240969
1.195669
1.305938
1.242757
1.304746
1.434684
1.547933
1.711845
1.885891
1.808405
1.913905
2.065897
2.377629
2.420545
2.842546
7.661581
28.315783
117.464662
258.749723
587.448478
947.972536
1015.671492
1015.671492
1015.671492
1015.671492
1015.671492
1015.671492
1002.117991
707.309842
368.457437
191.137791
65.180659
26.490688
12.967587
12.581944
13.273954
14.511943
18.196702
23.180842
34.172535
44.280887
61.859488
73.873997
86.712837
93.632936
95.500946
91.338754
79.229474
68.736672
54.652691
45.390725
35.333633
29.909611
25.045872
23.369789
22.221804
21.475554
21.144748
21.374822
21.235943
20.865798
21.054745
##ZVALUE=340
0.721812
0.690818
0.816584
0.764728
0.617504
0.788569
0.696778
0.804663
0.849962
0.852942
0.814795
0.822544
0.730753
0.937581
0.802875
0.666976
0.869632
0.940561
0.837445
0.750422
0.970960
0.857711
0.871420
0.984669
0.905991
0.830889
0.961423
1.124740
1.149774
0.997782
0.789762
1.096725
1.171827
1.201630
1.265407
1.222491
1.291633
1.163483
1.230836
1.277924
1.321435
1.432896
1.456738
1.544952
1.573563
1.636744
1.893640
2.291799
2.291799
2.617836
2.669692
4.292727
13.963580
74.983835
192.233920
491.867661
832.567811
1015.695930
1015.695930
1015.695930
1015.695930
1015.695930
1015.695930
1015.695930
914.251804
479.285717
258.343816
93.658566
36.985874
15.184879
13.209581
13.413429
14.223456
15.980601
18.460751
24.079680
31.837821
44.088960
55.833459
71.925521
81.821680
90.304613
90.286732
85.728765
78.990459
66.051483
55.875778
44.622421
36.500692
28.555989
24.816990
22.361875
21.055937
20.394921
20.434856
20.040870
##ZVALUE=345
0.787973
0.784993
0.837445
0.884533
0.679493
0.704527
0.868440
0.824928
0.712872
0.778437
0.838637
0.853539
0.827909
0.790954
0.773668
0.665784
0.966787
0.824928
0.831485
0.829697
0.664592
0.836849
0.746846
0.730753
0.757575
0.875592
0.743866
1.096725
1.002550
1.182556
0.851750
1.095533
1.002550
0.900626
1.184940
1.056790
1.086593
1.088977
1.196861
1.183748
1.400709
1.283884
1.368523
1.337528
1.498461
1.620650
1.569986
1.685619
1.687407
2.133846
2.123713
2.720952
3.042817
3.212690
7.107854
46.995878
132.871866
349.501967
630.576015
1015.678644
1015.678644
1015.678644
1015.678644
1015.678644
1015.678644
1015.678644
1015.678644
629.175901
345.481634
128.737688
56.928992
20.345449
14.085770
13.628602
13.983846
14.502406
14.823675
17.772913
21.895766
31.079650
40.516853
54.658651
64.776540
75.789690
82.086921
84.809661
82.561970
74.450970
65.622926
53.518414
44.027567
33.592582
28.815866
24.230480
21.502972
20.092726
##ZVALUE=350
0.696778
0.995994
0.901818
0.720620
0.700951
0.642538
0.731945
0.742674
0.734925
0.816584
0.792742
0.663996
0.800490
0.724792
0.891685
0.843406
0.655651
0.958443
0.907779
0.772476
0.870824
1.002550
0.868440
0.766516
0.938773
0.822544
0.876784
0.947714
1.031756
1.138449
1.117587
0.910759
1.060963
0.994802
1.121759
1.039505
1.105666
1.181960
1.042485
1.217723
1.224875
1.272559
1.283884
1.344681
1.469851
1.420975
1.544952
1.602769
1.707673
1.827478
1.969934
1.880527
2.192855
2.359748
2.541542
3.023744
4.203916
24.059415
73.481798
231.478810
453.686714
913.046598
1015.695930
1015.695930
1015.695930
1015.695930
1015.695930
1015.695930
1015.695930
815.756917
482.708812
201.026797
88.833570
25.361776
14.925599
13.311505
13.213754
13.298988
13.513565
14.561415
16.879439
22.078753
28.390884
38.233995
47.270656
59.580803
67.748427
74.145794
77.349544
75.550675
69.735646
59.434772
51.761866
41.244626
33.948421
26.487708
##ZVALUE=355
0.666976
0.738502
0.937581
0.760555
0.740886
0.623465
0.935793
0.651479
0.887513
0.747442
0.867844
0.838637
0.833869
1.009703
0.803471
0.966787
0.893474
0.871420
0.834465
0.934601
0.902414
0.877976
0.893474
0.993609
0.866652
0.929832
0.999570
1.066923
1.003742
1.024604
1.235604
1.003742
0.950694
1.031756
1.093745
0.924468
1.044869
1.200438
1.180768
1.029968
1.221895
1.188517
1.238585
1.307726
1.241565
1.391768
1.413822
1.601577
1.692772
1.661777
1.596808
1.901984
1.955628
2.141595
2.187490
2.309680
2.627969
3.084540
3.426671
11.689663
42.657852
163.102746
334.023833
707.028508
1015.695930
1015.695930
1015.695930
1015.695930
1015.695930
1015.695930
1015.695930
955.407619
586.718917
249.854922
116.838813
38.300753
17.487407
12.471676
12.566447
12.520552
12.678504
13.164878
14.090538
16.384721
19.771457
25.827885
32.178760
43.397546
51.215887
61.470866
66.991448
70.803761
69.394708
63.231587
56.920648
47.543645
##ZVALUE=360
1.031756
1.133680
0.913739
1.030564
0.925660
0.828505
0.770688
0.902414
0.901818
0.966787
0.919700
0.973940
0.955462
1.019835
1.074672
1.012683
1.074672
1.093745
1.012683
0.992417
1.044869
1.253486
1.149774
1.130700
1.088977
1.291633
1.074672
1.083612
1.156926
1.197457
1.271963
1.152754
1.210570
1.306534
1.217723
1.173615
1.234412
1.438856
1.194477
1.303554
1.309514
1.242757
1.430511
1.538992
1.558661
1.613498
1.584888
1.634955
1.797676
1.690984
1.677871
1.949668
1.899600
2.069473
2.121925
2.246499
2.491474
2.518892
2.866983
3.284812
3.452897
5.787611
19.664764
97.001791
239.514709
590.888858
965.677500
1015.824676
1015.824676
1015.824676
1015.824676
1015.824676
1015.824676
1015.824676
750.914812
348.706841
172.522664
59.622526
24.362803
12.637973
12.049675
11.913776
12.112856
12.048483
12.447834
12.923479
14.454722
17.569661
20.832419
27.694702
34.477711
45.700669
52.338839
60.203671
63.854456
64.592957
##ZVALUE=365
0.811815
0.853539
0.787973
0.750422
0.826716
0.974536
0.846982
0.827909
0.750422
0.778437
0.876784
0.822544
0.807643
0.906587
0.887513
0.755787
0.952482
0.940561
0.954866
1.081824
0.962615
1.036525
1.029968
1.025796
0.955462
1.137853
0.954866
1.040697
1.136661
1.103878
0.976920
0.975728
1.031756
1.003742
1.077652
1.195669
1.106858
1.398921
1.278520
1.317859
1.134872
1.161695
1.288652
1.156926
1.402497
1.446605
1.360774
1.596808
1.491904
1.618862
1.610518
1.586676
1.626611
1.715422
1.877546
1.817942
1.907945
2.154708
2.266765
2.521873
2.637506
2.915859
3.343821
3.996491
7.430911
42.603612
125.952959
362.917781
669.991970
1015.695930
1015.695930
1015.695930
1015.695930
1015.695930
1015.695930
1015.695930
970.245004
519.372821
272.097588
93.380809
36.843419
13.103485
11.207461
10.846853
10.742545
10.823607
10.854602
11.201501
11.730790
12.474656
14.455914
18.933415
23.215413
30.951500
37.882924
46.391487
##ZVALUE=370
0.587702
0.734925
0.928640
0.717640
0.779629
0.833869
0.758767
0.612736
0.786781
0.728965
0.861883
0.732541
0.707507
0.787973
0.775456
0.904799
0.947714
0.920892
0.719428
0.771880
0.836849
0.855923
0.947714
0.755787
0.902414
0.823736
0.928640
0.762939
0.745654
0.660419
0.929832
0.845790
1.022816
1.028776
0.952482
0.851750
1.020432
1.047850
1.068711
1.091957
1.195669
1.167655
1.290441
1.150966
1.118779
1.036525
1.078844
1.160502
1.282692
1.180768
1.284480
1.288652
1.281500
1.362562
1.474619
1.626611
1.626611
1.671910
1.913905
1.936555
2.085567
2.241731
2.480745
2.679825
2.917647
3.546476
4.634857
21.695495
74.003935
247.693658
483.614802
950.146914
1015.635729
1015.635729
1015.635729
1015.635729
1015.635729
1015.635729
1015.635729
695.846677
364.059806
130.335689
55.947900
18.819571
11.304617
10.093451
10.228753
9.719729
10.138750
9.860992
9.986758
10.453463
11.397600
12.944937
15.494823
20.672679
##ZVALUE=375
0.692606
0.854731
0.768900
0.754595
0.685453
0.796914
0.718832
0.767708
0.686646
0.730753
0.779629
0.830889
0.728965
0.727773
0.857711
0.806451
0.713468
0.670552
0.845790
0.735521
0.766516
0.773668
0.786781
0.826716
0.881553
0.884533
0.853539
0.904799
0.838637
0.743866
0.851750
0.817776
0.858903
0.776649
0.868440
0.942945
0.831485
1.049638
1.031756
0.929832
0.944734
0.939965
1.136661
0.937581
1.112819
0.999570
1.145601
1.148582
1.048446
1.244545
1.091957
1.185536
1.198649
1.314878
1.305938
1.285672
1.464486
1.511574
1.487732
1.513958
1.758933
1.959801
1.978874
2.038479
2.188683
2.465844
2.739429
3.071427
3.650784
12.799501
45.202971
165.090561
350.471735
793.516636
1015.695930
1015.695930
1015.695930
1015.695930
1015.695930
1015.695930
1015.695930
932.958722
577.028990
276.806951
136.974454
40.542483
15.312433
9.758472
9.308457
9.363890
9.317994
9.238720
9.002686
9.493828
9.655952
10.219812
##ZVALUE=380
0.566840
0.803471
0.791550
0.637770
0.645518
0.609756
0.664592
0.776649
0.712872
0.686646
0.747442
0.817776
0.784993
0.735521
0.786781
0.773668
0.691414
0.683665
0.731945
0.751615
0.718832
0.639558
0.632405
0.737906
0.759959
0.865459
0.811815
0.843406
0.831485
0.835657
0.792742
0.918508
0.918508
0.954866
0.882745
0.811815
0.737906
1.021624
0.919700
0.861883
1.009703
0.926852
0.834465
0.856519
0.997782
0.973940
0.995994
0.942945
0.952482
1.093745
0.963807
1.106858
1.207590
1.165867
1.244545
1.243949
1.027584
1.285672
1.302958
1.356602
1.366735
1.485944
1.501441
1.705885
1.621842
1.988411
2.093911
2.356768
2.785921
3.163815
3.687739
6.426573
24.298429
126.387477
299.344659
689.250827
1015.134454
1015.696526
1015.696526
1015.696526
1015.696526
1015.696526
1015.696526
1015.696526
828.194618
407.292843
205.450654
66.672564
24.640560
10.035634
8.600950
8.559823
8.195639
8.659959
8.435845
8.399487
##ZVALUE=385
0.613928
0.645518
0.582933
0.678897
0.611544
0.502467
0.681877
0.661612
0.595450
0.633597
0.574589
0.754595
0.639558
0.658631
0.662804
0.710487
0.812411
0.679493
0.813603
0.783801
0.738502
0.833869
0.796914
0.780821
0.761747
0.667572
0.716448
0.626445
0.836849
0.854731
0.770688
0.660419
0.987649
0.846982
0.758767
0.993609
0.958443
0.928640
0.847578
0.812411
0.836849
0.872612
0.875592
0.839829
0.739694
0.837445
0.850558
0.944734
0.930429
0.953674
1.146793
0.963807
0.975728
1.089573
1.197457
0.975728
1.153946
1.159906
1.283884
1.196861
1.116991
1.304746
1.331568
1.485944
1.488924
1.711845
1.688600
2.012849
2.178550
2.544522
2.616644
2.948642
3.132820
4.257560
13.733506
85.392594
212.118030
503.596663
836.367011
1015.695930
1015.695930
1015.695930
1015.695930
1015.695930
1015.695930
1015.695930
951.567888
518.374443
287.564993
112.119913
44.116974
12.015700
8.191466
7.732511
7.655621
7.839799
##ZVALUE=390
0.759959
0.619888
0.676513
0.594854
0.662804
0.689626
0.817776
0.594854
0.572801
0.686646
0.779629
0.618696
0.620484
0.710487
0.658631
0.683665
0.677705
0.773668
0.815988
0.839829
0.713468
0.698566
0.693798
0.754595
0.622869
0.667572
0.492930
0.825524
0.768900
0.811815
0.826716
0.660419
0.795722
0.866652
0.859499
0.784993
0.721812
0.793934
0.975728
0.904799
0.725985
0.752807
0.808835
0.865459
0.828505
0.957847
0.982881
1.053810
0.896454
0.983477
1.163483
1.060963
0.993609
1.148582
0.850558
0.923872
1.192689
1.225471
1.072884
1.085997
1.145601
1.148582
1.183748
1.397729
1.585484
1.586676
1.564622
1.844764
1.959801
2.464652
2.610683
2.718568
2.822876
2.938509
3.105998
3.458858
6.034970
39.453506
131.214857
399.224758
731.205940
1015.700698
1015.700698
1015.700698
1015.700698
1015.700698
1015.700698
1015.700698
1015.700698
749.197602
429.888964
164.564848
71.936846
21.079779
9.369850
7.572770
##ZVALUE=395
0.566840
0.668764
0.589490
0.658631
0.659823
0.651479
0.611544
0.659823
0.660419
0.726581
0.754595
0.584722
0.704527
0.634789
0.729561
0.782609
0.634789
0.639558
0.800490
0.629425
0.780821
0.784993
0.736713
0.781417
0.761747
0.546575
0.718832
0.676513
0.729561
0.701547
0.662804
0.822544
0.642538
0.826716
0.824928
0.884533
0.841618
0.782609
0.807643
0.716448
0.621676
0.823736
0.813603
0.810623
0.841618
0.837445
0.861883
0.953674
0.913739
1.039505
1.179576
0.986457
0.862479
1.029968
1.037717
1.068711
1.006722
1.176596
1.293421
1.266599
1.312494
1.312494
1.146793
1.275539
1.333952
1.627803
1.569986
1.832843
2.008677
2.163649
2.411604
2.511740
2.532601
2.530813
2.378821
2.786517
2.881885
3.189445
4.187822
24.200678
88.085532
295.726657
555.145741
985.170007
1015.696526
1015.696526
1015.696526
1015.696526
1015.696526
1015.696526
1015.696526
930.477977
572.924614
256.581903
117.556453
34.947991
##ZVALUE=400
0.794530
0.646710
0.472665
0.606775
0.780821
0.517964
0.618696
0.805855
0.717640
0.644922
0.728965
0.514984
0.604987
0.558496
0.658631
0.614524
0.664592
0.762939
0.687838
0.570416
0.682473
0.633597
0.665784
0.647902
0.728965
0.802875
0.613928
0.600815
0.681877
0.668764
0.730753
0.793934
0.869632
0.750422
0.745654
0.768900
0.776649
0.864863
0.748634
0.708699
0.690818
0.917912
0.765920
0.691414
0.989437
0.839829
1.123548
1.075864
0.904799
0.931621
1.132488
0.936985
0.999570
0.885725
1.264811
1.057982
1.041889
1.003742
1.221895
1.126528
1.195669
1.298785
1.276731
1.245737
1.357794
1.476407
1.500845
1.703501
1.916885
2.118945
2.165437
2.217889
2.367496
2.143979
2.300739
2.330542
2.441406
2.653599
2.645850
3.315806
3.633499
13.045669
50.591826
179.813504
379.896760
812.953711
1015.674472
1015.674472
1015.674472
1015.674472
1015.674472
1015.674472
1015.674472
1015.674472
749.276876
353.706479
##END
