##TITLE=QP00351
##FORMAT=SPECTACLE-ASCII V-1.2
##DATA TYPE=ULTRAVIOLET SPECTRUM
##SECOND TYPE=ULTRAVIOLET SPECTRUM
##DATE=02/08/18
##TIME=15:44:21
##SPECTROMETER/DATA SYSTEM=SPECTACLE
##XUNITS=NM EM
##YUNITS=ENERGY
##YFACTOR=1
##FIRSTX=220
##LASTX=410
##NPOINTS=96
##3DDATA=Equidistant
##ZUNITS=NM EX
##FIRSTZ=210
##LASTZ=400
##ZPOINTS=39
##XYDATA=(Y..Y)
##ZVALUE=210
2.237558
2.196431
1.926422
2.613664
2.557635
2.911687
2.731681
3.167987
2.482533
2.799630
2.385974
2.109408
2.103448
2.347827
2.596974
2.479553
2.405643
2.617836
3.048778
2.173781
2.568960
2.630949
2.868772
3.570914
3.778934
3.413558
3.260970
4.131794
4.176497
3.982782
4.203916
5.104542
4.364848
4.681945
4.672408
4.671812
5.303621
4.952550
5.391836
4.490614
5.229712
4.508495
4.799962
5.882978
6.132722
5.505681
5.374551
4.932880
5.157590
5.865693
5.776882
5.697608
6.356835
6.567836
6.863475
6.197691
5.685687
6.517768
6.362796
6.322861
5.887747
7.108450
6.385446
6.332994
6.086826
7.946491
8.252859
8.547902
8.841753
11.032820
12.537837
15.832782
18.362999
20.071864
23.324490
26.120543
26.340485
26.013851
25.767684
25.835633
22.944808
20.023584
19.991994
16.063452
12.589693
10.320544
9.469986
7.921457
7.494688
7.214546
6.716847
7.480979
7.510781
7.813573
6.917715
7.882714
##ZVALUE=215
7.061958
5.889535
5.134940
5.027652
4.885793
5.018711
5.023479
4.469752
4.996657
4.791617
5.456805
5.184412
3.831983
3.734827
3.372431
3.435612
2.839565
2.785921
2.936721
3.253818
3.699660
3.441572
3.249645
4.606843
3.801584
3.881454
4.673600
4.530549
4.027486
5.094409
5.181432
4.615784
5.605817
5.500913
4.915595
5.502701
5.822778
6.490946
5.195737
5.588531
5.475879
6.084442
6.205440
5.988479
5.656481
6.001592
5.414486
5.862713
6.826520
6.587505
5.926490
6.028414
5.677938
6.468892
6.808639
6.029606
5.985498
6.615520
6.155968
6.308556
7.712841
7.548928
7.306933
5.948544
6.715655
7.426739
8.524656
9.431839
9.801984
10.463595
13.190508
15.933514
18.253922
19.568801
20.361543
20.919442
23.142695
23.284554
22.317767
23.020506
21.787882
18.825531
17.365813
13.737679
12.376904
9.975433
9.256601
7.938743
7.555485
7.394552
5.977750
7.240772
7.127523
6.324649
7.588863
6.341934
##ZVALUE=220
21.253824
23.770928
21.315813
22.287965
20.138621
16.862750
13.481975
11.691451
11.311769
11.005998
12.254715
12.807846
12.690425
10.397434
10.393858
7.615685
5.372763
4.525781
4.085898
3.660917
3.613830
3.911853
3.560781
4.065633
4.496574
3.997684
4.103780
4.539490
4.784465
4.839897
4.975796
5.790591
5.236864
5.225539
5.591512
5.298853
5.157590
5.035996
5.104542
5.949736
5.770922
5.938411
5.812645
5.777478
5.487800
6.302595
5.907416
6.199479
6.074905
7.094741
6.583929
6.903410
6.321669
5.774498
6.656647
6.553531
6.719828
7.011890
6.362796
7.663965
7.287860
5.887747
7.376671
7.149577
7.601976
8.399487
8.700490
8.972883
9.873509
11.645555
12.849569
14.487505
16.317964
18.943548
18.580556
19.918680
19.542575
19.012690
17.624497
16.738772
15.210509
15.183687
13.028979
12.749434
9.715557
9.709597
8.355975
8.281469
7.367730
6.698966
7.541776
6.361604
7.142425
6.304979
6.979704
7.208586
##ZVALUE=225
40.861964
43.651462
60.473680
69.679618
80.938935
81.313848
70.815682
58.774948
41.591525
30.710697
22.998452
23.018718
25.004745
25.540590
26.785731
22.864938
20.545721
16.658902
13.467669
9.392500
6.699562
4.720688
4.404783
4.174709
4.556775
4.357696
4.638433
4.755855
4.947782
4.485846
5.159974
5.588531
5.675554
5.305409
5.523562
5.138516
5.909801
5.455613
5.287528
6.115437
5.545616
6.080866
5.741715
5.478859
6.136894
5.340576
6.921887
6.379485
6.019473
6.383657
5.723834
6.257892
6.438494
6.946921
6.826520
6.268620
6.350875
6.369948
7.166862
6.658435
7.176995
6.825924
7.535815
8.145571
7.668734
7.515550
8.321404
8.192658
9.160638
10.006428
11.732578
13.104677
14.366508
14.400482
14.671683
14.636517
15.069842
15.459657
13.249516
12.803674
12.112856
11.078715
10.099411
9.553432
9.773970
8.949637
8.739829
7.602572
7.552505
7.701516
7.403493
7.860661
7.695556
7.728934
6.590486
6.507635
##ZVALUE=230
32.509565
35.786629
55.216551
89.639425
115.040541
140.543580
158.654451
153.983831
145.221949
114.198923
89.358687
60.562491
49.446821
44.329762
45.439601
47.406554
50.413609
49.647689
41.767955
35.354495
26.672482
20.488501
11.515617
8.387566
5.203485
5.054474
4.743934
4.321933
5.021691
4.287958
4.889965
4.819632
4.774928
5.335808
5.086660
4.848838
5.495548
5.167723
4.845858
5.310774
5.172491
5.779862
5.650520
6.294847
6.034970
5.028844
5.425811
4.903674
5.297661
5.486608
5.445480
5.374551
6.092787
5.702972
6.045699
6.002784
6.514788
6.859899
6.535649
7.001758
6.920695
6.797910
7.553697
7.471442
7.521510
7.581711
8.027554
8.077621
9.902716
10.004640
12.408495
13.087988
12.920499
14.868975
15.445948
15.422702
14.879704
14.837980
13.726950
13.769865
12.873411
13.004541
12.300611
12.074709
11.776686
11.066794
11.405945
10.456443
9.758472
10.996461
10.283589
10.011792
9.822845
10.645986
9.487867
10.610819
##ZVALUE=235
11.865497
13.678670
29.338598
63.313842
102.180839
163.454413
212.943554
266.988873
287.332535
287.735462
254.680514
211.195946
148.636699
114.166737
87.030530
71.669817
72.612762
78.882575
82.651973
85.434914
82.025528
66.652894
53.731799
34.561753
22.697449
14.044642
9.981990
6.424785
5.680919
5.399585
5.687475
5.503893
5.873442
6.356835
5.991459
5.475879
5.718470
5.689859
5.532503
6.267428
5.234480
5.538464
6.037951
5.888939
5.167723
6.002784
5.888939
6.534457
6.276965
7.316470
6.321669
5.908608
6.664991
6.246567
6.621480
5.922914
6.936789
7.878542
6.679893
8.385777
8.017421
9.613633
8.235574
8.858442
9.675622
9.802580
10.116696
11.785626
12.564659
12.727976
14.095902
15.385747
16.443729
16.586781
18.748641
19.015670
18.372536
18.244982
18.780828
18.744469
18.717647
17.129779
16.952753
15.049577
16.509891
15.138984
14.742613
16.494989
13.795495
15.218854
15.364885
13.448000
14.536977
15.496612
14.071465
14.817715
##ZVALUE=240
2.111793
1.758933
5.600452
14.864802
39.537549
72.599649
142.811537
213.154554
321.494937
390.781760
444.020629
444.558859
409.901738
333.747864
257.763863
169.921517
125.140548
96.060634
89.174509
98.677874
106.284618
113.404989
109.292865
94.679594
79.637766
62.971711
44.327974
30.846000
19.609928
12.902617
10.211468
8.069873
7.284880
7.005930
6.615520
6.098747
7.751584
6.166697
7.709861
6.054640
6.208420
6.082654
6.239414
5.683899
5.926490
5.965829
6.281734
6.977916
6.768703
5.849600
6.235838
5.758405
6.262660
6.269813
6.279945
6.907582
7.114410
7.679462
7.970929
8.722544
8.797646
7.940531
9.581447
9.435415
9.515882
12.827516
12.609959
12.219548
13.380647
15.533566
15.870929
16.747713
17.484426
21.906495
20.798445
21.501780
22.092462
19.350648
20.376444
20.156503
21.788478
20.865798
18.502474
20.663738
18.520951
17.940998
18.613935
17.864704
18.765926
18.651485
18.675923
17.128587
18.012524
16.935468
18.690825
17.374754
##ZVALUE=245
1.386404
1.531839
1.755953
1.414418
4.505515
10.056496
35.529733
71.518421
156.708956
246.464610
379.623771
459.797978
529.543757
548.939705
526.811481
435.179472
348.525643
240.388513
170.402527
113.989711
95.233917
94.606876
109.085441
124.239922
128.184557
121.750832
111.747980
92.701912
69.554448
49.104691
38.097501
21.472573
15.834570
9.742975
9.314418
7.593632
7.628798
6.588697
7.388592
6.043911
6.446838
6.167889
5.934834
6.089807
6.244779
5.676746
5.779862
6.450415
5.553961
5.674958
5.836487
6.207824
6.826520
6.110668
5.645752
6.021857
6.429553
6.706715
7.474422
7.728934
7.625818
8.628964
7.843971
8.847713
8.911490
9.440780
9.900928
11.699796
13.081431
13.176799
15.115738
16.007423
17.538667
19.273758
20.135641
19.851923
19.236803
19.983649
21.608472
21.068454
19.731522
19.008517
20.279884
19.621849
21.076798
18.857718
18.469691
17.730594
19.391775
19.364953
18.944740
18.770695
19.706488
18.174648
19.087791
18.566847
##ZVALUE=250
1.652837
1.314878
1.197457
1.309514
1.485944
1.766682
2.162457
7.654428
27.700663
60.459971
143.624544
236.169696
335.947871
477.864742
560.496449
632.391572
622.339845
554.722548
476.068854
327.275991
224.358439
153.965950
102.624893
93.007684
103.869438
118.819475
130.217671
135.747790
134.259462
119.050741
103.658438
75.411797
56.570768
33.046603
22.879839
13.181567
9.449720
7.077456
6.847978
6.542802
5.973577
6.021857
6.120801
5.643964
5.149841
5.723834
5.341768
6.028414
5.189776
5.987883
5.374551
5.525947
5.078912
5.753636
5.697608
5.825758
5.767941
6.147623
6.222725
6.556511
6.677508
7.355809
7.089972
7.962584
8.354783
9.147525
8.916855
9.709597
10.228753
12.081861
13.114810
14.988780
15.274882
17.101765
18.141866
17.964840
18.691421
18.980503
19.030571
18.464923
17.986894
19.154549
18.869638
19.044876
18.069744
18.024445
17.994642
18.263459
18.123984
18.202662
17.521977
18.788576
18.255711
18.739700
18.403530
17.360449
##ZVALUE=255
1.148582
1.299977
1.199841
1.218915
1.491904
1.318455
1.388788
1.635551
1.672506
3.754497
18.958449
43.754578
89.303851
198.720694
303.325653
470.711589
581.363440
684.077740
716.474652
680.782795
582.487583
463.511944
298.125744
193.326473
112.290978
87.515712
85.646510
101.302862
123.367906
136.381984
140.735507
137.347579
127.753615
99.545717
79.574585
52.073002
36.391616
19.849539
13.160706
7.829666
6.406903
4.942417
5.668998
5.206466
4.657507
5.530715
5.216599
5.029440
5.228519
5.039573
5.075932
5.224943
4.612803
4.427433
5.227923
5.394816
5.300641
5.520582
5.304813
5.557537
5.806684
6.389618
5.791783
6.613731
7.782578
7.480979
8.218884
8.709431
9.940863
10.381937
11.432767
11.680722
12.856722
14.450550
14.816523
15.107989
15.918612
15.294552
15.918612
16.860962
16.978979
16.670823
16.627908
16.992688
16.542673
17.132759
16.797781
17.413497
17.005801
16.193986
17.924905
17.312765
17.271638
17.636418
17.398596
17.228723
##ZVALUE=260
1.080632
1.252890
1.011491
1.270771
1.195669
1.391768
1.218915
1.562834
1.500845
1.689792
1.415610
2.618432
6.398559
29.097795
65.770745
158.759952
263.454914
429.148674
561.049581
719.425678
788.687468
798.861980
693.764687
569.449663
377.661586
258.433819
149.272680
97.125769
75.126886
79.102516
97.956657
123.813748
135.880709
149.835944
144.790411
126.381516
108.138919
78.576803
56.660771
33.949614
21.568537
12.047887
7.783771
5.870461
4.628897
4.665852
5.105734
4.820824
4.643798
4.686713
5.181432
5.202889
4.742742
5.075932
4.583597
4.754663
4.596710
4.908442
4.850626
5.608797
5.344748
5.895495
5.834699
6.187558
6.119609
7.020831
7.559657
8.216500
8.338690
9.455681
10.605454
11.536479
11.998415
13.048649
13.143420
13.992786
13.387799
13.630986
13.832450
14.667511
14.593601
14.987588
14.701486
16.050935
15.187860
15.801787
15.502572
16.392469
16.212463
16.385913
15.532970
16.038418
16.872883
15.955567
16.681552
16.738772
##ZVALUE=265
0.976920
0.996590
1.073480
0.926852
1.041889
0.986457
1.000762
1.197457
1.388788
1.297593
1.598597
1.359582
1.417994
1.774430
4.057884
19.500852
48.199892
126.227736
223.620534
413.676500
580.113530
736.476779
884.729028
905.666947
814.861655
706.716776
506.055951
356.945992
198.423862
122.869611
79.862475
66.600442
76.560974
106.611848
126.420856
143.713951
152.064562
141.115785
128.864646
103.057623
78.337789
52.296519
35.347939
20.016432
12.424588
6.973743
5.494952
4.829764
4.951954
5.100965
5.214810
4.792809
4.846454
5.337596
4.803538
4.674792
4.993677
4.847646
4.844666
4.623532
5.268455
5.235672
5.442500
5.595684
6.264448
6.398559
6.895661
6.883740
8.409619
8.635521
8.884668
10.192990
11.142492
11.702776
12.093782
12.313724
12.847781
12.651682
13.260841
13.127923
13.870597
13.476610
13.441443
13.470650
14.282465
14.007688
14.724731
15.169978
14.216900
14.942884
14.156699
15.454888
14.600754
14.745593
15.066862
14.799833
##ZVALUE=270
1.128912
0.979900
0.737906
0.863671
0.809431
1.009703
0.892878
0.882745
1.290441
1.020432
1.211762
1.330972
1.225471
1.433492
1.427531
1.613498
2.289414
8.890629
26.958585
89.639425
175.195932
309.109688
538.193583
721.486807
918.944478
987.928510
960.978866
854.623914
658.473969
481.714010
322.080851
164.464712
94.599724
56.071877
58.149695
78.716874
101.573467
128.286481
140.878558
151.793957
143.621564
126.086473
105.728507
76.966882
56.102872
33.628941
20.853877
11.903644
7.667542
5.109906
5.000830
4.843473
4.742742
5.021691
4.699826
5.194545
5.088449
5.056858
5.267859
5.340576
5.232692
5.583763
5.616546
5.428791
5.624890
5.953908
6.128550
6.468892
6.757975
8.360744
8.796453
8.992553
9.886622
10.740757
11.586547
11.694431
11.578798
11.690855
12.465715
11.970997
11.975765
12.035966
12.121797
12.814999
12.357831
12.516975
12.886524
13.382435
13.468862
14.041662
12.627840
13.808608
13.150573
13.657808
13.518929
13.823509
##ZVALUE=275
0.865459
0.733733
0.871420
0.577569
0.896454
0.858903
0.967979
1.146793
1.037717
1.233816
1.265407
1.122952
1.188517
1.097918
1.196861
1.555681
1.411438
1.482964
1.871586
4.289746
15.977621
46.697855
132.139921
246.827602
462.380648
628.051758
830.509663
947.468877
983.244777
926.685929
810.249448
588.780046
409.436822
210.730433
122.337937
59.760809
45.192838
56.318641
76.411963
103.191733
121.650696
143.446922
148.016810
140.981674
127.641559
100.296736
80.321431
54.027438
38.376451
22.028685
13.664961
7.931590
5.733967
4.581809
4.705787
5.083680
5.222559
5.047917
5.557537
5.151629
5.449653
5.640984
5.619526
5.293489
5.706549
6.571412
7.154942
7.030964
7.269979
7.855892
8.230805
9.234548
10.071993
9.868741
10.677576
10.912418
10.652542
11.107922
10.948777
11.346936
11.531711
11.773705
12.413859
11.881590
11.404753
11.936426
12.746453
12.339950
12.089610
12.410879
12.476444
12.408495
12.591481
12.865663
12.993813
12.538433
##ZVALUE=280
0.844598
0.970960
0.940561
0.912547
1.066923
0.826716
0.860691
1.064539
0.989437
1.117587
0.956655
1.098514
0.943542
1.124740
1.065731
1.205802
1.222491
1.259446
1.480579
1.729727
1.570582
2.360940
10.017753
32.213926
104.147792
191.964507
370.911956
546.126962
774.273872
908.458829
997.292995
974.339843
862.483978
640.691519
472.921729
267.654657
157.312751
72.714686
42.919517
39.244890
51.373839
76.812506
98.218918
125.512481
138.735771
144.957900
139.629841
121.523738
103.181005
76.570511
55.822730
34.515858
23.221970
12.704730
8.833408
5.724430
5.310774
5.128980
5.427599
5.472898
5.121827
5.952716
5.662441
5.672574
6.213784
6.293654
6.707907
6.651878
7.604957
7.935762
8.733869
9.289980
9.475946
10.011792
10.043979
10.791421
10.888577
10.708570
10.392666
11.410713
11.046529
10.693669
11.150837
11.809468
11.102557
11.731982
11.162758
11.621714
11.623502
11.981726
11.612773
11.322498
12.223721
12.015700
11.638999
11.656880
##ZVALUE=285
0.854731
0.795722
0.819564
0.934601
0.929832
0.976920
0.739694
0.804663
0.940561
1.200438
1.004934
1.003742
1.197457
0.910759
0.942945
0.887513
1.028776
0.977516
1.431704
1.248717
1.550913
1.499653
1.593828
1.937747
3.764629
21.014810
53.649545
141.649842
261.098742
422.668457
668.649673
847.758651
1008.711457
1015.695930
962.755680
822.996497
588.784814
403.745770
211.344957
119.801760
62.096715
31.243563
31.764507
50.669909
69.091916
99.105835
116.416812
132.558942
140.428543
137.403607
122.852921
104.969740
77.452660
59.242845
35.605431
24.303794
13.696551
9.206533
6.370544
6.023645
5.975962
5.783439
5.952716
5.975962
6.555915
6.271601
7.031560
7.373691
7.771850
7.831454
8.474588
8.628964
9.580851
9.357929
10.193586
10.299683
10.457635
10.764599
10.510683
10.893941
10.076761
10.685921
10.932684
11.360645
10.908842
11.228919
10.823607
11.044741
11.487603
11.705756
11.313558
11.368990
11.676550
11.461973
11.589527
11.716485
##ZVALUE=290
0.601411
0.788569
0.794530
0.757575
0.700951
0.726581
0.811815
0.866652
1.004934
0.848770
0.877976
0.764728
0.972748
1.089573
0.973940
0.922680
1.103878
0.958443
0.987649
1.199841
1.089573
1.234412
1.367927
1.340508
1.683831
1.824498
2.463460
6.913543
30.613542
76.017976
152.637959
327.630639
506.674647
760.820508
923.917890
1015.695930
1015.594006
881.621838
714.910030
472.317934
312.675834
153.481960
79.226494
33.862591
24.341941
32.775998
45.510530
68.138838
87.379813
113.235712
130.026937
137.614608
134.360790
119.131804
102.157593
75.280666
55.263638
35.955906
24.375916
14.028549
9.951591
6.687641
6.237626
6.073713
6.449819
6.684661
6.547570
6.923676
7.415414
7.498860
8.325577
8.892417
9.266734
9.505749
9.658933
10.113716
10.066628
10.476708
9.981990
10.375977
10.746717
10.706782
10.642409
10.853410
10.894537
10.936856
11.305809
11.140704
11.119843
11.343956
10.841489
10.771751
11.135936
11.070967
11.295676
10.936856
##ZVALUE=295
0.632405
0.699759
0.748634
0.640750
0.815988
0.777841
0.764728
0.834465
0.863671
0.863671
0.858903
0.837445
0.773668
0.930429
0.708699
0.990629
0.942945
0.822544
0.998974
0.930429
0.975728
1.192689
0.902414
1.217723
1.235604
1.329780
1.468658
1.381636
1.691580
3.757477
12.520552
51.019788
114.282966
260.484815
420.657992
664.626956
840.843916
1005.222797
1015.695930
954.665542
818.171501
584.051609
402.537584
211.779475
112.431645
42.558908
22.449493
19.934773
27.058721
44.263601
61.342716
87.412000
106.124878
123.000741
130.614638
126.318932
114.496946
94.373822
76.424479
52.483678
37.766695
23.018718
15.165806
9.829998
7.826686
6.821752
6.803870
7.152557
7.081628
8.071661
8.306503
8.645654
9.325743
9.557605
9.593964
10.174513
9.876490
10.351539
9.934902
10.286570
10.683537
10.417700
10.676980
10.704994
10.595918
10.796785
10.932684
11.185408
11.266470
10.449886
10.995865
11.059642
10.910630
11.023879
11.350513
10.785460
##ZVALUE=300
0.796914
0.583529
0.684857
0.797510
0.733733
0.887513
0.688434
0.654459
0.751615
0.592470
0.581741
0.679493
0.866652
0.901818
0.853539
0.883937
0.861883
0.894666
0.906587
0.876784
0.803471
0.859499
0.994802
1.061559
1.044869
1.086593
1.262426
1.285672
1.375675
1.428723
1.801848
1.935959
6.947517
23.729801
81.237555
161.377788
334.050655
509.279966
746.407509
891.288519
1000.083685
991.438031
853.289962
694.988966
455.550551
301.344991
148.897767
79.632998
29.843450
16.219616
17.065406
24.046898
39.815903
55.054426
79.502463
97.351670
115.842819
122.729540
120.820999
112.867951
94.803572
77.735782
54.003596
38.822889
24.042726
16.801953
10.820627
8.950830
7.478595
7.601976
7.732511
8.531809
8.577704
9.031892
9.753704
9.767413
10.002851
9.937882
10.305643
10.248423
10.564923
10.524988
10.763407
10.856986
10.571480
10.227561
10.704994
10.635853
10.529757
10.732412
10.593534
10.357499
10.576844
10.763407
10.951757
10.547638
##ZVALUE=305
0.709891
0.820756
0.949502
0.849962
0.742674
0.887513
0.883937
0.832677
0.842810
0.832677
0.713468
0.883937
0.904799
0.944734
1.013875
0.904799
0.827909
1.079440
0.882745
0.847578
1.031756
0.889897
1.023412
0.984669
1.029968
1.090765
1.115799
1.268983
1.251698
1.465678
1.551509
1.531839
1.581907
1.685619
3.111959
16.441941
44.136643
125.624537
229.818821
429.191589
606.336594
831.876993
962.348580
1008.066535
950.097442
750.961900
583.806634
363.050699
224.647522
101.367831
49.287677
18.229485
12.232661
15.552640
23.102760
38.330555
53.602457
75.403452
92.269778
110.199451
117.162466
115.110874
106.820464
90.274811
73.290467
51.292777
37.722588
24.129748
16.490817
11.437535
9.406805
8.951426
9.035468
9.251833
9.684563
9.756684
9.747744
10.346770
10.270476
10.223985
10.012984
10.793805
10.579824
10.859966
11.044741
10.888577
11.096597
10.956526
11.053681
10.812879
10.846853
10.870695
10.463595
10.743737
10.508895
10.515451
##ZVALUE=310
0.773668
0.928640
0.540614
0.639558
0.661612
0.793934
0.642538
0.639558
0.628829
0.631809
0.798702
0.830889
0.901818
0.846982
0.783801
0.918508
1.051426
0.853539
0.946522
0.901818
0.925660
0.831485
0.993609
0.963807
1.054406
1.118779
1.096725
0.911951
0.985861
1.120567
1.363754
1.367927
1.193881
1.307726
1.740456
1.825690
1.964569
7.345676
23.263693
78.423619
154.599547
327.138901
496.265888
736.010671
897.322893
1015.779972
1008.945704
884.890556
733.270645
489.304662
320.635438
157.848001
83.218813
30.363798
14.306903
10.820627
13.679862
21.500587
31.416416
50.791502
65.009594
86.100698
99.995732
110.009909
110.462904
102.862716
90.571642
71.511865
54.980516
36.575794
26.611686
18.183589
13.494492
10.891557
10.240674
9.492636
9.540915
9.679794
9.558797
9.945631
10.349751
10.269880
10.617971
10.470748
10.741949
10.944605
10.965466
11.078715
10.870695
10.609627
10.919571
10.607839
10.340810
10.598898
10.502934
10.781884
##ZVALUE=315
0.473857
0.656843
0.441670
0.495911
0.573993
0.619888
0.689626
0.595450
0.706911
0.684857
0.695586
0.752807
0.719428
0.815988
0.640750
0.665784
0.696778
0.724792
0.717640
0.788569
0.761747
0.813603
0.877976
0.739694
0.690818
0.887513
0.806451
0.782609
0.861883
0.899434
0.822544
1.114607
1.040697
1.161695
1.194477
1.216531
1.389980
1.351833
1.616478
3.279448
11.884570
50.699711
112.929940
255.959630
413.011909
664.647818
819.263458
968.834758
1013.003588
947.319865
821.451545
597.600937
421.862602
223.020911
120.985508
44.256449
19.132495
9.666681
9.577870
13.597608
19.171834
30.637980
43.741465
62.825680
78.345537
96.559525
103.724599
105.330944
98.497868
83.443522
70.441961
52.544475
38.262606
24.978518
18.363595
12.947917
10.888577
10.117888
10.181665
9.812713
10.019541
10.044575
10.328889
10.671616
10.777712
10.783672
10.639429
10.765791
10.809898
10.787845
10.546446
10.489821
10.510683
10.351539
10.280609
10.620952
##ZVALUE=320
0.578761
0.627637
0.624657
0.621676
0.686646
0.624657
0.578761
0.792742
0.580549
0.584722
0.631809
0.500679
0.701547
0.589490
0.597835
0.653863
0.787973
0.720620
0.728965
0.702739
0.723600
0.756979
0.660419
0.778437
0.940561
0.806451
0.804663
0.822544
0.854731
0.842810
1.074672
0.851750
1.022816
0.954866
1.130700
1.052618
1.078844
1.147985
1.250505
1.533628
1.605749
1.919866
5.347729
28.407574
72.171688
189.872980
316.446424
529.377460
708.779693
908.223987
989.768505
977.304578
879.924893
667.956471
492.707491
273.697972
156.297684
66.897869
30.543804
11.360645
8.680820
9.215474
11.789799
18.551946
25.477409
41.735768
57.138801
74.942708
89.114904
98.306537
100.683570
94.517469
83.800554
66.046715
51.538944
35.303831
26.074648
17.941594
13.984442
10.944605
10.617971
10.229945
10.222793
10.266900
10.611415
10.281801
10.608435
10.579824
10.205507
10.474920
10.453463
10.602474
10.100603
10.443926
9.988546
10.164976
##ZVALUE=325
0.563860
0.519753
0.472665
0.520945
0.592470
0.506639
0.525713
0.592470
0.459552
0.521541
0.630617
0.528693
0.574589
0.714660
0.736713
0.648499
0.733733
0.664592
0.654459
0.668764
0.713468
0.671744
0.732541
0.698566
0.669956
0.726581
0.656843
0.819564
0.745654
0.699759
0.841618
0.962615
1.016855
1.049638
0.881553
0.894666
1.081824
0.931621
1.198649
1.162887
1.239777
1.309514
1.587868
1.649857
3.144741
17.562509
47.029853
128.389597
232.484937
428.442955
602.440834
810.242891
921.982527
967.504978
900.367498
718.804598
537.993908
321.716666
200.697780
91.841817
43.888688
14.547706
8.687973
8.010864
8.994937
12.207627
17.343760
27.304888
39.381981
57.489872
72.081685
86.411834
94.327927
95.808506
89.074969
76.212883
63.853860
47.273636
34.663677
23.887753
17.673969
13.282895
12.024641
10.789633
10.542870
10.438561
9.896755
10.448694
10.417700
10.358691
10.462999
10.125637
10.144711
9.978414
9.818673
10.191798
##ZVALUE=330
0.678897
0.645518
0.534654
0.668764
0.496507
0.446439
0.449419
0.514984
0.519753
0.542998
0.609756
0.663996
0.691414
0.702739
0.700951
0.688434
0.673532
0.749826
0.653863
0.592470
0.720620
0.615716
0.647902
0.743866
0.619888
0.784993
0.840425
0.664592
0.883937
0.916719
0.852942
0.847578
0.798702
0.917912
0.922680
0.888705
1.051426
0.938773
0.897646
1.083612
1.019835
1.078844
1.183748
1.290441
1.491904
1.598597
1.826882
7.800460
24.360418
81.521869
159.052610
321.812630
477.094650
693.945885
830.050707
925.038457
900.311470
761.827826
609.119534
396.266580
256.372690
119.674802
61.215758
22.315979
11.009574
7.877946
7.803440
8.830428
11.195540
18.462539
25.709867
38.608909
51.414967
69.774985
80.538988
89.301467
89.417696
82.802773
73.466897
58.451891
45.949817
31.944513
24.391413
17.689466
14.401674
11.847615
10.683537
10.208488
9.889603
9.807944
10.102987
9.856820
9.683967
9.700656
10.077953
9.500980
##ZVALUE=335
0.576973
0.557899
0.429749
0.655651
0.629425
0.496507
0.474453
0.715852
0.630617
0.618696
0.504851
0.550747
0.552535
0.650883
0.808835
0.608563
0.619888
0.623465
0.467896
0.470877
0.612736
0.581741
0.674725
0.534654
0.623465
0.817776
0.705719
0.794530
0.646710
0.754595
0.509620
0.788569
0.634789
0.932813
0.712872
0.767708
0.771880
0.930429
0.920892
0.951886
0.874996
1.073480
1.197457
1.055598
0.970960
1.090765
1.250505
1.521707
1.430511
3.658533
12.468696
49.953461
105.171800
234.742761
376.099944
599.497557
751.183629
876.349807
886.021852
791.326761
669.149756
467.689633
320.902467
170.737505
92.070699
33.208728
14.858842
8.276701
7.719994
8.018613
8.664727
11.560917
16.302466
25.706887
35.832524
51.300526
63.757896
77.018738
83.148479
83.947778
79.957843
67.330599
56.520700
44.344664
34.542680
24.377704
18.461943
13.763905
11.513829
10.411739
9.863973
9.512901
9.279847
9.665489
9.344816
9.503961
##ZVALUE=340
0.491738
0.690818
0.448823
0.637770
0.592470
0.422597
0.476837
0.474453
0.805855
0.644922
0.497699
0.587702
0.444651
0.543594
0.542998
0.528693
0.613928
0.481606
0.711679
0.601411
0.551939
0.599623
0.724792
0.611544
0.799894
0.687838
0.645518
0.581741
0.557899
0.729561
0.675917
0.686646
0.660419
0.774860
0.719428
0.679493
0.752807
0.782609
0.810623
0.847578
0.973940
0.940561
0.984669
1.024604
0.877976
1.083612
0.979900
1.248717
1.166463
1.431704
1.447797
2.214909
6.302595
30.981898
74.256659
184.002519
313.605666
511.497855
664.000511
823.357701
874.731541
831.656456
725.890994
539.819002
382.508636
199.499726
110.136867
44.917464
19.131899
8.502603
7.701516
7.618666
7.996559
9.444952
11.424422
17.307997
23.573637
35.258532
47.021508
62.079430
72.095990
78.656673
79.352856
74.581504
67.684650
54.391623
44.186711
32.059550
24.518967
17.623901
14.083982
10.950565
9.987950
9.501576
9.258986
9.159446
##ZVALUE=345
0.719428
0.683665
0.542998
0.515580
0.655651
0.769496
0.688434
0.680685
0.642538
0.557899
0.621676
0.646710
0.631809
0.726581
0.539422
0.615716
0.576973
0.731945
0.606775
0.812411
0.755787
0.718832
0.668764
0.831485
0.592470
0.670552
0.655651
0.657439
0.629425
0.792742
0.746846
0.821948
0.831485
0.786781
0.708699
0.864863
0.771880
1.008511
0.870824
0.851750
0.931621
0.815988
0.917912
0.990629
1.029968
1.013875
0.988841
0.976920
0.905991
1.005530
1.087785
1.608729
1.438856
1.594424
3.377795
17.892718
48.826933
127.601624
226.534009
409.203768
561.483502
743.965507
830.904841
837.475657
771.855712
594.580770
442.193747
258.727670
146.196485
58.565736
27.279854
11.208653
8.379817
7.976890
7.548928
7.862449
8.546710
11.087656
14.523864
23.016930
31.511784
45.502782
55.409670
65.293908
70.529580
73.466897
70.473552
62.431693
54.256916
42.700768
33.183694
23.166537
18.084645
13.464689
10.977983
9.675622
##ZVALUE=350
0.530481
0.530481
0.562668
0.496507
0.525713
0.313520
0.490546
0.566840
0.546575
0.508428
0.610948
0.656843
0.578761
0.554919
0.532866
0.675917
0.568628
0.534654
0.431538
0.493526
0.638962
0.530481
0.601411
0.451803
0.540614
0.415444
0.523925
0.545979
0.530481
0.570416
0.653863
0.718832
0.710487
0.651479
0.642538
0.616908
0.701547
0.598431
0.628829
0.642538
0.667572
0.662804
0.781417
0.764728
0.883937
0.886917
0.875592
0.801682
0.877976
0.920892
0.903606
0.905991
0.965595
0.947714
1.307726
1.316667
1.880527
8.421540
26.877522
84.239841
159.809589
318.468809
462.254882
642.387867
756.705999
832.248926
794.971585
665.572882
512.921810
309.178829
188.898444
87.982416
41.056871
13.243556
7.797480
7.352829
6.999969
7.131696
7.456541
8.215904
10.277629
14.915466
19.745827
28.936863
37.314892
49.360991
57.422519
64.736605
67.285895
64.751506
59.851408
49.621463
41.331649
30.699968
23.216605
16.778708
##ZVALUE=355
0.569820
0.571609
0.726581
0.521541
0.763535
0.700951
0.657439
0.684857
0.633597
0.771880
0.648499
0.502467
0.584722
0.676513
0.536442
0.657439
0.774860
0.619888
0.641942
0.664592
0.668764
0.661612
0.634789
0.568628
0.675917
0.577569
0.689626
0.798702
0.693798
0.833869
0.703931
0.653863
0.710487
0.745654
0.694990
0.785589
0.568628
0.672936
0.708699
0.707507
0.769496
0.651479
0.854731
0.782609
0.802875
0.852942
0.884533
0.740886
0.987649
0.905991
0.823736
1.087785
0.981688
1.011491
1.083612
1.198649
1.348853
1.337528
1.582503
4.220605
14.577508
55.914521
114.415884
239.943862
378.520489
583.392978
707.975626
798.002481
794.577599
682.055950
554.070473
371.941924
237.301588
107.324719
52.940845
17.229915
8.766651
6.907582
7.001758
6.530881
6.783605
7.287860
7.751584
9.679794
12.121797
18.054843
23.738742
33.948421
42.257905
51.651001
57.370663
61.510801
59.966445
53.917766
47.597885
38.264990
##ZVALUE=360
0.440478
0.639558
0.481606
0.426769
0.473857
0.690818
0.500679
0.549555
0.351667
0.659823
0.644922
0.624657
0.486970
0.548959
0.418425
0.585914
0.436902
0.589490
0.593662
0.546575
0.552535
0.336766
0.472665
0.463724
0.574589
0.640750
0.631809
0.637770
0.665784
0.627637
0.652671
0.724792
0.543594
0.526905
0.607967
0.646710
0.636578
0.863671
0.680685
0.623465
0.776649
0.620484
0.692606
0.794530
0.911951
0.774860
0.859499
0.857711
0.944734
0.810623
0.806451
0.771880
0.924468
0.959635
0.888705
1.040697
1.006722
0.971556
1.127720
1.355410
1.373887
2.108812
6.277561
28.566718
69.773793
171.338916
283.323526
456.511974
602.270961
739.457011
772.461891
717.206597
608.628988
425.413847
289.804935
145.283937
77.194571
29.488802
12.511611
6.997585
6.478429
6.595850
6.489754
6.385446
6.424785
7.017851
7.818937
10.699630
13.924837
20.047426
27.473569
36.520958
44.356585
51.972866
54.699779
54.861903
##ZVALUE=365
0.485778
0.598431
0.606775
0.518560
0.478625
0.345707
0.596642
0.301600
0.424981
0.433922
0.584722
0.506639
0.571609
0.518560
0.522733
0.444651
0.474453
0.550747
0.660419
0.481606
0.585914
0.454783
0.479817
0.612736
0.609756
0.568628
0.622869
0.570416
0.554919
0.418425
0.539422
0.517964
0.620484
0.640750
0.652671
0.675917
0.651479
0.717640
0.660419
0.673532
0.767708
0.697970
0.787973
0.661612
0.704527
0.653863
0.828505
0.843406
0.715852
0.774860
0.752807
0.839829
0.843406
0.886917
0.813603
0.936985
1.018643
0.902414
1.042485
1.189709
1.220703
1.281500
1.488924
1.563430
3.735423
12.594461
49.005747
106.911659
245.510936
380.465984
571.204424
679.013729
755.545497
752.129555
649.003983
533.085465
347.631574
218.564868
98.573565
48.004985
15.250444
7.809997
5.904436
5.959868
5.988479
5.837679
5.628467
5.865693
6.269813
6.805658
9.078979
11.738539
17.701983
23.564696
31.941533
38.724542
##ZVALUE=370
0.571609
0.346899
0.584722
0.494719
0.391603
0.444651
0.453591
0.475645
0.420809
0.598431
0.617504
0.536442
0.455976
0.556707
0.466704
0.579953
0.390410
0.470877
0.517964
0.538826
0.692606
0.614524
0.673532
0.556707
0.638962
0.591874
0.520945
0.644922
0.604987
0.411868
0.682473
0.638962
0.628829
0.614524
0.540614
0.502467
0.550747
0.560880
0.672936
0.797510
0.746846
0.600815
0.452995
0.789762
0.584722
0.694990
0.504851
0.621676
0.794530
0.784993
0.647902
0.707507
0.778437
0.835657
0.817776
0.837445
0.930429
0.856519
0.756979
0.800490
0.838637
1.133680
1.064539
1.156926
1.419783
1.322627
1.954436
8.799434
27.655959
85.930824
167.285800
322.636962
468.679667
646.662712
737.236738
749.597549
687.859654
536.354780
400.602818
232.637525
136.204958
55.635571
25.724769
9.118915
5.952716
5.660653
5.324483
5.345941
5.179644
5.407929
5.483627
5.802512
6.370544
8.048415
10.233521
14.557838
##ZVALUE=375
0.582933
0.687838
0.460744
0.552535
0.619888
0.691414
0.553727
0.603795
0.585914
0.467896
0.624657
0.469685
0.635982
0.407696
0.561476
0.626445
0.629425
0.586510
0.511408
0.451803
0.502467
0.268817
0.435710
0.650883
0.644922
0.450611
0.679493
0.513792
0.603795
0.482798
0.569820
0.625849
0.516772
0.675917
0.687838
0.596642
0.583529
0.698566
0.643730
0.649691
0.601411
0.660419
0.500679
0.683665
0.667572
0.664592
0.691414
0.645518
0.688434
0.672936
0.661612
0.790954
0.754595
0.717640
0.615716
0.674725
0.626445
0.662804
0.796914
0.852942
0.794530
0.873804
0.865459
0.958443
1.083612
1.021624
1.316667
1.129508
1.463890
4.492998
15.631914
56.849718
123.838782
272.289515
418.525934
607.174635
731.142759
804.367661
769.829750
621.697903
479.303598
288.139582
181.976557
90.068579
45.965910
16.016960
7.869601
5.343556
5.361438
5.278587
5.176663
4.996657
5.026460
5.161762
5.209446
5.701780
##ZVALUE=380
0.540614
0.609756
0.353456
0.480413
0.434518
0.396967
0.329614
0.266433
0.403523
0.467896
0.535846
0.552535
0.538826
0.404716
0.595450
0.425577
0.531673
0.372529
0.475645
0.480413
0.491738
0.578761
0.553727
0.592470
0.501871
0.492930
0.618696
0.704527
0.462532
0.570416
0.537634
0.512600
0.647902
0.638962
0.563860
0.572801
0.556707
0.522733
0.561476
0.608563
0.521541
0.554919
0.638962
0.588894
0.610948
0.576973
0.626445
0.670552
0.672936
0.547767
0.542998
0.652671
0.646710
0.829697
0.676513
0.690818
0.699759
0.887513
0.837445
0.678897
0.712872
0.844598
0.771880
0.812411
0.959635
0.868440
0.990629
1.065731
1.141429
1.234412
1.483560
2.306700
7.960796
37.862659
87.631941
205.478668
332.741737
523.995757
662.461519
767.645836
773.994923
666.340590
553.205609
386.322737
261.171460
128.650665
67.249537
24.520755
10.585785
5.654693
4.999638
4.664660
4.728436
4.725456
4.519820
4.659891
##ZVALUE=385
0.432730
0.464916
0.309944
0.485778
0.629425
0.494719
0.597835
0.624657
0.638962
0.409484
0.508428
0.411868
0.481606
0.531673
0.610948
0.663996
0.512600
0.581741
0.336766
0.502467
0.362992
0.314713
0.536442
0.506639
0.625849
0.459552
0.412464
0.492930
0.530481
0.582933
0.657439
0.578761
0.675917
0.456572
0.603795
0.512600
0.520945
0.406504
0.485778
0.744462
0.601411
0.540614
0.682473
0.565648
0.652671
0.686646
0.666976
0.688434
0.609756
0.569820
0.610948
0.539422
0.689626
0.688434
0.611544
0.660419
0.773668
0.526905
0.629425
0.735521
0.782609
0.817776
0.719428
0.835657
0.818968
0.715852
0.972748
0.978708
0.992417
1.162887
1.251698
1.537800
1.436472
1.723766
4.105568
23.410916
59.669614
150.634646
268.577933
470.056534
620.525479
764.598846
801.715851
745.129585
647.264719
467.514992
329.334736
179.271698
101.668835
42.387843
17.989874
6.331801
4.907846
4.627705
4.469752
4.203916
##ZVALUE=390
0.508428
0.449419
0.350475
0.299811
0.363588
0.506639
0.469685
0.496507
0.438690
0.454783
0.480413
0.405908
0.451803
0.487566
0.523925
0.541806
0.385642
0.429749
0.444651
0.477433
0.387430
0.552535
0.595450
0.569820
0.553727
0.750422
0.638962
0.427961
0.645518
0.568628
0.386834
0.650883
0.657439
0.495911
0.435710
0.498891
0.572801
0.683665
0.733733
0.473857
0.557899
0.419617
0.471473
0.554919
0.517964
0.540614
0.513792
0.543594
0.641942
0.565648
0.603795
0.587702
0.575781
0.656843
0.520945
0.512600
0.659823
0.525713
0.617504
0.680685
0.619888
0.757575
0.736713
0.627637
0.634789
0.872612
0.713468
0.703931
0.924468
1.045465
1.173615
1.105666
1.241565
1.302958
1.376867
1.586676
2.435446
12.133718
36.462545
111.362934
212.877989
402.782559
552.817583
735.577941
834.056735
850.750804
780.631900
606.618524
456.156731
273.203850
156.147480
63.194633
28.919578
9.174943
5.215406
4.210472
##ZVALUE=395
0.326633
0.331998
0.353456
0.295639
0.166893
0.257492
0.346899
0.236630
0.458956
0.442863
0.519753
0.368953
0.403523
0.349879
0.410676
0.490546
0.390410
0.468493
0.447631
0.489950
0.360608
0.721812
0.499487
0.431538
0.444651
0.449419
0.533462
0.502467
0.414848
0.587702
0.426769
0.330806
0.592470
0.543594
0.410676
0.499487
0.344515
0.393987
0.595450
0.455976
0.656843
0.551939
0.648499
0.626445
0.554919
0.596642
0.503659
0.456572
0.496507
0.576973
0.538826
0.594854
0.634789
0.512600
0.566840
0.587702
0.698566
0.625849
0.614524
0.620484
0.543594
0.799894
0.705719
0.503659
0.739694
0.739694
0.825524
0.718832
0.858903
0.961423
1.119971
1.137853
1.088977
0.950694
1.256466
1.200438
1.073480
1.420975
1.719594
5.484819
29.289722
69.299936
163.806677
276.136398
481.451750
651.536584
847.610831
928.546786
919.895768
815.483928
581.432581
392.298698
199.018717
104.885697
38.135648
17.005801
##ZVALUE=400
0.407696
0.395775
0.505447
0.568628
0.539422
0.352859
0.498891
0.542998
0.471473
0.395775
0.433922
0.468493
0.504851
0.477433
0.506639
0.335574
0.476837
0.504851
0.487566
0.519753
0.485778
0.434518
0.582933
0.432730
0.459552
0.397563
0.508428
0.578761
0.584722
0.500679
0.528693
0.476837
0.460744
0.471473
0.577569
0.505447
0.492930
0.683665
0.522733
0.421405
0.420809
0.622869
0.609756
0.518560
0.520945
0.602603
0.565648
0.556707
0.682473
0.648499
0.747442
0.660419
0.526905
0.819564
0.649691
0.557899
0.539422
0.491738
0.546575
0.682473
0.650883
0.716448
0.727773
0.788569
0.795722
0.703931
0.710487
0.707507
1.036525
0.961423
1.004934
0.985861
1.141429
1.109838
1.207590
0.985861
1.190901
1.165867
1.106858
1.390576
1.443624
3.746748
13.799667
51.873922
107.429624
234.294534
367.487669
570.882559
707.420707
835.109949
866.232514
776.321888
644.347668
436.589718
282.196999
138.195753
##END
