##TITLE=QP00601
##FORMAT=SPECTACLE-ASCII V-1.2
##DATA TYPE=ULTRAVIOLET SPECTRUM
##SECOND TYPE=ULTRAVIOLET SPECTRUM
##DATE=02/08/18
##TIME=16:15:07
##SPECTROMETER/DATA SYSTEM=SPECTACLE
##XUNITS=NM EM
##YUNITS=ENERGY
##YFACTOR=1
##FIRSTX=220
##LASTX=410
##NPOINTS=96
##3DDATA=Equidistant
##ZUNITS=NM EX
##FIRSTZ=210
##LASTZ=400
##ZPOINTS=39
##XYDATA=(Y..Y)
##ZVALUE=210
3.075600
2.692938
2.355576
2.868772
2.691746
3.102422
2.351999
3.247857
3.047585
3.125668
2.832413
3.100634
2.426505
3.049970
3.043413
2.966523
3.005862
3.699660
3.395677
4.036427
3.403425
3.644824
4.405975
4.337430
4.786849
4.974604
4.919767
4.609823
5.361438
5.195737
5.266666
4.924536
6.426573
6.098747
5.837679
6.271601
6.847978
7.415414
5.752444
7.011890
6.653666
7.182956
7.367730
7.177591
6.619692
6.830692
8.884668
7.205606
6.937981
7.094741
7.591844
7.741451
8.670688
8.802414
8.523464
8.922815
8.640885
9.828806
8.605719
9.729862
9.318590
8.883476
9.825826
9.645820
8.990765
9.769797
9.685755
12.108684
14.648438
15.768409
20.043850
23.551583
28.310418
31.036735
30.764937
33.116937
32.923818
30.494928
31.909943
28.303862
26.512742
23.026466
21.338463
19.730926
16.105771
13.667941
12.580752
12.129545
10.057688
10.117888
10.286570
10.106564
10.404587
10.293722
10.461807
11.009574
##ZVALUE=215
9.251833
8.333921
7.498860
6.717443
6.059408
5.120635
5.735755
5.756617
5.431771
6.051660
5.641580
4.691482
4.779696
4.541874
3.991723
3.890991
3.785491
3.651977
4.154444
4.608631
4.362464
4.345775
4.108548
4.788637
5.086660
5.430579
5.435944
6.357431
5.926490
6.361604
5.524755
6.541610
7.066727
7.190704
7.879734
7.408857
6.451607
7.019639
7.450581
7.670522
7.792711
7.828474
7.618666
7.900000
8.326769
7.931590
8.310676
9.697676
9.161830
9.347796
8.986592
9.096861
9.687543
9.887815
9.078979
10.200739
9.663701
9.960532
10.670424
10.235906
10.332465
10.004640
11.206865
9.540915
11.008978
10.825992
11.579990
13.449788
15.307665
17.618537
19.640923
23.938417
26.072860
29.622912
31.697750
33.972859
34.346581
34.909844
32.840967
30.737519
29.999614
26.457906
23.627877
19.655824
17.784834
15.905499
13.516545
14.199615
12.211800
11.516809
11.365414
11.091828
10.959506
11.278987
11.377931
10.448694
##ZVALUE=220
23.485422
26.045442
27.762651
28.718710
26.394725
19.776821
17.983913
14.104843
12.588501
10.702610
12.061596
12.706518
12.114644
11.443496
9.580851
8.534789
5.748868
6.163716
5.838871
4.344583
4.451871
4.844666
5.354881
5.409718
5.477667
6.235838
6.169677
6.341934
6.770492
6.212592
7.083416
7.502437
6.797910
7.452965
7.654428
8.278489
7.807612
8.220673
8.379817
7.807612
9.092689
7.803440
9.224415
8.610487
8.471608
10.177493
8.863807
9.008646
9.877682
9.571910
10.126829
9.805560
9.251833
9.196997
10.252595
10.043979
10.345578
10.472536
9.742975
10.664463
9.902716
10.496974
10.620952
10.720491
10.946989
10.603666
11.555552
12.640953
15.171766
16.770959
19.734502
23.043752
24.926662
28.808713
31.548738
32.991767
32.959580
33.847690
33.036470
31.551719
32.180548
28.179884
24.675727
22.259951
20.581484
17.496943
15.353560
14.041662
12.567639
11.739731
11.731982
11.240840
10.559559
11.200905
10.848641
10.254979
##ZVALUE=225
43.304563
45.541525
59.473515
73.411465
79.473853
77.922940
73.993802
57.794452
46.898723
35.533905
26.422739
22.516847
25.871992
26.591420
25.974512
24.785995
18.935800
17.317533
11.561513
11.039972
8.185506
5.624890
5.532503
6.225705
5.840659
6.585717
5.875826
6.196499
7.093549
6.541610
7.046461
7.234812
6.705523
7.840991
7.148981
7.600784
8.109808
8.487701
8.432865
8.915663
8.860826
9.324551
8.332729
9.410977
8.823872
9.515882
8.566976
10.103583
9.977818
9.657741
9.885430
11.579990
9.568930
10.404587
10.384917
10.532737
10.475516
12.226701
11.565685
11.845827
11.856556
11.744499
11.974573
12.562871
14.120936
13.393760
13.323426
16.519427
16.386509
18.267632
21.627545
23.609996
24.744868
27.721524
30.010939
32.520890
30.304790
31.226873
29.616952
28.821826
28.176904
26.795864
23.740530
21.256804
19.676685
18.273592
17.364621
15.650988
16.587973
15.655756
15.442967
14.697909
16.153455
14.306903
14.590621
13.309717
##ZVALUE=230
37.272573
43.615699
67.663789
116.651654
154.888630
199.328661
219.699740
218.775868
195.395947
171.936750
116.191506
86.666942
59.362650
48.550963
46.829581
50.736666
51.604509
48.690438
46.534538
35.885572
28.676987
18.160939
14.591813
9.879470
7.419586
6.701946
7.595420
8.140802
7.451773
7.059574
8.227825
8.326769
8.148551
8.909702
7.912517
7.553697
8.702874
8.840561
8.748770
10.997653
9.121895
9.493828
9.543896
9.109974
10.739565
9.246469
10.292530
10.559559
10.517836
10.273457
10.332465
10.578632
11.779666
10.204911
12.165904
12.545586
12.861490
11.627674
14.002919
12.215972
13.019443
13.974905
14.468431
14.759898
14.836788
16.934872
15.263557
17.264485
17.386675
19.886494
22.974610
24.839640
29.790998
32.810569
33.818483
35.463572
35.104752
35.091639
33.084750
32.690763
29.260516
27.598739
26.051998
26.156902
23.759604
21.740794
22.057891
20.088553
19.879937
20.848513
19.419789
18.863678
17.754436
18.298626
20.041466
21.032691
##ZVALUE=235
14.070868
15.404820
40.488839
70.955753
134.892464
198.105574
292.166471
359.158516
428.393483
429.052711
379.842520
313.872695
242.890716
162.166953
111.268759
80.802441
75.917840
79.682469
84.118843
86.231828
78.544617
68.634748
54.500699
38.209558
27.063489
17.198920
12.786984
10.787845
8.069873
9.321570
8.320808
8.663535
8.765459
9.503961
8.980632
8.104444
9.609461
8.349419
8.284450
9.366870
9.621978
8.967519
9.910464
9.714961
9.906888
10.171533
9.860992
10.587573
11.467934
11.070967
11.335611
11.368990
10.358691
12.353659
11.122823
13.389587
13.025999
13.451576
13.471842
13.340712
13.793707
13.900995
15.491843
15.516877
16.360879
16.499758
18.554926
20.864606
21.400452
23.695827
24.976730
26.107430
30.126572
30.916929
36.078691
38.042665
36.560893
35.754442
36.121607
34.024715
33.207536
30.629635
30.395985
30.729771
28.455853
28.270483
26.800632
27.224422
26.529431
24.535656
25.985837
25.232434
25.036931
26.705861
24.610758
24.173856
##ZVALUE=240
2.353787
2.648830
7.832646
19.065738
49.502850
93.050599
189.064741
285.566449
420.169830
506.990552
579.754710
575.700998
524.311662
425.032973
323.928595
210.296512
150.540471
108.103752
99.729896
100.380778
115.416646
120.752454
113.812685
102.359653
81.855655
64.803958
48.519969
34.710765
21.228790
15.140772
10.470748
9.695888
8.963943
8.804798
8.970499
8.612871
8.986592
9.050965
9.080768
8.159876
9.185672
9.223819
8.375645
9.395480
8.119941
9.563565
9.771585
8.784533
9.973645
9.968877
9.789467
10.324717
9.938478
10.209680
10.023713
10.312796
12.021661
10.907650
12.130737
12.167692
13.868809
15.215874
14.267564
15.633702
15.319586
16.579628
18.873811
20.029545
23.435950
23.769736
26.748776
28.613806
31.981468
34.271479
34.749508
38.147569
36.816001
36.267638
36.779642
35.510659
35.680532
34.788847
34.266710
34.027696
33.117533
33.564568
32.610893
31.954646
30.547976
29.592514
30.998588
31.236410
31.798482
33.137798
30.203462
30.368567
##ZVALUE=245
2.029538
1.728535
1.731515
2.141595
5.033612
13.380647
44.817924
92.569590
203.282833
312.825441
494.385958
594.027638
690.040588
721.518993
683.601499
567.995906
454.875827
310.851932
216.239691
131.522417
105.831623
101.939440
115.788579
128.580928
134.917498
129.494667
113.577843
100.461841
72.034597
54.837465
39.792657
25.230646
17.483830
11.263490
10.501742
9.073615
8.534789
8.971691
8.938909
9.520650
9.761453
8.854866
8.378625
9.206533
7.606745
9.488463
9.200573
7.525682
8.173585
8.721948
8.446574
9.185672
9.292960
9.285808
8.778572
9.436607
9.016991
10.627508
10.846853
11.219978
11.926889
12.979507
13.342500
13.533831
14.032722
15.881658
15.198588
17.687678
19.963980
23.584962
25.701523
25.009513
28.473735
32.515526
29.943585
31.944513
33.987761
35.396814
33.506751
32.505989
33.124685
30.741692
31.918883
31.309724
31.527877
31.726956
31.306744
32.535791
30.610561
30.293465
30.039549
30.832887
31.905770
31.250715
30.658841
32.117963
##ZVALUE=250
1.602769
1.998544
1.981854
2.197623
2.338886
2.048612
3.250837
9.685755
39.508939
81.165433
190.228820
315.189958
458.233953
648.792982
767.184496
869.783759
854.621530
746.183991
639.781952
433.311462
291.742682
188.949704
119.797587
96.415877
108.007789
122.248530
136.556625
139.634609
137.639642
125.774741
108.946562
82.721710
60.920715
37.790537
25.133491
15.566945
13.636947
9.336472
8.414984
7.892847
7.871985
7.816553
8.341670
8.024573
7.378459
7.749796
8.077621
7.338524
7.741451
7.761717
8.008480
8.700490
8.145571
8.315444
8.474588
8.953810
8.752942
9.695888
9.710789
9.204745
10.349751
10.487437
10.251999
11.389852
13.593435
12.370944
14.989972
15.150905
17.143488
19.278526
20.788908
24.571419
25.962591
24.827719
28.293729
28.635859
28.770566
29.632449
30.086637
30.051470
28.611422
29.378533
28.926730
29.395819
27.418733
30.094981
29.056668
28.533936
28.715730
29.001832
27.616620
29.720664
28.987527
29.301643
29.684901
29.417872
##ZVALUE=255
1.823902
1.597404
1.616478
1.674891
2.068877
1.601577
1.806617
2.102852
2.272725
4.369617
22.214651
61.218739
155.215859
256.985426
444.013476
621.877909
831.146836
949.793458
992.840528
941.763520
812.004805
594.351888
416.957736
235.787630
151.076913
95.424652
92.535615
112.211704
127.229691
141.413808
149.802566
143.340826
128.258467
105.525851
83.642602
56.428909
39.300919
22.695661
14.694929
9.709597
8.595586
7.708669
7.252693
7.374883
7.536411
8.037686
7.674694
7.343888
7.399917
7.961988
7.254481
7.357597
7.077456
7.557869
7.823706
7.965565
8.220673
7.867813
8.360744
8.044839
8.855462
10.625720
9.837747
10.852814
11.900663
11.776686
13.167858
13.918877
14.687777
16.895533
17.776489
18.722415
21.240711
23.836493
23.962855
24.841428
26.746988
25.173426
25.309920
26.500821
26.011467
25.467873
26.591420
26.721954
26.708841
26.181936
27.043819
26.699901
25.938749
26.946664
28.059483
27.026534
26.952624
27.983785
26.445985
27.474761
##ZVALUE=260
1.619458
1.510978
1.347661
1.521707
1.744628
1.608729
1.502633
1.875758
1.793504
2.010465
2.098680
3.123879
9.753704
39.864779
91.465712
212.247968
346.374512
572.513938
753.335953
969.507694
1015.766859
1015.766859
941.460729
760.358572
499.771833
337.164998
192.315578
120.279789
83.428621
87.173581
102.928877
128.254890
145.631433
153.241754
146.560669
128.625631
110.569000
80.925822
60.007572
36.675930
24.698973
13.450980
9.271502
8.249879
7.618666
7.145405
7.437468
6.850958
7.622838
7.253885
7.201433
7.347465
7.411838
7.385612
7.486939
7.539988
7.509589
7.776618
8.362532
8.545518
8.491874
8.906722
8.921623
9.927750
11.268854
10.883808
10.511875
11.590719
14.167428
15.222430
17.615557
18.608570
18.887520
21.160841
21.913648
21.997690
23.018718
22.756457
22.430420
22.750497
23.844838
23.175478
22.281408
23.328662
24.878979
23.818612
23.996830
24.903417
24.448633
25.317669
25.830865
26.074648
25.864840
26.328564
25.165677
26.538968
##ZVALUE=265
1.090765
1.397729
1.452565
1.484752
1.351833
1.355410
1.615882
1.607537
1.771450
1.555681
1.756549
1.924634
1.875758
2.325773
6.927848
22.161603
79.696774
153.921843
326.764584
515.241623
726.682544
992.655754
1015.695930
1015.695930
1015.695930
900.255442
698.133707
446.838737
293.561816
153.723955
94.520450
73.325634
83.654523
113.259554
131.000876
152.231455
156.821609
150.849819
135.794878
107.301474
85.029602
56.285858
38.978457
22.402406
13.965964
9.373426
7.597804
7.286668
7.167459
6.547570
6.962419
7.257462
7.118583
7.618666
7.167459
7.582903
7.846951
7.710457
7.862449
7.676482
8.156896
8.753538
8.748770
9.325743
9.875894
9.804964
11.109710
12.124777
12.440681
13.856888
14.507771
16.367435
17.917752
19.507408
19.366741
19.638538
20.529628
21.960735
21.402836
20.919442
21.005869
21.507740
22.022724
22.271872
21.830797
22.209883
23.383498
22.505522
22.308826
23.684502
23.284554
23.786426
24.140477
24.988651
25.453568
24.249554
##ZVALUE=270
1.267791
1.300573
1.343489
1.141429
1.360774
1.151562
1.240969
1.521707
1.697540
1.604557
1.614690
1.669526
1.630783
1.873970
1.999736
2.082586
2.691746
12.617707
37.437677
120.251775
241.397023
417.025685
714.983940
946.154594
1015.695930
1015.695930
1015.695930
1015.695930
864.742398
644.735694
442.406535
228.560567
130.734444
69.318414
63.318610
87.181926
108.126998
136.780739
151.563883
157.325864
154.421926
133.128762
113.449693
82.587600
60.097575
36.577582
24.433732
14.901757
10.730624
8.074641
7.394552
7.205606
7.156730
7.924438
7.179976
7.785559
7.608533
7.711649
8.460879
8.163452
8.415580
9.164810
9.178519
9.158850
9.868741
10.168552
10.919571
11.090636
11.520982
13.415813
14.840961
16.266704
17.211437
18.246770
18.434525
18.857718
20.176768
19.590855
20.086765
19.943714
20.482540
19.538999
20.469427
19.877553
20.974874
20.339489
21.657944
21.791458
22.034645
21.057725
22.287965
22.376776
22.367835
22.912621
22.999644
22.894740
##ZVALUE=275
1.141429
1.224875
1.211762
1.230836
1.306534
1.359582
1.225471
1.073480
1.378655
1.595616
1.339912
1.399517
1.536608
1.706481
1.796484
1.744628
2.003908
2.239943
2.323985
5.947948
24.365783
69.244504
199.499726
372.931957
679.383874
910.110474
1015.695930
1015.695930
1015.695930
1015.695930
1015.695930
801.190734
553.636551
291.792750
168.247819
77.678561
54.395795
60.565472
81.290603
109.255910
131.243467
150.133967
155.066848
149.759650
135.142803
106.338859
85.408688
58.329701
42.212605
25.063753
16.722679
10.766983
8.558631
7.388592
7.655621
8.250475
8.013844
8.000731
7.989407
8.654594
8.792877
8.992553
9.786487
9.509921
10.040998
11.087656
11.132956
11.580586
12.652874
14.472604
14.738441
15.896559
16.319752
17.447472
18.116832
18.025637
20.019412
19.660592
19.554496
19.762516
19.665956
20.036697
19.594431
20.061731
20.173788
19.394755
20.356774
21.484494
21.037459
20.717978
21.386743
21.872520
21.809936
21.079779
22.176504
21.368861
##ZVALUE=280
1.147985
1.292825
1.029968
1.052618
1.088977
1.209974
1.221895
1.032948
1.165867
1.283884
1.382828
1.258850
1.374483
1.506805
1.448989
1.542568
1.749992
1.735687
1.669526
2.141595
2.249479
2.737641
14.313459
49.366951
161.163807
297.935605
555.744767
800.467730
1015.694737
1015.694737
1015.694737
1015.694737
1015.694737
936.458707
687.613487
395.261645
232.008696
102.429986
56.212544
45.368671
57.839751
84.309578
107.116699
133.545995
145.361423
151.906610
149.430633
129.956603
111.605525
80.039501
60.761571
38.539767
26.480556
15.235543
11.529922
9.288788
8.609891
8.593798
8.270741
9.107590
8.725524
9.532571
9.860992
10.408759
9.947419
10.994673
11.583567
11.782646
12.707710
13.837814
14.325976
15.610456
16.451478
17.301440
17.912984
18.819571
18.519759
18.660426
19.518733
19.234419
18.498898
19.900799
19.491911
19.103885
20.181537
20.318627
20.662546
19.836426
19.999743
20.145774
19.810796
20.385981
20.759702
20.307899
20.954609
21.589994
##ZVALUE=285
1.029968
1.147985
1.157522
1.181960
1.053810
1.125932
0.980496
1.069903
0.967979
1.322627
1.170635
1.455545
1.168847
1.259446
1.404881
1.282692
1.440644
1.525879
1.639724
1.673698
1.879930
2.040863
2.220869
2.378821
7.491708
26.294589
87.616444
187.395811
413.697958
642.893910
913.632512
1015.695930
1015.695930
1015.695930
1015.695930
1015.695930
910.052657
564.805865
352.680683
164.663792
83.109736
37.962794
37.007928
56.861639
76.588988
104.813576
124.235749
141.390562
148.098469
143.094659
130.752921
108.244419
88.243484
60.770512
42.126775
25.066733
17.732978
11.918545
9.459853
9.590983
9.219646
9.541512
9.757876
10.369420
10.546446
10.973811
12.052655
12.690425
13.278723
13.777614
15.027523
15.834570
16.672611
17.071962
17.767549
18.567443
18.527508
19.310713
19.086599
19.359589
18.827915
19.585490
19.688606
19.683838
19.693971
20.166636
20.105839
20.379424
20.172596
20.175576
20.514727
19.754767
20.040870
20.352602
19.618869
20.331740
##ZVALUE=290
0.875592
0.976920
0.919700
0.865459
0.962615
0.938773
1.080632
1.125932
1.092553
1.210570
1.137853
1.185536
1.227856
1.220703
1.216531
1.369715
1.276731
1.214743
1.354814
1.404881
1.567602
1.663566
1.811981
2.051592
2.107620
2.338886
2.954006
14.132857
45.460463
140.052438
266.855955
553.814769
827.932954
1015.695930
1015.695930
1015.695930
1015.695930
1015.695930
1009.857655
689.761043
454.654694
224.304795
118.155479
46.032667
29.014945
35.511851
50.328970
73.748827
94.280839
118.607879
133.275986
145.356655
140.937567
128.602982
110.344887
81.145763
60.356855
39.701462
28.021932
18.313527
13.110638
11.015534
10.657907
10.230541
10.674596
11.688471
11.643767
12.454987
13.718605
14.217496
14.536977
16.215444
16.225576
17.574430
18.202662
18.307567
18.132925
18.779635
18.764734
19.366741
19.619465
19.425750
19.321442
20.066500
20.001531
20.203590
20.317435
19.953847
21.289587
20.838976
20.667911
19.909739
19.350648
20.911694
20.334721
19.949675
##ZVALUE=295
0.938773
0.970960
1.101494
1.154542
1.130700
0.988841
0.992417
1.171827
0.948906
1.107454
1.042485
1.202822
1.106858
1.123548
1.246929
1.176000
1.243949
1.418591
1.295805
1.446605
1.535416
1.716614
1.610518
1.715422
1.862645
1.933575
2.104640
2.189875
2.786517
4.948974
26.861429
75.829625
176.126957
421.922803
680.365562
1015.695930
1015.695930
1015.695930
1015.695930
1015.695930
1015.695930
867.659450
594.541430
315.539837
177.089572
68.661571
32.726526
23.368597
30.206442
47.551990
66.074729
92.939734
111.826658
129.904747
136.669874
133.938789
123.808980
101.002455
82.236528
58.064461
42.859912
26.725531
20.018816
14.290810
12.891889
11.596680
11.823773
13.009906
13.113618
14.319420
14.973879
16.572475
17.248988
17.772913
18.020868
18.515587
18.982887
18.585920
18.617511
19.665956
19.380450
20.269752
20.308495
20.278692
20.464659
20.938516
20.770431
20.877719
21.119714
21.051764
20.443797
20.826459
21.023750
20.134449
19.755960
20.310879
##ZVALUE=300
1.047850
0.955462
0.939965
0.901818
0.998974
0.929832
0.785589
1.211762
1.021624
0.976920
0.992417
0.989437
1.015663
1.058578
1.042485
1.097918
1.058578
1.172423
1.353621
1.323819
1.456738
1.386404
1.481771
1.454949
1.675487
1.655817
1.817942
1.942515
2.158880
2.367496
2.481937
3.174543
7.982850
47.355890
122.462511
321.260691
555.105805
964.003801
1015.696526
1015.696526
1015.696526
1015.696526
1015.696526
989.596844
732.659698
402.195454
235.858560
104.067922
49.286485
21.010637
18.929839
29.014945
40.510893
62.281489
82.577467
104.705691
120.992661
128.570795
129.345655
117.785931
102.983713
78.448653
61.475635
42.747855
31.377673
20.964742
16.703606
14.391541
14.115572
14.714599
15.460849
16.045570
17.173886
17.520785
18.069744
18.625855
18.916726
19.682646
19.818544
19.949675
20.750761
20.471811
20.693541
20.864606
21.274686
20.994544
20.707846
21.735430
21.945834
20.810962
20.857453
20.957589
20.036697
20.567775
20.787716
20.522475
##ZVALUE=305
0.798702
0.895858
0.901818
0.915527
0.865459
1.011491
0.833869
0.895858
0.908971
1.001954
1.085997
1.004934
1.156926
1.017451
0.920892
1.037717
1.023412
0.923872
0.979900
1.112819
1.183748
1.248717
1.419783
1.351833
1.508594
1.350641
1.414418
1.630783
1.634955
1.806617
1.845956
2.075434
2.327561
2.422929
4.895926
28.345585
82.061887
237.442851
437.325835
817.276835
1015.695930
1015.695930
1015.695930
1015.695930
1015.695930
1015.695930
926.945806
560.096502
340.921879
148.490667
72.091818
24.742484
15.793443
19.111633
26.525855
42.781830
58.940649
81.599951
98.805428
119.103789
125.615597
124.855638
115.835667
98.074675
81.714988
59.239864
44.871569
30.009747
22.867918
19.323826
17.254949
16.969442
17.520785
18.444657
18.215775
18.892884
19.971728
19.938946
20.192862
20.625591
20.379424
21.305680
21.320581
21.533966
22.081733
22.673607
21.845698
22.068620
21.791458
21.709800
21.526814
21.389723
21.584630
20.877719
20.868778
20.760894
##ZVALUE=310
0.863671
0.789762
0.938773
0.970960
0.903606
0.650883
0.974536
0.825524
0.776649
0.944734
0.796914
0.873804
0.956655
1.050830
0.950694
1.066923
1.174808
1.062751
0.954866
1.154542
1.286864
1.116991
1.090765
1.194477
1.341701
1.305938
1.453757
1.483560
1.596808
1.609921
1.595616
1.724958
2.024770
2.020597
2.233982
2.498627
3.084540
12.695789
44.436455
158.896446
322.089791
679.733753
991.533995
1015.695930
1015.695930
1015.695930
1015.695930
1015.695930
1015.695930
852.813721
547.034740
264.229774
136.973858
47.590733
19.835830
13.625622
16.753674
24.905801
35.608411
54.456592
70.731640
93.382001
107.972622
117.341876
121.128559
111.730695
99.241734
78.958869
62.558651
44.032931
35.039783
26.448965
22.728443
20.160675
19.339919
19.617677
19.501448
19.941926
20.103455
21.124482
21.046996
21.683574
22.056699
22.029877
23.005605
22.557974
22.456646
22.445917
22.538900
21.920800
22.330880
21.704435
21.455884
21.909475
21.382570
20.979643
##ZVALUE=315
0.854731
0.812411
0.818968
0.817776
1.072884
1.062751
0.968575
0.842810
0.911951
0.879765
0.967979
1.048446
0.960827
1.006722
0.946522
0.945926
1.182556
0.986457
0.954866
1.101494
1.228452
1.235604
1.068711
1.257658
1.125932
1.185536
1.320839
1.273751
1.353621
1.469851
1.570582
1.768470
1.629591
1.864433
1.907945
1.996756
2.033710
2.273917
2.649426
6.011724
22.106767
99.926591
229.552984
543.932915
889.179707
1015.693545
1015.693545
1015.693545
1015.693545
1015.693545
1015.693545
1015.693545
792.934895
425.795913
231.562853
86.076856
34.772754
13.805628
13.178587
17.296672
22.964478
36.356449
49.279928
69.721937
85.654855
105.249882
112.923980
114.996433
108.750463
93.122721
79.075694
62.173605
49.201846
34.762621
28.162599
22.998452
21.748543
20.473599
20.658970
20.938516
21.660924
22.136569
22.205710
22.182465
22.885799
22.436976
22.975802
22.570491
23.082495
23.042560
22.371411
22.895932
22.657514
22.497773
22.642612
21.675825
##ZVALUE=320
0.749826
0.836849
0.890493
0.730753
0.899434
0.804663
0.810623
0.823736
0.814795
0.929832
0.815988
0.792742
0.791550
0.975728
0.846982
1.022816
0.888705
1.132488
0.954866
0.867844
0.990629
1.077652
1.001954
1.079440
1.098514
1.231432
1.142621
1.247525
1.261830
1.362562
1.471639
1.375675
1.454949
1.683831
1.540780
1.717806
1.874566
1.897812
2.159476
2.328753
2.622604
3.346801
9.763837
52.616596
137.231946
376.071930
646.422505
1015.695930
1015.695930
1015.695930
1015.695930
1015.695930
1015.695930
1015.695930
942.188501
513.809919
291.086435
122.600794
55.442452
17.110705
12.208819
13.425946
16.024709
23.338795
31.977892
49.404502
64.597726
83.529949
97.838640
110.372901
110.765696
105.129480
95.283985
76.861978
62.976480
45.978427
36.796927
28.516650
24.558902
22.303462
21.433830
22.123456
22.055507
22.890568
22.797585
22.866726
23.274422
23.080707
22.927523
23.480654
23.171902
22.892952
22.353530
22.136569
22.589564
21.756887
##ZVALUE=325
0.690818
0.927448
0.624657
0.876784
0.764728
0.776649
0.814795
0.859499
0.818968
0.869632
0.813603
0.775456
0.782609
0.821948
0.767708
0.853539
1.006722
0.731945
0.810623
0.855923
0.956655
1.069903
1.030564
0.969768
0.814795
1.071692
0.974536
1.150966
1.022816
1.164675
1.187921
1.146793
1.170635
1.254678
1.498461
1.497865
1.391768
1.481771
1.725554
1.814961
1.798868
2.256632
2.346635
2.607703
5.811453
36.785603
97.552538
255.084038
461.513996
869.227648
1015.638709
1015.638709
1015.638709
1015.638709
1015.638709
1015.638709
1009.891629
638.542771
382.659435
165.349841
77.908635
24.363995
12.966990
11.917949
13.098717
16.136765
21.917820
34.333467
45.998693
64.417720
79.988837
95.991492
104.526877
107.493997
102.188587
87.598562
74.788928
58.234930
47.157407
35.214424
28.997660
24.956465
23.835897
22.547841
22.492409
22.664666
22.305846
22.653937
22.189617
22.955537
22.693872
22.415519
22.522807
21.778941
22.240877
22.067428
##ZVALUE=330
0.821948
0.972748
0.824928
0.934601
1.054406
0.794530
0.814795
0.677705
0.791550
0.716448
0.839829
0.837445
0.915527
0.830889
1.001954
1.032948
1.040697
0.765920
0.788569
1.068711
0.997782
0.909567
0.905991
0.918508
1.000762
0.959635
1.021624
1.040697
0.958443
1.034737
1.134872
1.205802
1.279712
1.351833
1.366735
1.254678
1.530647
1.363754
1.572967
1.673698
1.653433
1.774430
2.113581
2.158880
2.442598
2.725720
3.770590
16.975403
57.208538
192.539692
373.540521
752.254725
1015.695930
1015.695930
1015.695930
1015.695930
1015.695930
1015.695930
1015.695930
864.533782
561.226606
262.932777
134.140849
46.000481
19.796491
12.432933
12.312531
13.958812
16.980767
24.084449
32.541752
47.338605
60.770512
80.377460
91.587901
101.899505
102.188587
95.834732
86.984634
71.866512
58.481693
44.284463
36.024451
29.286742
25.912523
24.428964
23.195744
22.341609
22.797585
22.287965
22.167563
22.164583
22.359490
22.187829
21.696687
21.883845
##ZVALUE=335
0.718832
0.783801
0.803471
0.718832
0.673532
0.640750
0.755787
0.689626
0.923872
0.800490
0.911951
0.977516
0.800490
0.958443
0.917912
0.784993
0.845790
0.920892
0.931621
0.792742
0.853539
0.852942
0.751615
0.895858
1.043677
1.032948
1.011491
1.047850
0.945926
0.979900
1.022816
1.087785
1.124740
1.154542
1.210570
1.308918
1.286864
1.376867
1.480579
1.455545
1.289845
1.505613
1.682639
1.797676
1.918674
2.035499
2.104640
2.458692
2.736449
7.253885
25.814772
110.197663
240.289569
559.669733
915.256739
1015.695930
1015.695930
1015.695930
1015.695930
1015.695930
1015.695930
983.102918
677.178502
344.000459
175.999999
57.560802
23.879409
13.021827
12.169480
13.474822
14.418960
18.255711
23.233891
33.642650
44.874549
61.616898
73.736906
87.924600
94.258785
96.014738
91.007948
78.954697
69.485903
55.671930
46.376586
35.929680
30.534863
25.800467
23.970604
22.628903
21.945834
22.180676
21.506548
21.491647
20.964742
21.125674
##ZVALUE=340
0.827909
0.815988
0.893474
0.842810
0.842810
0.701547
0.778437
0.836849
0.878572
0.736713
0.764728
0.937581
0.946522
0.938773
0.891685
0.885725
0.893474
0.980496
0.869632
0.915527
0.795722
0.911951
0.941753
0.968575
0.858903
0.966787
0.888705
1.030564
1.098514
1.088977
0.835657
1.108646
1.032948
1.051426
0.983477
1.276731
1.075864
1.095533
1.276731
1.203418
1.200438
1.343489
1.300573
1.448989
1.666546
1.756549
1.677871
1.901984
2.202988
2.448559
2.556443
4.149675
13.424754
67.582726
174.312592
446.967483
768.948793
1015.695930
1015.695930
1015.695930
1015.695930
1015.695930
1015.695930
1015.695930
776.567459
391.624570
209.943652
82.348585
33.149719
14.036894
12.802482
13.146996
13.453960
15.442967
18.031597
24.078488
32.181740
44.099689
56.455731
72.959661
82.695484
90.084672
91.303587
85.670948
79.149604
66.988468
56.648850
43.959618
35.784841
28.315783
24.943948
22.376776
21.379590
20.683408
20.655990
20.468831
##ZVALUE=345
0.771880
0.809431
0.754595
0.658631
0.627637
0.727773
0.753999
0.743866
0.690818
0.804663
0.782609
0.684857
0.901818
0.668764
0.833869
0.694990
0.720620
0.681877
0.756979
0.812411
0.984669
0.838637
0.820756
0.774860
0.928640
0.933409
0.872612
0.765920
1.034737
0.943542
0.941753
0.942945
0.939965
0.877976
0.909567
0.947714
1.088977
1.173615
1.139641
1.166463
1.190901
1.258850
1.275539
1.275539
1.276731
1.422763
1.549721
1.707673
1.996756
2.009869
1.873970
2.146959
2.431870
2.852678
6.140471
38.483739
107.071400
285.633802
509.134531
928.303599
1015.690565
1015.690565
1015.690565
1015.690565
1015.690565
1015.690565
967.078805
556.802750
302.557945
110.984445
49.011707
18.262863
13.613701
13.059974
13.233423
13.859868
15.156865
17.655492
21.751523
30.538440
41.117668
54.744482
64.713955
76.024532
81.914663
85.253716
82.633495
73.696971
66.369772
53.621531
43.716431
34.105778
28.361678
23.337603
21.250844
19.778609
##ZVALUE=350
0.794530
0.707507
0.766516
0.585914
0.730753
0.799894
0.726581
0.855923
0.715852
0.703931
0.714660
0.738502
0.773668
0.698566
0.875592
0.714660
0.743866
0.890493
0.739694
0.779629
0.669956
0.831485
0.786781
0.953674
0.863671
0.790954
0.932813
0.782609
0.836849
0.729561
0.716448
0.849962
0.956655
1.004934
0.986457
1.020432
0.965595
0.933409
1.069903
1.161695
1.057982
1.030564
1.106858
1.091957
1.205802
1.387596
1.216531
1.434684
1.469851
1.440644
1.564622
1.677871
1.847744
1.885891
2.123713
2.457500
3.548861
19.233823
62.165856
197.831392
373.295546
722.189546
1000.531912
1015.682817
1015.682817
1015.682817
1015.682817
1015.682817
991.773009
597.866774
359.508991
161.924958
72.164536
22.123456
13.072491
12.133718
12.109876
12.286901
12.964606
14.206767
16.527772
21.241903
27.710795
38.017631
46.506524
59.412718
67.927837
76.289773
78.064799
76.221824
70.091486
59.476495
50.824881
40.812492
33.766627
26.782751
##ZVALUE=355
0.788569
0.664592
0.689626
0.629425
0.719428
0.708699
0.679493
0.738502
0.877976
0.779629
0.743866
0.693798
0.863671
0.729561
0.699759
0.879765
0.754595
0.812411
0.807643
0.884533
0.969768
0.900626
1.023412
0.902414
1.003742
0.942945
0.972748
0.884533
0.990629
0.862479
1.081824
0.872612
0.968575
0.877976
0.910759
1.084805
1.186728
1.073480
1.080632
1.105666
1.158714
1.070499
1.096725
1.213551
1.311898
1.338720
1.390576
1.262426
1.387596
1.483560
1.691580
1.494884
1.501441
1.816750
1.725554
1.924634
2.275705
2.611876
2.828836
9.537935
35.581589
143.033862
295.435786
615.608692
956.869721
1015.695930
1015.695930
1015.695930
1015.695930
1015.695930
1015.695930
859.901905
533.699393
227.680802
106.025934
31.920671
15.283823
11.654496
12.073517
11.958480
12.122989
12.795925
14.049411
16.548634
19.649863
25.090575
32.219887
41.833520
50.639510
61.350465
67.411661
70.514679
69.943666
65.057874
57.857633
48.069954
##ZVALUE=360
1.046658
0.960827
1.134872
0.946522
0.910759
0.864863
1.024604
0.896454
1.009703
1.034737
1.088977
1.047850
0.992417
1.124740
0.992417
1.019835
0.987649
1.012683
1.088977
1.111627
1.088977
1.195669
1.059771
1.038909
1.169443
1.107454
1.147985
1.341701
1.020432
1.048446
1.173615
1.090765
1.111627
1.069903
1.218915
1.219511
1.212955
1.325607
1.316667
1.432896
1.316667
1.207590
1.481771
1.307726
1.366735
1.429915
1.311898
1.335740
1.532435
1.504421
1.674891
1.619458
1.812577
1.787543
1.792908
1.990795
2.023578
2.322793
2.356768
2.673864
2.999902
4.714727
15.495420
68.517923
161.162615
395.643711
654.373765
1013.980508
1015.910506
1015.910506
1015.910506
1015.910506
1015.910506
948.057771
607.494712
289.572477
146.756768
52.681565
21.428466
11.546612
11.149645
11.079907
11.337996
11.633635
12.043715
12.837648
13.868809
17.173886
20.620823
27.371645
34.649968
45.315623
52.867532
59.895515
64.175725
64.524412
##ZVALUE=365
0.749826
0.703931
0.855923
0.752807
0.687838
0.756979
0.751615
0.841618
0.708699
0.718832
0.877976
0.920892
0.782609
0.650883
0.691414
0.815988
0.735521
0.818968
0.897646
0.751615
0.860691
0.923872
0.910759
0.928640
0.820756
0.831485
0.867844
0.876784
0.793934
0.962615
1.104474
0.876784
0.950694
0.994802
1.083612
0.913739
0.949502
0.907779
1.095533
1.073480
1.065731
0.865459
1.061559
1.141429
1.206994
1.254678
1.264811
1.392961
1.261830
1.270771
1.312494
1.213551
1.340508
1.497865
1.486540
1.654625
1.703501
1.746416
1.818538
2.129674
2.284646
2.459884
2.679825
3.342628
6.787777
41.633844
118.141770
325.726867
578.852892
972.201824
1015.695930
1015.695930
1015.695930
1015.695930
1015.695930
1012.545824
740.180612
404.369831
219.581723
80.160499
32.775998
12.050867
10.396838
10.206699
10.391474
10.062456
10.399818
10.722876
11.028647
11.996627
14.143586
18.635988
22.777915
30.275583
37.348866
46.892762
##ZVALUE=370
0.802875
0.752807
0.666976
0.572801
0.673532
0.722408
0.674725
0.702739
0.897646
0.849962
0.846982
0.706911
0.720620
0.830889
0.611544
0.710487
0.703931
0.707507
0.770688
0.845790
0.762939
0.871420
0.874996
1.075864
0.828505
0.918508
0.827909
0.839829
0.882745
0.864863
0.855923
0.831485
0.819564
0.924468
0.914931
0.828505
0.909567
0.950694
0.985861
1.036525
1.071692
1.061559
1.088977
0.951886
0.972748
0.939965
1.294613
1.117587
1.012683
1.166463
1.070499
1.195669
1.228452
1.177788
1.414418
1.398921
1.355410
1.551509
1.601577
1.737475
1.783967
1.773834
2.013445
2.202988
2.326965
2.862811
4.053712
21.994710
75.982809
244.029760
448.081493
826.689601
1015.696526
1015.696526
1015.696526
1015.696526
1015.696526
1015.696526
869.361758
468.657017
259.918571
98.916888
44.519901
16.566515
10.104775
9.290576
9.254813
9.044409
9.060502
9.477735
9.459853
10.206699
11.036992
12.792945
15.517473
20.778775
##ZVALUE=375
0.763535
0.718832
0.633597
0.701547
0.730753
0.785589
0.832677
0.780821
0.794530
0.989437
0.824928
0.927448
0.945926
0.766516
0.917912
0.802875
0.788569
0.758767
0.834465
0.790954
0.660419
0.756979
0.960827
0.865459
0.926852
0.918508
0.868440
0.919700
0.911951
0.756979
0.882745
0.762939
0.941753
0.705719
0.731945
0.879765
0.901818
0.822544
0.954866
1.028776
0.919700
0.988841
0.928640
1.192689
1.133680
1.220703
0.976920
1.013875
0.955462
1.190901
1.107454
1.094937
1.253486
1.181960
1.418591
1.266599
1.261830
1.404881
1.335740
1.470447
1.533628
1.606941
1.697540
1.767874
1.802444
2.019405
2.166629
2.557635
3.054738
10.331869
36.515594
134.450793
283.390880
635.927916
970.375538
1015.774012
1015.774012
1015.774012
1015.774012
1015.774012
1015.774012
629.108548
384.351611
183.057785
89.626908
27.742982
12.285709
8.592606
8.523464
8.510947
8.682609
8.647442
8.908510
8.754730
9.296536
9.813905
##ZVALUE=380
0.637770
0.729561
0.668764
0.546575
0.649691
0.691414
0.710487
0.756979
0.530481
0.736713
0.641942
0.547767
0.626445
0.783801
0.722408
0.613928
0.856519
0.841618
0.669956
0.561476
0.641942
0.753999
0.741482
0.710487
0.801682
0.692606
0.814795
0.799894
0.719428
0.842810
0.777841
0.761747
0.751615
0.817776
0.780821
0.777841
0.732541
0.880957
0.946522
0.985861
0.966787
0.743866
0.783801
0.837445
0.821948
0.836849
0.926852
0.890493
1.049638
0.969768
1.111627
0.891685
1.054406
1.003742
1.062751
1.077652
1.032948
1.121759
1.361966
1.294613
1.174808
1.468658
1.366735
1.463890
1.551509
1.632571
1.915693
1.962781
2.210736
2.556443
3.057718
5.588531
20.031929
96.063018
224.195719
534.453988
871.634483
1015.695930
1015.695930
1015.695930
1015.695930
1015.695930
1015.695930
810.132623
525.027514
249.606967
127.256513
47.826767
19.322634
8.736849
7.997751
7.642508
7.875562
7.819533
8.049607
7.990599
##ZVALUE=385
0.707507
0.601411
0.686646
0.702739
0.766516
0.671744
0.640750
0.612736
0.693798
0.693798
0.628829
0.714660
0.615716
0.853539
0.628829
0.691414
0.619888
0.685453
0.709891
0.611544
0.564456
0.775456
0.687838
0.578761
0.686646
0.673532
0.763535
0.654459
0.644922
0.830889
0.709891
0.637770
0.931621
0.742674
0.677705
0.680685
0.731945
0.535846
0.852942
0.885725
0.827909
0.878572
0.855923
0.886917
0.814795
0.711679
0.762939
0.904799
0.873804
0.933409
0.886917
0.891685
0.965595
0.974536
0.855923
0.977516
1.005530
1.058578
1.049638
1.150966
1.211762
1.165867
1.182556
1.198649
1.413822
1.322627
1.464486
1.701713
1.790524
2.132654
2.165437
2.408624
2.720952
3.185868
8.590817
52.475929
136.755705
346.568823
616.042614
1015.695930
1015.695930
1015.695930
1015.695930
1015.695930
1015.695930
996.282697
708.543658
368.614793
201.650858
77.937841
31.206608
10.069609
7.886887
7.106662
7.169843
7.082820
##ZVALUE=390
0.609756
0.626445
0.583529
0.668764
0.676513
0.612736
0.720620
0.672936
0.538826
0.560880
0.569820
0.683665
0.667572
0.630617
0.699759
0.574589
0.736713
0.782609
0.646710
0.627637
0.732541
0.664592
0.553727
0.670552
0.641942
0.738502
0.749826
0.658631
0.741482
0.675917
0.675917
0.711679
0.744462
0.681877
0.709891
0.903606
0.716448
0.707507
0.751615
0.809431
0.753999
0.714660
0.757575
0.749826
0.837445
0.869632
0.810623
0.905991
0.879765
0.823736
0.720620
0.893474
0.918508
0.915527
0.831485
0.911951
0.994802
1.068711
0.959635
1.050830
1.034737
1.117587
1.192689
1.286864
1.334548
1.219511
1.360774
1.661777
1.642704
1.989603
1.811981
2.117753
2.203584
2.363920
2.325773
2.672672
5.772710
23.271441
110.069513
246.917009
543.324947
845.759511
1015.695930
1015.695930
1015.695930
1015.695930
1015.695930
1015.695930
860.593915
567.009449
282.444954
139.605999
45.345426
16.566515
7.563829
6.873608
##ZVALUE=395
0.643730
0.724792
0.731945
0.681877
0.612736
0.612736
0.814795
0.516772
0.573993
0.522733
0.705719
0.661612
0.750422
0.697970
0.571609
0.599623
0.682473
0.628829
0.650883
0.669956
0.567436
0.704527
0.645518
0.736713
0.659823
0.578761
0.703931
0.781417
0.586510
0.699759
0.539422
0.707507
0.769496
0.727773
0.851750
0.782609
0.846982
0.774860
0.791550
0.836849
0.815988
0.869632
0.702739
0.726581
0.990629
0.938773
0.841618
0.769496
0.699759
0.898838
0.979900
0.908971
0.893474
0.897646
1.148582
0.978708
1.068711
1.059771
1.061559
1.050830
0.960827
1.102686
1.116991
1.134872
1.230836
1.219511
1.568794
1.559854
1.755953
1.952648
1.889467
2.156496
2.008677
2.087951
2.193451
2.163649
2.181530
2.849698
3.697872
19.365549
74.597597
251.306891
467.091799
850.521922
1015.713811
1015.713811
1015.713811
1015.713811
1015.713811
1015.713811
1015.713811
714.523792
431.683660
179.407001
80.197453
24.227500
##ZVALUE=400
0.643730
0.671744
0.571609
0.521541
0.516772
0.597835
0.637770
0.537634
0.591874
0.635982
0.649691
0.538826
0.794530
0.757575
0.683665
0.576973
0.734925
0.647902
0.678897
0.533462
0.639558
0.824928
0.715852
0.720620
0.810623
0.758767
0.660419
0.690818
0.703931
0.598431
0.661612
0.596642
0.719428
0.743866
0.840425
0.797510
0.801682
0.921488
0.756979
0.698566
0.855923
0.745654
0.815988
0.905991
0.883937
0.857711
0.906587
0.849962
0.918508
0.886917
0.749826
0.800490
0.976920
0.794530
1.025796
0.975728
1.016855
0.965595
0.978708
1.034737
1.056790
1.018643
1.022816
1.103878
1.134872
1.364946
1.314878
1.444817
1.760721
1.834631
1.947880
1.850724
2.017617
2.109408
1.906753
1.936555
1.941919
2.386570
2.362728
2.616644
3.057718
12.931824
45.992732
160.833597
341.918468
728.195906
1015.698910
1015.698910
1015.698910
1015.698910
1015.698910
1015.698910
1015.698910
871.382952
555.827618
270.282626
##END
