##TITLE=DDW02
##FORMAT=SPECTACLE-ASCII V-1.2
##DATA TYPE=ULTRAVIOLET SPECTRUM
##SECOND TYPE=ULTRAVIOLET SPECTRUM
##DATE=03/29/18
##TIME=13:46:53
##SPECTROMETER/DATA SYSTEM=SPECTACLE
##XUNITS=NM EM
##YUNITS=ENERGY
##YFACTOR=1
##FIRSTX=220
##LASTX=410
##NPOINTS=96
##3DDATA=Equidistant
##ZUNITS=NM EX
##FIRSTZ=210
##LASTZ=400
##ZPOINTS=39
##XYDATA=(Y..Y)
##ZVALUE=210
18.766522
17.116666
15.653968
12.192726
9.928942
10.745525
8.367896
8.314848
6.639957
6.065965
5.188584
3.826618
3.202558
2.906919
3.727674
3.006458
2.852678
3.584623
2.913475
3.947616
3.974438
4.836917
4.521608
4.637837
5.010962
5.281568
7.031560
5.262494
6.164908
6.514788
7.057786
6.782413
6.796718
8.155704
7.814765
7.793903
8.235574
7.994771
8.549690
8.917451
8.906722
10.268688
9.526610
10.169744
10.044575
10.740757
9.961724
9.635687
9.879470
9.363890
9.654760
10.889769
10.126829
10.070801
10.751486
10.907650
11.082888
11.099577
12.305975
12.725592
11.446476
12.143850
11.921525
13.067722
12.383461
11.641979
13.390779
15.663505
19.005537
20.549893
25.666952
29.131770
32.699704
38.357973
38.623810
40.157437
42.806864
42.126775
40.435791
39.210916
34.190416
31.527877
29.967427
27.246475
23.254752
18.740892
15.101433
14.937520
14.335513
15.174747
18.370748
22.506714
29.263496
37.616491
45.219660
51.911473
##ZVALUE=215
62.906742
59.650540
43.348670
35.338998
27.734637
20.615458
18.204451
16.607642
15.180707
13.474822
12.805462
9.722710
7.558465
6.045699
4.553795
3.952980
4.665852
4.214644
5.048513
4.782677
5.020499
6.544590
5.284548
5.501509
6.043911
6.818771
6.552935
8.101463
7.637739
7.538795
8.982420
8.639693
8.759499
8.363724
9.049773
9.364486
10.893941
11.000633
9.492636
12.579560
11.591911
11.012554
11.763573
12.332797
13.555884
12.901425
12.968779
13.326406
12.960434
13.135672
14.485717
14.245510
13.678670
14.699697
13.650656
14.769435
14.921427
14.194846
14.940500
14.654994
13.798475
14.347434
14.536977
15.891790
14.040470
15.275478
15.340447
18.167496
21.104813
23.394823
26.593804
27.862787
31.611919
35.017729
38.264990
39.516687
40.108562
37.693977
34.577847
31.415820
28.236508
26.424527
23.965836
21.210909
17.340779
15.381575
14.146566
13.008714
12.243986
11.589527
11.348724
11.984706
12.285709
13.926625
17.337799
20.304918
##ZVALUE=220
157.949924
155.610442
148.551464
131.050944
104.786754
82.243681
57.939887
42.517781
31.396747
27.630925
23.590922
26.855469
22.268891
19.583702
15.237927
11.458993
8.114576
6.717443
5.867481
5.329847
5.953908
6.490946
5.628467
6.744862
6.065965
6.796718
7.484555
7.799864
8.459687
8.640885
7.810593
8.644462
10.565519
9.249449
10.309815
10.291934
11.731982
10.838509
12.046695
12.972951
12.323856
12.996793
12.716651
14.837980
14.321804
13.785958
15.402436
14.371872
14.101863
15.319586
15.923977
14.390945
15.134811
16.155839
15.625954
15.299916
16.108751
15.474558
16.234517
16.683936
16.211867
17.306805
15.285611
17.330647
15.908480
16.623735
17.867684
19.238591
21.154881
22.516847
25.837421
29.120445
32.382607
36.665797
37.617683
38.381815
39.542913
39.443970
40.721893
37.402511
34.375787
34.122467
30.588508
28.516650
24.321675
19.442439
18.570423
14.983416
13.865829
13.007522
12.914538
13.274550
13.020635
12.391806
12.285709
12.600422
##ZVALUE=225
208.123922
214.866996
240.668654
264.365673
261.541009
228.681564
198.695660
136.551857
97.369552
69.218874
43.815970
37.878752
39.226413
41.085482
37.026405
33.223629
26.544929
23.289919
16.595721
10.701418
9.093881
7.361770
7.402897
6.369948
6.298423
7.128716
7.444620
8.278489
7.485747
7.544756
8.635521
8.563995
9.658933
10.274649
11.052489
12.900829
12.802482
13.729930
12.169480
12.899637
13.631582
14.312863
14.022589
15.579462
13.534427
14.930964
14.697909
13.926625
13.627410
14.040470
15.622973
14.994740
15.890598
16.316772
15.448928
17.420650
15.820861
18.275976
17.697811
16.834736
15.781522
16.250610
15.922785
16.630888
17.859936
15.809536
16.108751
19.640923
19.507408
22.521615
23.619533
27.004480
30.799508
31.217933
34.773946
34.278631
34.585595
32.840967
32.870770
30.643940
29.655695
28.342605
22.639632
21.702647
19.525886
17.543435
15.870929
14.199615
13.287663
13.074875
12.583733
11.150837
11.549592
11.894703
11.783838
11.444688
##ZVALUE=230
150.653720
163.018703
240.697861
354.744792
406.488776
442.312956
439.295769
386.868715
320.113897
248.077512
161.100626
108.063817
75.140595
62.099695
60.140491
60.307980
63.613653
57.501793
50.489902
39.624572
32.011867
20.959973
15.075803
9.785891
8.331537
7.471442
6.677508
7.870793
7.867813
7.507801
8.964539
9.748936
9.993911
11.348724
11.595488
12.272596
12.753606
13.679862
14.367700
15.529990
14.982820
15.730858
15.029907
14.673471
15.681982
15.512705
15.825629
15.623569
16.463995
16.435981
15.407801
16.054511
15.551448
17.170906
18.100739
15.489459
16.424656
15.790462
16.320944
18.122792
15.747547
15.336871
16.779900
16.342998
15.606880
17.259717
16.002655
18.096566
18.179417
21.059513
21.843910
22.604465
27.362704
26.553869
29.399991
26.871562
26.894808
25.628805
26.225448
23.054481
22.599697
21.505952
19.341707
16.966462
14.088750
13.543963
13.775826
12.796521
12.458563
12.182593
11.438727
11.297464
11.055470
11.360645
11.304617
11.251569
##ZVALUE=235
41.131973
48.841834
101.076961
214.367509
323.363543
469.328761
583.738685
691.303015
704.322457
664.435625
551.221967
434.812903
277.061462
199.196935
127.008557
100.860596
82.743764
86.347461
90.473890
89.681745
83.654523
70.233941
54.363608
38.916469
26.328564
17.521977
13.582706
9.965897
10.430813
9.934902
9.741783
10.860562
9.758472
12.121797
11.177659
12.407899
12.770891
11.079907
12.629628
12.836456
14.364719
13.024807
12.935996
12.693405
14.912486
13.912916
13.385415
14.054775
14.822483
14.018416
13.053417
13.762712
13.715625
14.041662
15.153885
15.263557
14.766455
14.703870
14.816523
15.418530
15.568733
17.341971
16.814470
15.834570
15.516877
17.064810
18.404722
17.067790
18.731952
21.426678
23.578405
23.569465
25.372505
29.572845
26.851892
28.731823
28.639436
26.803613
26.621819
25.314689
22.486448
21.682978
20.292997
19.458532
17.464757
16.987920
14.822483
14.182925
11.849999
14.162660
13.273954
12.035966
13.638735
12.422800
12.258887
11.291504
##ZVALUE=240
2.684593
3.254414
14.226437
37.965775
104.331970
183.887482
347.194672
504.437685
700.573921
813.450813
879.036784
836.360455
743.291974
572.946668
431.164503
260.396600
176.665783
117.959976
100.544691
99.387765
109.120607
113.578439
114.900470
98.907948
78.936815
64.448714
43.248534
32.888651
21.085739
14.614463
12.089610
10.841489
9.474754
9.008646
9.738803
10.336637
9.580851
10.034442
10.940433
9.405613
10.629892
11.103749
9.836555
10.464787
11.211634
10.773540
10.955930
10.713935
11.458993
11.924505
12.818575
11.924505
12.181997
11.963844
12.094975
13.756752
12.348890
14.536977
13.846755
13.147593
13.519526
12.874603
14.271736
13.442636
13.791919
14.272928
15.171766
14.788508
15.775561
17.997622
20.496845
21.228790
20.519495
24.211407
25.532842
24.331808
25.337934
24.418831
23.209453
20.759702
19.865632
18.207431
17.252564
16.778708
15.494823
12.592673
13.906956
12.978911
13.104677
11.290908
11.783838
11.224747
11.799932
11.012554
11.110902
12.100935
##ZVALUE=245
1.798868
2.066493
1.966953
2.063513
7.769465
20.716786
69.766641
146.004558
307.074785
467.219949
685.542822
828.173757
921.413898
937.888622
879.007578
717.893839
566.994548
389.477015
264.289975
156.799555
113.433003
101.593733
110.442638
121.469498
126.375556
124.160647
106.812716
92.054605
69.311857
51.437616
37.528872
22.165775
14.582872
11.693835
9.173751
8.833408
8.529425
8.325577
9.033680
9.280443
8.229613
9.487867
9.417534
9.002686
9.702444
8.795857
9.436607
9.406805
8.941889
9.149909
9.940863
11.103749
9.868741
10.925531
10.721684
10.162592
11.281967
11.113882
11.459589
11.408925
11.957884
11.191964
11.495948
11.939406
12.332797
12.503862
12.459755
13.299584
13.661981
13.968945
17.038584
17.077923
19.256473
20.121932
20.549893
21.972656
20.967722
20.393729
18.549562
17.248988
17.853975
14.965534
15.835762
14.061928
12.446642
11.448860
11.784434
12.890697
11.872649
10.144711
10.603666
11.116862
10.311604
9.345412
9.629726
10.059476
##ZVALUE=250
1.605749
1.744628
1.820922
1.791716
2.286434
2.153516
3.492832
12.253523
51.183701
108.360648
260.792971
422.083735
599.931479
836.787820
976.947546
1015.792489
1015.792489
903.287530
750.781894
503.460765
339.473486
217.967629
121.059418
96.726418
102.368593
114.867687
126.956701
129.592419
126.947761
117.181540
96.894503
73.868632
54.994822
34.085512
24.472475
14.208555
10.607839
9.061694
7.898808
8.606911
8.465648
9.027719
9.017587
9.228587
8.223653
8.625984
8.702874
8.471608
9.607673
9.311438
9.921789
9.593964
9.758472
9.226799
10.050535
10.452867
10.119677
10.428429
10.301471
10.405779
11.013746
11.204481
10.779500
10.963678
11.231899
11.588931
11.265874
12.200475
12.039542
13.791919
14.736652
16.025901
16.986728
18.229485
17.989874
18.570423
17.547607
17.032623
16.433001
15.967488
14.462471
12.770891
12.315512
10.889769
10.702610
10.950565
9.288788
8.575916
9.243488
9.267926
9.522438
8.719563
8.699894
8.799434
8.204579
8.682609
##ZVALUE=255
1.614690
1.483560
1.842976
1.404881
1.809597
1.971722
1.707673
2.134442
2.301931
5.999804
31.573772
80.834627
161.849856
347.021818
529.956818
817.322731
998.681784
1015.850902
1015.850902
1015.850902
952.076912
743.944645
449.563861
275.523663
142.813921
99.011660
88.956952
98.919868
120.590925
133.143663
137.564540
134.343505
118.638873
100.886822
79.413652
51.751733
36.972761
21.918416
15.615821
10.775924
9.506941
9.768605
9.839535
9.281635
9.001493
10.220408
9.815693
8.862615
9.521842
9.617805
9.942651
9.869933
10.080934
10.319948
10.848641
10.457635
11.034608
11.567473
11.249781
11.170506
11.679530
10.777712
11.479855
11.823773
11.707544
12.348890
11.783838
11.877418
12.781620
12.647510
13.338923
15.243888
15.241504
15.473962
16.441941
16.988516
16.225576
14.500618
14.058948
13.730526
12.220740
11.839867
11.551976
10.893941
9.969473
9.026527
8.649826
8.543730
8.064508
8.220673
8.142591
7.783771
8.237958
7.704496
7.786751
7.522702
##ZVALUE=260
1.531839
1.303554
1.455545
1.521707
1.698732
1.435876
1.405478
1.690984
2.349615
2.099872
2.213717
3.575683
12.350678
52.168965
117.765665
283.659697
464.221835
757.749677
984.551907
1015.861630
1015.861630
1015.861630
1015.861630
871.861577
559.851527
370.163918
206.916928
128.796697
85.075498
81.829429
94.629526
119.105577
135.656595
144.402981
141.297579
123.094916
106.516480
78.018904
58.479905
38.223863
27.890801
17.179847
13.469458
11.908412
10.444522
11.059642
10.394454
11.108518
10.873675
11.256933
11.458993
11.295676
11.507869
11.752844
11.901855
11.781454
11.853576
11.985898
11.853576
12.645721
12.591481
12.726784
12.567639
12.364984
12.286901
13.177991
12.494922
13.628602
13.220906
14.004707
13.773441
14.687777
14.893413
15.746951
15.109777
14.225841
15.272498
13.115406
13.571978
12.686849
12.344718
11.234879
10.586977
9.516478
9.067655
8.675456
8.733869
8.826852
7.645488
7.643700
7.435679
7.349849
7.517934
7.572770
7.257462
7.460713
##ZVALUE=265
1.407862
1.421571
1.417994
1.666546
1.568794
1.904964
1.852512
1.647472
2.189875
1.758933
2.406836
2.351999
2.612472
2.810955
7.141829
36.576986
90.817809
231.828690
406.522751
726.792812
986.377597
1016.135812
1016.135812
1016.135812
1016.135812
999.872684
735.399723
520.130992
291.089416
176.014900
106.270909
73.589683
78.558922
106.882453
128.066540
146.045685
152.727962
142.763853
130.554438
106.530786
85.738897
59.559941
42.182803
27.667880
20.916462
16.080737
13.835430
13.173819
12.687445
13.169646
13.874769
13.449788
13.557673
14.235973
13.478994
14.143586
14.575720
14.321804
14.900565
14.479756
14.540553
15.092492
14.546514
14.060736
14.773607
14.356971
13.747811
14.616847
14.609694
15.072823
15.483499
15.166998
15.606880
14.992952
16.382933
15.741587
15.376806
14.289618
12.974739
12.776852
12.122989
11.751652
10.703802
10.069609
9.790659
9.132624
9.785891
8.735657
8.984804
8.488894
8.195639
7.385612
7.817745
7.881522
7.141829
7.768869
##ZVALUE=270
1.149774
1.323819
0.924468
1.283884
1.336932
1.139641
1.314878
1.496673
1.478791
1.751781
1.552701
1.725554
1.870990
2.182722
2.061725
2.377629
3.112555
19.001961
58.005452
181.883574
342.916846
571.245551
917.757750
1015.861630
1015.861630
1015.861630
1015.861630
1015.861630
959.070921
726.822019
444.310904
277.443528
137.287974
83.225965
67.271590
80.554485
110.961795
130.474567
148.909688
154.580474
148.139000
135.797858
111.530423
90.551972
62.238574
45.813918
31.385422
23.653507
18.298626
16.148686
15.628934
15.372634
15.591979
16.008615
15.726686
16.321540
15.901923
16.050935
16.125441
16.596913
16.247630
15.664697
15.100837
16.168952
15.201569
15.978813
15.296936
15.789866
15.969872
16.250610
16.628504
16.050935
16.625524
15.977621
15.705824
15.532970
15.330911
14.432669
13.605952
13.104677
11.989474
11.366606
10.839701
10.512471
9.897947
9.670854
9.431839
8.553863
8.115768
8.644462
7.623434
7.642508
7.762909
7.337928
7.279515
7.335544
##ZVALUE=275
1.082420
0.976920
0.977516
1.114607
1.237988
1.146793
1.334548
1.271963
1.343489
1.287460
1.454949
1.530647
1.572967
1.609921
1.746416
1.792908
2.039671
2.436638
2.730489
9.230971
35.306811
98.581910
275.577903
480.099916
843.550563
1015.862823
1015.862823
1015.862823
1015.862823
1015.862823
1015.862823
941.943526
660.716891
342.420936
197.448730
90.358853
59.958696
64.556599
82.955956
111.054778
131.964684
149.477720
157.241821
147.784948
134.639740
109.876990
90.184808
63.099861
48.012733
32.751560
25.296807
19.279718
16.784668
17.046928
17.470717
16.947985
16.619563
16.734600
16.530752
16.643405
16.397834
16.950965
17.099977
16.726851
15.975833
16.125441
16.142726
16.516447
16.247630
16.738772
16.320944
16.782880
17.503500
17.251968
17.084479
16.952753
15.669465
14.673471
14.232993
13.673902
13.367534
12.272000
11.300445
10.966659
10.120869
10.115504
9.279847
8.895993
8.143783
8.326769
8.454919
7.800460
7.916689
7.251501
7.276535
7.680655
##ZVALUE=280
0.969768
1.013875
1.203418
1.129508
1.324415
1.114607
1.155734
1.244545
1.100898
1.302958
1.384616
1.445413
1.437664
1.507998
1.443624
1.616478
1.908541
1.973510
2.155900
2.282858
2.432466
3.444552
22.574663
76.877475
232.703686
409.045815
729.228854
999.586582
1015.861630
1015.861630
1015.861630
1015.861630
1015.861630
1015.861630
894.756913
509.852767
301.563740
130.987763
70.124865
51.039457
59.922934
85.340738
106.817484
132.863522
144.936442
150.596499
146.497488
131.579638
113.439560
85.157752
65.152645
45.320988
33.967495
24.383664
19.960999
17.024875
16.123652
16.377568
17.155409
16.220808
17.243624
16.833544
16.855597
16.424656
16.502738
16.107559
16.284585
15.912652
15.589595
16.949773
16.658902
16.975999
16.644597
16.494989
16.176701
15.835762
15.232563
14.959574
14.217496
13.659000
12.825727
11.554956
11.520982
10.976791
10.508895
9.861588
9.277463
9.058714
8.764863
8.274913
8.022785
8.222461
7.705688
7.194877
7.269979
7.117987
##ZVALUE=285
1.045465
1.308918
0.961423
1.052618
1.177788
1.092553
1.106858
1.182556
0.999570
1.101494
1.054406
1.207590
1.230836
1.097918
1.333952
1.262426
1.252890
1.550913
1.684427
1.706481
2.072453
2.158880
2.527833
2.522469
10.824800
38.170815
129.059553
256.005526
533.268452
822.937489
1015.861630
1015.861630
1015.861630
1015.861630
1015.861630
1015.861630
1015.861630
650.921464
402.945876
184.433460
91.775656
42.559505
39.811730
57.227612
75.664520
103.742480
119.910836
139.260888
143.620968
139.891505
128.592849
107.024908
87.439418
62.232614
45.610666
30.069947
23.678541
17.328858
15.782714
14.882684
15.264750
14.832616
14.990568
15.014410
14.951825
14.376640
15.040636
14.732480
14.609694
14.857650
14.618635
14.634728
15.114546
14.532804
14.194846
14.264584
14.027953
13.166666
12.724996
11.946559
11.502504
10.942817
10.391474
9.590983
9.525418
9.105802
9.101629
8.632541
8.058548
7.708669
7.959604
7.689595
7.371902
6.717443
7.167459
7.036924
##ZVALUE=290
0.914931
0.917912
0.919700
0.985861
1.085997
1.117587
1.052618
0.898838
1.142621
0.994802
1.128912
1.081824
1.102686
1.190901
1.189709
1.331568
1.259446
1.507998
1.393557
1.459718
1.670718
1.599789
1.928806
2.113581
2.154708
2.520680
4.059672
13.374686
57.250857
138.750672
276.255608
592.868924
909.386873
1015.861630
1015.861630
1015.861630
1015.861630
1015.861630
1015.861630
777.376890
503.672957
244.050622
123.935938
47.145486
29.662848
35.233498
48.567653
71.107745
90.482831
115.766525
129.987001
138.295889
134.709477
122.009516
105.335712
79.431534
61.076880
41.901469
29.815435
20.202994
16.403794
13.439655
12.274981
11.971593
12.095571
11.460781
11.974573
12.250543
12.369752
12.343526
11.814833
12.430549
12.876987
12.295842
12.027621
12.142658
11.440516
10.584593
10.485649
9.994507
9.217858
8.821487
8.662939
8.814931
8.178949
8.067489
8.064508
7.612705
7.134676
7.111430
7.064939
7.112622
6.745458
6.652474
6.318688
6.576777
##ZVALUE=295
0.804663
0.790954
0.797510
0.755787
0.867844
0.905991
0.841618
0.969768
0.820756
1.083612
1.061559
0.989437
1.064539
1.007915
1.003742
1.019835
1.156926
1.091957
1.156926
1.347661
1.558661
1.353621
1.514554
1.619458
1.904964
1.904964
2.120733
2.303720
2.972484
5.623698
19.723773
84.695816
202.062726
483.548641
769.893527
1015.861034
1015.861034
1015.861034
1015.861034
1015.861034
1015.861034
896.075964
612.318516
318.172574
172.842741
63.148737
30.398965
22.157431
28.834939
45.033693
62.286854
87.195635
105.881691
123.505592
131.160617
127.336979
117.003918
97.212791
80.390573
54.936409
40.437579
25.416613
18.591881
12.652874
10.554790
9.414554
8.605719
9.380579
9.138584
9.189844
9.264946
9.373426
9.389520
9.446740
9.182692
9.127855
8.718967
8.126497
8.201599
7.656813
7.367730
7.601976
7.011890
6.735921
6.743670
6.397963
6.536841
6.509423
6.308556
6.100535
6.133914
5.840659
5.747676
6.044507
5.808473
5.893707
##ZVALUE=300
0.834465
0.777841
0.741482
0.764728
0.684857
0.798702
0.873804
0.833869
0.913739
0.822544
0.742674
0.848770
0.964999
0.830889
1.089573
0.983477
1.119971
1.167655
1.109838
1.169443
1.306534
1.311898
1.349449
1.353621
1.485944
1.516938
1.561642
1.664758
1.794696
2.315640
2.523661
3.060699
13.006926
45.925975
164.893866
331.210494
668.190718
970.585942
1015.861630
1015.861630
1015.861630
1015.861630
1015.861630
1015.861630
724.685788
467.556715
231.812596
122.789741
45.420527
21.929741
18.870831
25.958419
40.364861
54.977536
78.862906
97.074509
114.605427
121.714473
121.023655
113.103986
93.543530
76.976418
54.712892
39.907694
24.358630
16.707778
10.919571
9.065866
7.374883
7.291436
7.189512
7.635951
7.645488
7.247925
7.493496
7.273555
6.800890
6.977916
6.525517
6.420612
6.139874
6.327629
6.006956
6.131530
5.695820
5.755424
5.633831
5.632639
5.495548
5.154610
5.186796
5.384684
5.331635
5.351901
5.382895
5.337000
##ZVALUE=305
0.733733
0.519753
0.777841
0.669956
0.830889
0.825524
0.809431
0.844598
0.735521
0.823736
0.717640
0.844598
0.751615
0.821948
0.843406
0.847578
0.978708
0.953674
1.008511
1.183748
1.183748
1.269579
1.326799
1.227856
1.354814
1.464486
1.310706
1.620650
1.833439
1.753569
1.770854
2.156496
2.103448
2.593994
4.580617
31.392574
92.463493
269.950032
481.633544
845.528841
1015.866995
1015.866995
1015.866995
1015.866995
1015.866995
1015.866995
893.085599
560.417771
347.756743
154.893994
76.827407
25.503635
14.651418
17.028451
23.380518
38.367510
53.565502
75.903535
91.269612
108.786821
115.152001
113.082528
105.330944
88.200569
72.876811
49.980879
35.893917
23.046732
15.843511
9.575486
7.952452
6.958842
6.456971
6.411672
6.326437
6.188750
6.009936
5.807877
5.958676
5.605817
5.387664
5.461574
5.080700
5.666614
5.632639
5.500913
4.942417
4.917979
5.247593
5.227923
4.923940
5.138516
5.128980
4.941821
4.665852
4.822612
##ZVALUE=310
0.788569
0.667572
0.720620
0.828505
0.759959
0.673532
0.715852
0.697970
0.803471
0.882745
0.922680
0.773668
1.124740
0.702739
0.879765
0.829697
0.975728
0.768900
0.751615
0.941753
0.896454
1.048446
1.058578
1.057982
0.976920
1.181960
1.215935
1.270771
1.282692
1.442432
1.598597
1.719594
1.623631
1.964569
2.088547
2.396703
3.052950
13.403893
46.086907
157.673955
312.165618
618.546605
899.880528
1015.861630
1015.861630
1015.861630
1015.861630
1015.861630
1015.861630
733.569860
484.155416
238.998532
125.169754
44.377446
18.510818
12.086630
14.564991
21.728873
31.387806
48.296452
63.804984
84.506869
97.839832
105.765462
108.364820
100.743771
88.106990
68.808794
52.260756
35.856962
23.949742
14.940500
11.029840
7.220507
6.536841
5.919933
5.668998
5.412698
5.208850
5.213618
4.721880
4.731417
4.969835
4.633665
4.931688
4.979968
5.001426
4.884601
4.803538
4.970431
4.490614
4.575849
4.596710
4.902482
4.785657
4.541874
##ZVALUE=315
0.747442
0.646710
0.786781
0.605583
0.657439
0.628829
0.660419
0.539422
0.698566
0.713468
0.697970
0.664592
0.784993
0.713468
0.798702
0.629425
0.896454
0.797510
0.975728
0.877976
0.816584
0.943542
0.901818
0.931621
0.954866
0.936985
0.885725
1.154542
1.297593
1.230836
1.158714
1.382828
1.375675
1.693964
1.690984
1.728535
1.791716
2.114773
2.462864
5.386472
21.471977
92.516541
204.275846
445.474386
705.669522
1015.866995
1015.866995
1015.866995
1015.866995
1015.866995
1015.866995
888.397694
626.135468
332.720876
180.132985
65.518618
25.668740
10.857582
10.658503
13.765693
18.881559
30.375719
42.146444
60.386658
75.047612
92.938542
100.264549
100.633502
96.604824
79.939961
66.411495
47.963858
34.735799
21.366477
14.238954
9.257793
7.290840
5.756617
5.299449
4.937649
4.627705
4.494786
4.522800
4.519820
4.700422
4.601479
4.580617
4.917979
4.666448
4.639626
4.772544
4.509687
4.543662
4.521608
4.263520
4.358888
##ZVALUE=320
0.584722
0.681877
0.495911
0.612736
0.620484
0.596642
0.632405
0.609756
0.763535
0.660419
0.523925
0.659823
0.762939
0.606775
0.700951
0.746846
0.633597
0.917912
0.978708
0.802875
0.736713
0.940561
0.834465
1.028776
0.888705
0.984669
0.817776
0.959635
0.978708
1.070499
1.178980
1.076460
1.233816
1.477599
1.483560
1.516938
1.470447
1.518726
1.689792
1.975894
2.240539
3.070831
9.777546
53.206682
134.867430
335.746408
539.931655
870.559812
1015.865803
1015.865803
1015.865803
1015.865803
1015.865803
1011.099815
771.867633
432.347655
244.620442
100.192428
43.916702
13.725758
9.147525
9.237528
11.261702
17.075539
24.998784
39.866567
53.566694
71.188807
84.528923
95.055699
95.667839
90.280771
79.334974
61.549544
47.490001
31.292439
21.578670
13.702512
9.016991
5.872846
5.279779
4.729629
4.287958
4.360676
4.450679
4.632473
4.406571
4.168749
4.470944
4.276633
4.343987
4.403591
4.399419
4.391670
4.466772
4.373789
##ZVALUE=325
0.612736
0.593662
0.768900
0.567436
0.697970
0.691414
0.622869
0.582933
0.603795
0.786781
0.662804
0.771880
0.660419
0.561476
0.630617
0.708699
0.665784
0.779629
0.642538
0.779629
0.833869
0.810623
0.989437
0.903606
0.892878
0.941753
0.771880
0.866652
0.960827
0.965595
1.068711
1.091957
1.115799
1.054406
1.182556
1.270771
1.350641
1.392961
1.398921
1.517534
1.526475
1.808405
2.052784
2.477765
5.123615
33.214688
84.314942
218.935013
382.844806
696.436763
960.540771
1015.875936
1015.875936
1015.875936
1015.875936
1015.875936
870.153904
530.211926
321.100950
141.184926
66.012740
19.174814
9.336472
7.711649
8.164644
11.175871
15.449524
25.171638
35.587549
54.138899
67.476630
80.958605
88.989735
89.121461
83.080530
70.959926
57.649612
41.698813
29.902458
18.303990
12.930632
7.794499
5.789995
4.872680
4.686713
4.210472
4.339814
4.327893
4.223585
4.220605
4.296899
4.441738
4.594922
4.269481
4.361868
4.349947
##ZVALUE=330
0.769496
0.831485
0.836849
0.613928
0.759959
0.809431
0.613928
0.876784
0.784993
0.826716
0.743866
0.723600
0.766516
0.788569
0.897646
0.816584
0.842810
0.757575
0.721812
0.780821
0.809431
0.758767
0.677705
0.810623
0.836849
0.988841
0.873804
0.929832
0.928640
0.947714
1.111627
1.063943
1.173615
1.132488
1.020432
1.277924
1.221895
1.423955
1.326799
1.469851
1.462698
1.816750
1.638532
1.976490
1.831651
2.311468
2.840757
13.040900
41.379929
134.159923
258.306861
520.685911
775.181651
1015.989780
1015.989780
1015.989780
1015.989780
1015.989780
994.063020
660.869479
427.079797
198.084712
98.237991
32.549500
12.808442
7.404685
7.236600
8.094907
9.828806
15.815496
22.304654
35.546422
47.956705
64.662695
75.096488
82.770586
83.916783
77.664852
68.811774
53.224564
40.450692
26.196837
19.073486
12.414455
8.994937
6.285906
5.235672
4.514456
4.481673
4.234910
4.155636
4.287958
4.103780
4.311800
4.359484
4.382730
##ZVALUE=335
0.928640
0.720620
0.781417
0.755787
0.742674
0.767708
0.730753
0.762939
0.765920
0.856519
0.861883
0.970960
0.951886
0.864863
0.809431
0.895858
0.773668
0.867844
0.889897
0.797510
0.774860
1.004934
0.934601
0.867844
1.004934
0.961423
1.047850
1.139641
1.201630
1.054406
1.017451
1.059771
0.991821
1.195669
1.110435
1.185536
1.347661
1.236796
1.304746
1.439452
1.353621
1.531839
1.593828
1.756549
1.647472
1.885891
2.025962
2.245903
2.541542
6.025434
21.386743
85.050464
176.182389
395.379663
640.287995
990.847945
1016.083956
1016.083956
1016.083956
1016.083956
1016.083956
786.461830
531.587005
275.965929
141.699910
46.962500
18.338561
8.107424
7.065535
6.876588
7.851720
10.348558
14.187694
23.284554
32.080412
47.105551
58.234930
70.965886
76.789856
78.083873
73.408484
62.126517
51.563978
38.717985
30.102730
19.009709
13.318658
8.705854
6.654859
5.414486
4.897714
4.334450
4.301667
4.560947
4.508495
4.576445
##ZVALUE=340
0.814795
0.697970
0.891685
0.841618
0.788569
0.855923
0.685453
0.785589
0.876784
0.841618
0.849962
0.848770
0.840425
0.882745
0.976920
0.906587
0.781417
0.922680
0.876784
0.786781
0.991821
0.729561
1.061559
1.046658
0.908971
0.870824
0.982881
0.956655
0.925660
1.070499
1.081824
1.013875
1.070499
1.057982
1.109838
1.055598
1.052618
1.171827
1.203418
1.221895
1.372695
1.360774
1.492500
1.304746
1.616478
1.489520
1.639724
1.853704
1.812577
2.209544
2.370477
3.497005
10.543466
51.209927
124.273896
310.626626
523.659587
869.338512
1016.068459
1016.068459
1016.068459
1016.068459
1016.068459
931.441784
655.307770
341.501832
186.391473
71.895719
27.077794
9.245872
7.274747
6.935000
7.021427
7.754564
9.666681
14.527440
20.623803
31.849742
42.878985
58.171749
66.232681
73.446631
72.549582
67.838430
61.009526
48.826933
39.185882
26.532412
19.658804
12.766719
9.011626
6.371737
5.243421
4.610419
4.175901
4.248619
##ZVALUE=345
0.477433
0.594854
0.607967
0.530481
0.659823
0.656843
0.529885
0.584722
0.571609
0.529885
0.605583
0.600815
0.462532
0.681877
0.581741
0.671744
0.573993
0.498891
0.542998
0.651479
0.715852
0.579953
0.756979
0.779629
0.851750
0.751615
0.883937
0.807643
0.777841
0.739694
0.723600
0.829697
0.693798
0.653863
0.776649
0.966787
0.869632
0.809431
0.793934
0.999570
0.985861
0.986457
1.021624
1.204610
1.109838
1.152754
1.301765
1.369715
1.404881
1.458526
1.614690
1.614690
1.978874
2.318621
4.762411
29.485822
81.488490
218.588710
392.168760
715.444684
982.815027
1015.867591
1015.867591
1015.867591
1015.867591
1015.867591
806.260705
467.159748
261.547565
98.604560
42.060614
13.386607
8.026958
6.808639
6.492734
6.119609
6.441474
8.609891
11.910796
19.108653
27.391911
39.961934
48.815608
59.471726
65.216422
66.791773
64.500570
56.604743
48.345923
37.381649
27.673841
18.168688
12.806654
8.706450
6.394982
5.017519
##ZVALUE=350
0.566840
0.474453
0.591874
0.512600
0.622869
0.571609
0.680685
0.573993
0.619888
0.659823
0.589490
0.642538
0.523925
0.603795
0.649691
0.583529
0.604987
0.520945
0.532866
0.545979
0.535846
0.685453
0.705719
0.630617
0.860691
0.626445
0.704527
0.699759
0.643730
0.630617
0.626445
0.898838
0.751615
0.748634
0.729561
0.810623
0.779629
0.859499
0.885725
0.959635
0.794530
0.918508
0.944734
0.944734
0.964999
1.066923
1.222491
1.131892
1.216531
1.350641
1.388788
1.553893
1.534820
1.794696
1.931787
2.119541
2.966523
15.621781
47.988892
148.984790
284.872651
584.850907
866.105556
1015.862823
1015.862823
1015.862823
1015.862823
1015.862823
984.032750
590.955615
349.070430
143.578649
61.594844
16.576648
8.417964
6.523728
6.011724
5.374551
5.419850
6.244779
7.789731
11.924505
16.629696
24.724603
32.944679
45.047998
52.348971
59.533715
61.926842
59.054494
54.127574
44.457912
35.876632
25.279522
18.971562
12.356639
##ZVALUE=355
0.559688
0.523925
0.464916
0.674725
0.454783
0.436902
0.427961
0.619888
0.579953
0.262856
0.407696
0.560880
0.530481
0.426769
0.306964
0.412464
0.495911
0.454783
0.439882
0.513792
0.475645
0.590682
0.416636
0.547767
0.477433
0.501871
0.600815
0.483990
0.470877
0.529885
0.584722
0.630617
0.585914
0.823736
0.681877
0.578761
0.733733
0.653863
0.751615
0.748634
0.866652
0.822544
0.933409
0.812411
0.956655
0.891685
1.098514
1.033545
1.009703
1.136661
1.141429
1.277924
1.449585
1.389980
1.467466
1.560450
1.716614
2.034903
2.236962
7.268786
25.492907
100.165009
206.191540
445.338488
718.464851
1015.733480
1015.733480
1015.733480
1015.733480
1015.733480
1015.733480
742.760897
459.167957
195.578933
89.328885
24.973750
10.111928
6.311536
5.694628
5.153418
5.147457
5.068779
5.678535
6.870627
9.238720
14.399886
20.491481
29.809475
37.568808
46.975613
52.612424
55.355430
54.699779
48.948526
42.366982
33.822656
##ZVALUE=360
0.581741
0.727773
0.525713
0.735521
0.409484
0.641942
0.466704
0.679493
0.688434
0.661612
0.638962
0.648499
0.710487
0.533462
0.597835
0.836849
0.627637
0.536442
0.630617
0.737906
0.776649
0.598431
0.681877
0.680685
0.762939
0.660419
0.818968
0.745654
0.747442
0.712872
0.845790
0.815988
0.766516
0.822544
0.882745
0.923872
0.852942
0.815988
0.938773
0.869632
1.118779
1.066923
1.131892
0.870824
1.107454
1.012683
0.977516
1.089573
1.115799
1.262426
1.317859
1.478791
1.633763
1.362562
1.510978
1.563430
1.556873
1.718998
1.632571
2.127886
2.363920
3.636479
11.378527
52.335858
128.793716
336.438417
576.809645
954.710841
1015.861630
1015.861630
1015.861630
1015.861630
1015.861630
862.438679
566.152930
269.919634
135.452747
44.910908
16.121864
6.726980
5.860925
5.357862
5.040765
4.928708
4.651546
5.002618
5.576611
8.154511
11.185408
16.958714
23.728609
33.690929
40.558577
47.673583
50.045848
50.347447
##ZVALUE=365
0.587702
0.565648
0.565648
0.606775
0.545979
0.493526
0.567436
0.617504
0.571609
0.762939
0.577569
0.607967
0.554919
0.502467
0.607967
0.715852
0.757575
0.786781
0.616908
0.715852
0.530481
0.731945
0.697970
0.635982
0.581741
0.593662
0.867844
0.787973
0.916719
0.815988
0.760555
0.780821
0.713468
0.847578
0.961423
0.785589
0.955462
0.814795
0.848770
0.847578
0.849962
0.935793
0.914931
0.800490
0.873804
0.970960
1.025796
0.992417
1.005530
0.885725
1.079440
1.136661
0.998974
1.100898
1.241565
1.322627
1.432896
1.493692
1.514554
1.790524
2.022982
2.105832
2.361536
2.613664
5.121827
28.300881
78.822970
214.481950
404.269695
767.709017
1015.861630
1015.861630
1015.861630
1015.861630
1015.861630
976.654887
696.235895
374.910831
197.224617
66.555738
24.980903
7.764697
5.853772
5.026460
4.968643
4.712939
4.359484
4.134774
4.261732
4.854798
6.296635
10.081530
13.897419
21.471977
27.102828
35.728812
##ZVALUE=370
0.588894
0.674725
0.596642
0.579953
0.475645
0.523925
0.641942
0.604987
0.563860
0.685453
0.653863
0.636578
0.458956
0.601411
0.786781
0.640750
0.738502
0.786781
0.643730
0.640750
0.691414
0.702739
0.715852
0.671744
0.650883
0.721812
0.786781
0.688434
0.618696
0.796914
0.762939
0.598431
0.791550
0.665784
0.742674
0.770688
0.600815
0.786781
0.778437
0.824928
0.754595
0.704527
0.809431
0.749826
0.843406
0.951886
1.015663
0.882745
0.920892
1.024604
1.093745
1.095533
1.071692
0.841618
1.072884
1.168847
1.087785
1.248717
1.181960
1.361966
1.458526
1.456738
1.628995
1.755953
1.840591
2.185702
3.140569
15.660524
50.712824
159.276724
310.710073
606.955886
899.021626
1015.861630
1015.861630
1015.861630
1015.861630
1015.861630
825.644732
466.494560
262.454748
100.119710
41.646957
11.364818
6.357431
5.011559
4.718900
4.261732
4.146695
3.860593
3.549457
3.873706
4.228950
5.608797
8.030534
12.396574
##ZVALUE=375
0.447631
0.431538
0.597835
0.480413
0.508428
0.525713
0.482798
0.549555
0.440478
0.582933
0.558496
0.508428
0.529885
0.539422
0.553727
0.489950
0.738502
0.577569
0.694990
0.607967
0.542998
0.641942
0.785589
0.538826
0.645518
0.482798
0.708699
0.544786
0.610948
0.733733
0.739694
0.595450
0.749826
0.704527
0.736713
0.690818
0.864863
0.749826
0.762939
0.657439
0.736713
0.612736
0.675917
0.632405
0.780821
0.783801
0.772476
0.759959
0.773668
1.020432
0.891685
0.914931
0.873804
0.775456
0.977516
0.903606
1.018643
1.039505
1.091957
1.140833
1.182556
1.251698
1.221895
1.400709
1.498461
1.582503
1.782775
2.064705
2.590418
6.077886
33.554435
85.264444
227.994919
411.223769
740.270019
994.828939
1015.862823
1015.862823
1015.862823
1015.862823
889.312625
625.969768
343.747735
190.089941
71.828961
28.077960
7.839799
4.934669
4.638433
4.167557
4.019737
3.792644
3.658533
3.424883
3.664494
3.818870
##ZVALUE=380
0.449419
0.516772
0.502467
0.471473
0.542998
0.515580
0.402927
0.602603
0.648499
0.646710
0.596642
0.484586
0.550747
0.599623
0.582933
0.636578
0.561476
0.624657
0.592470
0.525713
0.554919
0.642538
0.608563
0.589490
0.574589
0.682473
0.681877
0.548959
0.595450
0.635982
0.669956
0.626445
0.588894
0.531673
0.633597
0.647902
0.739694
0.584722
0.726581
0.684857
0.774860
0.704527
0.698566
0.686646
0.645518
0.830889
0.704527
0.714660
0.741482
0.609756
0.758767
0.767708
0.777841
0.701547
0.623465
0.856519
0.826716
0.922680
0.998974
0.947714
1.029968
0.960827
0.962615
1.061559
1.150966
1.221895
1.316667
1.527667
1.630783
1.971722
2.227426
3.784895
13.919473
64.896941
151.299834
357.853770
575.454831
901.402831
1015.861630
1015.861630
1015.861630
1015.861630
982.945561
671.368837
451.828837
223.593712
113.831758
37.152767
13.849735
5.272627
4.384518
4.040599
3.927946
3.693700
3.306866
3.368855
##ZVALUE=385
0.532866
0.383854
0.590682
0.564456
0.466704
0.511408
0.495911
0.449419
0.505447
0.588894
0.507832
0.576973
0.562668
0.579953
0.483990
0.530481
0.452995
0.493526
0.442863
0.611544
0.567436
0.448823
0.588894
0.542998
0.535846
0.505447
0.626445
0.623465
0.629425
0.657439
0.483990
0.426769
0.582933
0.670552
0.685453
0.708699
0.559688
0.586510
0.772476
0.713468
0.636578
0.756979
0.790954
0.825524
0.623465
0.749826
0.728965
0.789762
0.857711
0.814795
0.826716
0.660419
0.816584
0.809431
0.853539
0.804663
0.711679
0.914931
0.932813
0.900626
0.915527
0.990629
0.894666
1.015663
0.959635
1.300573
1.195669
1.374483
1.354814
1.711845
1.737475
1.877546
2.226830
2.636909
6.609559
36.474466
94.543695
245.079994
437.311530
772.225857
1004.607677
1015.862823
1015.862823
1015.862823
1015.862823
851.537585
606.826544
331.313014
186.063647
73.637962
27.655959
7.238984
4.601479
3.958941
3.799796
3.716946
##ZVALUE=390
0.646710
0.666976
0.611544
0.406504
0.424981
0.531673
0.592470
0.635982
0.533462
0.617504
0.561476
0.537634
0.497699
0.496507
0.587702
0.608563
0.612736
0.562668
0.536442
0.553727
0.683665
0.629425
0.597835
0.412464
0.594854
0.679493
0.493526
0.738502
0.647902
0.604987
0.817776
0.610948
0.723600
0.750422
0.793934
0.721812
0.694990
0.917912
0.827909
0.648499
0.868440
0.768900
0.824928
0.921488
0.801682
0.773668
0.756979
0.832677
0.887513
0.980496
0.852942
0.754595
0.816584
0.875592
0.867844
0.868440
0.926852
0.919700
0.939965
0.874996
0.853539
0.914931
0.999570
1.049638
0.968575
1.078844
1.254678
1.341701
1.497865
1.663566
1.691580
1.813769
1.862645
1.988411
2.017617
2.246499
3.625751
19.378662
60.403943
186.227560
352.854729
668.416023
919.823647
1015.920639
1015.920639
1015.920639
1015.920639
1010.933518
797.048807
480.583906
274.154544
109.663606
49.072504
13.960600
6.047487
4.098415
##ZVALUE=395
0.624657
0.525713
0.463724
0.247955
0.431538
0.534654
0.446439
0.481606
0.488758
0.418425
0.545979
0.564456
0.465512
0.487566
0.277758
0.446439
0.383854
0.469685
0.419617
0.448823
0.414848
0.505447
0.614524
0.500679
0.568628
0.483990
0.428557
0.390410
0.474453
0.583529
0.633597
0.628829
0.646710
0.658631
0.598431
0.739694
0.763535
0.747442
0.737906
0.815988
0.839829
0.636578
0.766516
0.751615
0.907779
0.794530
0.847578
0.760555
0.784993
0.740886
0.797510
0.723600
0.875592
0.770688
0.825524
0.758767
0.874996
0.755787
0.826716
0.810623
1.026988
0.933409
0.940561
0.961423
1.049638
1.136661
1.222491
1.442432
1.299977
1.360774
1.664758
1.431704
1.585484
1.750588
1.654625
1.704693
1.861453
1.987815
2.429485
10.131598
37.650466
134.308934
267.147422
535.723567
789.948702
1015.861630
1015.861630
1015.861630
1015.861630
1015.861630
961.527824
595.397949
374.342799
174.716711
81.775784
24.290681
##ZVALUE=400
0.552535
0.536442
0.520945
0.596642
0.367761
0.416636
0.409484
0.446439
0.433922
0.447631
0.449419
0.421405
0.559688
0.451803
0.538826
0.448823
0.502467
0.406504
0.516772
0.432730
0.594854
0.637770
0.611544
0.730753
0.461936
0.592470
0.572801
0.487566
0.618696
0.627637
0.558496
0.458956
0.507832
0.602603
0.695586
0.672936
0.770688
0.733733
0.927448
0.604987
0.785589
0.680685
0.806451
0.788569
0.723600
0.745654
0.750422
0.759959
0.697970
0.900626
0.777841
0.473857
0.678897
0.795722
0.544786
0.804663
0.694990
0.896454
0.780821
0.802875
0.980496
0.769496
0.752807
0.972748
0.930429
1.043677
1.113415
1.389980
1.278520
1.481771
1.504421
1.552701
1.530647
1.572967
1.503825
1.535416
1.507998
1.588464
1.641512
1.997948
2.199411
5.881786
21.735430
81.014633
177.657604
404.657722
647.686720
988.391638
1015.862823
1015.862823
1015.862823
1015.862823
1015.862823
722.047687
473.973751
235.865712
##END
