##TITLE=DDW01
##FORMAT=SPECTACLE-ASCII V-1.2
##DATA TYPE=ULTRAVIOLET SPECTRUM
##SECOND TYPE=ULTRAVIOLET SPECTRUM
##DATE=03/29/18
##TIME=13:43:10
##SPECTROMETER/DATA SYSTEM=SPECTACLE
##XUNITS=NM EM
##YUNITS=ENERGY
##YFACTOR=1
##FIRSTX=220
##LASTX=410
##NPOINTS=96
##3DDATA=Equidistant
##ZUNITS=NM EX
##FIRSTZ=210
##LASTZ=400
##ZPOINTS=39
##XYDATA=(Y..Y)
##ZVALUE=210
14.677644
14.026761
11.966825
10.405779
10.379553
9.068847
8.485913
6.412864
6.523728
4.890561
3.877878
2.688766
2.724528
2.363920
2.544522
1.993775
2.529621
2.590418
2.670884
2.194643
2.420545
3.116727
3.479719
3.220439
3.592968
3.594756
3.888607
3.892779
4.378557
4.270673
4.578829
4.209876
4.006624
4.130602
4.193783
4.585981
4.965663
4.876852
4.616976
5.164742
5.228519
5.151629
5.846620
4.967451
4.956722
5.699992
4.674792
5.665421
5.529523
5.291700
5.291700
4.454851
5.425811
6.411672
4.934669
5.426407
5.732775
6.245971
5.877614
5.814433
6.007552
6.317496
7.188916
6.375909
6.185770
5.105734
6.121993
7.547736
8.191466
9.050965
9.565949
11.828542
12.427568
14.113784
15.594959
16.985536
17.305613
16.765594
14.892817
14.184713
13.163686
11.857748
11.384487
8.449554
7.844567
7.325411
6.157756
6.966591
6.377697
7.680655
10.828972
13.835430
16.366839
21.903515
25.603771
33.977628
##ZVALUE=215
44.373870
40.559769
35.091639
25.798678
20.925999
16.715527
14.949441
15.297532
16.005635
11.301637
10.763407
9.146929
5.791783
4.781485
3.473759
3.073812
3.300905
3.115535
3.423691
3.256798
2.964735
3.149509
3.276467
3.618598
4.385710
3.390908
4.154444
4.629493
4.522800
4.385710
4.501939
4.799962
5.518794
5.277991
5.060434
4.921556
5.240440
5.305409
5.825758
6.133914
5.103946
5.300641
6.930828
5.534887
5.286932
6.355643
6.146431
6.150603
5.901456
5.940795
6.040931
5.678535
6.046891
5.256534
5.712509
6.340742
5.351901
6.362796
6.385446
5.539656
5.751848
6.288886
6.413460
6.638765
6.441474
6.504655
6.382465
7.828474
9.317994
8.402467
9.646416
11.949539
13.054609
14.439821
15.303493
15.183687
15.901923
14.857650
14.674664
13.479590
11.568666
11.008978
9.602904
8.996725
7.073879
6.506443
6.748438
6.398559
5.775690
5.041957
5.943775
5.572438
6.137490
6.839633
8.983612
12.626648
##ZVALUE=220
99.817514
101.566911
95.799565
80.487728
71.828961
53.120852
37.842989
29.229522
25.406480
24.905801
24.113655
21.920800
18.417835
17.058849
13.377666
9.683967
6.557703
5.676746
3.711581
3.274679
3.651977
3.605485
3.626943
4.472733
4.115701
4.458427
4.343987
3.962517
4.079938
5.252957
4.554987
5.899668
5.377531
4.929900
5.066991
5.137920
6.224513
5.731583
5.699992
5.579591
5.493760
6.122589
5.596876
6.871819
6.542802
5.674958
6.523728
6.322861
6.225705
5.463958
6.187558
6.048679
6.556511
7.325411
6.193519
7.328987
6.713867
7.005930
7.437468
7.224679
6.932616
7.465482
6.911755
6.983876
6.967783
6.825924
8.172989
8.353591
8.681417
9.917617
10.915995
12.263656
12.768507
14.372468
15.906692
16.182661
16.623735
14.175773
13.980865
15.455484
12.322664
10.690689
10.261536
9.012818
7.948875
6.881952
7.208586
6.919503
6.479621
5.678535
5.691648
5.855560
5.503893
5.317926
5.353689
4.972816
##ZVALUE=225
134.218931
139.530897
168.169737
168.236494
170.226693
157.038569
127.002597
95.529556
62.721968
53.021908
38.223863
37.887692
38.618445
37.769675
34.459829
32.567978
27.869940
19.400716
15.159845
10.149479
5.889535
3.859997
4.191995
3.994703
4.545450
4.806519
4.058480
5.224943
4.968643
4.711747
5.431771
5.539656
4.639626
5.450845
5.715489
5.022883
5.930662
5.896688
6.344914
6.277561
6.863475
6.170869
6.014705
7.067919
7.365942
6.738901
7.029772
5.593896
7.401705
6.714463
7.466674
7.495880
6.463528
6.766915
7.850528
7.394552
6.878972
8.003712
8.197427
7.487535
8.168817
7.877946
8.092523
8.498430
7.746816
7.787943
9.046793
8.087754
9.740591
11.525750
11.082888
12.192726
14.382601
14.213920
14.967918
15.818477
16.397834
13.666749
13.601780
13.491511
11.379719
11.658669
10.206699
9.658933
7.906556
6.445646
6.936789
6.950498
6.220937
6.789565
5.770922
5.519986
6.190538
6.751418
6.433725
5.915761
##ZVALUE=230
100.844502
103.412867
152.923465
226.410627
265.315771
300.076008
299.893618
275.971889
228.844881
184.702873
123.796463
87.368488
63.570738
54.659843
56.690574
60.002804
57.587624
54.088831
46.165586
36.827922
29.258728
19.134879
12.822747
7.820725
6.054640
5.412698
5.104542
5.523562
5.357862
4.837513
5.001426
6.204844
5.679727
5.937815
5.605817
6.655455
6.318688
6.200671
6.420612
6.417632
6.708503
6.924868
7.408857
7.141829
6.780624
7.337928
7.257462
6.599426
7.197857
6.497502
7.244945
7.378459
7.891655
7.977486
7.744431
8.461475
8.652806
8.298755
8.185506
7.711649
8.490682
8.439422
9.232759
8.724928
8.570552
8.184910
10.378957
9.433627
11.003613
11.745691
12.046695
13.763905
14.671683
15.474558
15.444756
15.945435
15.095472
13.440847
15.214682
13.266802
11.841655
11.844635
9.855628
9.281635
8.268952
8.873940
8.213520
8.643866
9.287596
7.613897
6.868839
7.568598
7.209778
7.719994
6.544590
6.250739
##ZVALUE=235
27.161837
32.922626
65.195560
136.362910
213.938951
307.593942
385.942459
456.240773
484.464765
456.066728
387.469530
311.466455
201.323628
142.859817
102.283955
82.670450
79.978704
84.051490
84.452629
84.052682
79.393983
64.575672
53.212643
36.531687
25.038719
15.724897
11.362433
7.695556
7.364750
6.834865
7.185936
6.851554
7.022619
7.035732
6.813407
6.513596
7.486939
7.110834
7.265806
7.293820
7.341504
8.055568
7.690787
8.531809
7.297993
7.406473
8.061528
7.450581
7.387996
7.923841
9.000897
7.434487
6.940961
8.036494
8.449554
8.447766
6.994605
8.693933
8.301735
9.690523
7.994771
8.907914
8.724928
8.570552
10.294914
10.177493
9.624958
10.696650
10.967851
12.650490
14.386773
15.109777
15.534759
16.844869
16.585588
18.213987
16.896725
14.778972
14.184713
14.412999
13.139844
12.256503
11.512637
11.147857
9.210706
10.629892
10.199547
8.164644
7.971525
7.754564
8.010864
6.907582
7.386804
6.660819
7.537603
7.220507
##ZVALUE=240
2.457500
2.582669
10.273457
28.710961
77.241659
131.475925
254.913568
366.557837
520.260930
617.542863
668.409467
655.601621
588.941574
460.297465
348.458886
221.629739
156.202912
113.296509
100.581646
103.310943
108.041763
112.890601
110.121965
94.868541
78.862906
63.577890
41.627884
29.779673
18.910766
13.398528
9.436607
9.017587
7.338524
6.683469
6.986856
8.786917
7.396936
8.078814
6.819963
7.865429
7.556677
8.361936
7.170439
7.703900
6.382465
7.166862
7.729530
7.325411
7.005930
7.402897
7.850528
8.373857
7.356405
8.138418
7.674694
7.926822
8.292794
7.989407
9.062886
8.326769
8.549690
8.807778
8.739829
9.044409
8.171797
8.431673
9.399652
10.029674
10.214448
12.511611
11.923909
14.624596
14.359951
15.537739
16.336441
16.123652
15.756488
15.439987
15.268922
12.496710
13.057590
10.990500
10.211468
10.438561
10.613799
9.179711
8.950830
9.653568
7.848740
8.456707
8.629560
8.203983
6.787777
8.195639
7.645488
6.783605
##ZVALUE=245
1.514554
1.867414
1.297593
2.223849
5.940795
17.519593
55.720806
111.398697
242.206454
368.810892
552.703738
674.575567
754.340887
784.416795
730.677843
588.689446
470.128655
317.488909
216.718912
136.232972
102.167726
99.098682
111.356974
121.430755
126.270652
118.258595
105.335712
88.698864
65.138936
48.981905
34.356713
21.394491
13.284683
8.710623
8.152723
6.539822
7.725954
7.289648
6.949902
6.704926
6.871819
6.813407
6.984472
6.261468
6.816983
6.602407
6.641746
7.225871
7.341504
6.415844
6.793737
7.373691
7.073879
6.088614
6.914735
6.657839
6.633997
7.658601
7.239580
7.789731
6.938577
6.946921
6.811619
7.324815
6.778836
7.389784
8.013844
8.176565
9.579659
10.239482
11.627674
12.016892
13.730526
12.684464
14.389753
13.635755
13.924837
11.884570
11.350513
10.989904
10.567904
10.096431
8.722544
8.568764
7.784963
7.614493
7.471442
7.020831
8.236766
7.525682
6.644726
7.474422
6.797910
7.178783
6.790757
6.860495
##ZVALUE=250
1.375675
1.673698
1.629591
1.723766
1.719594
2.119541
3.925562
10.604858
41.163564
89.739561
213.800669
338.480473
493.058562
696.035624
814.451575
888.741016
867.272615
756.808519
629.565716
432.010889
291.309953
190.785527
113.977790
94.428658
100.598931
112.760663
125.432611
129.700899
123.762488
113.450885
95.945001
71.832538
53.902864
33.333898
21.559000
12.253523
9.544492
6.628633
6.917715
6.972551
6.939769
7.144809
6.536841
6.672740
5.791783
6.277561
5.962849
7.001758
6.520748
5.944967
5.643964
6.117821
6.051660
5.702972
6.440878
6.123781
6.235838
6.032586
6.186962
6.325841
6.002784
5.719662
6.537437
6.639957
6.585717
6.875992
6.396770
7.084608
7.488728
8.678436
9.537935
10.309815
10.237694
10.948777
11.598468
11.448860
11.222959
10.539889
10.249615
9.672642
8.495450
7.328987
7.978678
6.837845
6.894469
6.780624
6.592870
6.654859
5.907416
5.604625
5.985498
6.031990
6.108880
5.382895
5.971789
5.642772
##ZVALUE=255
1.334548
1.531839
1.468658
1.587868
1.288652
1.367927
1.469851
1.651645
2.181530
5.516410
25.515556
66.116452
137.879848
290.997624
448.349714
688.245893
830.022693
971.469879
1005.928516
919.129848
791.177750
616.142750
384.516716
248.898864
136.108994
98.998547
86.901784
97.758770
121.902823
132.068992
136.390924
133.164525
120.963454
94.933510
74.987411
49.083829
35.014749
19.536614
12.324452
8.210540
7.104874
5.504489
6.171465
6.338954
6.190538
5.653501
5.918741
5.859733
5.751848
5.831718
5.381703
5.238652
5.592704
5.658865
5.489588
5.692840
4.968643
5.102754
6.134510
5.674958
4.961491
5.245805
5.244613
5.454421
5.101562
5.858541
5.648732
5.579591
6.832480
7.532835
8.056760
7.607937
8.949637
8.469820
9.361506
9.392500
8.992553
8.255839
7.693768
7.380843
6.251931
6.192923
5.495548
5.599856
5.118847
5.250573
5.367994
4.934669
4.799962
4.970431
4.835725
4.682541
4.517436
4.655719
5.174875
4.398823
##ZVALUE=260
0.994802
1.141429
1.434684
1.045465
1.230836
1.241565
1.383424
1.254678
1.475811
1.760721
2.007484
2.793670
10.820627
44.726729
98.520517
231.000781
377.646685
609.218478
800.753832
999.299884
1015.861630
1015.861630
953.974724
777.801871
518.541932
353.070498
197.129846
123.125911
80.652833
79.418421
93.650818
118.200779
134.363770
141.035914
139.147639
120.390654
102.942586
75.649619
56.943893
33.803582
22.296906
13.040900
8.539557
6.362796
5.771518
5.689859
6.090999
6.118417
5.545616
5.104542
5.501509
5.485415
5.410910
5.584955
5.300641
5.028844
4.957914
5.092621
4.927516
4.846454
4.973412
4.636645
5.205870
5.325675
5.063415
5.395412
5.838871
5.754828
5.586743
6.773472
6.706715
7.495880
7.486939
7.717609
8.001924
8.001924
6.940961
7.594824
6.780624
6.533861
6.112456
5.302429
5.349517
4.677773
5.003810
4.531741
4.528761
4.712939
4.656911
4.337430
4.164577
4.152656
3.849864
3.686547
4.134774
3.666878
##ZVALUE=265
1.406670
1.053810
1.132488
1.120567
1.129508
1.191497
1.214743
1.187921
1.082420
1.426935
1.490712
1.607537
2.048612
2.487898
6.211996
30.081868
73.796511
179.613829
313.853621
568.351746
796.622634
991.674662
1015.861630
1015.861630
1015.861630
927.937627
679.893494
480.259657
267.676711
161.160827
99.523664
69.611669
76.617599
101.111531
122.351646
142.392516
142.617822
139.216781
123.419762
97.228885
76.653957
50.008893
34.733415
20.591617
12.518764
7.877946
6.124973
5.782843
5.615950
5.438924
5.309582
4.978776
5.544424
5.239844
5.467534
4.844666
4.966855
5.135536
5.053878
4.421473
4.517436
5.143881
4.937649
5.046725
4.768968
4.822612
4.878640
5.183816
5.096793
5.879998
6.602407
6.216764
6.792545
7.605553
7.174611
7.214546
6.405711
6.541610
6.326437
5.577803
5.388856
4.996657
4.754663
5.154610
4.398823
4.424453
4.269481
3.907681
3.960729
4.124641
4.036427
4.051924
3.642440
3.924966
3.696680
3.751516
##ZVALUE=270
0.980496
1.039505
0.940561
1.044869
0.833869
1.088977
1.159906
1.186728
1.348853
1.254678
1.491904
1.451969
1.536608
1.638532
1.736879
2.028942
2.585649
13.587475
41.650534
129.674673
250.584483
432.435870
733.850598
966.281891
1015.856862
1015.856862
1015.856862
1015.856862
854.954720
645.101666
446.398854
233.109593
131.318569
67.297816
59.347749
79.459548
100.570917
125.880837
140.265822
143.712759
138.150454
121.961832
102.936625
75.685978
54.554939
33.063889
21.548867
12.974739
8.978844
6.368756
5.683899
5.002618
5.214810
4.991889
5.249977
5.325675
5.162954
4.916787
4.787445
4.442930
4.805923
4.989505
4.777908
4.905462
4.726648
4.538894
4.417896
4.894733
5.420446
5.333424
5.922914
5.930662
6.509423
6.398559
6.518960
6.655455
6.067753
6.047487
5.782843
5.366802
5.330443
4.585981
4.068613
4.424453
4.253983
4.046559
4.116893
3.907681
3.797412
4.045963
3.791451
3.799796
3.748536
3.470778
3.308654
3.598928
##ZVALUE=275
0.921488
0.850558
0.947714
0.996590
0.879765
1.099706
1.011491
1.149774
1.040697
1.244545
1.293421
1.249909
1.074672
1.268983
1.330972
1.501441
1.627803
2.021790
2.220869
6.141663
25.022626
70.720911
201.793909
367.012620
662.328005
887.497663
1015.852690
1015.852690
1015.852690
1015.852690
1015.852690
805.732608
571.647882
304.622650
175.474882
77.769756
50.637722
56.246519
75.073838
102.739930
118.951797
137.262940
141.612887
138.058662
123.603940
97.002983
76.927543
52.844882
37.463903
20.952821
13.285875
8.325577
6.527901
5.339980
4.990697
5.261898
4.534721
5.085468
4.837513
5.108714
5.136728
4.803538
4.791617
4.721880
4.478693
4.799962
4.547834
5.120635
5.103946
5.235672
5.545616
5.978942
5.953908
6.373525
6.204844
6.045699
5.968809
5.818605
5.300641
4.988909
4.718900
4.552603
4.331470
3.787875
4.125834
3.929734
3.704429
3.615618
3.849864
3.638864
3.426671
3.631711
3.591776
3.251433
3.496408
3.609657
##ZVALUE=280
0.970960
1.014471
0.931621
0.808835
0.924468
1.058578
1.113415
1.219511
1.371503
1.220703
1.327991
1.321435
1.570582
1.336932
1.279712
1.338720
1.562834
1.713634
1.891851
2.153516
2.327561
3.042817
16.367435
52.609444
159.643888
286.808014
529.276729
760.354996
1016.056538
1016.056538
1016.056538
1016.056538
1016.056538
920.617580
686.634779
390.991569
232.964754
103.403926
56.751966
42.137504
51.015615
74.622631
96.227527
121.414661
134.726763
138.120651
136.002898
117.475986
100.157857
73.727965
54.733753
34.529567
23.524761
12.973547
9.221435
6.189942
5.286932
4.813671
5.153418
4.974604
4.820824
4.714727
4.722476
4.600883
4.776716
4.710555
4.875660
4.831553
5.261898
5.383492
5.666614
5.785823
5.764961
5.951524
6.158948
5.710721
5.885959
5.622506
5.555749
4.742742
4.936457
4.341602
4.407763
4.254580
3.966689
3.751516
4.024506
3.716946
3.762841
3.426671
3.653765
3.678799
3.423691
3.333688
3.486872
3.456473
##ZVALUE=285
0.928640
0.695586
0.733733
0.796914
0.825524
0.979900
0.878572
0.791550
0.808835
0.892878
0.897646
0.970960
0.956655
0.832677
1.048446
1.176596
1.183748
1.066923
1.178980
1.445413
1.486540
1.702905
1.974702
2.338886
8.290410
29.087663
77.524781
204.097629
352.720022
624.159575
859.119892
1015.861630
1015.861630
1015.861630
1015.861630
1015.861630
847.227573
527.119637
329.273939
155.612826
78.866482
36.856532
33.527613
49.619675
69.367886
96.961856
112.645626
127.536654
134.377480
129.483938
119.041800
96.327662
77.573657
53.589940
37.312508
21.624565
13.528466
7.812977
5.958676
5.328655
4.497766
4.508495
4.450679
4.225969
4.291534
4.329681
4.325509
4.469752
4.692674
4.824996
5.121827
5.290508
5.551577
5.321503
5.735755
5.071759
5.167723
4.714727
4.757643
4.112720
4.244447
3.920794
3.909469
3.673434
3.584623
3.554821
3.540516
3.295541
3.344417
3.536940
3.488660
3.140569
3.356934
3.091693
3.154874
3.007650
##ZVALUE=290
0.755787
0.720620
0.726581
0.731945
0.778437
0.829697
0.853539
0.909567
0.904799
0.769496
0.862479
0.777841
1.003742
1.006722
1.051426
1.155734
1.252890
1.033545
1.117587
1.118779
1.215935
1.438856
1.572967
1.563430
1.618862
2.010465
3.326535
11.202693
51.318407
116.256475
273.615718
465.220809
708.753467
1014.983654
1015.861630
1015.861630
1015.861630
1015.861630
989.998579
679.727793
451.029539
223.889947
115.081668
43.305755
26.103854
32.228827
45.755506
66.226721
83.873868
109.172463
123.258829
131.383538
128.878951
112.578869
98.062754
73.259473
53.099990
32.363534
22.018552
12.455583
8.512735
5.703568
5.016923
4.573464
4.192591
3.933907
4.115701
4.323721
4.260540
4.749894
4.712939
4.871488
5.313754
5.348921
5.120635
4.889965
4.616976
4.157424
4.185438
4.090667
3.918409
3.706813
3.799796
3.551841
3.551841
3.387928
3.381968
3.328919
3.169775
3.071427
3.215671
3.458858
3.184676
2.845526
2.999902
3.154874
##ZVALUE=295
0.672936
0.736713
0.682473
0.785589
0.757575
0.715852
0.796914
0.737906
0.843406
0.745654
0.756979
0.889897
0.762939
0.838637
0.897646
0.987649
0.738502
0.996590
1.016855
1.008511
1.032948
1.308918
1.230836
1.305938
1.319647
1.566410
1.925826
2.044439
2.202988
4.585981
25.880933
73.103905
161.400437
373.285413
596.833825
932.293534
1015.844941
1015.844941
1015.844941
1015.844941
1015.844941
820.284486
575.907826
307.745934
167.610645
61.408877
28.840899
20.421743
26.752949
43.614507
59.285760
83.898902
99.483728
117.067695
123.634934
120.075941
110.733509
90.551972
72.928667
48.598647
35.592914
21.018982
13.437867
7.885695
5.344748
4.215837
3.950000
4.204512
4.128814
4.270673
4.689693
4.567504
4.691482
4.645586
4.915595
4.460812
4.325509
3.904700
4.090667
3.849864
3.831983
3.325939
3.351569
3.703833
3.280640
3.335476
3.183484
3.060699
3.274679
3.151894
3.167987
3.012419
2.980828
2.946854
2.923608
2.967715
##ZVALUE=300
0.713468
0.687838
0.657439
0.605583
0.626445
0.628829
0.742674
0.661612
0.648499
0.792742
0.755787
0.896454
0.728965
0.729561
0.698566
0.884533
0.609756
0.820756
0.770688
0.948906
0.744462
1.000762
1.058578
1.216531
1.221895
1.387596
1.346469
1.439452
1.628995
1.980662
2.009869
2.729893
10.980964
37.716627
124.548674
241.705775
492.714643
734.573603
1015.861630
1015.861630
1015.861630
1015.861630
1015.861630
996.722579
677.034855
444.361567
225.535631
118.931532
42.022467
19.417405
17.609596
23.681521
38.058758
53.460002
76.372623
93.221664
111.952424
117.981434
115.331411
107.355714
89.109540
72.532892
50.782561
36.699772
20.916462
13.430715
7.801652
5.857944
4.207492
4.347563
4.189610
4.383922
4.431605
4.468560
4.464984
4.373789
4.256964
3.909469
4.010797
3.765821
3.704429
3.418922
3.411770
3.321767
3.179908
3.288984
3.238916
3.224611
3.222823
3.007650
2.761483
2.890825
2.940893
2.933741
2.938509
2.820492
##ZVALUE=305
0.552535
0.766516
0.603795
0.581741
0.527501
0.663996
0.714660
0.608563
0.664592
0.597835
0.700951
0.814795
0.791550
0.772476
0.794530
0.833869
0.849962
0.865459
0.895858
0.743866
0.820756
0.916719
0.956655
1.112819
1.025796
1.274943
1.069903
1.458526
1.253486
1.420975
1.513958
1.646876
1.797676
2.131462
5.592704
20.325780
81.541538
174.900889
389.220715
601.913929
934.353471
1015.861630
1015.861630
1015.861630
1015.861630
1015.861630
818.175673
571.907759
301.611423
169.023871
64.799786
28.377771
13.275743
15.019774
23.538470
34.166574
54.188967
69.549680
90.529919
103.476644
111.563802
111.071467
101.245642
88.717937
66.750646
49.794912
32.606721
21.962523
12.082458
7.550716
5.510449
4.603863
4.424453
4.233718
4.217625
3.873706
3.864765
3.706813
3.501773
3.405809
3.491640
3.356934
3.153682
3.145933
3.190637
3.329515
3.159642
3.036857
3.024936
3.020763
3.035665
2.894998
2.707839
2.806783
2.714992
2.558827
##ZVALUE=310
0.609756
0.643730
0.583529
0.606775
0.649691
0.675917
0.845790
0.560880
0.681877
0.593662
0.652671
0.812411
0.535846
0.740886
0.852942
0.691414
0.722408
0.717640
0.765920
0.720620
0.933409
0.965595
0.787973
0.913739
0.962615
0.956655
1.101494
1.227856
1.064539
1.155734
1.189709
1.463890
1.606941
1.709461
1.745820
2.054572
2.392530
10.924935
36.424994
117.769837
232.991576
480.262637
721.805692
1015.861630
1015.861630
1015.861630
1015.861630
1015.861630
1007.592678
700.293779
468.681455
235.410929
125.128627
43.491721
17.809868
10.626912
12.820959
20.745993
30.219555
47.217607
61.361790
82.170963
94.108582
103.865862
104.839802
97.258687
84.732771
64.552426
50.015450
31.908751
21.802783
12.718439
9.008646
5.622506
4.743934
4.081726
3.753901
3.541708
3.326535
3.014803
3.159642
3.078580
2.975464
3.087521
3.084540
2.937913
2.809763
3.041625
3.025532
3.186464
2.723932
2.856851
2.883673
2.624989
2.744794
2.590418
##ZVALUE=315
0.591874
0.627637
0.395775
0.560880
0.626445
0.587702
0.572801
0.608563
0.546575
0.554919
0.640750
0.756979
0.484586
0.650883
0.538826
0.648499
0.758767
0.713468
0.685453
0.859499
0.900626
0.832677
0.906587
0.754595
0.862479
0.903606
0.936985
0.926852
0.953674
1.071692
1.106858
1.071692
1.307726
1.465678
1.458526
1.678467
1.678467
1.841784
2.088547
3.892779
22.414923
63.850880
184.193850
336.482525
637.403727
898.627639
1015.862823
1015.862823
1015.862823
1015.862823
1015.862823
888.493657
553.290844
347.772837
159.476995
74.755549
21.637678
10.644794
9.297729
12.148619
18.645525
26.751757
42.508841
56.371689
75.906515
88.639855
98.557472
99.092722
91.831684
78.597665
60.709715
47.337413
30.838847
21.498799
12.234449
8.318424
5.492568
4.156828
3.658533
3.347993
3.062487
2.992749
3.150702
3.002882
3.094673
3.115535
3.080964
2.976656
3.061891
2.929568
2.927780
2.908707
2.814531
2.927780
2.780557
2.806783
##ZVALUE=320
0.452995
0.637770
0.574589
0.612736
0.621676
0.411868
0.489950
0.573993
0.409484
0.551939
0.628829
0.537634
0.455976
0.623465
0.650883
0.648499
0.696778
0.681877
0.607967
0.923872
0.637770
0.755787
0.748634
0.780821
0.850558
0.949502
0.800490
1.115799
0.800490
0.909567
0.864863
1.102686
1.165867
1.214743
1.266599
1.340508
1.329780
1.601577
1.432896
1.801848
1.762509
2.587438
8.114576
42.110682
106.369853
275.683403
456.469655
759.020448
992.414951
1015.861630
1015.861630
1015.861630
1015.861630
984.658599
738.360882
415.254831
238.755941
100.276470
43.354630
12.961626
8.246899
8.377433
10.735989
16.037822
24.009943
39.293766
52.684546
69.932938
82.421899
91.622472
93.396902
88.273883
76.949000
59.023499
45.001507
28.939843
20.258427
11.892915
7.550716
4.844666
3.982782
3.143549
2.992749
3.083944
2.931952
2.861619
2.873540
2.910495
2.755523
2.749562
2.865791
2.579689
2.601743
2.517700
2.657771
2.728701
##ZVALUE=325
0.554919
0.580549
0.635982
0.603795
0.386834
0.583529
0.593662
0.638962
0.604987
0.588894
0.539422
0.658631
0.602603
0.512600
0.590682
0.652671
0.583529
0.691414
0.708699
0.677705
0.736713
0.609756
0.727773
0.681877
0.592470
0.637770
0.865459
0.839829
0.934601
0.860691
0.896454
0.952482
1.030564
1.030564
0.966787
1.064539
1.179576
1.168847
1.308918
1.447797
1.603961
1.750588
1.819730
2.151728
4.212856
27.131438
71.135759
192.496777
344.390869
637.945533
892.111659
1015.861630
1015.861630
1015.861630
1015.861630
1015.861630
817.525983
493.514538
306.418538
138.464570
64.450502
18.892884
8.828640
7.428527
7.833838
10.642409
14.846921
24.441481
35.795569
52.451491
65.531731
79.238415
87.159872
87.969899
81.656575
68.373680
56.667924
39.855838
29.145479
16.869903
11.283755
6.458759
4.788637
3.411770
3.436804
3.024936
3.046989
3.056526
2.871752
2.858639
2.687573
2.504587
2.622604
2.592802
2.645850
2.568960
##ZVALUE=330
0.431538
0.475645
0.467896
0.528693
0.453591
0.359416
0.416636
0.575781
0.591874
0.477433
0.530481
0.484586
0.615716
0.479817
0.589490
0.520945
0.631809
0.668764
0.612736
0.712872
0.752807
0.691414
0.735521
0.808835
0.705719
0.594854
0.678897
0.725985
0.780821
0.876784
0.759959
0.902414
0.818968
0.801682
0.963807
0.975728
0.987649
1.102686
1.141429
1.120567
1.335740
1.495481
1.344681
1.398921
1.744628
2.066493
2.564788
11.835694
38.076639
125.834942
244.569778
492.876768
727.771521
1015.861630
1015.861630
1015.861630
1015.861630
1015.861630
952.825546
622.158647
404.582620
190.866590
95.924735
32.799840
12.326837
6.671548
6.691813
7.257462
9.354949
15.324950
21.874905
34.775734
46.781898
63.162446
73.419809
81.962943
82.159638
75.759888
66.174865
50.308704
38.895607
25.596619
17.408729
10.535717
7.218719
4.807711
4.128814
3.229976
3.124475
2.915859
2.711415
2.359748
2.653599
2.609491
3.027916
2.652407
##ZVALUE=335
0.537634
0.430942
0.602603
0.402927
0.609756
0.455976
0.449419
0.467896
0.572801
0.563860
0.668764
0.520945
0.539422
0.575781
0.703931
0.552535
0.452995
0.516772
0.538826
0.507832
0.656843
0.740886
0.826716
0.608563
0.780821
0.673532
0.642538
0.662804
0.773668
0.860691
0.943542
0.774860
1.038909
0.921488
0.944734
0.922680
1.042485
1.016855
1.060963
1.056790
1.033545
1.054406
1.282692
1.299977
1.371503
1.509786
1.473427
1.716614
2.048612
5.296469
19.291639
77.314973
163.793564
368.483663
591.783524
938.977003
1015.869975
1015.869975
1015.869975
1015.869975
1015.869379
735.339522
502.899885
264.106989
136.929750
45.769811
18.045902
7.286668
6.171465
6.232858
7.029772
9.390712
13.681650
22.485852
31.295419
46.725869
57.915449
69.390535
75.449944
75.523853
70.685744
59.455633
49.405694
36.816597
27.783513
17.522573
11.919737
7.155538
5.311966
3.770590
3.526807
3.061891
2.883673
2.631545
2.475977
2.707839
##ZVALUE=340
0.504851
0.446439
0.454783
0.319481
0.483990
0.526905
0.443459
0.425577
0.425577
0.490546
0.429749
0.582933
0.673532
0.463724
0.417829
0.323653
0.538826
0.453591
0.573993
0.513792
0.591874
0.552535
0.574589
0.572801
0.527501
0.687838
0.573993
0.741482
0.609756
0.716448
0.600815
0.660419
0.559688
0.715852
0.762939
0.856519
0.796914
0.920892
0.896454
1.031756
0.950694
1.069903
0.934601
0.940561
1.087785
1.202822
1.386404
1.422763
1.545548
1.785755
1.922846
2.904534
9.624958
48.224926
117.349625
290.220976
493.901968
815.566778
1015.861630
1015.861630
1015.861630
1015.861630
1015.861630
863.017440
612.969995
326.577425
181.323886
70.452690
26.950836
8.556843
6.561875
6.193519
6.322861
7.192492
9.083748
13.667941
19.913912
30.903816
41.578412
55.807829
64.417720
70.411563
71.656704
65.983534
59.102774
46.761632
36.768913
25.176406
17.952919
11.158586
7.383823
4.678965
3.621578
2.942681
3.003478
2.690554
##ZVALUE=345
0.456572
0.500679
0.429749
0.570416
0.616908
0.332594
0.477433
0.505447
0.381470
0.482798
0.386834
0.333786
0.342727
0.423789
0.543594
0.527501
0.553727
0.595450
0.610948
0.581741
0.677705
0.493526
0.663996
0.631809
0.586510
0.517964
0.581741
0.440478
0.587702
0.550747
0.575781
0.778437
0.724792
0.674725
0.569820
0.694990
0.843406
0.790954
0.734925
0.805855
0.991821
0.984669
0.886917
0.947714
1.088977
1.075864
1.065731
1.036525
1.184940
1.356602
1.464486
1.580715
1.828671
1.881719
5.431771
21.190643
86.116791
178.789496
379.900932
590.021610
911.611915
1015.861630
1015.861630
1015.861630
1015.861630
997.462869
693.577528
459.043980
215.064883
106.252432
33.362508
13.412833
6.717443
6.172657
5.930662
5.707741
6.279945
7.935762
12.442470
17.964840
27.843714
37.197471
49.192905
57.162642
64.065456
65.636635
62.157512
56.209564
44.741631
35.758615
24.173856
16.989708
10.890961
7.690787
5.114675
3.875494
##ZVALUE=350
0.494719
0.460744
0.677705
0.502467
0.340939
0.416636
0.459552
0.469685
0.531673
0.356436
0.554919
0.532866
0.433922
0.492930
0.472665
0.515580
0.396967
0.404716
0.618696
0.630617
0.646710
0.685453
0.665784
0.553727
0.628829
0.699759
0.527501
0.597835
0.579953
0.723600
0.696778
0.567436
0.632405
0.713468
0.708699
0.630617
0.737906
0.746846
0.531673
0.607967
0.752807
0.772476
0.873804
0.951886
0.753999
0.911951
1.023412
0.968575
1.051426
1.072884
1.268983
1.249909
1.371503
1.552701
1.513958
1.774430
2.943873
10.577440
48.992634
113.126636
274.809599
460.948944
765.895844
991.573930
1015.862823
1015.862823
1015.862823
1015.862823
776.965618
529.106855
268.303752
146.151781
55.009723
20.948648
7.774830
5.914569
5.364418
5.108714
5.016923
5.365610
7.292628
10.490417
16.177893
22.566915
34.140944
42.246580
52.001476
57.385564
59.838891
58.209896
51.457882
43.892860
33.047795
25.234818
16.273856
12.129545
##ZVALUE=355
0.464916
0.521541
0.458956
0.415444
0.304580
0.486970
0.536442
0.545979
0.495911
0.469685
0.634789
0.489950
0.489950
0.414848
0.593662
0.576973
0.639558
0.591874
0.679493
0.579953
0.611544
0.726581
0.563860
0.475645
0.628829
0.613928
0.571609
0.533462
0.587702
0.631809
0.558496
0.637770
0.555515
0.605583
0.868440
0.767708
0.690818
0.853539
0.635982
0.749826
0.635982
0.734925
0.829697
0.591874
0.846982
0.752807
0.980496
0.956655
1.021624
0.955462
1.100898
1.259446
1.201630
1.367927
1.381636
1.581907
1.560450
1.732707
2.121925
4.524589
26.931763
72.603822
197.301507
351.158977
641.266704
876.754522
1015.861630
1015.861630
1015.861630
1015.861630
861.550570
635.267496
360.624790
199.653506
76.946616
31.363964
9.490848
5.953908
5.215406
4.857779
4.778504
4.484653
4.726648
6.005764
9.269714
13.238788
20.492673
27.035475
38.325787
45.165420
51.753521
53.737760
52.096844
48.471689
39.970875
33.687949
##ZVALUE=360
0.449419
0.350475
0.404716
0.484586
0.409484
0.385642
0.572801
0.675917
0.484586
0.691414
0.484586
0.656843
0.559688
0.474453
0.647902
0.435710
0.530481
0.570416
0.466704
0.651479
0.564456
0.492930
0.663996
0.561476
0.594854
0.602603
0.620484
0.567436
0.622869
0.602603
0.627637
0.613928
0.638962
0.539422
0.689626
0.701547
0.728965
0.546575
0.670552
0.473857
0.853539
0.688434
0.822544
0.881553
0.607967
0.850558
0.815988
0.811815
0.877976
0.974536
0.888705
1.088977
1.064539
1.039505
1.284480
1.176000
1.299977
1.403689
1.489520
1.840591
2.028942
3.178716
10.461807
46.539903
110.154748
268.417001
461.562872
768.404007
993.271470
1015.850902
1015.850902
1015.850902
1008.677483
717.240572
485.104918
238.810778
124.084949
42.986870
16.026497
6.048679
5.311966
4.729629
4.345775
4.157424
4.176497
4.460812
5.127788
7.669926
10.589957
16.653538
22.922754
32.743812
38.819909
45.734644
48.696995
49.275756
##ZVALUE=365
0.525713
0.520945
0.445843
0.454783
0.489950
0.496507
0.621676
0.567436
0.439882
0.355840
0.528693
0.407696
0.418425
0.512600
0.658631
0.609756
0.419617
0.393987
0.446439
0.486970
0.450611
0.335574
0.437498
0.501871
0.566840
0.571609
0.493526
0.519753
0.715852
0.683665
0.637770
0.658631
0.727773
0.638962
0.583529
0.714660
0.748634
0.527501
0.775456
0.828505
0.798702
0.786781
0.839829
0.679493
0.823736
0.816584
0.746846
1.035929
0.945926
0.968575
1.023412
0.928640
1.136661
1.201630
1.028776
1.119971
1.135468
1.231432
1.159906
1.526475
1.427531
1.785755
2.143979
2.295971
4.528761
25.917888
70.155859
187.841654
345.799923
636.170506
861.495733
1015.861630
1015.861630
1015.861630
1015.861630
819.522738
589.316487
326.561928
175.668001
62.287450
23.931861
6.865859
5.092621
4.656911
4.243851
4.078746
3.822446
3.611445
3.972650
4.271865
5.718470
9.326935
13.187528
20.412803
26.791692
34.652948
##ZVALUE=370
0.343919
0.315905
0.292659
0.370741
0.584722
0.326633
0.390410
0.355840
0.170469
0.326633
0.257492
0.329614
0.392795
0.297427
0.288486
0.377893
0.410676
0.272989
0.356436
0.406504
0.417829
0.292659
0.408888
0.405908
0.404716
0.304580
0.375509
0.335574
0.466704
0.488758
0.504851
0.544786
0.413656
0.585914
0.475645
0.520945
0.419617
0.508428
0.562668
0.648499
0.538826
0.583529
0.632405
0.593662
0.640750
0.645518
0.682473
0.633597
0.488758
0.751615
0.658631
0.693798
0.622869
0.839829
0.887513
0.860691
0.842810
1.005530
0.952482
0.934601
1.079440
1.146793
1.202822
1.544952
1.568794
1.803637
2.623796
13.226867
43.931603
141.677856
264.959931
502.520800
740.350485
1009.891033
1015.728712
1015.728712
1015.728712
922.335982
688.963532
392.396450
224.100947
88.214874
39.125681
11.968613
5.611777
4.148483
4.043579
3.537536
3.411770
3.240705
2.967715
3.112555
3.568530
5.149841
7.498860
11.515617
##ZVALUE=375
0.508428
0.392795
0.401735
0.459552
0.535846
0.521541
0.461936
0.498891
0.452995
0.444651
0.475645
0.499487
0.481606
0.393987
0.324845
0.467896
0.484586
0.441670
0.580549
0.438690
0.515580
0.383854
0.510812
0.519753
0.568628
0.660419
0.635982
0.450611
0.409484
0.592470
0.591874
0.527501
0.509620
0.679493
0.658631
0.554919
0.441670
0.598431
0.662804
0.786781
0.588894
0.503659
0.681877
0.617504
0.659823
0.693798
0.846982
0.688434
0.688434
0.792742
0.621676
0.603795
0.776649
0.844598
0.746846
0.760555
0.826716
0.831485
0.884533
0.996590
1.003742
1.090765
1.220703
1.080632
1.276731
1.425743
1.526475
1.811981
2.314448
6.894469
24.675727
92.203617
195.309520
419.824719
632.197857
917.564631
1015.861630
1015.861630
1015.861630
1006.470919
809.863806
506.723523
322.308540
157.977939
77.850819
23.128986
8.389950
4.402995
3.878474
3.805757
3.434420
3.185868
3.033876
2.926588
3.030896
3.197789
##ZVALUE=380
0.315905
0.146627
0.335574
0.261664
0.329614
0.459552
0.385642
0.218749
0.405908
0.558496
0.439882
0.370741
0.296831
0.353456
0.355840
0.351667
0.449419
0.316501
0.263453
0.360608
0.452995
0.467896
0.358820
0.385642
0.332594
0.376701
0.274777
0.403523
0.449419
0.354648
0.550747
0.418425
0.440478
0.527501
0.582933
0.495911
0.519753
0.476837
0.526905
0.536442
0.604987
0.615716
0.527501
0.654459
0.525713
0.577569
0.588894
0.588894
0.505447
0.501871
0.634789
0.651479
0.690818
0.594854
0.663996
0.676513
0.680685
0.750422
0.726581
0.797510
0.864863
0.795722
0.907779
0.977516
1.154542
1.105666
1.316667
1.342893
1.415610
1.936555
1.883507
3.558993
12.817979
60.608983
137.753487
321.875811
519.437790
812.907815
1006.981730
1015.805006
1015.805006
1015.805006
911.520720
639.441013
434.628725
215.521455
110.662580
37.209988
13.872981
4.763603
3.911853
3.638864
3.486872
3.299713
3.098845
2.890825
##ZVALUE=385
0.483990
0.532866
0.541806
0.474453
0.358820
0.449419
0.492930
0.531673
0.505447
0.413656
0.451803
0.483990
0.498891
0.440478
0.427961
0.366569
0.436902
0.605583
0.535846
0.539422
0.586510
0.635982
0.596642
0.498891
0.380874
0.584722
0.499487
0.481606
0.460744
0.673532
0.629425
0.747442
0.572801
0.628829
0.632405
0.683665
0.647902
0.723600
0.575781
0.796914
0.758767
0.659823
0.659823
0.584722
0.669956
0.518560
0.800490
0.755787
0.717640
0.780821
0.706911
0.679493
0.799894
0.797510
0.789762
0.885725
0.843406
0.791550
0.793934
0.844598
0.984669
0.661612
0.907779
1.066923
1.042485
1.199841
1.091957
1.159906
1.417994
1.501441
1.684427
1.772642
1.885891
2.498627
6.452799
34.288764
88.259578
222.698450
396.965742
696.656704
925.386548
1015.954614
1015.954614
1015.954614
1010.593772
770.046711
553.944707
303.688645
173.932910
69.815516
26.770830
6.979704
4.177690
3.800988
3.396869
3.262758
##ZVALUE=390
0.394583
0.470877
0.577569
0.465512
0.589490
0.567436
0.457764
0.431538
0.341535
0.592470
0.450611
0.518560
0.330806
0.571609
0.534654
0.505447
0.536442
0.565648
0.478625
0.621676
0.555515
0.551939
0.596642
0.634789
0.588894
0.536442
0.495911
0.364780
0.533462
0.514984
0.446439
0.522733
0.559688
0.532866
0.630617
0.628829
0.628829
0.572801
0.559688
0.504851
0.652671
0.553727
0.692606
0.664592
0.604987
0.511408
0.645518
0.828505
0.836849
0.637770
0.799894
0.605583
0.734925
0.859499
0.731945
0.729561
0.788569
0.770688
0.615716
1.042485
0.825524
0.964999
0.930429
0.942945
0.959635
1.052618
0.937581
1.154542
1.252890
1.355410
1.448989
1.583695
1.715422
1.784563
1.777411
1.952648
3.279448
18.223524
56.902766
171.559453
319.503546
594.739914
809.589624
1015.931964
1015.931964
1015.931964
1015.931964
907.931924
699.583888
429.141521
249.359608
102.037787
46.323538
13.337731
5.158782
3.813505
##ZVALUE=395
0.440478
0.430942
0.511408
0.445843
0.528693
0.516772
0.496507
0.496507
0.424981
0.488758
0.312924
0.428557
0.465512
0.397563
0.329614
0.528693
0.436902
0.420809
0.394583
0.620484
0.551939
0.501871
0.384450
0.339746
0.418425
0.446439
0.507832
0.513792
0.469685
0.533462
0.526905
0.652671
0.493526
0.535846
0.610948
0.540614
0.630617
0.496507
0.637770
0.621676
0.537634
0.605583
0.655651
0.731945
0.626445
0.557899
0.639558
0.740886
0.740886
0.753999
0.803471
0.770688
0.658631
0.732541
0.754595
0.749826
0.690818
0.671744
0.608563
0.864863
0.829697
0.782609
0.815988
0.897646
0.939965
0.944734
1.202822
1.123548
1.184940
1.267791
1.244545
1.344681
1.401901
1.560450
1.553893
1.610518
1.627803
1.807809
2.188683
10.194778
35.890937
122.666955
232.705474
441.767573
652.537942
947.186947
1015.918851
1015.918851
1015.918851
1015.918851
832.971931
521.617532
326.388478
143.051744
67.486763
20.699501
##ZVALUE=400
0.464916
0.416636
0.384450
0.377893
0.354648
0.369549
0.406504
0.367761
0.381470
0.215769
0.294447
0.267625
0.268817
0.426769
0.290871
0.303984
0.372529
0.353456
0.345707
0.381470
0.342727
0.302792
0.484586
0.391603
0.326633
0.318885
0.360608
0.408888
0.383854
0.183582
0.190735
0.355840
0.396967
0.419617
0.520945
0.425577
0.432730
0.451803
0.578761
0.606775
0.479817
0.356436
0.508428
0.437498
0.546575
0.560880
0.577569
0.439882
0.638962
0.540614
0.583529
0.831485
0.625849
0.559688
0.558496
0.581741
0.597835
0.620484
0.599623
0.716448
0.621676
0.688434
0.663996
0.735521
0.779629
0.910759
0.788569
1.122952
1.115799
1.111627
1.130700
1.223683
1.120567
1.092553
1.195669
1.136661
1.103878
1.151562
1.379848
1.582503
1.788735
5.298853
18.547773
69.792867
151.141882
337.780714
537.370443
833.033919
1009.962559
1015.782952
1015.782952
1015.782952
902.748704
606.482625
402.395725
204.867721
##END
