##TITLE=FDDW02
##FORMAT=SPECTACLE-ASCII V-1.2
##DATA TYPE=ULTRAVIOLET SPECTRUM
##SECOND TYPE=ULTRAVIOLET SPECTRUM
##DATE=03/29/18
##TIME=13:53:31
##SPECTROMETER/DATA SYSTEM=SPECTACLE
##XUNITS=NM EM
##YUNITS=ENERGY
##YFACTOR=1
##FIRSTX=220
##LASTX=410
##NPOINTS=96
##3DDATA=Equidistant
##ZUNITS=NM EX
##FIRSTZ=210
##LASTZ=400
##ZPOINTS=39
##XYDATA=(Y..Y)
##ZVALUE=210
16.703606
14.263988
14.426708
11.927485
10.440946
9.107590
9.620786
8.766651
7.200837
5.346537
4.243851
3.220439
2.932549
3.022552
3.353953
3.049970
2.835989
3.173947
3.180504
2.914667
3.334880
3.953576
4.113913
5.016923
6.359816
9.051561
9.357929
13.143420
16.535521
21.260977
25.688410
30.076504
31.409860
33.762455
35.848618
37.499666
37.892461
39.962530
37.433505
34.674406
35.121441
34.252405
29.471517
29.134750
27.419925
27.063489
26.415586
20.795465
20.768642
19.831657
18.513799
17.811656
16.218424
17.131567
15.726686
14.773607
14.833808
12.628436
12.932420
12.555718
12.188554
11.702776
10.570884
10.230541
10.384917
9.806752
9.715557
9.753704
11.751652
12.099743
14.703870
14.978647
16.760826
18.921494
20.391941
22.035837
22.347569
20.287633
20.735860
20.293593
18.323660
16.532540
14.865994
12.566447
10.679960
9.501576
7.371902
6.963611
8.190870
9.371638
10.226965
13.139844
20.318627
21.758676
29.695630
34.360886
##ZVALUE=215
47.259927
43.490529
34.977794
27.669668
22.623539
17.354488
15.976429
16.024709
14.406443
14.147758
11.135936
9.121895
6.391406
5.691648
4.326701
3.425479
3.341436
3.116727
3.273487
3.175735
3.311634
4.536510
4.233718
4.864931
6.876588
8.458495
11.810660
15.915632
19.935966
24.601817
30.320883
35.371780
39.075613
39.813519
42.652488
42.514801
43.937564
44.271946
41.989684
42.605996
40.733814
38.322806
35.787821
32.125711
33.078790
30.507445
28.872490
26.632547
25.552511
22.649765
21.953583
21.060705
20.128489
19.406676
16.934872
16.833544
15.548468
15.404820
14.015436
14.067888
12.836456
13.582706
12.089610
11.225939
10.770559
10.730624
10.300875
12.043715
11.942983
11.649728
12.329817
15.584826
16.076565
18.620491
18.595457
19.974709
19.358993
18.874407
17.889738
16.775727
15.991926
15.010834
13.680458
10.559559
10.125637
8.960962
7.408857
6.519556
6.779432
7.184744
5.909801
6.861687
7.574558
8.733869
9.261966
13.339520
##ZVALUE=220
97.932816
93.120933
87.158680
77.290535
65.984726
48.745871
40.534735
30.353665
28.494596
25.722980
24.948716
25.307536
22.295713
19.077659
15.479922
10.891557
7.445812
5.461574
4.419684
4.210472
4.157424
4.335642
3.919601
5.062819
6.654859
10.838509
12.820959
17.761588
22.065639
28.138757
32.811761
40.159822
44.645667
47.737956
49.204826
51.589608
51.031709
50.326586
52.016973
49.687624
46.252608
45.842528
42.875409
36.965609
38.170815
34.183860
33.083558
29.956698
26.860833
26.579499
24.277568
23.134947
20.570755
18.473864
18.221736
17.040968
17.592907
16.345978
15.145540
14.625788
14.569759
13.497472
11.938810
12.714863
11.775494
10.162592
10.863543
12.481809
12.019873
12.252927
12.020469
14.582872
13.835430
15.536547
16.519427
17.532706
17.712712
16.785860
16.400814
16.307831
15.620589
14.156699
11.851788
10.671616
10.139942
8.482933
7.011890
7.356405
6.951690
6.503463
5.813837
6.390810
6.061792
6.086826
5.829930
5.856752
##ZVALUE=225
123.313665
130.088925
145.637989
161.342621
154.875517
141.017437
121.611953
84.377527
60.395598
49.104691
39.160848
38.160682
40.556788
39.104819
34.937859
33.601522
27.028918
21.589994
15.839934
9.438992
6.742477
5.211830
5.008578
4.787445
6.611943
9.678602
11.628866
16.168952
19.825697
26.275516
31.215549
34.686923
38.414598
44.112802
46.918988
44.224858
46.777725
45.946836
43.768883
41.938424
42.081475
39.818883
39.435625
36.209822
32.953620
31.108856
30.014515
26.996732
28.111935
25.418997
22.803545
23.489594
20.796657
20.232797
17.437935
17.060637
16.710758
14.939904
15.019774
15.644431
13.238788
12.898445
12.658834
11.927485
11.145473
12.538433
10.526776
11.978745
13.546944
12.182593
13.997555
13.033748
14.379621
13.945699
14.833808
16.122460
14.311671
13.392568
14.426708
14.259815
12.584925
11.617541
10.819435
10.435581
8.866787
8.449554
8.451939
7.418990
8.228421
7.304549
6.416440
6.537437
6.977916
6.916523
6.067753
7.312894
##ZVALUE=230
90.465546
99.818707
140.799880
197.142959
238.242745
266.237855
267.566442
243.544579
207.556486
168.304443
112.692714
83.040595
63.666701
55.624843
56.739450
60.746670
60.916543
54.626465
49.882531
39.317608
29.967427
19.367933
12.468696
7.396936
7.727742
6.908774
9.241700
12.079477
14.376640
16.727448
18.810630
23.289919
24.547577
29.347539
29.713511
31.050444
30.949712
29.049516
30.312538
30.504465
30.651689
28.662682
28.641820
27.332902
24.842620
25.030971
22.900701
21.077991
20.972490
20.830631
18.664598
17.430782
17.533898
16.205907
16.320944
14.967918
14.282465
14.258623
13.967752
14.081597
14.158487
13.718605
13.525486
12.884736
12.760758
11.588931
12.255907
12.650490
12.622476
12.263656
13.700724
14.809966
15.248656
14.198422
14.535785
15.972853
16.159415
15.588999
15.642643
13.008714
13.308525
12.525916
11.401772
10.866523
9.181499
8.946657
8.904934
7.509589
8.728504
8.235574
7.715821
6.428957
6.384850
7.483959
7.459521
8.034706
##ZVALUE=235
27.092695
33.332705
62.930584
126.900673
199.625492
296.642780
360.232592
430.499911
444.177985
430.442691
363.337994
286.344886
195.569992
143.430829
101.777911
86.270571
80.278516
86.369514
90.183616
90.505481
82.902908
66.188574
55.916905
37.389994
26.962757
16.623735
11.522770
11.224747
10.146499
11.325479
12.530684
13.564825
14.275908
15.744567
15.723705
16.958714
18.327832
18.115640
18.095970
17.080903
17.541647
18.236637
17.746687
17.222762
16.180873
15.339851
17.340779
15.422702
15.609860
16.543865
15.015602
14.594793
14.508963
14.586449
14.089942
13.653636
13.998747
14.650822
12.850761
13.439655
12.687445
13.000965
12.864470
13.455749
12.420416
12.723804
12.613535
12.350678
13.655424
13.435483
13.919473
15.077591
15.915632
16.500950
17.834902
18.096566
17.418861
16.227961
16.951561
14.220476
13.153553
12.604594
12.250543
11.114478
11.401772
9.338856
9.533763
8.777976
8.570552
8.271933
9.475946
10.422468
8.829832
8.302927
8.352995
7.762909
##ZVALUE=240
2.453923
2.666712
11.235476
25.402904
72.627664
135.124922
255.935788
362.643003
500.826836
587.137938
620.757937
607.150793
537.761450
415.307879
311.050415
195.688009
141.328573
100.569725
97.977519
103.983879
107.677579
114.226937
114.046931
99.588633
80.089569
63.669682
44.476986
32.820702
20.587444
15.480518
12.546778
11.315942
11.638999
12.708902
13.160706
14.117956
13.389587
13.257861
14.485717
14.983416
14.474988
15.753508
15.067458
17.911792
14.861822
16.018748
15.973449
13.190508
13.515949
14.108419
13.942719
12.053847
13.302565
13.717413
13.068914
11.847615
12.785792
12.472868
12.048483
11.952519
13.178587
10.728836
12.172461
13.324618
12.314916
11.631846
12.011528
12.149811
11.767745
13.811588
13.588667
13.873577
16.109943
15.027523
15.464425
16.866922
16.434789
14.477968
15.371442
14.386773
12.975931
12.706518
12.016892
11.410713
11.127591
11.073947
9.731650
9.665489
9.146929
9.351969
9.345412
9.386539
9.174943
9.886622
7.308722
8.388758
##ZVALUE=245
1.786947
1.966953
2.008677
2.225637
6.638765
18.924475
62.165856
124.443769
265.509486
390.511751
576.079488
692.609549
762.839913
766.751766
689.994693
548.786521
427.612662
282.330513
193.004608
124.722719
98.753572
97.422004
112.500787
118.914843
125.664473
117.418766
110.831857
96.375942
72.243810
53.352714
41.121840
24.832487
20.838976
16.228557
15.260577
14.506578
14.094710
15.904903
16.252995
16.120672
15.915632
15.774965
16.614795
15.588999
15.053749
15.466809
14.874935
14.641881
14.556646
14.238954
13.154745
14.332533
13.470650
12.844801
12.383461
12.519956
11.883974
12.502670
11.797547
11.751652
10.696650
11.235476
11.687875
10.604858
10.365844
10.517836
10.124445
10.145903
11.055470
11.374950
11.171699
13.690591
14.210939
15.633702
14.386773
14.587641
14.855862
14.151931
14.135838
12.596846
11.750460
10.472536
10.973811
10.637641
10.591745
8.590817
8.825660
7.799864
8.723736
8.722544
8.741617
8.240938
7.459521
7.346869
8.340478
7.798672
##ZVALUE=250
1.674891
1.791716
2.093911
1.919866
1.873970
2.433658
3.209710
13.870001
40.642619
112.912655
209.662914
387.751460
541.652441
710.524917
788.766742
837.228894
797.218680
675.312877
552.482605
364.468694
248.473883
168.322921
106.192827
92.909932
105.007887
117.586851
131.937861
135.355592
134.373903
123.915672
103.274584
82.755685
65.220594
42.506456
32.698512
25.221705
21.782517
20.568967
20.056963
20.529628
19.377470
19.613504
18.891692
18.292665
19.195676
17.017722
17.161965
16.571879
17.217994
15.811920
15.786886
14.530420
13.947487
13.498664
13.190508
12.745857
12.009740
11.886954
11.012554
11.502504
11.359453
11.625886
10.523796
9.853840
9.871721
9.577870
9.238720
9.506941
9.673834
9.016991
11.252761
10.862947
11.966825
12.822747
12.100935
11.821985
11.651516
11.352897
10.959506
10.744929
10.603666
9.272695
8.625984
7.868409
8.044839
7.711649
6.937981
6.742477
7.538795
7.657409
7.424951
6.931424
6.784797
7.013679
6.690621
6.152987
##ZVALUE=255
1.477599
1.466870
1.735687
1.498461
1.473427
1.715422
1.819730
1.845956
2.174973
5.773902
30.969977
75.284839
149.744749
304.456949
443.537831
649.547577
770.195723
869.455934
876.669884
793.151855
667.758584
519.779921
322.130919
211.785436
117.140412
92.956424
89.733005
103.556514
128.813982
144.333839
154.112577
146.616697
143.539906
117.616653
97.161531
68.675876
55.773854
40.581822
32.834411
28.278828
26.730895
25.470853
25.657415
24.893880
24.577975
22.687912
21.945834
20.105839
20.728707
19.624829
18.347502
17.395616
16.710758
16.182661
14.597774
14.214516
13.973713
13.000965
12.739897
11.689663
11.181831
11.794567
10.292530
9.888411
10.450482
9.215474
9.180903
9.664893
9.747744
9.413958
9.763837
10.575652
10.465980
11.696815
10.936856
10.836720
9.667873
8.893609
9.298921
9.187460
8.581877
7.489920
7.812977
6.434917
6.341934
6.688833
6.303787
6.069541
5.511642
6.060600
6.133914
6.141663
5.972981
6.811619
5.803704
5.969405
##ZVALUE=260
1.416802
1.241565
1.311898
1.255870
1.227856
1.500845
1.562834
1.599789
1.708865
1.740456
2.235770
2.901554
13.499856
38.840771
107.215643
205.488801
383.682847
538.748503
687.763691
869.426727
940.767527
903.250575
805.617571
609.854460
447.865725
263.476968
177.456737
105.640888
87.534785
95.854998
112.819672
145.395994
158.350468
169.493556
167.278647
149.173737
133.704543
103.105903
85.019469
64.586997
49.826503
40.655732
34.570694
33.103824
29.765964
28.487444
27.016997
26.347637
24.475455
22.171736
21.747947
20.627975
19.392967
17.970800
17.450452
15.720725
15.411973
14.069676
13.553500
12.816787
11.685491
11.373758
11.343956
10.793805
10.778904
9.203553
9.543896
10.071993
9.800792
9.671450
9.592772
9.889603
9.574890
10.130405
9.035468
8.819699
9.291768
8.200407
8.166432
8.170605
7.853508
6.693602
6.610751
6.476641
6.444454
5.401969
5.414486
5.283952
5.354881
5.397797
4.901886
4.898906
4.885793
5.163550
5.236864
5.696416
##ZVALUE=265
1.369715
1.279712
1.341701
1.255870
1.450777
1.368523
1.443624
1.598597
1.705885
1.667738
1.977682
1.837611
1.927614
2.183914
5.707741
26.743412
65.158010
158.366561
272.776484
485.973954
665.577650
828.558803
974.387527
1004.753709
894.757509
761.433840
556.171536
399.941802
235.786438
149.835944
105.898976
90.910792
104.551911
133.684874
153.841972
175.587535
183.623433
174.874663
164.342523
137.987733
116.129518
87.586641
67.909956
50.609708
42.810440
34.843683
32.594800
29.699802
27.267933
25.455952
24.412870
23.016930
21.371841
20.738840
19.021630
17.203689
16.572475
15.687943
14.890432
14.223456
13.442636
12.579560
11.384487
10.596514
9.921789
9.959936
10.231733
9.135604
9.179711
8.577704
9.174943
9.428859
9.177923
9.014606
8.897781
8.329749
8.641481
7.786751
8.114576
6.963611
6.757975
6.612539
6.410480
6.102920
5.769730
5.229712
5.535483
5.442500
5.157590
5.104542
4.824996
5.060434
4.775524
4.897714
4.844666
4.837513
##ZVALUE=270
1.129508
1.421571
1.313686
1.123548
1.217723
1.179576
1.266599
1.220703
0.969768
1.317859
1.566410
1.518726
1.678467
1.787543
1.965761
2.008677
2.844930
12.696981
37.306547
113.471746
219.132900
372.427702
622.785687
815.112591
1000.736952
1015.864015
1012.098789
917.629004
719.445944
537.025928
375.167727
215.675831
135.209560
91.150999
91.241002
116.828680
135.088563
163.641572
181.996822
184.667706
179.473758
162.116885
139.535666
109.600425
86.337924
62.298775
49.465895
39.287806
31.735897
27.754903
24.985671
22.776723
21.291971
20.122528
18.531680
17.430782
16.250610
15.192628
14.634728
13.257861
12.320876
12.230873
11.221766
10.563731
10.357499
9.799600
9.062886
9.405613
9.179711
8.480549
8.716583
8.650422
8.508563
8.216500
8.477569
7.808805
7.893443
7.668734
7.344484
6.898642
6.407499
6.476641
6.115437
5.228519
5.966425
5.856752
5.128980
5.116463
4.638433
5.072951
4.969835
4.627705
4.752874
4.722476
4.374981
4.612803
##ZVALUE=275
1.001954
1.063943
1.123548
1.086593
1.036525
1.110435
1.136661
1.393557
1.379848
1.505613
1.340508
1.244545
1.412630
1.565814
1.480579
1.635551
1.684427
1.873970
2.158880
6.647706
23.204684
59.687495
171.574950
309.484005
550.396442
739.339590
948.946476
1015.895605
1015.895605
1013.807654
852.701664
670.553446
478.647947
267.433524
164.576769
91.061592
74.525476
85.380673
103.574991
130.778551
151.022673
167.831779
173.730850
166.535974
150.063634
125.316978
102.883577
76.398849
57.485700
41.645765
31.769872
25.040507
21.234751
18.672943
16.898513
16.420484
14.910698
14.072657
13.544559
12.481809
12.256503
11.128783
10.761619
10.393858
9.655952
9.024739
8.745790
8.076429
8.540750
8.240938
7.891655
8.333921
8.495450
8.160472
8.199811
7.902980
7.356405
7.473826
7.147789
6.583929
6.489754
6.252527
5.966425
5.143881
5.754828
4.953742
5.159974
4.960895
4.959702
4.743934
4.692674
4.750490
4.467964
4.560947
4.226565
4.283786
##ZVALUE=280
0.966787
0.921488
1.113415
1.030564
1.069903
1.103878
1.342893
1.180768
1.269579
1.390576
1.247525
1.180768
1.419783
1.463890
1.336932
1.600981
1.443624
1.727939
1.871586
2.004504
1.932979
2.913475
14.891624
47.751665
139.989853
248.739719
449.657440
636.323690
878.084898
1012.529731
1015.949845
1015.949845
984.548926
749.209523
554.498434
323.737860
197.766423
95.453858
61.589479
55.231452
67.491531
91.868639
113.278627
138.221979
150.657892
158.651471
152.513981
134.943724
117.918849
87.603927
68.253875
45.683980
32.504797
22.567511
16.598701
12.933612
11.885762
11.268854
11.192560
10.388494
9.831786
9.636879
9.477735
8.961558
8.251667
7.966757
7.996559
7.601976
8.084774
8.336902
7.847548
8.006692
8.064508
7.713437
7.713437
7.194877
7.237792
6.906986
6.749630
6.320477
6.365776
6.128550
5.945563
5.794764
5.242825
5.020499
5.054474
4.756451
4.988909
4.835725
4.672408
4.624724
4.467964
4.631877
4.242659
4.150867
##ZVALUE=285
0.851750
0.797510
0.858903
0.928640
0.950694
1.041889
0.932813
0.979900
1.033545
1.172423
1.007915
1.172423
0.976920
0.953674
1.153946
1.300573
1.385808
1.327991
1.042485
1.405478
1.548529
1.748800
2.162457
2.476573
5.975962
30.201674
72.685480
182.633996
312.938690
539.733768
729.741454
965.467691
1015.861630
1015.861630
1015.861630
865.575075
673.559904
415.591598
259.215832
125.649571
67.840815
39.245486
40.155649
56.666732
75.355768
104.451776
122.127533
140.046477
143.411756
140.747428
128.163695
104.920864
85.440874
59.524775
42.718649
26.282668
18.168688
11.624694
9.507537
8.290410
7.844567
7.833838
7.983446
7.288456
7.180572
7.171631
7.354617
6.885529
6.817579
7.242560
6.989837
7.223487
7.104874
7.057786
6.886721
6.772876
6.737709
6.635785
6.028414
5.952716
5.685687
5.705953
5.496740
5.481839
5.112886
5.445480
5.128980
5.153418
4.655719
4.591942
4.412532
4.508495
4.504919
4.548430
4.357696
4.394650
##ZVALUE=290
0.830889
0.746846
0.773668
0.797510
0.782609
0.885725
0.927448
0.997782
0.854731
1.130700
0.980496
1.101494
1.006722
0.906587
1.062751
1.213551
1.064539
1.029968
1.108646
1.540780
1.410842
1.495481
1.581907
1.661777
1.764894
1.994967
2.976656
10.330677
45.688748
102.213621
167.664886
392.787457
589.983463
869.441032
1012.492776
1015.812755
1015.812755
964.794755
790.794492
532.330871
354.452729
176.348686
93.174577
37.711859
27.009845
35.170913
49.189925
71.166754
89.082718
115.907788
129.878521
137.992501
136.494637
122.918487
105.115771
77.806711
58.460832
37.107468
24.964809
15.456676
10.988712
8.207560
7.087588
6.295443
6.498694
6.035566
5.996823
6.355643
6.037951
6.671548
6.883740
6.715655
6.398559
6.656647
6.355643
6.416440
6.180406
6.323457
5.966425
5.750656
5.488992
5.437732
4.986525
5.060434
5.068779
4.939437
4.798770
4.763603
4.830956
4.569888
4.664660
4.642606
4.605651
4.323721
4.545450
4.045963
##ZVALUE=295
0.983477
0.799894
0.918508
0.849962
0.908971
0.747442
0.917912
0.749826
0.851750
0.857711
0.975728
1.093745
1.031756
0.991821
1.095533
1.210570
1.137853
0.988841
1.210570
1.182556
1.096725
1.212955
1.233816
1.256466
1.401901
1.554489
1.826882
1.825690
2.020597
5.674958
18.805861
72.391629
148.438811
321.871638
497.728586
763.842463
950.695872
1015.861630
1015.861630
1015.861630
888.437033
631.000996
435.838699
230.000615
128.296614
49.444437
24.909973
21.539927
28.767586
46.278834
63.468814
86.443424
103.410482
123.869777
131.497979
126.269460
115.883946
94.890594
76.996684
54.235458
37.600994
22.397637
15.472770
9.986758
7.595420
6.198883
5.845428
5.487800
5.711913
5.645752
5.721450
5.998611
5.911589
6.141663
5.823970
5.995631
6.085634
5.764961
5.754828
5.551577
5.627871
5.275607
5.143881
4.857779
4.869699
4.936457
4.983544
4.831553
4.383922
4.624724
4.464984
4.347563
4.439950
4.308820
4.130602
4.261732
##ZVALUE=300
0.805855
0.879765
0.857711
1.020432
0.777841
0.785589
0.815988
0.682473
0.889897
0.809431
0.925660
0.654459
0.804663
0.812411
0.781417
0.954866
0.894666
1.000762
1.082420
1.122952
1.097918
1.123548
1.150966
1.210570
1.210570
1.342893
1.505613
1.488924
1.743436
1.690984
2.032518
2.575517
10.397434
34.051538
108.406544
207.381845
413.175821
612.175465
877.871513
1011.193991
1015.861630
1015.861630
967.531800
790.444613
525.200963
341.591835
170.499682
91.446638
34.238696
17.781854
18.214583
24.743676
40.289760
56.381822
79.073906
96.587539
115.955472
123.040676
121.340752
111.974478
94.026923
76.028705
54.458976
38.838983
23.194551
14.711618
9.341836
6.778836
5.360842
5.098581
5.635619
5.458593
5.436540
5.298853
5.486608
5.294681
5.477667
5.264878
5.148649
4.891753
4.801750
4.758835
4.798770
4.801750
4.604459
4.890561
4.577637
4.493594
4.547834
4.659891
4.589558
4.326701
4.356503
4.535913
4.279613
3.943443
##ZVALUE=305
0.754595
0.816584
0.679493
0.777841
0.752807
0.691414
0.822544
0.856519
0.795722
0.815988
0.676513
0.823736
0.958443
0.842810
0.895858
0.829697
0.873804
0.808835
0.696778
0.880957
0.791550
0.947714
0.849962
1.085997
1.134872
1.302958
1.176596
1.339912
1.382828
1.403689
1.603961
1.687407
1.853704
2.264977
4.012585
22.673607
61.481595
167.181492
295.767784
527.689457
726.775527
968.107581
1015.861630
1015.861630
1015.861630
828.185678
642.049909
403.339863
248.741508
112.968683
54.732561
19.989610
13.228655
15.758872
23.168921
38.260818
52.526593
75.141788
91.714859
110.026002
116.039515
114.525557
107.509494
88.350773
72.761774
49.164891
35.596490
21.243691
14.435649
8.549690
6.466508
5.674958
5.258918
5.301833
5.225539
5.230904
4.875660
4.933476
4.888773
4.914999
4.796982
4.837513
4.713535
4.685521
4.709959
4.647970
4.722476
4.582405
4.583597
4.545450
4.256964
4.408956
4.402995
4.102588
4.024506
3.911853
##ZVALUE=310
0.633597
0.851750
0.651479
0.768900
0.789762
0.757575
0.697970
0.637770
0.770688
0.864863
0.652671
0.906587
0.861883
0.946522
0.917912
0.797510
0.792742
0.837445
0.918508
0.823736
0.991821
0.842810
1.016855
0.947714
1.094937
1.065731
1.023412
1.283884
1.214743
1.324415
1.061559
1.549721
1.518726
1.498461
1.601577
1.924634
2.176762
9.839535
32.068491
100.180507
194.781423
393.774509
589.072704
854.517817
1007.950902
1015.861630
1015.861630
972.411633
797.926784
529.837608
349.716544
172.721744
90.362430
31.491518
14.703870
10.514855
13.335943
20.882487
31.048656
47.991872
63.880682
85.638762
98.316669
107.685924
109.962821
100.786686
88.825822
69.999695
52.340627
33.515692
23.704767
14.402866
9.842515
6.599426
5.806684
5.143881
4.808903
4.921556
4.783869
4.439950
4.454851
4.211664
4.412532
4.457831
4.466772
4.583597
4.557967
4.317760
4.502535
4.480481
4.502535
4.050732
4.229546
4.164577
3.835559
4.230738
##ZVALUE=315
0.783801
0.702739
0.711679
0.770688
0.736713
0.764728
0.708699
0.827909
0.724792
0.754595
0.852942
0.715852
0.952482
0.661612
0.810623
0.850558
0.750422
0.816584
0.880957
0.937581
1.062751
0.908971
0.971556
0.811815
1.058578
1.070499
1.051426
0.977516
1.133680
1.077652
1.232624
1.150966
1.338720
1.513958
1.510978
1.551509
1.726747
2.010465
2.085567
4.539490
15.944839
64.017773
136.504769
298.175812
481.281877
753.557682
932.021737
1015.911698
1015.911698
1013.958454
887.756944
632.752776
442.521572
234.139562
126.243830
45.959949
19.498467
9.376407
9.377599
12.961626
17.851591
29.829741
41.344762
61.036944
76.174736
94.267726
102.230906
103.127956
96.132755
80.468655
66.976547
48.764944
35.107732
21.053553
13.799667
8.330941
6.542802
5.241632
4.785657
4.450679
4.308820
4.452467
4.476905
4.328489
4.568696
4.329681
4.422665
4.284978
4.330873
4.293919
4.305840
4.409552
4.322529
3.980994
3.845692
3.711581
##ZVALUE=320
0.635982
0.652671
0.651479
0.766516
0.633597
0.542998
0.763535
0.677705
0.679493
0.700951
0.670552
0.754595
0.867844
0.847578
0.784993
0.706911
0.794530
0.738502
0.690818
0.727773
0.842810
0.792742
0.802875
0.985861
0.908971
0.882745
0.845790
0.873804
0.944734
1.025796
0.855923
0.961423
1.058578
1.055598
1.170635
1.369715
1.423955
1.530647
1.508594
1.570582
1.972914
2.555847
7.055402
35.589933
88.400841
224.084854
365.892649
601.364970
792.153478
1003.809571
1015.861630
1015.861630
980.188847
750.409961
547.140837
302.860737
171.588659
70.952773
31.838417
11.219978
7.836819
8.471608
10.593534
17.099977
24.505854
39.288998
53.768754
72.271824
84.971786
96.275806
96.941590
91.332793
80.246925
61.311722
48.045516
30.518770
21.490455
13.301969
9.174943
6.096959
4.984736
4.364848
4.260540
4.277825
4.324913
4.232526
4.081726
4.341602
4.053712
4.071593
4.162788
4.144907
4.144907
4.124641
4.263520
3.977418
##ZVALUE=325
0.664592
0.658631
0.561476
0.719428
0.620484
0.644922
0.478625
0.525713
0.717640
0.656843
0.692606
0.743866
0.750422
0.748634
0.709891
0.697970
0.629425
0.675917
0.636578
0.671744
0.781417
0.569820
0.774860
0.705719
0.861883
0.861883
0.910759
0.893474
0.910759
0.803471
1.063943
0.978708
1.168847
1.017451
1.115799
1.097918
1.225471
1.170635
1.287460
1.432896
1.427531
1.448989
1.591444
1.873970
3.896952
22.489429
58.074594
153.717995
271.725655
497.857928
693.515539
932.937860
1015.861630
1015.861630
1010.762453
811.264515
609.188676
358.014703
219.820738
97.980499
45.745969
14.850497
8.159876
7.137656
7.805824
10.765791
15.204549
25.431514
36.371946
55.174828
67.470670
82.930923
88.929534
90.955496
85.271597
71.586967
57.690740
41.972995
30.164719
18.338561
12.239814
7.488728
5.932450
4.744530
4.301667
4.161596
4.003644
4.162788
3.808737
3.895760
4.039407
4.121661
3.956556
3.815889
3.901720
3.815889
##ZVALUE=330
0.592470
0.443459
0.544786
0.663996
0.443459
0.735521
0.690818
0.533462
0.619888
0.684857
0.633597
0.679493
0.636578
0.698566
0.507832
0.667572
0.543594
0.719428
0.725985
0.836849
0.913739
0.661612
0.854731
0.650883
0.847578
0.745654
0.858903
0.834465
0.686646
0.773668
0.958443
0.878572
0.988841
0.977516
0.963807
1.052618
0.936985
1.112819
1.106858
1.374483
1.190901
1.527667
1.239777
1.367927
1.555681
1.666546
2.593994
9.897947
31.579733
101.931691
194.886923
384.904742
561.771989
818.202496
977.984667
1015.861630
1015.861630
884.310603
704.169869
452.910662
292.405486
135.143995
67.695975
23.733974
10.315776
6.649494
6.157756
7.159710
9.163618
15.075803
22.505522
35.666823
47.818422
65.122843
75.790882
84.903836
84.388852
78.144670
69.742799
53.745508
41.280985
27.015805
18.921494
12.049675
8.389950
5.660653
4.889965
4.473925
4.006624
3.855824
3.860593
3.816485
3.911853
3.881454
3.716946
3.568530
##ZVALUE=335
0.567436
0.679493
0.669956
0.717640
0.807643
0.665784
0.721812
0.544786
0.600815
0.497699
0.569820
0.685453
0.689626
0.578761
0.727773
0.743866
0.625849
0.677705
0.711679
0.805855
0.739694
0.787973
0.674725
0.757575
0.842810
0.706911
0.777841
0.760555
0.852942
0.810623
0.945926
0.817776
0.993609
0.968575
0.909567
1.069903
0.985861
0.879765
0.956655
1.028776
1.120567
1.098514
0.994802
1.166463
1.300573
1.352429
1.353621
1.554489
1.848936
4.531741
15.853643
61.931610
130.814910
290.067792
461.408496
717.635751
898.821950
1015.861630
1015.861630
944.392681
789.161921
540.860891
364.885926
188.898444
97.429752
32.766461
13.852715
7.022619
6.384850
6.018877
6.884933
9.658933
14.072657
23.349524
32.101870
47.163963
58.400631
71.420670
78.333616
79.068542
74.770451
62.033534
51.687956
38.828850
29.411912
18.604994
13.013482
8.338690
6.344914
4.707575
4.324913
3.873706
3.929734
3.825426
3.699660
3.729463
##ZVALUE=340
0.550747
0.684857
0.554919
0.459552
0.711679
0.557899
0.729561
0.580549
0.583529
0.679493
0.720620
0.675917
0.646710
0.568628
0.519753
0.517964
0.589490
0.686646
0.679493
0.693798
0.643730
0.588894
0.534654
0.622869
0.624657
0.722408
0.771880
0.692606
0.620484
0.775456
0.734925
0.848770
0.603795
0.786781
0.849962
0.855923
0.865459
0.886917
0.928640
0.905991
0.959635
1.095533
0.795722
1.070499
1.048446
1.154542
1.170635
1.345873
1.347661
1.520514
1.726747
2.464652
8.016825
38.223863
92.975497
229.015946
379.336476
611.905456
790.632963
970.820785
1015.866995
974.774957
851.137638
627.935529
439.546704
225.769877
123.207569
48.292875
19.230843
7.424951
6.084442
6.028414
6.053448
6.742477
8.666515
13.776422
19.885898
31.308532
42.620897
56.955814
66.988468
72.788000
73.177814
68.879724
61.285496
49.243569
38.599968
27.006865
19.328594
12.431741
8.707643
5.630851
4.558563
4.217625
3.705621
3.631711
##ZVALUE=345
0.726581
0.580549
0.632405
0.716448
0.723600
0.673532
0.675917
0.710487
0.671744
0.551939
0.583529
0.687838
0.595450
0.669956
0.722408
0.731945
0.831485
0.857711
0.684857
0.802875
0.757575
0.828505
0.730753
0.789762
0.658631
0.675917
0.770688
0.687838
0.776649
0.691414
0.991821
0.844598
0.949502
0.875592
0.860691
1.021624
0.903606
1.002550
0.866652
0.969768
1.083612
1.036525
1.046658
1.015663
0.938773
1.051426
1.293421
1.257658
1.227856
1.537800
1.487732
1.397729
1.612902
1.891851
3.808737
21.112561
58.420897
154.355764
275.374651
491.864681
673.473477
891.970992
990.584493
1006.403565
913.985968
702.188015
517.776012
300.746560
168.551803
66.194534
29.908419
10.278821
6.883740
5.631447
5.691648
5.630851
6.235838
8.298755
11.541843
19.665956
27.843714
41.464567
50.801635
60.825944
66.283941
68.466663
65.778494
57.211518
49.011707
37.664771
28.443933
18.204451
13.128519
8.085966
6.143451
4.620552
##ZVALUE=350
0.604987
0.653863
0.660419
0.743866
0.612736
0.455976
0.487566
0.536442
0.580549
0.487566
0.641942
0.491738
0.533462
0.536442
0.558496
0.574589
0.662804
0.660419
0.562668
0.669956
0.728965
0.601411
0.703931
0.677705
0.553727
0.624657
0.736713
0.683665
0.674725
0.701547
0.618696
0.765920
0.776649
0.738502
0.791550
0.786781
0.803471
0.785589
0.796914
0.842810
0.922680
1.019835
1.045465
0.859499
0.928640
0.873804
0.905991
0.880957
1.055598
0.929832
1.093745
1.265407
1.353621
1.328588
1.389980
1.670718
2.359748
10.416508
33.294559
104.351640
197.127461
392.964482
565.997958
788.462758
927.435756
998.284817
952.978730
783.253908
598.917603
355.349779
215.616822
96.419454
43.222904
12.796521
6.917715
5.455613
5.395412
4.701614
4.717708
5.414486
7.214546
11.705756
16.431808
25.144815
33.217669
45.528412
52.827001
60.416460
62.380433
59.807897
54.862499
44.188499
36.113858
25.472641
18.776655
12.155771
##ZVALUE=355
0.524521
0.614524
0.586510
0.715852
0.521541
0.612736
0.491738
0.641942
0.582933
0.635982
0.657439
0.545979
0.452995
0.713468
0.722408
0.656843
0.763535
0.592470
0.685453
0.719428
0.755787
0.803471
0.696778
0.663996
0.647902
0.699759
0.581741
0.663996
0.723600
0.831485
0.670552
0.588894
0.811815
0.787973
0.698566
0.817776
0.835657
0.798702
0.844598
0.908971
0.758767
0.821948
0.777841
0.879765
0.909567
1.133680
0.867844
0.950694
0.987649
1.048446
1.064539
1.193881
1.111627
1.335740
1.315475
1.341701
1.525879
1.476407
1.865625
5.024672
17.898679
68.250895
138.484836
291.657448
458.543897
701.571703
853.778720
966.318846
963.370800
823.221803
666.096807
439.071655
271.973610
119.262934
56.443810
17.695427
8.113980
5.486608
5.156994
4.435778
4.658699
4.682541
4.987717
6.606579
8.809566
14.400482
20.335913
29.741526
38.092732
47.446489
53.527951
56.880713
55.953860
49.750805
43.600798
33.844709
##ZVALUE=360
0.500679
0.611544
0.530481
0.447631
0.585914
0.526905
0.488758
0.531673
0.565648
0.579953
0.604987
0.622869
0.553727
0.558496
0.666976
0.571609
0.589490
0.508428
0.497699
0.612736
0.558496
0.662804
0.609756
0.685453
0.678897
0.692606
0.616908
0.634789
0.507832
0.686646
0.586510
0.736713
0.912547
0.608563
0.706911
0.729561
0.663996
0.717640
0.669956
0.841618
0.811815
0.920892
0.754595
0.897646
0.817776
0.713468
0.801682
0.823736
0.953674
1.019835
1.146793
0.929832
1.004934
1.132488
1.060963
1.200438
1.239777
1.280904
1.575947
1.672506
1.646876
2.682805
8.091927
34.948587
84.260702
210.393667
348.555446
567.821860
746.060610
911.412835
950.961709
868.801475
727.908611
494.925976
332.071781
170.167685
86.167455
29.284954
11.563897
5.659461
4.710555
4.607439
4.383922
4.126430
4.161000
4.528761
5.424619
7.771850
10.540485
16.884804
23.691654
33.245683
40.398836
47.942996
50.885677
50.696731
##ZVALUE=365
0.465512
0.574589
0.537634
0.440478
0.603795
0.547767
0.638962
0.550747
0.635982
0.577569
0.633597
0.611544
0.479817
0.692606
0.638962
0.561476
0.571609
0.849962
0.759959
0.647902
0.686646
0.764728
0.455976
0.734925
0.614524
0.771880
0.631809
0.609756
0.697970
0.564456
0.733733
0.825524
0.679493
0.796914
0.751615
0.582933
0.607967
0.694990
0.687838
0.774860
0.615716
0.726581
0.731945
0.802875
0.774860
0.833869
0.945926
0.849962
0.727773
0.792742
0.905991
0.887513
1.050830
1.010895
1.087785
0.970960
1.061559
1.111627
1.063943
1.258850
1.347661
1.492500
1.704693
1.972914
3.531575
19.547939
52.884817
141.732693
261.602998
479.656458
647.051930
832.069516
918.695927
898.559690
794.363022
580.153465
411.050916
222.583413
119.035840
42.406917
16.751885
6.160736
4.819632
4.705787
4.178882
4.039407
3.851652
3.497601
3.865957
4.603863
6.214976
9.794831
13.375878
20.378828
26.617646
35.037994
##ZVALUE=370
0.357628
0.389814
0.414848
0.361800
0.294447
0.539422
0.317693
0.386834
0.374913
0.402927
0.412464
0.502467
0.439882
0.511408
0.432730
0.421405
0.306964
0.305772
0.396967
0.332594
0.321865
0.247955
0.492930
0.297427
0.293851
0.294447
0.459552
0.606775
0.463724
0.553727
0.455976
0.501871
0.447631
0.454783
0.508428
0.398755
0.453591
0.516772
0.399947
0.504851
0.455976
0.537634
0.619888
0.595450
0.733733
0.523925
0.477433
0.508428
0.592470
0.749826
0.669956
0.590682
0.617504
0.749826
0.609756
0.675917
0.867844
0.713468
0.800490
0.915527
0.887513
1.063943
1.128912
1.226664
1.405478
1.451969
2.079606
9.998679
33.275485
107.145905
201.148987
378.239751
554.211736
772.838593
884.225965
913.079977
838.389993
659.053922
484.627485
269.734859
151.121616
58.522820
26.308894
8.879900
4.896522
4.001856
3.846884
3.538728
3.253818
3.125668
3.133416
3.122687
3.844500
5.544424
7.525682
11.975765
##ZVALUE=375
0.288486
0.261664
0.436902
0.455976
0.462532
0.472665
0.391603
0.434518
0.391603
0.502467
0.469685
0.337958
0.357628
0.471473
0.465512
0.543594
0.514984
0.528693
0.500679
0.493526
0.309944
0.610948
0.430942
0.414848
0.473857
0.532866
0.466704
0.486970
0.475645
0.635982
0.479817
0.588894
0.733733
0.551939
0.749826
0.465512
0.596642
0.497699
0.571609
0.514984
0.753999
0.717640
0.641942
0.563860
0.700951
0.653863
0.527501
0.776649
0.602603
0.678897
0.692606
0.726581
0.570416
0.530481
0.769496
0.604987
0.537634
0.672936
0.788569
0.760555
0.939965
0.782609
0.866652
0.993609
1.072884
1.299977
1.209974
1.321435
1.540780
5.119443
17.321706
63.201785
136.807561
301.343799
463.459492
688.081980
824.149847
910.066962
882.312655
729.936957
563.579798
343.636870
215.361714
103.987455
50.004721
15.535951
6.548762
4.247427
3.811717
3.234744
3.321767
3.064871
2.950430
2.909899
2.847910
3.424883
##ZVALUE=380
0.248551
0.142455
0.159740
0.206828
0.185966
0.177622
0.134706
0.160933
0.205636
0.345707
0.228882
0.194907
0.167489
0.249743
0.214577
0.173450
0.151992
0.217557
0.341535
0.245571
0.159740
0.294447
0.446439
0.283718
0.311732
0.377893
0.426769
0.471473
0.624657
0.642538
0.678897
0.720620
0.695586
0.674725
0.694990
0.620484
0.787973
0.618696
0.669956
0.725985
0.598431
0.716448
0.729561
0.653863
0.831485
0.605583
0.661612
0.609756
0.585914
0.570416
0.535846
0.583529
0.569820
0.455976
0.603795
0.682473
0.644922
0.542998
0.662804
0.780821
0.686646
0.528693
0.644922
0.790954
0.636578
0.824928
0.864863
0.923872
0.983477
1.263618
1.473427
2.397895
11.855960
36.931634
111.488700
210.230947
398.342609
578.927398
788.250566
888.261795
892.925858
811.001658
633.005500
470.950007
272.136927
158.190727
64.130425
28.546453
8.187890
4.245639
3.548861
3.384948
3.140569
3.080964
2.926588
2.613664
##ZVALUE=385
-0.011921
0.053644
0.021458
0.098944
0.053644
0.078678
-0.077486
0.059605
0.007749
-0.026822
-0.025630
0.002980
0.097752
0.037551
0.077486
-0.045896
0.071526
0.080466
0.121593
0.094771
-0.019670
0.014901
0.116825
0.171661
0.221729
0.084639
0.327826
0.425577
0.493526
0.630617
0.647902
0.873804
0.812411
1.094937
1.114607
1.181960
1.237988
1.222491
1.096725
1.147985
1.097918
0.903606
0.854731
0.837445
0.810623
0.863671
0.725985
0.752807
0.626445
0.706911
0.596642
0.538826
0.528693
0.528693
0.529885
0.573993
0.434518
0.493526
0.562668
0.467896
0.582933
0.526905
0.667572
0.462532
0.463724
0.551939
0.759959
0.770688
0.826716
0.874996
1.031756
1.182556
1.210570
1.627803
4.455447
24.918914
65.137744
164.342523
292.511582
512.985587
677.874684
845.264792
890.730619
850.692987
744.449496
545.145869
385.066867
207.271576
115.773678
46.022534
17.898679
5.215406
3.526807
2.946854
2.978444
2.994537
##ZVALUE=390
0.520945
0.535846
0.456572
0.472665
0.449419
0.239611
0.524521
0.553727
0.478625
0.424981
0.458956
0.412464
0.445843
0.509620
0.673532
0.413656
0.492930
0.523925
0.467896
0.510812
0.652671
0.544786
0.556707
0.639558
0.668764
0.824928
0.835657
1.024604
1.203418
1.481771
1.801848
1.861453
2.066493
2.301931
2.229810
2.379417
2.420545
2.464652
2.263784
2.152920
2.144575
2.094507
1.939535
1.878738
1.649857
1.647472
1.613498
1.471639
1.444817
1.554489
1.390576
1.294613
1.151562
1.007915
1.210570
1.144409
0.987649
0.955462
0.793934
1.044869
1.087785
0.780821
0.949502
0.988841
1.077652
1.042485
1.149774
1.238585
1.335740
1.320839
1.353621
1.368523
1.292825
1.408458
1.535416
1.668930
2.472997
13.304949
41.398406
125.926733
235.607624
435.580015
591.343641
771.386027
866.380930
887.802839
819.747448
645.654798
491.577983
295.257568
169.927478
68.032742
31.139851
9.711981
4.820824
3.527999
##ZVALUE=395
0.581741
0.449419
0.441670
0.474453
0.375509
0.549555
0.413656
0.482798
0.302792
0.605583
0.407696
0.449419
0.567436
0.411868
0.463724
0.378489
0.415444
0.453591
0.525713
0.655651
0.419617
0.276566
0.602603
0.677705
0.622869
0.725985
1.014471
1.253486
1.534820
1.846552
2.084970
2.295971
2.528429
2.789497
2.979636
3.070831
3.047585
3.067851
3.041625
2.742410
2.689958
2.760887
2.573729
2.405643
2.094507
2.044439
2.058744
1.875758
1.790524
1.807809
1.469851
1.478791
1.421571
1.309514
1.345873
1.187921
1.165867
0.963807
1.114607
0.918508
1.043677
0.899434
0.923872
1.027584
0.964999
1.010895
1.007915
0.937581
1.266599
1.134872
1.222491
1.443624
1.229644
1.209974
1.238585
1.278520
1.229644
1.416802
1.873970
7.328987
26.459694
89.635849
169.960856
323.403478
479.317904
698.073506
829.376578
911.630988
887.848735
752.813816
588.747859
362.043977
222.964883
95.593929
44.862628
14.296770
##ZVALUE=400
0.620484
0.648499
0.526905
0.602603
0.658631
0.495911
0.542998
0.544786
0.418425
0.495911
0.518560
0.470877
0.518560
0.546575
0.469685
0.539422
0.523925
0.663996
0.505447
0.447631
0.472665
0.584722
0.537634
0.605583
0.629425
0.768900
1.035929
1.165867
1.623631
1.971722
2.259612
2.573729
2.701879
3.047585
3.132820
3.214478
3.416538
3.307462
3.159642
3.089905
3.107786
2.788901
2.710819
2.646446
2.350807
2.274513
2.145767
2.049804
1.728535
1.761913
1.633763
1.574755
1.462698
1.451969
1.286864
1.174808
1.089573
1.235604
1.033545
1.082420
1.118779
1.234412
1.118779
1.115799
1.060963
1.118779
1.110435
1.169443
1.267791
1.226664
1.233816
1.212955
1.162887
1.364946
1.324415
1.317859
1.299977
1.319647
1.328588
1.521707
1.708865
4.041791
13.450980
50.177574
109.062791
245.895982
391.294956
605.999827
748.188496
867.743492
882.090926
778.390765
639.562011
422.026515
276.614428
136.264563
##END
