##TITLE=DDW01
##FORMAT=SPECTACLE-ASCII V-1.2
##DATA TYPE=ULTRAVIOLET SPECTRUM
##SECOND TYPE=ULTRAVIOLET SPECTRUM
##DATE=03/27/18
##TIME=17:11:09
##SPECTROMETER/DATA SYSTEM=SPECTACLE
##XUNITS=NM EM
##YUNITS=ENERGY
##YFACTOR=1
##FIRSTX=220
##LASTX=410
##NPOINTS=96
##3DDATA=Equidistant
##ZUNITS=NM EX
##FIRSTZ=210
##LASTZ=400
##ZPOINTS=39
##XYDATA=(Y..Y)
##ZVALUE=210
10.797977
11.682510
9.245872
7.968545
7.166862
7.269979
6.838441
5.746484
4.556775
4.124641
3.270507
2.272725
2.435446
1.986623
2.056956
2.719760
2.367496
2.164841
1.884699
2.647638
2.370477
3.024936
3.095865
3.185868
3.349781
3.194809
3.531575
3.272891
2.769828
3.501773
3.954768
4.441738
3.413558
3.498793
3.880858
4.136562
4.107952
4.679561
4.551411
4.239678
4.910827
4.681945
4.382730
4.370809
4.303455
4.740953
4.631877
4.719496
4.523993
4.888773
4.565716
4.491806
5.633831
5.935431
5.060434
4.195571
5.174875
4.739761
5.518794
5.138516
4.551411
4.941821
4.680753
4.890561
4.867911
5.114675
4.957914
6.442666
7.602572
8.630753
8.832812
10.369420
11.948943
12.566447
14.553666
12.969971
14.227629
15.253425
13.239980
12.832880
12.414455
10.351539
10.451674
8.108616
6.822944
6.097555
5.496740
5.018711
6.262660
6.456971
9.135604
11.358857
14.419556
16.669631
22.250414
26.452541
##ZVALUE=215
30.510426
30.045509
23.331642
19.037724
14.721751
13.439655
11.789799
11.202693
11.097789
10.428429
9.038448
7.668734
4.712939
4.077554
3.052950
2.349615
2.269745
2.290606
2.730489
2.307892
2.934933
2.495646
3.091693
2.905726
3.076792
3.695488
3.745556
3.965497
3.940463
3.565550
3.987551
4.317760
3.770590
3.631711
3.945827
4.039407
4.827976
4.860759
4.547834
5.311966
4.294515
4.979968
4.477501
5.045533
5.179644
4.723668
4.328489
5.734563
4.273653
4.623532
5.657673
5.524755
4.988909
5.195737
4.814863
5.548596
4.970431
5.300641
5.071759
5.024672
5.182624
5.379915
5.724430
4.873872
5.673766
6.245971
6.144643
7.365942
6.978512
8.866787
9.029508
9.320974
11.067986
13.362765
13.501644
13.212562
13.732910
12.570620
13.164878
13.518929
10.446906
9.070635
8.763671
7.401705
7.284880
6.024837
5.744696
5.613565
4.334450
4.838705
4.702806
4.930496
5.392432
5.184412
8.021593
10.279417
##ZVALUE=220
77.974796
76.638460
72.977543
62.814951
51.251650
38.317442
29.051900
21.772981
20.253658
19.984841
19.960999
18.975735
16.302466
14.400482
11.008978
7.428527
6.466508
4.558563
3.246665
3.267527
3.201962
3.217459
3.797412
2.929568
3.648996
3.323555
3.880858
4.354715
3.952980
3.676414
4.415512
4.487634
4.253983
4.261732
5.070567
4.108548
4.666448
4.518628
4.923940
4.776716
5.573630
4.353523
5.614758
5.027652
4.710555
5.381703
5.444884
4.934669
5.254745
5.097985
6.120801
5.842447
5.217791
6.226897
6.449819
5.959868
5.600452
5.757809
6.238818
5.835891
5.886555
6.689429
7.045865
6.574988
6.912947
5.294681
6.856918
6.732941
8.137822
9.280443
10.425448
10.357499
11.861920
12.807846
13.364553
14.478564
14.939904
14.494658
11.908412
12.315512
10.028481
10.164976
8.643866
8.612871
7.697940
6.685853
5.047917
5.583763
5.429983
5.455613
5.484819
5.008578
5.157590
4.596710
4.915595
5.138516
##ZVALUE=225
108.860731
113.695860
129.755735
138.277411
135.053992
118.054748
100.514889
72.021484
55.141449
40.623546
31.010509
30.913949
31.491518
30.543804
28.538704
27.562976
20.103455
17.762780
10.826588
8.339882
5.628467
4.107952
4.110932
3.657937
4.023910
4.476905
4.001856
4.031658
4.246831
3.849864
4.290938
3.954768
4.510880
5.033612
4.884601
4.911423
5.269647
5.176663
4.713535
5.919933
6.035566
5.198717
5.332828
5.308986
5.661845
6.085634
4.895926
6.039739
6.018877
6.472468
5.774498
5.990863
6.080866
6.335974
6.047487
6.145835
6.719828
7.631779
6.727576
6.769896
6.402731
7.824898
6.793737
6.939769
7.009506
8.351803
7.134676
7.431507
8.742809
9.243488
10.226965
11.895895
12.267828
13.554692
13.144612
12.951493
13.898611
12.594461
12.262464
12.045503
11.553764
10.269880
9.598732
7.638931
7.506609
7.945895
6.941557
6.817579
6.117821
6.484985
5.888939
6.084442
5.356669
5.107522
5.560517
6.262660
##ZVALUE=230
79.974532
87.765455
125.705600
180.050731
214.475989
235.936642
237.355828
219.233632
185.554624
143.884420
92.194676
69.378614
49.543977
46.199560
48.074722
50.465465
50.665736
44.853687
39.533973
30.624866
23.911595
14.930964
11.255741
7.651448
5.874634
5.727410
4.057884
5.251765
4.153848
4.712939
4.649758
4.978776
5.151629
5.629659
4.971623
6.480813
6.078482
5.348921
5.767941
5.209446
6.463528
6.054640
6.263852
5.957484
6.178617
6.162524
6.766915
5.732775
6.307960
6.286502
5.592704
7.091761
7.384419
6.597638
7.261634
7.468462
7.921457
7.469654
7.500648
6.902814
7.475615
8.332729
7.963777
7.866621
8.072853
8.231997
9.166598
9.330511
10.097623
10.819435
10.817647
11.275411
12.016892
13.522506
15.020967
15.522838
14.272928
14.968514
13.417602
12.831688
11.285543
11.373758
9.790659
8.980632
9.310842
7.941723
7.541776
7.472634
7.989407
6.656647
6.650686
6.440878
6.987453
6.759763
6.918907
7.212758
##ZVALUE=235
25.110841
29.103756
54.037571
114.182830
175.079703
260.639787
313.927531
377.963781
383.077860
359.510779
308.003426
246.562958
161.221623
117.862821
85.519552
70.721507
65.657496
71.932673
73.885918
72.758794
68.159699
58.794618
41.820407
30.864477
23.369789
14.482737
9.114742
6.900430
6.761551
5.455613
5.567670
5.879998
5.045533
5.827546
5.567670
6.357431
5.649924
5.655885
6.749630
5.983710
6.815791
6.049871
5.535483
6.597638
6.758571
6.263852
7.069707
5.688667
5.929470
6.280541
6.317496
7.427931
7.275939
7.484555
8.115768
7.763505
7.934570
7.786751
7.966757
8.828640
7.495880
8.371472
7.376671
8.939505
8.797646
9.269714
9.801984
8.977652
10.983944
11.341572
13.078451
14.942884
15.609860
15.756488
16.499758
16.348958
16.062856
15.777946
15.349984
14.300942
13.507605
12.538433
11.216998
9.877682
9.712577
9.395480
9.118915
9.531975
8.808970
8.837581
7.413626
7.993579
7.257462
6.670952
7.081628
7.461905
##ZVALUE=240
1.879930
2.277493
9.409785
25.549531
69.893599
123.952627
228.598714
334.032774
469.950438
538.602471
600.766540
578.622818
522.257686
405.343771
307.754874
198.883414
139.910579
97.021461
87.860823
93.780756
99.479556
102.875829
97.233653
91.145635
73.001981
55.322647
38.835406
29.288530
17.064810
11.921525
8.389950
7.628798
5.827546
6.555915
7.176995
7.143617
6.763935
6.537437
6.569624
6.781816
7.246733
6.281734
6.634593
6.955862
6.573796
7.673502
7.470846
7.306933
7.168651
6.954670
6.511807
7.493496
7.219911
7.269979
8.107424
7.703900
7.924438
8.094907
7.945895
8.685589
8.175969
9.034872
8.571744
9.241700
9.792447
9.867549
11.034608
9.817481
10.480881
12.253523
13.439655
14.233589
17.145872
17.689466
16.538501
16.664863
16.999841
15.270710
14.596581
13.796687
14.349818
13.662577
12.485981
11.788607
10.882616
9.936690
10.905862
9.870529
9.695888
10.024905
9.056926
9.545684
9.667873
8.955598
9.024739
7.341504
##ZVALUE=245
1.367927
1.324415
1.796484
1.773834
5.406737
20.547509
47.318935
124.582648
212.791562
365.139842
493.513942
609.190464
704.658628
722.642541
656.666756
562.822819
402.261615
289.861560
180.898905
128.780603
99.384785
93.502998
106.972456
115.801692
116.117597
114.509463
103.278756
80.888867
66.998601
44.281483
31.270981
19.086599
12.918711
9.076595
7.349849
6.912947
7.294416
6.022453
6.384850
6.897449
6.701946
6.395578
6.830692
6.800890
5.921721
6.441474
6.703734
6.649494
6.787777
6.427765
6.654859
6.752610
5.927682
6.727576
6.707907
6.123781
6.607771
6.510615
7.626414
7.284880
8.204579
7.404685
8.411407
7.973909
7.743835
8.359551
8.722544
9.174943
9.542704
12.061000
10.839701
13.520718
13.234615
14.003515
13.521910
13.795495
13.607740
13.822913
13.733506
13.091564
12.032986
11.022687
10.358691
9.798408
9.736419
9.072423
9.164810
9.687543
8.425713
8.899570
8.031726
7.927418
8.773804
7.701516
8.154511
7.483959
##ZVALUE=250
1.674891
1.385808
1.860857
1.632571
1.402497
1.370907
3.133416
10.765791
42.081475
88.069439
204.320550
331.366658
467.616916
655.015707
763.782859
829.038024
800.029635
694.816709
577.004552
387.940407
270.096660
173.121691
104.202628
87.247491
97.726583
110.793710
121.111870
125.357509
121.884942
110.992789
94.607472
69.723725
49.292445
30.020475
19.602776
11.142492
8.406639
7.272959
6.277561
6.342530
6.043911
6.524920
6.799698
6.596446
5.926490
5.606413
6.001592
5.480647
5.389452
5.738735
5.681515
5.997419
5.859733
5.804896
6.144643
6.178617
6.167889
6.501675
5.884767
6.446838
5.804896
6.210804
6.726980
6.574988
6.703734
7.130504
7.125735
8.550882
8.087754
9.315610
10.243654
10.629892
11.047721
11.835694
12.709498
11.780858
12.590885
11.022687
10.713935
10.243654
9.468794
9.315610
9.475946
8.248687
8.164644
7.429719
7.843971
7.308722
6.954670
6.838441
6.853938
7.502437
6.738901
6.299615
6.822944
6.122589
##ZVALUE=255
1.279712
1.374483
1.308918
1.480579
1.239777
1.485944
1.538992
1.770854
2.012849
4.979968
28.126836
68.582892
138.276815
288.237929
437.842011
653.399825
788.732767
907.029510
934.519768
850.232840
717.712641
562.490821
350.443721
220.544934
119.387507
90.755820
83.268881
94.595551
115.159750
125.418901
131.942630
125.759840
115.982890
93.862414
71.327686
46.804547
32.930970
18.311739
11.687875
7.421970
6.409883
6.627440
6.035566
5.667806
5.537868
5.460978
5.416870
5.699992
5.760789
6.106496
5.536675
6.192923
5.023479
5.598664
5.095601
5.207658
5.701780
5.743504
5.744696
4.759431
5.725622
6.120801
5.481839
5.456805
6.034970
6.506443
6.718636
7.375479
8.158684
7.959604
9.423494
9.281635
9.792447
10.213852
9.844899
9.602904
9.715557
9.207726
8.787513
8.908510
7.869601
7.487535
7.080436
6.845593
6.685853
6.727576
5.887747
5.853772
5.884767
6.200671
5.448461
5.470514
5.446672
5.286932
5.468726
5.320907
##ZVALUE=260
1.176000
1.196861
0.931621
0.954866
1.059771
1.455545
1.341701
1.377463
1.532435
1.561642
1.874566
2.576709
10.376573
45.283437
99.653602
231.826901
372.767448
591.000915
772.899985
965.529680
1015.610695
1015.610695
882.383585
704.229474
468.441844
316.134691
172.826648
109.522939
76.670647
78.653693
91.089606
116.686821
130.722523
138.267875
134.913921
115.485787
97.698569
71.306825
52.069426
32.055974
20.589828
11.782646
8.355975
5.909801
5.535483
5.303621
5.595684
5.720854
5.534887
5.164742
5.372763
5.217791
5.726814
4.969835
5.370975
5.097985
4.950762
4.932880
5.283952
5.393624
5.180836
5.092621
5.740523
5.145669
5.406737
6.073713
5.920529
6.637573
6.688833
7.273555
7.522702
9.019971
8.401871
9.565949
9.023547
8.754730
8.738637
7.718801
7.513762
7.157922
7.400513
6.599426
6.516576
5.873442
5.852580
5.574822
5.545616
5.249977
5.034804
5.240440
5.002618
4.721880
5.371571
4.717708
5.167723
4.375577
##ZVALUE=265
1.041889
1.362562
1.170635
1.146793
1.111627
0.985861
1.105666
1.085997
1.410842
1.246929
1.526475
1.706481
1.512766
1.974702
6.066561
30.982494
74.403882
185.002685
319.294930
564.584732
765.057802
956.175923
1015.594006
1015.594006
998.369455
856.253505
609.013438
427.469015
235.514641
140.048862
87.687969
64.225793
74.546933
101.253986
120.722651
136.022568
139.257908
129.512548
118.040442
92.009902
72.792768
47.339797
32.422543
18.438697
11.786819
7.315874
6.148815
5.463958
5.238652
5.153418
5.665421
5.486608
5.410910
5.123615
5.406737
4.880428
4.517436
5.224943
5.232692
4.905462
4.697442
4.707575
5.232692
5.019903
5.310774
5.187988
5.616546
5.698800
6.029606
6.539822
6.914735
7.636547
7.449985
7.546544
8.313656
7.398725
7.555485
7.230639
7.222891
6.131530
6.283522
5.400777
5.558729
5.419850
5.112886
5.279779
4.466772
4.302859
4.419684
5.018711
4.442930
4.339814
4.484653
4.353523
4.579425
4.605651
##ZVALUE=270
0.930429
0.905991
1.085997
1.027584
0.892878
0.960827
1.067519
1.160502
1.258850
1.179576
1.028776
1.313686
1.420975
1.614690
1.579523
2.025962
3.385544
12.618899
37.815571
121.130943
237.859488
473.516583
689.056516
966.581702
1015.605927
1015.605927
1015.605927
991.035700
814.862847
542.452931
362.101793
186.418891
107.071400
59.149861
56.003928
78.385472
95.477700
119.584799
135.344863
137.630701
133.768916
115.261674
98.555684
70.682764
50.804615
30.676723
21.098852
12.067556
8.656979
6.293654
5.408525
5.312562
5.267859
4.995465
5.038977
5.118847
5.316734
4.863739
5.007982
4.918575
4.916787
4.797578
5.111694
4.893541
4.791617
5.069971
5.557537
5.347729
5.804896
5.931854
6.338954
6.742477
6.740689
7.231832
7.060766
7.323623
6.702542
6.677508
6.411672
5.888939
5.668998
5.239844
4.879832
4.778504
4.448891
4.576445
4.566908
4.469752
4.623532
4.282594
4.746914
4.233718
4.289746
4.386902
4.050732
4.297495
##ZVALUE=275
0.842810
1.020432
1.052618
1.063943
0.934601
0.971556
1.215935
0.962615
1.068711
1.030564
1.014471
1.183748
1.122952
1.283884
1.558661
1.480579
1.834631
1.350641
2.127886
6.459951
26.139617
71.518421
201.272964
359.743834
645.738840
856.840014
1015.605927
1015.605927
1015.605927
1015.605927
991.991758
721.465945
502.667427
263.114572
146.465898
67.045689
46.849847
55.584908
72.624683
97.344518
116.338730
133.130550
138.214827
128.873587
116.624832
91.298819
72.788000
49.703717
34.730434
20.052791
13.063550
8.409619
6.677508
5.424619
5.347729
5.182624
4.948974
5.193949
4.772544
4.937649
4.932880
4.997849
5.045533
5.022883
4.777908
4.862547
5.376935
4.973412
5.008578
5.866885
5.978942
6.480813
6.536841
6.876588
7.118583
7.012486
6.463528
5.853772
6.380677
5.911589
5.818605
4.768968
4.901886
4.666448
4.500747
4.452467
4.191995
4.050732
4.468560
4.405975
3.882647
4.082918
3.904700
3.783703
3.963709
4.234910
##ZVALUE=280
0.702739
1.067519
1.006722
0.949502
0.857711
0.731945
0.717640
0.720620
0.858903
0.787973
1.012683
0.993609
1.176596
0.991821
1.155734
1.072884
1.352429
1.525879
1.698732
1.885891
2.150536
2.938509
16.225576
52.633882
158.931613
286.834836
525.681973
743.418932
1001.296639
1015.598774
1015.598774
1015.598774
1015.598774
825.809836
607.686639
341.469646
198.088884
86.696744
48.788786
38.009882
50.324798
73.945522
93.547702
118.314624
127.851963
133.974552
126.042962
112.543702
94.263554
69.226623
51.793456
32.485723
21.677613
12.044907
8.042455
6.146431
5.203485
4.708767
4.929900
5.042553
4.963875
4.795790
4.822612
4.968643
4.979968
5.204678
5.032420
4.954934
5.251765
5.469918
5.464554
6.133914
6.081462
6.576777
5.866885
6.170869
6.274581
6.076694
5.646944
5.230904
5.062819
4.843473
4.882812
4.566908
4.112720
4.211664
4.242659
4.275441
4.032850
4.197955
4.103780
4.218817
3.763437
3.957748
3.751516
3.834963
##ZVALUE=285
0.866652
0.803471
0.749826
0.757575
0.760555
0.789762
0.755787
0.829697
0.696778
0.692606
0.953674
0.860691
1.017451
0.983477
0.944734
1.102686
1.031756
1.096725
1.102686
1.451969
1.431704
1.662970
1.786947
2.263784
6.587505
34.426451
82.782507
211.637616
357.434750
628.491640
846.045613
1015.605927
1015.605927
1015.605927
1015.605927
985.444784
766.392946
458.372831
282.091498
130.245686
66.111684
32.290816
31.824708
49.170852
65.964460
91.575980
108.953714
126.304626
131.224990
127.161741
114.212632
92.131495
74.369907
50.377846
34.459829
19.825697
12.761950
7.961988
5.959868
5.004406
4.883409
4.639626
4.549623
4.604459
4.597902
4.891753
4.478693
4.576445
4.875660
5.537868
5.391836
5.380511
5.876422
5.734563
5.619526
5.889535
5.812645
5.569458
5.243421
5.108714
4.379749
4.708767
4.526973
4.442930
4.355907
4.112720
4.160404
3.950000
4.114509
4.124641
3.926754
3.921986
3.810525
3.540516
3.813505
3.630519
##ZVALUE=290
0.666976
0.589490
0.789762
0.750422
0.834465
0.747442
0.716448
0.754595
0.875592
0.905991
1.011491
0.942945
1.077652
0.953674
1.071692
1.216531
1.148582
1.144409
1.130700
1.137853
1.158714
1.527667
1.559854
1.737475
1.720786
2.003908
3.608465
10.940433
51.122904
119.366646
232.949853
472.747684
703.403950
1000.653505
1015.682817
1015.682817
1015.682817
1015.682817
899.498463
597.884655
388.333797
187.778473
96.601844
37.635565
24.027824
31.127930
44.610500
63.584447
83.274841
105.429888
119.097829
127.219558
123.211741
108.892918
94.666481
68.405867
50.163865
32.233596
21.479726
12.002587
8.240938
5.769730
4.762411
4.565716
4.716516
4.426837
4.670620
4.574656
4.886985
5.315542
5.258918
5.450845
5.775690
5.805492
5.931854
5.648732
5.301833
5.199909
4.926920
4.739761
4.552603
4.370809
4.301667
4.124641
4.178882
4.207492
4.283786
4.429817
3.889799
4.018545
3.987551
4.042983
3.707409
3.760457
3.631711
3.404617
##ZVALUE=295
0.598431
0.803471
0.665784
0.798702
0.591874
0.697970
0.746846
0.802875
0.823736
0.725985
0.754595
0.746846
0.924468
0.802875
1.088977
0.804663
0.766516
0.885725
0.975728
1.043677
1.120567
1.122952
1.215935
1.389980
1.604557
1.350641
1.907945
1.727939
2.243519
4.894733
18.172860
74.653625
163.230896
374.372005
594.141483
922.178030
1015.605927
1015.605927
1015.605927
1015.605927
1007.135510
724.663734
498.850942
258.276463
137.969851
51.212907
25.103688
19.835830
26.637912
42.599440
58.467984
81.760883
98.471642
113.983750
119.830966
119.328499
106.461644
86.928606
69.633722
47.406554
33.377409
20.061731
13.015866
7.773638
5.673766
4.684925
3.911853
4.580617
4.726648
4.709959
5.166531
5.137920
5.465746
5.610585
5.325675
4.902482
5.019903
4.766583
4.764795
4.640818
4.546642
4.223585
4.282594
3.878474
4.192591
3.995895
3.998876
3.846884
3.851652
3.924966
4.075766
3.644824
3.514886
3.787875
3.316998
3.498793
##ZVALUE=300
0.687838
0.617504
0.690818
0.727773
0.495911
0.711679
0.757575
0.673532
0.868440
0.610948
0.678897
0.805855
0.856519
0.648499
0.901818
0.779629
0.802875
0.629425
0.981688
1.085997
0.940561
1.142621
1.004934
1.171827
1.115799
1.280904
1.300573
1.473427
1.400709
1.765490
2.089739
2.367496
12.050867
39.891601
130.731463
249.325037
497.453809
737.090707
1015.605927
1015.605927
1015.605927
1015.605927
1015.605927
909.622908
595.375896
378.302932
184.661746
95.862746
33.578873
17.098784
17.571449
23.818612
37.765503
53.061843
74.611902
89.875460
109.229684
113.203526
111.638904
104.558468
83.896518
67.993999
48.761964
34.758449
20.064712
13.193488
7.991791
5.850792
4.720688
4.711747
4.932880
4.972816
5.029440
5.064607
5.089641
4.675984
4.684925
4.494786
4.499555
4.549623
4.258752
4.266500
4.179478
3.976822
3.986955
3.594756
4.082918
3.735423
3.767610
3.786683
3.864765
3.499985
3.520846
3.643632
3.741980
3.488660
##ZVALUE=305
0.546575
0.524521
0.477433
0.516772
0.751615
0.716448
0.623465
0.779629
0.599623
0.733733
0.705719
0.804663
0.753999
0.781417
0.777841
0.759959
0.837445
0.626445
0.791550
0.743866
0.782609
0.697970
0.962615
0.912547
1.117587
1.054406
1.271963
1.250505
1.248717
1.361966
1.571774
1.522899
1.852512
2.257824
4.367828
26.724935
73.235631
202.383399
355.118513
642.834902
886.559486
1015.605927
1015.605927
1015.605927
1015.605927
973.708630
750.102997
462.901592
282.700658
125.298500
59.422851
20.909905
12.942553
15.717745
21.999478
36.406517
51.337481
71.485639
87.617636
103.109479
107.981563
106.283426
98.494887
81.901550
65.864921
45.146942
32.169819
19.194484
12.406707
7.657409
6.131530
5.005598
5.009770
4.594922
4.686713
4.685521
4.624724
4.676580
4.492998
4.440546
4.286766
4.184842
4.107952
3.931522
3.934503
3.824830
3.712773
4.070997
3.608465
3.898740
3.795624
3.807545
3.589988
3.474951
3.477931
3.283620
##ZVALUE=310
0.611544
0.578761
0.529885
0.570416
0.632405
0.503659
0.719428
0.583529
0.479817
0.691414
0.641942
0.649691
0.656843
0.643730
0.812411
0.681877
0.780821
0.673532
0.615716
0.828505
0.788569
0.870824
0.882745
0.865459
0.896454
0.960827
1.022816
1.042485
1.117587
1.037717
1.234412
1.344681
1.438856
1.522899
1.881719
1.817942
2.280474
11.760592
38.024783
123.035908
237.460732
482.714772
726.100802
1015.596986
1015.596986
1015.596986
1015.596986
1015.596986
936.792493
622.432828
404.839516
196.965933
102.075934
34.624934
14.905930
10.739565
13.096929
21.108985
29.432774
46.581626
61.221719
80.368519
92.085004
101.815462
101.637840
93.106627
80.589652
63.273907
47.739744
30.287504
20.714998
12.773871
8.948445
6.185770
5.368590
4.840493
4.632473
4.285574
4.042983
3.780723
3.967881
3.718734
3.734827
3.862977
4.171729
3.907681
3.724694
3.722906
3.684759
3.542900
3.357530
3.326535
3.178716
3.539920
3.515482
3.291965
##ZVALUE=315
0.518560
0.530481
0.506639
0.601411
0.678897
0.566840
0.571609
0.588894
0.612736
0.382662
0.522733
0.488758
0.378489
0.627637
0.678897
0.833869
0.766516
0.841618
0.850558
0.632405
0.607967
0.585914
0.810623
0.906587
0.913739
0.981688
0.934601
0.878572
0.894666
1.076460
1.254678
1.225471
1.150966
1.493692
1.380444
1.556873
1.612902
2.114773
2.183914
5.244613
19.777417
81.024766
171.814561
379.640460
610.284805
953.047872
1015.610695
1015.610695
1015.610695
1015.610695
1015.610695
753.551722
519.360900
270.341635
141.675472
50.179958
20.383000
9.361506
9.436607
12.428761
17.493963
29.637814
40.546656
58.505535
73.373914
88.430643
95.183849
95.998645
89.026690
74.935555
62.094927
44.188499
31.847954
18.587708
12.612939
7.963777
5.960464
5.048513
4.488826
4.225969
3.859997
3.889799
3.781915
3.780723
3.747940
3.855824
3.765821
3.820658
3.683567
3.644824
3.229976
3.495812
3.522635
3.291965
3.274679
3.343821
##ZVALUE=320
0.568628
0.693798
0.636578
0.629425
0.665784
0.669956
0.693798
0.721812
0.665784
0.621676
0.742674
0.738502
0.644922
0.726581
0.623465
0.935793
0.717640
0.817776
0.759959
0.775456
0.890493
0.647902
0.890493
0.877976
0.916719
0.962615
0.975728
0.866652
1.000762
1.087785
0.858903
1.058578
1.276731
1.491904
1.422763
1.293421
1.438856
1.606941
1.448989
1.744628
1.992583
2.969503
8.843541
45.002699
112.054944
284.639001
466.048717
767.665505
993.243456
1015.718579
1015.718579
1015.718579
1015.718579
893.066525
643.944740
354.443789
196.521878
80.249906
34.761429
11.738539
8.096695
8.470416
10.674596
16.553998
24.419427
38.504601
51.651001
69.049001
80.360770
90.175867
90.520978
85.707903
74.833632
56.282878
43.962002
28.029680
19.408464
12.124777
7.961988
5.660653
4.873872
4.272461
4.007816
3.841519
3.977418
3.760457
3.659725
3.507733
3.660917
3.602505
3.393888
3.356934
3.663898
3.530979
3.250837
3.195405
##ZVALUE=325
0.600815
0.645518
0.676513
0.615716
0.268817
0.689626
0.534654
0.661612
0.577569
0.586510
0.591874
0.605583
0.644922
0.588894
0.532866
0.538826
0.551939
0.430942
0.606775
0.641942
0.556707
0.839829
0.760555
0.673532
0.821948
0.712872
0.761747
1.007915
0.944734
0.730753
0.768900
0.864863
0.862479
0.803471
0.957847
1.134872
1.299977
1.169443
1.291633
1.370907
1.736879
1.528859
1.808405
2.054572
5.890727
21.747947
84.195733
172.880888
377.752781
603.309870
937.699676
1015.606523
1015.606523
1015.606523
1015.606523
1002.496481
682.721734
463.976860
239.807963
129.589438
46.647787
18.878579
8.013844
6.997585
7.729530
9.787679
15.373826
22.851825
37.532449
50.252676
67.629814
77.294707
84.830523
85.026622
78.385472
68.578720
53.306818
40.818453
25.906563
18.200874
10.501742
7.573962
5.485415
4.603863
3.830791
3.791451
3.774762
3.620982
3.427863
3.379583
3.082752
3.175735
3.242493
3.094673
3.168583
3.171563
##ZVALUE=330
0.527501
0.542998
0.461936
0.557899
0.698566
0.511408
0.588894
0.546575
0.596642
0.684857
0.322461
0.510812
0.612736
0.610948
0.594854
0.556707
0.595450
0.706911
0.610948
0.478625
0.477433
0.609756
0.704527
0.525713
0.750422
0.751615
0.784993
0.754595
0.721812
0.664592
0.676513
0.871420
0.756979
0.870824
0.950694
0.888705
0.980496
1.027584
1.124740
1.097918
1.294613
1.264811
1.270771
1.566410
1.592636
1.732707
2.788901
9.731650
47.386885
116.461515
284.352899
470.931530
785.844922
1003.539562
1015.605927
1015.605927
1015.605927
1015.605927
832.711458
596.712828
325.934887
182.250738
71.179867
30.809641
9.719729
6.672740
6.547570
7.296801
10.184646
15.080571
25.029778
34.050941
48.188567
60.477853
73.696971
78.943968
79.412460
73.997974
61.681867
51.366687
35.239458
26.010871
17.010570
11.636615
7.378459
5.470514
4.188418
3.874898
3.633499
3.358722
3.227592
3.213882
3.001690
3.128648
2.986789
3.030896
##ZVALUE=335
0.539422
0.385642
0.612736
0.581741
0.477433
0.513792
0.574589
0.337958
0.582933
0.464916
0.458956
0.579953
0.464916
0.503659
0.472665
0.540614
0.597835
0.561476
0.435710
0.538826
0.522733
0.457764
0.690818
0.730753
0.714660
0.647902
0.735521
0.621676
0.689626
0.646710
0.639558
0.887513
0.859499
0.838637
0.816584
0.969768
1.000762
0.937581
0.980496
0.987649
1.039505
1.120567
1.153946
1.336932
1.391768
1.480579
1.647472
1.820922
2.139807
5.676746
21.101832
82.588792
174.090862
382.892489
606.724620
943.190455
1015.601754
1015.601754
1015.601754
1015.601754
980.933905
657.848716
438.456535
220.073462
111.075640
37.028790
14.752746
7.044673
6.289482
6.132722
7.211566
9.558797
13.690591
22.795796
31.933784
46.145916
56.717992
67.830682
73.202848
73.572993
68.335533
57.080984
47.572851
34.889579
26.183724
16.578436
11.544824
7.226467
5.098581
4.076958
3.437996
3.163815
2.797842
3.281832
2.887845
2.843738
##ZVALUE=340
0.453591
0.448823
0.375509
0.480413
0.508428
0.403523
0.276566
0.623465
0.481606
0.488758
0.559688
0.558496
0.434518
0.474453
0.365973
0.568628
0.464916
0.398755
0.477433
0.665784
0.529885
0.696778
0.562668
0.560880
0.691414
0.697970
0.609756
0.769496
0.673532
0.559688
0.724792
0.665784
0.717640
0.650883
0.738502
0.784993
0.635982
0.847578
0.663996
0.921488
0.925660
1.023412
1.023412
1.011491
0.935793
1.113415
1.252890
1.446605
1.537800
1.741648
1.870990
3.086925
10.425448
51.021576
123.289824
301.044583
500.120521
806.794763
1011.926532
1015.602946
1015.602946
1015.602946
1015.602946
771.887898
533.920527
272.431970
148.122907
55.946708
21.572709
7.808805
6.344914
6.083846
6.278753
7.030964
8.928776
13.762712
19.837618
30.713677
41.077733
54.596663
63.003898
68.517923
69.022775
64.271688
57.216883
45.407414
35.635829
23.846626
17.526746
10.946989
7.333755
4.712939
3.917813
3.244877
2.985597
2.730489
##ZVALUE=345
0.160933
0.186563
0.176430
0.410676
0.352859
0.248551
0.390410
0.223517
0.242591
0.309944
0.349879
0.495911
0.361800
0.297427
0.336766
0.506639
0.302792
0.322461
0.366569
0.223517
0.357628
0.361800
0.306964
0.373721
0.470877
0.297427
0.487566
0.393987
0.472665
0.410676
0.379682
0.527501
0.370741
0.443459
0.489950
0.366569
0.541806
0.673532
0.554919
0.680685
0.553727
0.526905
0.656843
0.826716
0.911951
0.829697
0.935793
0.893474
1.074672
1.080632
1.118779
1.470447
1.460910
1.823902
4.313588
27.785897
78.106523
206.456780
366.140604
657.779574
892.300606
1015.420556
1015.420556
1015.420556
1015.420556
881.322026
645.242929
370.491743
204.264522
78.133941
34.123659
10.835528
6.541610
6.040931
5.427599
5.643964
5.851984
7.714629
10.888577
18.754601
26.800632
38.554668
47.487617
56.847930
62.288642
62.830448
60.280561
52.217841
44.687986
34.154654
25.329590
16.021729
10.779500
6.504655
4.596710
3.513694
##ZVALUE=350
0.429749
0.471473
0.447631
0.397563
0.435710
0.513792
0.497699
0.458956
0.459552
0.576973
0.517964
0.445843
0.460744
0.564456
0.505447
0.316501
0.560880
0.385642
0.517964
0.467896
0.375509
0.488758
0.572801
0.577569
0.612736
0.667572
0.523925
0.764728
0.613928
0.676513
0.743866
0.550747
0.719428
0.739694
0.709891
0.811815
0.726581
0.771880
0.714660
0.669956
0.761747
0.828505
0.865459
0.914931
0.942945
0.849962
0.939965
0.928640
1.007915
0.952482
1.161695
1.145601
1.315475
1.500845
1.800656
1.887679
2.652407
14.521480
46.419501
143.631697
270.569921
527.935624
761.848688
1015.605927
1015.605927
1015.605927
1015.605927
977.437496
742.345452
445.035696
264.894962
113.620758
50.969720
14.483929
7.385612
5.857944
5.066991
4.970431
4.832745
5.315542
7.077456
10.915995
15.651584
24.607778
32.242537
43.104887
50.432682
56.744814
58.200955
56.129694
50.093532
41.113496
33.111572
23.422837
17.501712
10.956526
##ZVALUE=355
0.459552
0.414848
0.529885
0.471473
0.534654
0.456572
0.428557
0.432730
0.589490
0.472665
0.508428
0.447631
0.535846
0.382662
0.495911
0.519753
0.561476
0.387430
0.359416
0.425577
0.553727
0.537634
0.629425
0.594854
0.470877
0.560880
0.535846
0.591874
0.548959
0.555515
0.483990
0.692606
0.581741
0.806451
0.745654
0.674725
0.635982
0.654459
0.644922
0.657439
0.606775
0.667572
0.812411
0.821948
0.787973
1.041889
0.722408
1.106858
0.867844
1.001954
0.940561
0.957847
1.073480
1.207590
1.261830
1.541972
1.574755
1.689792
2.127886
6.683469
24.806857
95.363855
193.388462
400.747657
623.317957
946.321487
1015.606523
1015.606523
1015.606523
1015.606523
843.116641
546.555519
336.067677
143.812895
68.079829
20.053983
8.603930
5.548596
5.129576
4.506707
4.283786
4.463792
4.948974
6.314516
8.525848
13.909936
19.712448
28.989911
36.187768
44.887662
50.554872
53.310990
51.990747
45.760870
40.012002
30.411482
##ZVALUE=360
0.481606
0.568628
0.410676
0.530481
0.423789
0.451803
0.511408
0.506639
0.604987
0.597835
0.456572
0.440478
0.712872
0.677705
0.427961
0.254512
0.489950
0.418425
0.561476
0.608563
0.628829
0.508428
0.597835
0.612736
0.838637
0.616908
0.631809
0.594854
0.665784
0.507832
0.703931
0.630617
0.535846
0.755787
0.744462
0.673532
0.649691
0.754595
0.649691
0.718832
0.723600
0.700951
0.714660
0.806451
0.907779
0.810623
0.853539
0.857711
0.896454
0.873804
0.931621
1.045465
1.088977
1.256466
1.126528
1.315475
1.346469
1.499653
1.747608
1.747608
1.890659
3.353953
10.859966
50.518513
123.005509
298.638940
488.706827
785.733461
998.354554
1015.605927
1015.605927
1015.605927
961.782932
637.875795
419.431925
199.138522
100.173950
34.171939
13.429523
5.869865
5.004406
4.724860
4.543662
3.854632
4.060864
4.212856
4.977584
7.295609
10.392666
16.350746
22.718906
31.440854
38.126707
44.554472
47.577620
47.263503
##ZVALUE=365
0.506639
0.528693
0.467896
0.455976
0.603795
0.486970
0.489950
0.380874
0.440478
0.406504
0.375509
0.528693
0.583529
0.435710
0.497699
0.398755
0.496507
0.475645
0.469685
0.629425
0.500679
0.557899
0.603795
0.815988
0.582933
0.643730
0.675917
0.557899
0.367761
0.619888
0.573993
0.582933
0.634789
0.743866
0.681877
0.787973
0.741482
0.693798
0.525713
0.523925
0.766516
0.782609
0.649691
0.842810
0.890493
0.875592
0.830889
0.910759
1.050830
0.847578
1.015663
0.879765
1.017451
1.047850
0.962615
1.086593
1.213551
1.195669
1.521707
1.530647
1.622438
1.697540
1.891851
3.190637
5.123615
26.018620
74.961782
309.611559
410.072803
629.380941
939.152837
1015.606523
1015.606523
1015.606523
1000.455022
796.641707
484.893918
289.523005
123.471618
57.780743
17.738938
7.487535
4.967451
4.381537
4.086494
4.124641
3.711581
3.742576
3.801584
4.419684
6.417632
8.720756
14.156699
19.271970
26.959777
32.716990
##ZVALUE=370
0.385642
0.461936
0.348687
0.455976
0.503659
0.342727
0.337958
0.379682
0.488758
0.461936
0.530481
0.517964
0.413656
0.565648
0.516772
0.546575
0.593662
0.392795
0.571609
0.718832
0.418425
0.309944
0.464916
0.749826
0.566840
0.665784
0.623465
0.612736
0.613928
0.480413
0.718832
0.573993
0.589490
0.575781
0.699759
0.582933
0.544786
0.624657
0.765920
0.676513
0.773668
0.660419
0.748634
0.824928
0.727773
0.841618
0.664592
0.825524
0.848770
0.788569
1.011491
0.845790
0.902414
0.936985
0.951886
0.873804
0.914931
0.962615
1.081824
1.157522
1.157522
1.316667
1.384616
1.632571
1.675487
1.855493
3.199577
11.568666
59.364438
141.818523
326.946974
518.012643
813.807845
1008.054018
1015.605927
1015.605927
1015.605927
887.087584
576.146841
365.846753
166.893601
83.832741
29.602647
11.725426
5.054474
4.428625
3.819466
3.740788
3.549457
3.414750
2.974868
3.271699
3.937483
5.108714
7.976890
11.139512
##ZVALUE=375
0.300407
0.420809
0.286698
0.341535
0.498891
0.384450
0.533462
0.558496
0.431538
0.457764
0.441670
0.396967
0.444651
0.341535
0.457764
0.371933
0.511408
0.418425
0.480413
0.453591
0.470877
0.476837
0.393987
0.451803
0.477433
0.473857
0.509620
0.512600
0.470877
0.406504
0.423789
0.501871
0.577569
0.380874
0.617504
0.570416
0.598431
0.624657
0.643730
0.675917
0.547767
0.622869
0.524521
0.545979
0.625849
0.495911
0.514984
0.591874
0.608563
0.690818
0.637770
0.806451
0.776649
0.777841
0.767708
0.729561
0.835657
0.870824
0.803471
0.976920
0.911951
0.926852
1.102686
1.275539
1.157522
1.294613
1.484752
1.569986
2.267957
7.500648
26.533604
97.906590
207.004547
441.778898
656.989813
944.875479
1015.555859
1015.555859
1015.555859
957.071781
733.807683
432.530642
271.713734
128.222704
62.256455
18.149614
7.115602
3.988743
3.838539
3.523827
3.309846
3.282428
3.024936
3.094673
3.181696
3.528595
##ZVALUE=380
0.482798
0.350475
0.460744
0.400543
0.393987
0.443459
0.393987
0.307560
0.354648
0.437498
0.619888
0.405908
0.440478
0.611544
0.387430
0.458956
0.626445
0.546575
0.477433
0.464916
0.398755
0.522733
0.502467
0.450611
0.476837
0.465512
0.574589
0.466704
0.549555
0.536442
0.527501
0.438690
0.435710
0.502467
0.558496
0.455976
0.642538
0.514984
0.744462
0.579953
0.510812
0.660419
0.602603
0.586510
0.657439
0.624657
0.592470
0.684857
0.703931
0.504851
0.662804
0.546575
0.711679
0.687838
0.548959
0.764728
0.722408
0.836849
0.843406
0.711679
0.890493
0.838637
0.864863
0.897646
0.987649
1.042485
1.169443
1.442432
1.594424
1.950860
2.052784
3.811717
14.318824
66.306591
152.161717
346.452594
552.527905
850.209594
1015.605927
1015.605927
1015.605927
1011.170745
841.316581
570.181608
371.222496
175.717473
87.925792
29.231906
11.245608
4.771948
3.938675
3.650784
3.392696
3.352761
3.128648
2.984405
##ZVALUE=385
0.517964
0.375509
0.520945
0.467896
0.410676
0.331998
0.335574
0.403523
0.511408
0.459552
0.655651
0.332594
0.364780
0.366569
0.536442
0.442863
0.493526
0.454783
0.411868
0.406504
0.411868
0.464916
0.496507
0.519753
0.492930
0.473857
0.498891
0.608563
0.413656
0.517964
0.616908
0.628829
0.388622
0.537634
0.616908
0.477433
0.559688
0.665784
0.513792
0.599623
0.559688
0.397563
0.442863
0.530481
0.533462
0.617504
0.550747
0.767708
0.601411
0.631809
0.729561
0.625849
0.639558
0.405908
0.588894
0.655651
0.721812
0.759959
0.824928
0.699759
0.979900
0.786781
0.832677
1.058578
0.881553
0.956655
1.157522
1.207590
1.347661
1.506805
1.582503
1.692772
1.741648
2.333522
6.578565
37.929416
96.697807
243.037939
425.576568
734.528899
960.474014
1015.605927
1015.605927
1015.605927
986.088514
708.199739
491.204858
258.068442
142.812729
55.826902
21.315813
5.835891
3.969669
3.491640
3.345609
3.272891
##ZVALUE=390
0.316501
0.366569
0.372529
0.334978
0.378489
0.337958
0.254512
0.431538
0.419617
0.556707
0.468493
0.446439
0.313520
0.377893
0.456572
0.371933
0.307560
0.546575
0.465512
0.421405
0.415444
0.359416
0.447631
0.357628
0.432730
0.518560
0.555515
0.554919
0.383854
0.508428
0.554919
0.519753
0.437498
0.586510
0.651479
0.549555
0.650883
0.515580
0.425577
0.500679
0.532866
0.575781
0.632405
0.683665
0.516772
0.628829
0.790954
0.516772
0.615716
0.656843
0.599623
0.508428
0.667572
0.823736
0.609756
0.826716
0.567436
0.638962
0.731945
0.699759
0.671744
0.838637
0.908971
0.842810
0.926852
1.040697
1.083612
1.088977
1.194477
1.289845
1.311898
1.620650
1.542568
1.649857
1.644492
1.860857
3.418922
19.997954
61.370730
184.482932
339.833498
623.053908
840.351582
1015.605927
1015.605927
1015.605927
1015.605927
851.120949
636.491776
375.600457
211.545825
83.248615
35.927892
9.211898
4.790425
3.579855
##ZVALUE=395
0.412464
0.410676
0.236630
0.163913
0.558496
0.350475
0.485778
0.465512
0.398755
0.415444
0.422597
0.371933
0.376701
0.225902
0.544786
0.450611
0.405908
0.340939
0.321865
0.551939
0.434518
0.293851
0.356436
0.606775
0.503659
0.475645
0.329614
0.509620
0.486970
0.462532
0.543594
0.492930
0.428557
0.581741
0.470877
0.470877
0.456572
0.426769
0.528693
0.399947
0.490546
0.581741
0.575781
0.592470
0.691414
0.693798
0.660419
0.679493
0.576973
0.638962
0.728965
0.554919
0.740886
0.661612
0.726581
0.735521
0.622869
0.634789
0.703931
0.653863
0.698566
0.882745
0.833869
0.873804
0.732541
0.842810
0.881553
0.920892
1.089573
1.108646
1.251698
1.278520
1.477599
1.584888
1.512766
1.567602
1.549721
1.685619
2.107620
10.984540
39.836764
133.547783
250.924826
474.135876
694.741011
987.811685
1015.605927
1015.605927
1015.605927
990.073681
766.687989
464.546680
281.898975
119.084716
54.674745
16.648769
##ZVALUE=400
0.564456
0.615716
0.447631
0.409484
0.401735
0.323653
0.493526
0.439882
0.504851
0.424981
0.386834
0.644922
0.592470
0.404716
0.626445
0.308752
0.346899
0.280738
0.369549
0.346899
0.428557
0.440478
0.537634
0.420809
0.559688
0.480413
0.604987
0.395775
0.403523
0.427961
0.472665
0.291467
0.429749
0.614524
0.620484
0.622869
0.612736
0.489950
0.486970
0.672936
0.642538
0.476837
0.611544
0.667572
0.488758
0.619888
0.717640
0.701547
0.582933
0.599623
0.614524
0.503659
0.667572
0.650883
0.599623
0.574589
0.551939
0.581741
0.617504
0.721812
0.600815
0.675917
0.637770
0.889897
0.828505
0.812411
1.044869
0.943542
1.076460
1.226664
1.203418
1.339912
1.200438
1.470447
1.267791
1.334548
1.220703
1.368523
1.509786
1.540780
1.724958
5.879998
20.853877
76.270700
163.934827
363.433957
570.010543
868.741870
1015.607715
1015.607715
1015.607715
1015.607715
853.565931
550.837517
355.312824
171.304941
##END
