##TITLE=DDW02
##FORMAT=SPECTACLE-ASCII V-1.2
##DATA TYPE=ULTRAVIOLET SPECTRUM
##SECOND TYPE=ULTRAVIOLET SPECTRUM
##DATE=03/27/18
##TIME=17:17:50
##SPECTROMETER/DATA SYSTEM=SPECTACLE
##XUNITS=NM EM
##YUNITS=ENERGY
##YFACTOR=1
##FIRSTX=220
##LASTX=410
##NPOINTS=96
##3DDATA=Equidistant
##ZUNITS=NM EX
##FIRSTZ=210
##LASTZ=400
##ZPOINTS=39
##XYDATA=(Y..Y)
##ZVALUE=210
14.602542
14.960766
11.638999
9.217858
10.803938
10.479689
8.660555
7.321835
6.737709
5.728602
4.498959
3.314614
2.672672
3.303885
2.722740
3.101826
2.857447
3.451705
3.398657
4.163980
3.791451
3.642440
3.481507
4.488826
5.024672
3.865957
4.675984
5.458593
5.060434
4.962683
4.664660
5.225539
5.874634
5.357862
5.717874
5.518794
5.473495
5.952716
6.330609
6.054640
6.237626
5.830526
6.564856
5.303621
6.133914
6.518960
6.176829
7.245541
6.919503
6.980896
6.185770
6.282926
6.655455
6.004572
6.895661
7.153749
6.348491
7.648468
6.746650
8.052588
7.698536
7.631779
6.604791
7.357597
7.428527
7.847548
7.098913
9.154677
9.641647
11.369586
11.982918
13.316870
16.742945
19.701719
18.111467
20.800829
19.791722
20.665526
19.167662
18.088818
14.835596
14.575720
11.993647
11.962652
11.022687
8.230805
7.504821
7.761717
8.573532
8.524656
10.914803
14.192462
18.465519
23.125410
28.803945
35.245419
##ZVALUE=215
46.308637
44.277906
34.765601
26.287436
22.263527
16.631484
16.311407
14.786720
14.466643
12.848973
11.378527
9.197593
6.808639
6.140471
4.228950
3.784895
3.807545
2.640486
3.235936
3.974438
3.665686
4.396439
4.116893
4.709959
4.526973
4.950762
4.711747
5.280972
4.945993
5.186796
5.120635
5.363822
5.371571
5.670786
5.868673
5.588531
6.483793
6.729960
6.275773
6.445646
6.936789
7.225871
6.792545
6.704926
6.193519
6.335974
6.952882
7.140636
7.076859
7.005930
7.035732
7.280707
6.997585
6.236434
8.197427
7.605553
7.274747
7.126927
6.804466
6.799698
7.407665
7.442832
6.901622
7.140636
7.667542
8.288622
8.497834
9.443760
10.153651
11.885762
11.849999
15.423894
14.969707
16.851425
18.663406
18.396974
17.463565
18.357635
16.058683
15.091896
14.566779
15.413761
12.185574
11.287928
9.606481
8.552670
8.132458
7.331967
7.431507
6.883740
6.417632
6.278753
6.092787
7.845759
10.383725
12.429953
##ZVALUE=220
105.038881
104.256868
97.101927
84.458590
73.211789
49.067736
41.221976
33.151507
27.211905
25.931001
24.772882
25.198460
20.890832
20.598769
13.590455
10.955930
7.434487
5.573630
5.506873
4.591942
4.225969
3.913641
4.802942
4.554987
4.304647
5.863905
4.862547
5.406737
5.128980
6.207824
5.299449
5.828738
7.293820
6.373525
6.082654
6.911755
6.254911
6.200671
6.108880
6.710887
7.702708
6.793737
6.710887
7.387996
7.560849
8.006692
6.299615
7.476807
7.145405
7.931590
7.380843
7.552505
7.766485
8.882880
8.199811
8.441806
7.868409
7.700920
7.153749
8.709431
7.560849
8.000731
7.733703
8.375645
8.285642
8.406639
9.040833
9.016991
9.348989
11.448860
12.797713
14.477968
17.063618
16.043782
17.003417
19.307733
18.236637
17.620921
15.840530
15.211701
16.296506
15.761852
12.915730
11.253953
9.562969
8.946657
8.236766
7.206798
6.875992
7.329583
6.793737
6.891489
6.663799
6.262660
6.328821
6.648898
##ZVALUE=225
144.170523
153.593421
175.857544
182.462931
180.213451
159.700513
129.515529
99.740624
72.377920
54.465532
39.925575
37.476420
39.023757
37.349463
37.053823
34.302473
26.696920
21.620989
15.703440
10.098815
6.923676
5.173683
5.131960
5.378723
5.119443
5.577803
5.646944
6.184578
6.125569
6.411672
6.824732
6.418824
6.150603
6.560683
6.527901
6.577969
6.672740
7.684827
7.409453
7.516742
7.549524
5.885959
7.482767
7.256866
8.001924
7.617474
7.257462
8.228421
8.541942
8.697510
8.703470
7.984638
8.194447
8.912683
8.094907
8.784533
8.576512
8.985996
8.554459
9.117723
9.178519
8.761883
8.571744
9.112954
9.309649
9.396672
9.944439
9.239912
10.530949
12.076497
13.295412
15.298724
15.547872
16.195774
17.796755
18.697977
18.177629
16.502738
15.437603
14.168620
13.017654
12.733936
10.226965
10.797977
8.678436
8.309484
9.182692
8.080602
8.312464
7.936954
8.853674
7.695556
6.545782
6.909966
7.193685
7.229447
##ZVALUE=230
109.695792
117.461681
173.765421
240.624547
286.668539
316.310525
323.805809
293.101668
246.584415
197.114944
126.404762
91.223717
65.544844
58.262944
56.230426
60.287714
61.520934
56.668520
49.197674
40.981770
30.983686
20.124912
13.812780
9.098649
7.158518
6.877780
7.067919
5.798936
6.159544
7.130504
7.421970
7.226467
7.626414
7.226467
6.896853
7.302761
7.493496
7.424951
7.947683
7.541776
8.873940
7.794499
7.354617
8.581877
8.561611
7.918477
8.316636
8.275509
8.601546
9.131432
7.998943
8.206964
9.024739
9.400845
8.291602
8.988976
8.367896
8.802414
9.046793
8.614659
8.858442
9.094477
9.794831
10.052919
9.622574
9.713769
10.968447
11.426806
11.945963
13.325810
14.101863
14.400482
17.219782
19.046664
19.534826
19.017458
17.372966
18.284917
17.097592
15.791655
14.477968
13.167858
11.724830
10.069609
10.424852
8.715987
9.923577
8.570552
9.170771
8.471608
8.094907
8.178949
8.543730
8.742809
6.804466
7.869601
##ZVALUE=235
32.979846
38.871765
72.528720
151.194930
229.712725
344.972014
427.806973
490.264893
512.006879
491.953492
414.038897
331.034660
213.977695
151.714683
105.360746
85.618496
80.765486
86.505413
88.885427
83.438754
81.875920
65.135956
53.746700
36.430955
25.563836
15.761852
11.722445
8.606911
7.089972
7.537603
6.909966
7.450581
8.607507
8.148551
7.786751
7.721782
8.328557
7.508993
8.172989
9.047985
8.668900
8.040667
8.300543
7.925630
9.440780
8.356571
8.581877
8.529425
8.325577
8.171797
8.428693
8.872747
8.491874
8.769631
9.266734
9.809732
9.527802
9.326935
8.772612
10.692477
10.958910
11.661649
10.130405
9.450912
11.322498
11.069775
11.763573
11.726618
12.369752
14.854670
15.782714
17.925501
18.131733
18.541813
20.119548
21.798611
20.129681
18.681884
18.164515
15.846491
16.479492
15.608668
13.679862
12.710690
12.569427
10.396838
10.848641
9.565949
9.645820
10.878444
9.880662
9.008646
10.202527
8.978844
8.893609
8.578897
##ZVALUE=240
2.524853
3.041625
11.791587
31.052828
80.386996
145.468712
276.176929
391.540527
549.282432
637.486577
682.411790
661.653876
597.524643
467.915535
357.585549
225.258470
157.192945
108.889937
93.281865
97.919703
107.578635
113.154650
105.339885
96.716881
77.802539
60.389638
44.799447
30.648708
19.105673
12.990832
11.814833
9.282827
8.097887
8.044839
8.136630
7.797480
7.576942
8.039474
8.134842
8.222461
8.201599
7.895827
8.159876
7.901788
7.282495
8.084774
8.298755
7.889867
7.718801
8.949637
8.278489
8.638501
8.213520
9.006858
9.148717
9.268522
9.272695
9.507537
9.633899
8.601546
8.358955
9.487867
8.328557
10.057688
10.053515
10.185838
10.599494
10.704994
12.253523
12.560487
14.012456
13.752580
16.585588
17.189980
18.115640
17.559528
16.599894
17.023683
17.717481
16.431808
15.625954
12.628436
12.782812
12.044907
12.441874
11.347532
10.678768
10.187626
10.174513
9.324551
9.836555
9.769797
9.172559
8.990765
10.128617
8.292794
##ZVALUE=245
1.957417
2.296567
2.086759
2.285838
5.583763
23.643970
55.293441
141.415596
237.699747
367.944837
564.420819
692.307949
801.416636
818.358660
749.753714
631.495714
455.339551
336.419940
236.384869
138.717890
104.643703
98.363757
107.211471
121.567845
122.789741
115.637779
105.935931
86.711645
68.795681
46.830773
34.139752
21.068454
15.129447
9.133816
8.914471
7.872581
7.488728
8.826852
7.165670
7.813573
7.433891
7.749796
7.540584
7.543564
7.377863
7.048845
7.565618
7.576942
7.163882
7.493496
7.277727
8.490682
7.259846
7.394552
7.052422
8.339882
8.652806
8.102655
7.556677
8.003712
7.499456
8.101463
7.808805
8.118749
7.955432
8.613467
10.218620
9.773970
9.384751
10.466576
12.180805
13.178587
14.439821
15.011430
16.918778
14.377832
14.786720
14.947653
13.909936
13.678670
12.941957
11.553764
11.196733
9.487867
9.940863
9.353757
8.436441
8.730888
8.508563
8.259416
7.327795
8.234978
7.494688
7.939935
7.735491
7.396936
##ZVALUE=250
1.586676
1.168847
1.487732
1.704693
1.621842
1.575947
3.528595
10.677576
46.473742
97.029805
232.096910
372.593999
523.943901
735.359788
860.777497
928.771496
905.821919
787.369609
665.861964
452.499986
302.878618
193.061829
112.327933
92.978477
98.027587
111.061931
125.085711
127.957463
126.385689
113.843679
97.800493
74.478984
54.860711
33.348799
20.991564
11.627674
9.980798
7.077456
6.792545
7.111430
6.549954
6.919503
7.172823
6.789565
6.036758
6.747842
7.341504
6.681681
6.751418
5.611777
6.236434
5.498528
5.840659
6.746650
6.187558
5.774498
6.096959
6.104708
5.929470
6.865859
6.664991
6.861687
6.566644
6.725788
7.289648
6.531477
6.943941
7.186532
7.230639
8.701682
9.402633
10.333657
11.927485
10.589957
12.473464
12.128949
12.713671
9.991527
10.615587
10.584593
9.860992
8.806586
8.705854
6.751418
7.171631
7.149577
6.957650
6.977916
6.240606
6.166697
6.213784
5.833507
6.311536
5.820990
6.032586
5.360842
##ZVALUE=255
1.652837
1.493692
1.695752
1.767874
1.811981
1.854897
2.011657
1.998544
2.473593
6.651878
31.642914
75.636506
153.264999
323.352814
484.326482
734.250546
897.562504
1015.605927
1015.605927
967.904925
825.243592
650.882721
402.542949
253.482461
138.594508
94.818473
84.512830
96.046925
117.574930
130.002499
136.372447
129.695535
120.784640
95.550418
75.524449
49.323440
35.329461
19.776821
13.745427
9.153485
7.298589
6.600618
6.804466
6.313920
6.716847
6.102920
6.837845
7.021427
6.802678
6.673932
6.178617
5.632639
6.429553
6.025434
6.074905
6.064773
6.267428
6.483793
6.075501
6.174445
5.922914
5.993843
6.259680
5.405545
6.502867
6.982684
6.421804
7.464886
7.730722
8.352995
9.157658
8.950830
9.642839
9.859800
10.379553
10.743737
10.055900
9.832978
8.054972
8.778572
7.774830
7.326603
6.838441
7.014871
6.555915
6.636977
5.669594
5.548596
5.359650
5.810857
5.165935
5.513430
5.087852
5.213618
5.531907
5.353689
##ZVALUE=260
1.607537
1.526475
1.747608
1.412630
1.485944
1.570582
1.920462
1.874566
2.120733
2.074838
2.343655
3.958941
12.782812
54.102540
113.009810
264.371634
428.653955
683.301687
881.431699
1015.605927
1015.605927
1015.605927
999.274850
824.234486
539.668798
365.699530
207.648873
126.981735
82.076788
76.846480
98.313689
118.736625
130.786896
142.534971
137.321949
122.710466
102.028847
76.458454
55.485964
34.290552
21.759868
12.976527
9.018779
6.564856
6.458759
6.380677
6.648898
5.862713
6.391406
6.141663
6.236434
6.083846
5.926490
5.698800
5.726814
6.286502
5.923510
5.531907
5.325675
5.818605
5.223751
5.532503
5.739927
6.071925
6.032586
6.494522
6.087422
6.692410
6.416440
7.435679
7.383823
8.501410
8.586645
8.973479
8.668900
8.351803
8.781552
8.794665
7.900596
7.231832
6.452799
6.649494
5.809665
5.184412
5.524755
5.390644
4.799962
4.902482
4.946589
4.600883
5.127788
4.263520
4.497766
4.601479
4.427433
4.688501
##ZVALUE=265
1.257658
1.349449
1.419783
1.294613
1.280904
1.681447
1.689792
1.694560
1.375675
1.866817
1.652837
2.236962
1.900792
2.578497
6.296635
32.332540
79.618692
199.900866
346.285701
627.930760
859.424472
1015.537977
1015.537977
1015.537977
1015.537977
979.283452
714.635849
501.076579
270.457864
167.124867
89.487433
69.161654
75.566769
102.523565
122.414827
140.246749
142.781734
135.780573
123.565793
97.776651
77.637434
50.846934
34.523606
19.965768
12.995601
8.239746
6.651878
6.146431
6.046891
6.089807
5.647540
5.674958
5.893707
5.793571
5.278587
5.737543
5.538464
6.093979
5.907416
5.348921
5.420446
4.830956
5.118847
5.209446
5.258918
4.986525
5.598664
5.566478
6.489754
7.219911
6.859899
7.126927
8.175969
7.483959
7.838607
7.753968
7.834435
6.564856
6.204844
6.463528
6.134510
5.264878
5.278587
4.768968
4.863739
4.757643
4.954934
4.521608
4.063845
4.360676
4.273653
3.992915
3.825426
4.130602
4.140735
4.134774
##ZVALUE=270
1.185536
1.212955
1.505613
1.208782
1.502633
1.533628
1.481771
1.588464
1.596808
1.609921
1.617670
1.689792
1.694560
1.898408
1.919866
2.755523
3.345609
15.314817
45.204759
145.159960
283.624530
477.035642
813.913941
1015.605927
1015.605927
1015.605927
1015.605927
1015.605927
904.651880
664.958954
457.742810
236.145854
133.277774
66.194534
58.818460
77.549815
98.201632
125.305653
137.553811
143.265724
139.194727
120.244622
101.258755
75.197816
54.769516
32.660961
22.449493
12.792945
9.217858
7.361770
6.571412
6.059408
5.943775
5.870461
5.716681
5.493760
5.631447
5.353689
5.556941
5.243421
5.070567
5.045533
5.155802
5.333424
5.032420
5.197525
5.231500
5.200505
5.570650
6.035566
6.380677
6.775856
7.434487
6.907582
7.200837
7.270575
6.774664
6.567836
6.492734
5.624890
5.282760
4.856586
5.277991
4.534721
4.779696
4.346967
4.305840
4.618764
4.464984
3.950000
3.836751
3.905892
4.010797
3.887415
4.100800
3.704429
##ZVALUE=275
1.426935
1.293421
1.291633
1.490712
1.279712
1.370907
1.524687
1.457930
1.640916
1.563430
1.421571
1.339912
1.556873
2.010465
1.774430
1.760721
1.886487
2.361536
2.536774
7.702708
27.516484
75.928569
221.866965
405.134559
730.251670
970.873833
1015.605927
1015.605927
1015.605927
1015.605927
1015.605927
843.914747
589.848757
310.715437
173.735619
77.116489
51.110983
55.231452
73.867440
99.586844
117.272735
135.177970
140.578747
135.798454
122.090578
95.987916
76.671839
53.740740
37.663579
21.458864
13.992786
8.923411
7.003546
6.234646
5.647540
5.367994
5.876422
4.989505
5.245805
5.430579
5.191565
4.940629
4.794598
5.030632
5.134940
5.006790
4.985929
5.344748
5.371571
6.088614
5.860925
6.544590
6.702542
6.780624
6.879568
6.864667
6.410480
6.093979
6.221533
5.567670
5.317926
4.713535
4.550815
4.515648
4.195571
4.286766
4.236698
4.109740
4.004836
4.054904
3.595948
3.847480
3.679991
3.875494
3.812909
3.752708
##ZVALUE=280
1.177788
1.311898
1.075864
1.038909
1.082420
1.045465
1.264811
1.197457
1.307726
1.199841
1.404881
1.474619
1.317859
1.413822
1.537800
1.802444
1.864433
1.977682
1.935959
2.495646
2.479553
3.341436
17.092824
57.459474
177.027583
319.718719
586.038828
836.491585
1015.605927
1015.605927
1015.605927
1015.605927
1015.605927
962.712765
702.902675
392.194986
234.127641
102.233887
54.974556
41.254759
50.475597
74.325800
94.762444
120.819807
134.307742
138.553977
132.287741
116.038918
99.921823
73.558688
54.120421
33.684969
22.542477
12.262464
8.235574
6.200671
5.695820
5.343556
4.910827
5.159974
5.116463
4.613996
5.074739
4.723668
4.950762
5.108714
4.777908
5.424619
5.067587
5.601645
5.613565
6.268620
6.281734
6.409883
6.212592
6.297827
6.109476
5.561709
5.394816
5.581975
5.098581
4.398823
3.928542
4.442930
4.109740
4.094839
3.862977
3.983974
3.478527
3.927946
3.857613
3.839731
3.583431
3.548861
3.513694
3.522635
##ZVALUE=285
1.257658
1.126528
1.251698
1.389980
1.545548
1.241565
1.255870
1.257658
1.361966
1.262426
1.480579
1.576543
1.480579
1.525879
1.603961
1.619458
1.659989
1.658797
1.788735
1.996756
2.109408
2.084970
2.629757
2.885461
8.840561
29.280782
101.236701
208.285451
441.965461
673.062801
988.679528
1015.730500
1015.730500
1015.730500
1015.730500
1015.730500
877.979994
543.114543
332.410932
153.122544
77.725649
36.186576
33.264756
50.236583
67.517757
95.458627
112.148523
128.420591
133.125782
130.089521
120.163560
98.272562
80.188513
54.410696
37.760735
21.878481
13.777614
8.608699
6.488562
5.094409
4.764795
4.875660
4.992485
4.840493
4.874468
4.805923
4.878640
4.769564
5.049706
5.438924
5.683899
6.096959
5.922914
5.955696
5.998611
6.048679
5.631447
5.686879
4.972816
4.968643
4.540682
4.158616
4.472733
4.246831
4.285574
4.223585
4.171729
4.091859
3.857613
3.795624
3.644824
3.852844
3.780723
3.653765
3.477931
3.759861
##ZVALUE=290
1.158714
0.992417
1.022816
1.066923
1.052618
1.136661
1.188517
1.157522
1.253486
1.025796
1.108646
1.359582
1.243949
1.150966
1.267791
1.227856
1.518726
1.432896
1.486540
1.708865
1.620650
1.878738
1.806617
2.118945
2.336502
2.525449
3.655553
12.252927
55.565834
130.646825
256.518722
522.827506
789.350867
1015.604734
1015.604734
1015.604734
1015.604734
1015.604734
1009.548903
699.616671
457.268953
225.206614
116.537809
43.649673
26.833415
32.435656
44.660568
65.772533
84.554553
108.545423
122.747421
131.305456
128.582716
113.307834
97.596645
72.504878
52.730441
34.136772
22.563934
12.659431
8.512735
5.956888
5.157590
4.562736
4.449487
4.390478
4.562736
4.716516
4.610419
4.956722
4.882812
5.538464
5.415678
5.662441
5.578995
5.612969
4.954934
4.746914
4.481673
4.110932
4.081726
4.220605
3.998876
3.771782
3.788471
3.947616
3.624558
3.680587
3.460646
3.643632
3.574491
3.358722
3.606677
3.628731
3.402829
3.451705
##ZVALUE=295
0.990629
0.914931
1.047850
1.032948
1.067519
1.231432
1.048446
1.202822
1.141429
1.066923
1.215935
1.051426
1.200438
1.121759
1.069903
1.279712
1.167655
1.275539
1.540780
1.541972
1.572967
1.483560
1.658797
1.670718
1.828671
1.980662
2.177954
2.058744
3.023744
5.223751
19.661784
81.905723
183.239579
417.930484
664.302707
1001.024842
1015.614867
1015.614867
1015.614867
1015.614867
1015.614867
849.936008
584.896803
306.349993
162.896514
59.177876
28.184652
19.855499
27.825832
43.311715
59.807897
83.212852
100.033879
116.071701
123.963952
120.221972
109.126568
90.161562
72.073936
49.686432
35.270452
20.923615
13.666749
8.042455
6.151795
5.000830
4.814863
4.304647
4.227757
4.516840
4.733801
5.000830
4.972816
5.362630
5.236864
4.959702
4.593730
4.615784
4.205704
4.183650
3.934503
3.848672
3.708601
3.592968
3.889799
3.338456
3.480911
3.580451
3.472567
3.385544
3.154874
3.665686
3.386736
3.329515
3.219843
3.162622
##ZVALUE=300
0.934601
0.944734
0.858903
0.979900
1.018643
1.021624
1.094937
1.152754
1.191497
0.983477
1.004934
1.117587
1.084805
1.083612
0.982881
1.104474
1.011491
1.186728
1.027584
1.222491
1.268983
1.208782
1.268983
1.528859
1.473427
1.789927
1.737475
1.836419
2.221465
2.250671
2.461672
3.061891
8.490682
49.402714
122.270584
305.475593
515.467525
872.406960
1015.605927
1015.605927
1015.605927
1015.605927
1015.605927
987.530947
731.883645
403.745770
236.235857
102.148652
47.010779
18.657446
16.635656
25.440454
35.600662
56.115985
73.398948
96.675754
109.402537
117.039680
116.288662
104.480982
90.397000
69.065690
52.709579
33.904910
22.546649
12.907982
8.787513
5.543828
4.650950
4.442930
4.688501
4.603863
4.954934
4.725456
4.670620
4.854798
4.379749
4.603863
3.973842
3.790855
3.643632
3.486872
3.760457
3.698468
3.433824
3.371835
3.598928
3.488660
3.387928
3.414750
3.362894
3.277659
3.037453
3.173947
3.014803
3.050566
##ZVALUE=305
0.760555
0.897646
0.804663
0.972748
0.874996
1.100898
0.961423
0.909567
0.993609
0.865459
1.149774
0.978708
0.974536
1.056790
0.972748
1.075864
1.230836
1.271963
1.088977
1.143813
1.140833
1.240969
1.365542
1.441836
1.379848
1.407862
1.592636
1.685619
1.733899
1.854897
2.086759
2.234578
2.551675
2.695918
4.854798
29.177666
80.384612
222.345591
396.809578
724.250674
988.290906
1015.597582
1015.597582
1015.597582
1015.597582
1015.597582
886.512995
546.091795
336.293578
150.709748
71.810484
24.097562
13.903975
15.902519
22.729635
36.958456
50.723553
72.573423
88.198781
102.927685
110.086799
109.511614
100.499988
85.177422
68.090558
47.285557
33.965707
21.128654
13.231635
8.087754
6.279945
5.163550
4.886985
4.804730
4.484653
4.177690
4.135966
4.017949
3.910661
3.604889
3.689528
3.710985
3.759861
3.643632
3.649592
3.459454
3.734827
3.236532
3.307462
3.378987
3.415942
2.958775
3.023744
3.252625
3.030896
3.030896
##ZVALUE=310
0.980496
0.871420
0.986457
0.980496
0.852942
0.812411
0.837445
0.906587
0.844598
0.934601
0.918508
0.985861
1.010895
1.021624
1.027584
1.095533
1.081824
1.083612
1.168847
1.128912
1.108646
1.184940
1.334548
1.354814
1.128912
1.506805
1.311898
1.371503
1.502633
1.634955
1.617670
1.642704
1.830459
1.913905
2.278686
2.629757
2.843738
12.171865
41.422844
136.932731
268.984437
548.567772
827.083588
1015.605927
1015.605927
1015.605927
1015.605927
1015.605927
1015.605927
743.518472
486.487746
235.234499
120.965838
41.315556
17.034411
11.194944
13.755560
20.970702
30.216575
46.518445
60.791969
81.678629
93.531609
103.412867
104.080439
97.305775
84.341764
65.330863
49.508810
32.525659
22.413731
13.644695
9.452701
6.075501
5.086660
4.459620
4.324913
3.973842
3.806949
3.497601
3.504753
3.662705
3.451705
3.226995
3.278852
3.505945
3.263950
3.390908
3.387928
3.139973
3.248453
3.282428
3.166795
2.964735
2.870560
2.944469
##ZVALUE=315
0.928640
0.845790
0.759959
0.917912
0.963807
0.847578
0.867844
0.885725
0.933409
0.907779
0.827909
1.084805
0.879765
0.869632
0.943542
0.944734
1.059771
1.038909
0.931621
1.057982
1.128912
1.051426
1.151562
1.087785
1.258850
1.154542
1.162887
1.082420
1.251698
1.332760
1.596808
1.650453
1.732707
1.698732
1.969934
2.065897
2.156496
2.568960
2.828836
5.999804
20.969510
87.010860
188.210607
422.445536
684.791803
1015.606523
1015.606523
1015.606523
1015.606523
1015.606523
1015.606523
938.028693
654.710531
339.955688
179.288983
62.955618
24.787784
10.845661
10.045767
12.995601
18.033981
29.475689
40.620565
59.591532
74.702501
91.008544
95.738769
98.456740
92.463493
76.592565
64.264536
46.409965
33.940673
20.217896
13.659000
8.350611
5.766749
4.506707
3.962517
3.678799
3.421903
3.450513
3.372431
3.389716
3.258586
3.121495
3.301501
3.243685
3.115535
3.207922
3.233552
3.054738
3.034472
2.946854
2.859831
2.807975
##ZVALUE=320
0.933409
0.950694
0.757575
0.898838
0.838637
0.848770
0.867844
0.926852
0.973940
0.974536
0.909567
0.947714
0.915527
0.808835
0.942945
0.997782
0.947714
0.912547
0.895858
0.972748
0.855923
0.942945
1.165867
1.161695
1.216531
1.047850
1.168847
1.337528
1.272559
1.227856
1.305938
1.372695
1.372695
1.504421
1.484752
1.765490
1.641512
2.158880
2.031922
2.186894
2.443790
3.246665
9.504557
49.533844
124.025941
320.261717
531.568527
884.276628
1015.600562
1015.600562
1015.600562
1015.600562
1015.600562
1015.600562
853.058696
464.611650
260.334611
104.545951
43.190718
13.697743
8.840561
9.182692
11.058450
16.430616
24.093986
37.870407
52.159429
70.117712
82.346797
92.023611
93.165636
87.383986
77.639818
59.227943
45.004487
29.612780
20.423532
11.856556
8.075833
5.183816
4.246831
3.523827
3.587604
3.432631
3.008842
3.053546
2.999902
2.945662
3.132820
2.773404
3.109574
2.722740
2.827644
2.859831
3.035665
2.830625
##ZVALUE=325
0.875592
0.810623
0.799894
0.899434
0.575781
0.779629
0.894666
0.864863
0.974536
0.949502
0.871420
0.822544
1.074672
0.956655
0.969768
0.821948
0.896454
0.992417
1.030564
1.028776
1.026988
0.790954
1.074672
1.139641
1.036525
1.260638
1.205802
1.086593
1.242757
1.201630
1.165867
1.289845
1.318455
1.420975
1.499653
1.497865
1.533628
1.609921
1.599789
1.929998
1.859665
2.128482
2.323985
2.665520
5.164742
30.899644
81.622005
217.124820
391.159654
729.610920
994.218588
1015.614867
1015.614867
1015.614867
1015.614867
1015.614867
949.192643
584.564805
351.994634
153.583884
70.058703
19.672513
9.425879
7.571578
8.230805
11.063814
15.524626
24.429560
35.246611
52.209496
64.725876
79.328418
86.005926
86.109638
82.167983
69.065690
55.790544
39.597750
28.608441
16.563535
11.190772
6.698966
4.777908
4.030466
3.670454
3.202558
3.051758
2.864599
2.950430
2.812743
2.867579
2.839565
2.618432
2.412796
2.708435
2.451539
##ZVALUE=330
0.687838
0.781417
0.779629
0.894666
0.866652
0.866652
0.889897
0.798702
0.911951
0.919700
0.895858
0.878572
0.787973
0.972748
0.856519
0.885725
0.845790
1.019835
0.914931
0.798702
0.945926
0.775456
0.983477
1.102686
1.029968
0.937581
0.978708
0.923872
1.190901
1.179576
1.217723
1.152754
1.139641
1.243949
1.261830
1.248717
1.280904
1.414418
1.385808
1.527667
1.510978
1.703501
1.812577
1.961589
2.209544
2.365708
2.992749
13.072491
42.910576
141.666532
276.640654
561.676621
826.179981
1015.610695
1015.610695
1015.610695
1015.610695
1015.610695
1010.842919
684.939623
441.890955
207.196474
102.529526
33.900738
13.466477
7.217526
6.967783
7.723570
9.708405
15.549660
22.482872
35.020709
46.259761
63.065886
73.590875
80.495477
81.011653
74.880719
65.320730
49.629807
38.332939
24.715662
17.595887
10.999441
7.390976
4.792809
3.932714
3.219843
2.870560
2.847910
2.449751
2.577901
2.624989
2.383590
2.634525
2.704859
##ZVALUE=335
0.677705
0.820756
0.679493
0.847578
0.889897
0.707507
0.763535
0.805855
0.810623
0.711679
0.822544
0.753999
0.845790
0.739694
0.906587
0.935793
0.742674
0.898838
0.807643
0.862479
0.762939
0.872612
0.906587
0.814795
0.904799
0.948906
0.934601
0.988841
1.096725
1.039505
1.035929
1.031756
1.202822
1.195669
1.168847
1.253486
1.297593
1.255870
1.121759
1.365542
1.227856
1.534820
1.483560
1.616478
1.639724
1.757741
1.902580
2.201796
2.384782
6.386638
22.672415
88.372827
187.077522
417.956710
663.521886
1005.235910
1015.605927
1015.605927
1015.605927
1015.605927
1015.605927
777.354836
524.806976
274.041891
142.837763
49.195886
18.531680
7.692575
6.606579
6.548762
7.408857
9.743571
13.642907
22.350550
31.483769
46.354532
56.722760
68.655610
74.796677
75.118542
70.862770
59.675574
49.192905
35.607815
26.439428
16.563535
11.560917
7.312894
4.899502
3.657937
2.985597
2.819896
2.563000
2.529621
2.433658
2.194643
##ZVALUE=340
0.799894
0.743866
0.884533
0.575781
0.802875
0.674725
0.674725
0.708699
0.868440
0.838637
0.766516
0.915527
0.686646
0.765920
0.942945
0.868440
0.852942
0.746846
0.713468
0.948906
0.912547
0.877976
0.806451
0.855923
0.992417
0.814795
1.010895
0.907779
0.841618
0.945926
0.957847
0.985861
1.176596
1.029968
1.076460
1.103878
1.291633
1.318455
1.176596
1.128912
1.179576
1.161695
1.374483
1.392961
1.391768
1.598597
1.619458
1.771450
1.836419
1.973510
2.201796
3.276467
10.990500
54.140687
131.819844
326.064825
542.401671
884.850025
1015.605927
1015.605927
1015.605927
1015.605927
1015.605927
892.230868
623.466969
322.957635
176.633000
69.036484
26.388764
8.737445
6.893873
6.533861
6.304979
7.163882
8.762479
13.595819
19.708872
30.371547
40.576458
55.091977
63.422918
69.837570
70.508718
66.445470
58.952570
46.933889
36.474466
24.759769
17.865896
11.074543
7.413626
4.667640
3.573895
2.864599
2.649426
2.390742
##ZVALUE=345
0.742674
0.706911
0.647902
0.788569
0.837445
0.813603
0.720620
0.737906
0.804663
0.673532
0.708699
0.812411
0.718832
0.547767
0.694990
0.564456
0.805855
0.885725
0.800490
0.832677
0.715852
0.742674
0.810623
0.874996
0.846982
0.906587
0.864863
0.832677
0.756979
1.016855
0.983477
0.972748
0.948906
0.879765
0.974536
0.978708
1.173615
1.062751
1.075864
1.136661
1.123548
1.221895
1.256466
1.306534
1.327991
1.370907
1.572967
1.402497
1.543760
1.585484
1.828671
1.939535
2.174973
2.610683
5.240440
30.200481
82.845688
222.904682
397.927761
719.144940
976.838470
1015.605927
1015.605927
1015.605927
1015.605927
986.735821
744.698644
434.634686
242.893696
93.933940
40.370822
12.509823
7.542968
6.482601
6.238818
5.799532
6.052852
7.980466
10.989904
18.109679
26.009679
38.670897
47.813654
58.400631
62.857866
65.269470
62.136650
54.742694
46.490431
35.206676
26.367903
16.841888
11.468530
7.200837
4.832745
3.180504
##ZVALUE=350
0.665784
0.737906
0.772476
0.653863
0.760555
0.518560
0.681877
0.937581
0.725985
0.676513
0.711679
0.766516
0.765920
0.810623
0.718832
0.717640
0.807643
0.765920
0.848770
0.769496
0.883937
0.877976
0.747442
0.879765
0.933409
0.910759
0.820756
0.997782
0.912547
0.996590
0.963807
1.013875
0.974536
1.120567
0.903606
1.043677
1.034737
0.919700
1.099706
0.977516
1.112819
1.185536
1.063943
1.125932
1.201630
1.111627
1.318455
1.291633
1.362562
1.450777
1.486540
1.672506
1.640916
1.779795
1.870990
2.182722
3.246665
15.903711
48.289895
148.990750
283.765793
567.895770
822.058916
1015.605927
1015.605927
1015.605927
1015.605927
1015.605927
862.160921
513.620973
306.482911
130.380988
57.374835
15.791655
8.228421
6.228685
5.882978
4.924536
5.061626
5.566478
7.224679
10.988712
15.872717
23.761988
31.713843
43.060780
50.875545
58.011413
58.893561
57.904720
52.841902
42.335987
34.192801
23.771524
17.425418
10.764599
##ZVALUE=355
0.588894
0.517964
0.826716
0.637770
0.746846
0.611544
0.599623
0.616908
0.716448
0.514984
0.703931
0.717640
0.551939
0.714660
0.598431
0.626445
0.672936
0.659823
0.766516
0.744462
0.602603
0.714660
0.599623
0.844598
0.711679
0.722408
0.776649
0.708699
0.760555
0.607967
0.938773
0.859499
0.895858
0.720620
0.902414
0.918508
0.945926
0.753999
0.947714
0.918508
1.029968
1.022816
0.893474
1.027584
1.086593
1.053810
1.187921
1.173615
1.210570
1.130700
1.282692
1.397729
1.341701
1.505613
1.541972
1.586676
1.703501
1.998544
2.159476
7.093549
25.699735
100.855827
205.859542
429.831743
671.936870
999.109745
1015.480757
1015.480757
1015.480757
1015.480757
959.878564
631.184578
395.695567
172.859430
81.736445
23.469925
9.451509
5.772710
5.357862
4.792809
4.569888
4.265904
4.762411
6.282926
8.592606
13.750792
19.229650
28.629899
35.739541
45.794845
51.303506
54.080486
52.612424
47.147870
41.077733
31.999946
##ZVALUE=360
0.732541
0.710487
0.767708
0.623465
0.675917
0.741482
0.774860
0.730753
0.847578
0.792742
0.720620
0.774860
0.897646
0.811815
0.712872
0.877976
0.781417
0.885725
0.768900
0.787973
0.794530
0.791550
0.752807
0.821948
0.770688
0.811815
0.829697
0.850558
0.914931
0.872612
1.013875
0.895858
0.961423
0.964999
0.937581
0.895858
0.921488
0.996590
1.035929
0.906587
0.902414
1.068711
1.015663
1.081824
1.151562
1.161695
1.034737
1.195669
1.123548
1.127720
1.260638
1.373887
1.593828
1.527667
1.501441
1.761913
1.630783
1.763701
1.879930
2.217889
2.363920
3.719926
11.194944
52.322745
123.619437
301.874876
513.745546
857.188702
1015.605927
1015.605927
1015.605927
1015.605927
1015.605927
731.682777
485.571623
236.192942
119.556785
41.014552
15.534759
6.333590
5.408525
4.793406
4.600883
4.346967
4.205704
4.410744
5.233884
7.404685
10.446906
16.176701
22.517443
31.973720
38.518906
45.296550
48.543811
48.524737
##ZVALUE=365
0.674725
0.763535
0.826716
0.760555
0.663996
0.756979
0.813603
0.733733
0.605583
0.732541
0.861883
0.907779
0.698566
0.761747
0.823736
0.676513
1.013875
0.824928
0.847578
0.776649
0.723600
0.836849
0.843406
0.837445
0.820756
0.978708
0.946522
0.787973
0.877976
0.934601
1.058578
0.847578
0.938773
0.872612
0.973940
0.959635
0.834465
1.046658
1.130700
1.160502
0.985861
1.096725
0.955462
1.122952
1.180768
1.108646
1.066923
1.034737
1.148582
1.190901
1.279712
1.326799
1.206994
1.328588
1.436472
1.410842
1.546741
1.757741
1.726747
1.747608
1.841784
2.161860
2.154708
2.583861
5.038977
28.923750
78.770518
211.506486
389.419794
713.895559
959.360600
1015.605927
1015.605927
1015.605927
1015.605927
846.865773
599.401593
326.156616
173.053741
60.213804
23.028851
7.205606
5.271435
4.764795
4.492998
4.126430
3.767610
3.757477
3.633499
4.318953
5.846620
9.342432
13.284683
20.337701
26.105642
34.386516
##ZVALUE=370
0.663996
0.793934
0.792742
0.682473
0.767708
0.747442
0.848770
0.767708
0.723600
0.722408
0.906587
0.826716
0.842810
0.736713
0.782609
0.652671
0.829697
0.777841
0.815988
0.811815
0.786781
0.763535
0.795722
0.684857
0.838637
0.910759
0.800490
0.837445
0.821948
0.947714
0.876784
0.868440
0.731945
0.747442
0.731945
0.874996
0.967979
0.882745
0.749826
0.876784
0.922680
0.775456
1.003742
1.072884
0.947714
1.038909
0.902414
0.961423
1.051426
0.998974
0.921488
1.083612
1.005530
1.085997
1.206994
1.245737
1.366735
1.307726
1.391768
1.418591
1.454949
1.544952
1.694560
1.800656
2.142787
2.574921
3.422499
15.004873
49.515963
160.362720
301.557779
567.101836
823.279023
1015.605927
1015.605927
1015.605927
1015.605927
959.903598
703.049898
388.183594
216.800570
83.684921
36.811829
11.500716
5.903840
4.670620
4.241467
3.864765
3.869534
3.562570
3.160834
3.379583
3.869534
5.349517
7.437468
11.710525
##ZVALUE=375
0.725985
0.883937
0.780821
0.752807
0.726581
0.644922
0.666976
0.910759
0.686646
0.754595
0.602603
0.681877
0.681877
0.606775
0.689626
0.820756
0.709891
0.776649
0.824928
0.806451
0.685453
0.846982
0.745654
0.657439
0.745654
0.676513
0.752807
0.740886
0.801682
0.891685
0.781417
0.894666
0.877976
0.878572
0.785589
0.946522
0.825524
0.830889
0.762939
0.882745
0.796914
0.930429
0.997782
0.851750
0.895858
0.865459
1.091957
0.972748
1.121759
1.019835
0.990629
1.060963
1.036525
1.085997
1.113415
1.139641
1.178980
1.134872
1.265407
1.167655
1.149774
1.269579
1.209974
1.286864
1.475811
1.717806
1.983643
2.214909
2.572536
7.698536
26.604533
96.142888
209.344625
460.582972
705.061555
1009.142995
1015.605927
1015.605927
1015.605927
1015.605927
826.686621
504.166484
316.415429
152.865648
73.057413
21.534562
8.104444
4.792809
4.440546
3.871918
3.694892
3.535748
3.176928
3.007650
3.097653
3.343821
##ZVALUE=380
0.719428
0.630617
0.687838
0.771880
0.646710
0.528693
0.680685
0.646710
0.710487
0.658631
0.649691
0.756979
0.824928
0.666976
0.771880
0.693798
0.896454
0.631809
0.842810
0.773668
0.772476
0.825524
0.773668
0.632405
0.739694
0.568628
0.592470
0.782609
0.789762
0.830889
0.736713
0.802875
0.895858
0.713468
0.759959
0.802875
0.763535
0.715852
0.803471
0.898838
0.700951
0.959635
0.913739
0.796914
0.844598
0.816584
0.890493
0.915527
0.801682
0.874996
0.984669
0.941753
1.032948
1.020432
1.116991
1.115799
1.035929
0.999570
0.991821
0.998974
1.103878
1.207590
1.241565
1.253486
1.372695
1.487732
1.537800
1.817942
1.852512
2.087951
2.452731
4.178882
14.856458
70.249438
161.380768
373.926759
594.728589
920.758843
1015.605927
1015.605927
1015.605927
1015.605927
948.113799
654.546618
437.363982
210.025907
107.279420
35.345554
13.430715
5.141497
4.238486
3.803968
3.546476
3.548861
3.251433
3.143549
##ZVALUE=385
0.752807
0.704527
0.689626
0.868440
0.823736
0.732541
0.559688
0.811815
0.807643
0.673532
0.900626
0.808835
0.802875
0.740886
0.782609
0.615716
0.849962
0.736713
0.711679
0.685453
0.875592
0.789762
0.829697
0.792742
0.778437
0.849962
0.867844
0.890493
0.803471
0.697970
0.823736
0.925660
0.962615
1.018643
0.863671
0.804663
0.885725
0.945926
0.890493
0.962615
0.841618
0.949502
0.946522
1.009703
0.757575
0.958443
0.937581
1.063943
0.935793
1.104474
0.974536
0.981688
0.885725
1.058578
1.095533
0.934601
1.156926
1.048446
1.187921
1.153946
1.114607
1.108646
1.298785
1.256466
1.274943
1.509786
1.509786
1.796484
1.638532
1.955628
1.969934
2.096891
2.222657
2.910495
7.685423
41.028857
106.046796
266.497731
461.162925
787.006617
1009.477973
1015.717983
1015.717983
1015.717983
1015.717983
800.562501
562.853813
302.938819
169.180632
67.621469
25.977492
6.957650
4.407763
3.883839
3.646612
3.570914
##ZVALUE=390
0.705719
0.604987
0.553727
0.622869
0.513792
0.566840
0.701547
0.517964
0.653863
0.629425
0.718832
0.568628
0.724792
0.731945
0.498891
0.703931
0.727773
0.714660
0.629425
0.700951
0.664592
0.585914
0.636578
0.564456
0.829697
0.755787
0.778437
0.758767
0.737906
0.695586
0.693798
0.696778
0.872612
0.724792
0.732541
0.739694
0.729561
0.883937
0.829697
0.853539
0.832677
0.836849
0.851750
0.731945
0.945926
0.779629
0.954866
0.909567
0.732541
0.832677
0.803471
0.798702
0.832677
0.945926
0.988841
1.123548
1.120567
0.997782
1.097918
1.003742
0.932813
1.084805
1.085997
1.213551
1.274943
1.248717
1.322627
1.376867
1.630783
1.601577
1.757741
1.870990
1.849532
1.795888
1.944900
2.462864
3.712773
20.688772
65.311790
196.451545
366.802812
679.667592
919.431448
1015.605927
1015.605927
1015.605927
1015.605927
966.867805
730.921626
438.769460
252.099633
100.616813
44.312477
11.392832
5.166531
3.752708
##ZVALUE=395
0.813603
0.788569
0.741482
0.665784
0.709891
0.738502
0.891685
0.789762
0.756979
0.712872
0.658631
0.701547
0.693798
0.770688
0.742674
0.601411
0.635982
0.617504
0.654459
0.708699
0.768900
0.675917
0.841618
0.796914
0.740886
0.928640
0.815988
0.690818
0.692606
0.822544
0.661612
0.824928
0.844598
0.851750
0.825524
0.865459
0.870824
0.774860
0.933409
0.866652
0.877976
0.975728
0.871420
0.943542
0.868440
0.892878
0.914931
1.016855
0.950694
0.981688
0.915527
0.982881
0.856519
0.951886
1.111627
1.127720
0.962615
1.132488
1.067519
0.969768
1.118779
1.061559
1.137853
1.280904
1.090765
1.176000
1.251698
1.383424
1.354814
1.618862
1.843572
1.690984
1.880527
1.803637
1.943707
1.918674
2.043843
2.268553
2.770424
11.944771
42.351484
143.796802
270.630717
517.115593
760.414600
1015.676856
1015.676856
1015.676856
1015.676856
1015.676856
876.737833
538.452864
332.656503
144.063830
66.657662
20.609498
##ZVALUE=400
0.778437
0.769496
0.658631
0.616908
0.696778
0.692606
0.646710
0.695586
0.659823
0.704527
0.659823
0.670552
0.722408
0.714660
0.738502
0.726581
0.572801
0.594854
0.628829
0.525713
0.700951
0.766516
0.694990
0.824928
0.592470
0.687838
0.576973
0.607967
0.690818
0.754595
0.642538
0.842810
0.769496
0.750422
0.770688
0.972748
0.717640
0.849962
0.937581
0.744462
0.695586
0.836849
0.742674
0.692606
0.817776
0.876784
0.948906
0.835657
0.893474
0.848770
0.862479
0.969768
0.857711
0.745654
0.802875
0.818968
0.942945
0.820756
0.846982
0.851750
0.984669
1.012683
0.993609
1.095533
0.977516
1.325607
1.200438
1.443624
1.400709
1.562834
1.546741
1.623631
1.514554
1.620650
1.708865
1.609921
1.625419
1.823902
1.951456
1.970530
2.349615
5.808473
21.284819
85.715652
183.181763
400.514603
627.276897
959.820747
1015.605927
1015.605927
1015.605927
1015.605927
978.835821
667.372942
438.557863
216.800570
##END
