##TITLE=FDDW01
##FORMAT=SPECTACLE-ASCII V-1.2
##DATA TYPE=ULTRAVIOLET SPECTRUM
##SECOND TYPE=ULTRAVIOLET SPECTRUM
##DATE=03/27/18
##TIME=17:20:50
##SPECTROMETER/DATA SYSTEM=SPECTACLE
##XUNITS=NM EM
##YUNITS=ENERGY
##YFACTOR=1
##FIRSTX=220
##LASTX=410
##NPOINTS=96
##3DDATA=Equidistant
##ZUNITS=NM EX
##FIRSTZ=210
##LASTZ=400
##ZPOINTS=39
##XYDATA=(Y..Y)
##ZVALUE=210
22.417903
21.630526
16.087890
12.051463
10.741949
9.874701
8.988976
7.049441
7.429719
6.134510
5.111694
4.412532
3.575683
3.299713
3.630519
3.759861
3.903508
4.388690
5.105734
4.850626
4.978776
5.468726
5.923510
5.684495
5.928874
8.463860
8.333921
10.866523
10.744929
10.643601
14.073849
13.062954
12.823939
15.439987
15.632510
15.574694
15.593767
16.675591
15.192628
15.855432
15.327930
14.751554
15.383959
14.616847
13.672709
15.176535
14.792681
15.208721
14.177561
13.906956
13.169646
13.649464
13.890862
12.596846
11.869669
12.822747
14.180541
12.761950
12.847781
11.877418
12.939572
14.180541
14.008880
12.200475
12.118816
13.490915
15.245676
15.900731
19.251704
20.998716
27.996898
31.076670
33.817887
38.633943
41.378736
44.862628
44.614673
44.795871
44.475794
43.871999
39.928555
35.771728
33.197999
30.902624
23.853779
19.889474
17.679930
15.185475
14.452934
15.903711
22.475719
26.029944
35.263896
43.440461
56.385994
62.716603
##ZVALUE=215
74.267983
72.509646
61.471462
41.997433
29.965639
23.897886
18.886924
15.653968
14.992952
14.046431
12.780428
10.761619
7.784963
6.655455
5.810857
4.736781
4.408956
5.492568
6.490946
6.028414
5.791783
6.133914
5.937815
7.499456
7.727742
9.678602
9.581447
10.048747
12.668967
12.483597
14.102459
15.229583
15.297532
15.933514
17.714500
17.699599
16.679764
18.145442
17.490983
19.076467
17.990470
17.182827
16.188622
17.326474
16.061664
15.370846
16.337633
15.638471
14.073849
14.208555
13.929605
14.287829
13.285875
12.930632
13.701916
13.497472
13.815761
14.064908
13.389587
14.043450
14.726520
12.416840
13.996959
13.000965
12.902617
14.035702
14.000535
15.156865
17.524958
19.189715
23.294687
26.729703
32.430887
34.390688
35.762787
38.430691
38.045645
37.766695
36.349893
35.853982
31.493902
25.651455
24.728775
20.494461
17.878413
16.987920
14.813542
11.505485
11.351705
11.740923
11.218786
11.249781
11.188984
12.938976
17.218590
23.767948
##ZVALUE=220
147.930980
155.931711
142.855644
129.871964
101.146698
77.986717
54.311752
37.627816
28.881431
27.848482
27.247667
24.993420
22.431612
20.718575
15.415549
12.279749
8.516908
7.347465
6.426573
5.691648
5.463958
6.102920
6.911755
5.751848
7.170439
8.547902
9.967685
10.559559
12.747645
14.113784
14.828444
18.287897
18.232465
19.628406
20.030737
21.679997
19.641519
19.894838
18.922687
20.212531
18.189549
19.977689
17.541647
16.054511
17.566681
16.887784
16.555786
16.386509
16.785860
14.807582
14.426708
13.536811
13.966560
14.313459
14.792681
13.134480
13.564825
14.049411
14.133453
12.888908
13.572574
13.087988
14.092922
13.657808
13.649464
12.523532
13.633966
15.946627
17.265677
18.379688
20.886660
23.161769
27.178526
32.304525
34.561753
38.972497
38.392544
40.787458
41.013956
40.631890
34.080744
34.006834
29.343963
24.563670
20.343661
18.252730
15.106797
12.073517
11.921525
11.107922
11.339784
10.559559
10.998845
10.972619
9.453893
10.148883
##ZVALUE=225
207.789540
209.430456
250.790715
265.951753
261.162519
227.165818
195.614696
131.551623
93.665719
57.845712
48.102736
38.752556
42.454600
40.806532
37.864447
31.634569
28.453469
22.853613
16.315579
11.579990
9.267926
8.695722
6.953478
8.234978
8.075833
10.393858
11.647940
11.588931
13.085604
14.207959
16.176701
17.387867
18.376708
20.654798
18.790960
20.470619
20.449758
22.019744
21.314621
19.495487
18.231869
19.360781
19.432902
18.965602
18.528700
18.489957
17.217994
16.569495
17.695427
15.771985
15.587807
15.580654
15.878677
15.735626
14.977455
14.276505
14.724731
13.924837
14.131665
15.530586
15.275478
14.116764
13.624430
12.927651
14.600754
14.700890
14.242530
16.395450
17.457604
19.164681
21.949410
25.921464
27.122498
30.514598
32.516718
35.064816
34.278631
32.884479
32.511950
30.390620
28.417706
27.146935
22.687912
19.081831
16.521811
14.456511
13.817549
11.899471
11.189580
12.032986
9.539723
10.730624
10.632873
11.807680
12.003779
11.267662
##ZVALUE=230
160.470605
178.112984
260.530710
371.575952
437.694788
474.730730
469.485521
414.675474
328.185558
251.503587
153.723955
101.787448
68.355799
62.077641
59.181452
59.920549
62.275529
59.863925
50.516725
42.661428
32.914877
22.130609
16.061664
11.582971
9.633899
9.273887
10.511875
10.075569
12.283921
12.967587
13.806820
14.312863
15.000701
15.387535
15.976429
17.929673
17.553568
18.542409
18.170476
18.698573
18.332601
19.502640
17.868876
17.467737
17.055869
17.804503
16.049743
17.825961
15.534759
17.229915
15.878677
15.610456
15.750527
16.358495
15.548468
14.680624
15.393496
15.105605
15.981793
15.372634
16.429424
15.825629
15.729666
17.002821
15.285611
16.214848
16.647577
19.893646
18.969774
22.895932
24.876595
27.967691
31.183958
34.482479
35.547614
35.523772
37.611723
36.860704
34.102798
33.726692
29.870868
27.350783
24.057627
21.715760
19.865632
16.526580
15.791655
14.409423
12.681484
12.973547
11.895895
12.698770
11.938810
11.019707
11.140704
11.982918
##ZVALUE=235
48.515797
57.891011
112.762451
235.762000
338.754654
489.885807
592.974424
682.842731
698.798895
662.781596
550.804734
410.561562
263.879895
178.403854
117.329955
92.082620
82.169771
90.606809
92.849731
89.018941
84.547997
67.789555
56.003928
42.517781
28.973818
19.123554
15.142560
12.676716
11.680722
12.438893
12.899637
13.454556
12.712479
13.876557
14.417768
14.417768
14.893413
15.011430
14.464855
15.337467
15.071630
16.443729
14.806986
14.927983
14.382601
15.088916
14.567971
15.279651
15.042424
14.674664
14.869571
15.344620
14.387965
15.384555
14.900565
15.268922
15.551448
13.517737
15.912652
15.144944
15.273690
15.329719
16.771555
15.778542
14.955997
16.540885
16.123652
16.351938
18.927455
21.855831
21.792650
26.111603
28.327703
28.408766
30.743480
31.696558
31.568408
32.162666
30.951500
29.936433
28.661489
24.370551
23.329854
18.974543
18.052459
15.975833
15.449524
13.086796
13.691783
13.575554
12.021661
12.648702
13.211966
11.635423
12.700558
11.694431
##ZVALUE=240
2.647638
3.417730
13.457537
35.300851
96.291900
168.119669
321.736932
464.352965
680.565834
787.147880
870.608687
855.609775
767.987967
571.268797
423.071980
256.226659
175.685883
110.912919
94.351768
99.725723
106.642842
111.447573
110.575557
94.736814
79.453588
62.965751
46.403408
33.753514
20.592809
15.280843
11.674762
10.461807
11.235476
11.277795
11.707544
11.410713
12.131929
11.533499
12.386441
12.096763
13.347864
13.073683
12.619495
12.883544
14.032722
13.244748
13.310909
13.348460
13.125539
13.005733
13.214946
11.647940
13.252497
12.392998
12.674928
12.263656
12.894869
11.628866
12.259483
13.049841
11.930466
12.452602
12.438893
11.615753
14.032722
13.473630
12.992620
13.914704
14.503598
14.899969
17.024875
18.967986
20.572543
22.230744
23.616552
23.866892
23.436546
20.715594
19.858479
19.676685
17.656684
16.046762
15.665889
13.592839
12.310743
12.770891
11.558533
11.553764
11.332631
9.979606
10.719895
11.129975
10.537505
9.782910
10.251999
10.538697
##ZVALUE=245
2.099872
1.994967
2.138615
2.546906
6.972551
20.484924
59.221983
118.120909
253.793597
387.638807
600.180626
761.590004
870.286822
915.497541
869.828463
714.703798
560.789704
377.701521
256.251693
146.793723
106.173754
97.468495
110.690594
118.937492
123.839974
117.763877
102.083683
91.580749
65.637827
49.080849
35.524964
23.146868
16.651750
11.621714
10.289550
9.964705
11.094809
11.209846
10.776520
11.710525
10.122657
10.492802
10.853410
11.616945
11.661649
11.104941
10.378957
10.331869
10.836720
11.297464
10.760427
11.253953
11.333823
10.124445
9.890795
10.011792
9.926558
9.971857
10.020733
9.969473
8.926988
9.552836
10.881424
9.433627
10.736585
10.605454
10.834932
11.434555
11.438727
12.013912
13.488531
15.079975
16.680956
18.084645
18.563867
17.613769
18.114448
18.105507
16.233921
16.053915
14.686584
13.260841
12.724996
12.222528
11.005998
10.530949
10.648966
10.949969
10.918975
10.838509
9.412766
9.171963
9.216666
9.538531
8.939505
9.083748
##ZVALUE=250
2.015829
2.336502
2.123713
2.350807
2.573729
2.917647
4.221797
11.666417
48.118830
108.879805
287.797451
483.633876
709.588528
998.954773
1015.601754
1015.601754
1015.601754
1015.601754
923.238993
608.397722
398.272872
256.817937
137.842894
102.096796
103.298426
115.277767
130.068660
133.428574
128.967762
116.083622
100.047588
75.934529
57.636499
37.591457
25.303960
17.410517
14.293790
12.834668
12.625456
12.247562
12.538433
12.337565
13.129711
12.951493
12.963414
11.034608
13.147593
12.524724
12.787580
11.191964
10.848641
10.924935
10.918975
11.282563
11.337996
11.827946
10.919571
10.962486
11.168718
10.604858
10.790825
10.977983
11.818409
10.342598
10.393858
10.518432
11.639595
12.339950
12.196898
14.275908
15.591979
16.818643
17.435551
19.276738
20.598769
21.256804
21.772981
20.337701
19.582510
19.003749
17.025471
14.915466
13.114810
13.037920
11.580586
10.183454
9.731650
9.460449
9.464622
9.740591
9.102821
8.646846
8.725524
8.704662
9.079576
8.931756
##ZVALUE=255
1.856685
2.035499
2.015829
2.020597
2.312660
2.633929
2.298951
2.162457
2.804995
10.555983
35.736561
119.093657
226.233006
452.668667
680.720806
988.778472
1015.606523
1015.606523
1015.606523
1015.606523
1015.606523
936.375856
584.119558
368.243456
190.066695
125.895739
95.439553
101.828575
125.417709
135.837793
139.192939
136.832595
119.936466
103.790760
78.072548
58.449507
37.839413
27.628541
18.851757
16.107559
13.936758
13.815761
12.870431
12.194514
13.743639
12.575984
12.958646
12.090802
12.131929
11.445880
11.441708
11.400580
10.997653
10.498762
10.638833
10.197759
10.452867
9.527802
9.896755
9.979606
9.122491
9.723902
8.726716
8.496642
8.552670
9.013414
9.592772
9.036660
10.415912
10.575652
12.006760
12.412667
14.120936
13.786554
14.177561
14.557838
14.599562
14.395714
14.286637
12.597442
11.914968
11.441708
10.428429
9.931922
8.866787
7.925630
8.308887
7.495880
7.095933
7.617474
7.126927
7.664561
7.470846
7.088780
6.567836
6.818771
##ZVALUE=260
1.653433
1.633763
1.873970
1.872778
1.676679
1.819730
2.016425
2.270937
2.084970
2.602935
2.595782
4.208684
14.773607
61.042905
135.587454
314.976573
517.840981
855.710506
1015.605927
1015.605927
1015.605927
1015.605927
1015.605927
1015.605927
763.921738
532.182455
300.392509
189.102888
106.584430
89.297891
103.030801
122.437477
138.940811
145.756602
141.955614
127.554536
110.898614
82.876682
61.925650
41.762590
30.559897
20.358562
17.040968
15.134811
14.540553
13.976693
13.840795
13.237596
12.806654
13.009906
12.977719
11.881590
11.560917
10.759830
10.875463
10.618567
9.977818
9.258986
8.951426
8.872747
8.627772
9.192824
8.390546
8.779764
8.135438
9.312630
9.013414
9.014606
9.012818
9.944439
10.012984
10.622740
11.424422
11.549592
12.653470
12.247562
12.167692
11.697412
11.161566
10.308623
9.338856
9.122491
8.128881
7.856488
7.280707
6.677508
7.386804
6.564856
6.763935
6.895661
5.465746
6.307960
6.158948
6.332994
5.829930
5.877614
##ZVALUE=265
1.706481
1.915693
1.920462
1.940727
1.859665
2.111793
1.880527
2.165437
2.358556
2.260804
2.358556
2.425909
2.726912
3.660917
8.056760
25.718808
88.972449
197.745562
520.399809
859.194994
1015.771031
1015.771031
1015.771031
1015.771031
1015.771031
1015.771031
998.678803
599.444509
373.422503
187.956691
114.592910
80.908537
85.332990
111.501813
129.605532
149.419904
151.451826
147.684813
133.038759
108.210444
89.840889
60.752630
44.940710
29.351711
21.925569
17.072558
15.306473
14.075637
14.168620
13.019443
13.439655
13.356805
12.263656
11.779666
11.378527
10.157824
10.274649
9.917617
9.846687
9.159446
8.921623
8.982420
8.778572
8.456707
8.032918
8.219481
8.091927
8.468628
8.688569
9.167790
10.343790
10.012984
11.121631
12.148619
12.092590
12.636781
11.468530
10.780692
9.741783
9.493828
8.717775
8.490682
8.120537
7.193685
6.434917
6.055832
6.262660
5.909801
6.089807
5.737543
5.920529
5.351901
5.801916
6.161928
4.996657
5.121827
##ZVALUE=270
1.562834
1.456738
1.338720
1.570582
1.440644
1.619458
1.697540
1.723766
1.590848
1.680851
1.813769
1.917481
2.072453
2.416968
2.506971
2.873540
5.749464
18.947721
53.968430
160.806775
329.398513
687.967539
992.992520
1015.605927
1015.605927
1015.605927
1015.605927
1015.605927
1015.605927
763.595700
493.573546
239.727497
136.041641
74.140429
67.581534
86.775422
108.444691
133.695602
145.453811
151.746869
149.729848
131.095648
113.522410
82.960725
63.889623
42.980909
29.768944
19.958615
16.284585
12.753606
12.052655
11.442900
10.616779
10.596514
10.322928
9.977818
9.709597
9.116530
8.886456
8.644462
8.069873
7.624626
7.889867
7.030964
6.945729
6.595850
6.739497
7.193685
6.885529
7.355809
7.963777
8.359551
8.645654
8.826852
8.714795
8.443594
8.394718
8.256435
7.884502
7.489920
6.996989
6.369948
5.820990
5.471706
5.334616
4.832745
4.659891
4.602671
4.702806
4.730821
4.531741
4.994869
4.892945
4.481673
4.412532
4.306436
##ZVALUE=275
1.267791
1.265407
1.373887
1.207590
1.171827
1.398921
1.428723
1.324415
1.504421
1.409650
1.717806
1.748800
1.653433
1.726747
1.966953
1.984835
2.082586
2.479553
2.695918
9.166598
36.484599
99.808574
257.422924
450.320840
763.632655
984.859467
1015.606523
1015.606523
1015.606523
1015.606523
996.995568
788.899660
552.249551
290.719867
169.183612
77.349544
55.158734
62.246919
80.654621
108.658671
126.111507
144.981742
148.267746
142.451525
129.433870
103.010535
83.520412
59.041977
42.157769
27.145743
18.973947
13.858676
11.292696
9.492636
8.998513
8.965731
8.071661
7.690787
7.878542
7.932782
7.390976
6.875992
6.941557
6.822944
6.450415
6.180406
6.509423
6.462932
6.768703
6.871819
6.911755
7.141829
7.264614
7.151961
7.151961
7.329583
7.076859
6.620884
6.654859
5.914569
5.847812
5.291700
5.539656
4.907846
4.610419
4.846454
4.486442
4.541874
4.617572
4.696846
4.329681
4.314780
4.193783
4.055500
4.163980
3.918409
##ZVALUE=280
1.108646
0.923872
1.127720
0.980496
1.013875
1.082420
1.054406
1.074672
1.095533
1.296997
1.190901
1.266599
1.484752
1.228452
1.499653
1.433492
1.625419
1.657605
1.797676
2.116561
2.017617
2.920628
16.731620
53.607821
162.546635
297.780037
539.664626
778.973699
1015.450954
1015.450954
1015.450954
1015.450954
1015.450954
892.288685
651.277900
367.890000
216.464996
96.452832
54.904819
43.142438
55.418611
79.546571
101.310611
123.368502
138.443708
142.833591
138.739944
121.386647
104.019642
76.285601
58.283806
36.909580
25.022626
15.353560
11.347532
8.179545
7.640719
7.606745
6.584525
6.433725
6.489754
6.484985
6.400943
5.962849
6.117821
5.541444
5.882978
5.815625
5.866885
6.264448
6.253719
6.071925
6.727576
6.830692
6.575584
6.328821
6.173849
5.672574
5.407929
5.480647
5.287528
5.067587
4.683733
4.867911
4.547834
4.621744
4.242659
4.413724
3.946424
4.429817
4.008412
3.722906
3.709793
3.690720
4.172921
3.890991
##ZVALUE=285
1.080632
1.173615
1.068711
1.018643
1.173615
1.046658
1.247525
1.102686
1.173615
1.188517
1.209974
1.233816
1.205802
1.316667
1.381636
1.215935
1.360774
1.320839
1.491904
1.865625
1.988411
1.909733
2.143979
2.445579
7.994771
27.349591
91.813803
191.553831
406.614542
618.928671
930.773616
1015.571952
1015.571952
1015.571952
1015.571952
1015.571952
820.087790
502.876043
308.231711
144.104958
72.821975
35.982728
35.094619
52.693486
69.862604
98.483562
115.530491
130.733848
135.662556
132.841468
120.759606
99.419951
80.814958
55.638552
37.804842
22.946000
15.182495
9.797812
7.375479
6.465912
5.898476
5.858541
5.954504
5.432963
5.418658
5.242825
5.555749
5.525947
5.749464
6.123781
6.029606
5.977750
6.019473
6.236434
6.294847
6.145835
5.683899
5.784631
5.396605
5.362630
5.077720
4.704595
4.747510
4.699826
4.316568
4.319549
4.145503
4.098415
4.285574
4.408956
4.084706
4.159808
4.017949
3.884435
3.984571
3.975630
##ZVALUE=290
1.107454
1.043677
1.027584
1.092553
1.114607
0.946522
1.112819
1.145601
1.093745
1.128912
1.235604
1.245737
1.360774
1.279712
1.271963
1.095533
1.407862
1.564622
1.360774
1.734495
1.649857
1.869798
1.846552
2.042651
2.252460
2.549887
3.228784
15.599728
46.651959
138.948560
259.204507
515.419841
757.598877
1015.605927
1015.605927
1015.605927
1015.605927
1015.605927
954.227448
637.756586
412.943959
203.836560
104.966760
40.593743
26.365519
33.084750
45.742989
69.480538
86.608529
110.060573
124.053955
131.875873
129.713416
116.585493
99.673867
72.582960
54.242611
35.016537
23.698807
14.375448
9.502769
6.656647
6.152987
5.441904
5.265474
5.388856
5.214810
5.061626
5.223751
5.650520
5.656481
5.645752
5.918741
5.633831
5.822778
5.617738
5.332828
4.999638
4.999638
4.990697
4.338622
4.545450
4.566908
4.519820
4.301667
4.017949
4.223585
4.087687
3.886819
4.061460
4.167557
4.073977
3.872514
3.833771
3.940463
3.906488
##ZVALUE=295
0.935793
0.924468
1.024604
1.083612
1.038909
1.042485
1.133680
1.094937
1.155734
1.148582
1.150966
1.073480
1.159906
1.088977
1.069903
1.229644
1.193881
1.347661
1.431704
1.262426
1.639724
1.471639
1.679659
1.605749
1.929998
1.981854
2.065897
2.102852
2.706647
4.852414
18.636584
76.656938
168.944597
384.954810
607.829690
936.419964
1015.605927
1015.605927
1015.605927
1015.605927
1015.605927
758.880377
522.031784
272.672772
145.990849
54.630637
27.195811
20.402670
27.992725
44.399500
59.168935
84.885955
100.435615
117.926002
125.717521
121.525526
110.930800
91.752410
73.479414
50.509572
35.933852
21.671653
13.737679
8.662939
6.486773
5.178452
4.783869
4.631877
4.758835
5.080700
4.823804
4.985929
5.547404
5.160570
5.296469
5.241632
5.230904
5.001426
4.861951
4.513860
4.513860
4.399419
4.145503
3.989935
4.114509
4.278421
3.848672
3.794432
4.273653
4.021525
3.970861
3.807545
3.893971
3.756881
3.634691
3.649592
##ZVALUE=300
0.934601
1.058578
1.026988
1.051426
0.946522
1.034737
1.135468
0.980496
1.094937
1.081824
1.132488
1.157522
1.178980
1.161695
1.204610
1.116991
1.195669
1.221895
1.172423
1.440644
1.319647
1.433492
1.380444
1.355410
1.719594
1.753569
1.633763
1.787543
2.334714
2.150536
2.722740
3.092885
12.453794
40.317774
131.982565
251.871347
508.086681
749.842525
1015.605927
1015.605927
1015.605927
1015.605927
1015.605927
952.372551
625.599027
401.325822
199.197531
104.367733
38.039684
18.439889
17.710924
24.574995
39.459467
54.084659
77.292919
94.880462
112.187862
119.372606
116.554499
108.233690
89.141726
73.861480
51.404834
36.528707
21.437407
14.371872
8.392930
6.129742
5.191565
4.818439
4.941821
4.984736
4.902482
4.917979
4.752874
4.820824
4.857779
4.689693
4.599690
4.352927
4.138947
4.211664
3.889799
4.009604
3.918409
3.936887
3.843904
3.872514
3.877878
3.696680
3.706813
3.898740
3.816485
3.539920
3.583431
3.794432
##ZVALUE=305
0.791550
0.995994
0.770688
0.903606
0.845790
0.981688
1.068711
1.161695
1.081824
0.903606
0.953674
0.859499
0.979900
1.068711
1.166463
1.166463
1.176596
1.088977
1.165867
1.159906
1.110435
1.211762
1.296997
1.374483
1.346469
1.439452
1.446605
1.651645
1.745820
1.787543
1.789927
2.110600
2.172589
2.443790
5.199909
26.208758
72.325468
202.127695
359.056592
647.514462
890.953541
1015.605927
1015.605927
1015.605927
1015.605927
987.939835
774.918795
480.035543
295.565724
130.847692
63.613653
21.725893
13.628602
16.256571
22.716522
37.923455
51.950812
73.077679
88.711977
105.459690
112.104416
110.322833
101.583004
85.452795
69.198608
48.274994
34.215450
20.240545
13.619661
8.266568
6.489754
5.302429
4.799962
4.690886
4.539490
4.611611
4.345775
4.246831
4.038811
3.713965
4.050732
3.978610
3.756881
3.648996
3.686547
3.695488
3.712773
3.676414
3.849864
3.700852
3.814697
3.390908
3.484488
3.328919
3.678799
3.348589
##ZVALUE=310
0.858903
0.979900
0.785589
0.877976
0.879765
0.941753
0.903606
0.901818
0.901818
0.954866
0.912547
0.846982
0.896454
1.016855
1.017451
1.112819
1.046658
1.033545
0.997782
1.114607
0.934601
0.932813
1.223683
1.294613
1.364946
1.370907
1.314878
1.339912
1.403689
1.502633
1.540780
1.529455
1.750588
1.971722
2.102852
2.202988
2.759695
11.789799
37.773848
122.931600
240.791440
488.466620
726.294518
1015.606523
1015.606523
1015.606523
1015.606523
1015.606523
975.651741
643.076897
424.149632
208.157897
107.909441
37.101507
15.594959
10.912418
13.099909
21.093488
30.589700
47.880411
62.141418
83.274841
95.051527
105.637908
106.579661
97.373724
84.233880
66.220760
51.020980
31.616688
22.398829
13.723969
9.152889
6.196499
5.150437
4.589558
4.169941
4.162788
3.743768
3.672838
3.636479
3.611445
3.730655
3.612638
3.610849
3.757477
3.536940
3.508925
3.616810
3.632903
3.196597
3.719926
3.365874
3.359914
3.432631
3.356934
##ZVALUE=315
0.968575
0.949502
1.016855
0.984669
0.921488
0.983477
0.779629
0.832677
0.841618
0.890493
0.945926
1.022816
1.079440
0.959635
0.969768
0.992417
0.951886
0.972748
0.969768
0.950694
0.999570
1.005530
1.056790
1.146793
1.158714
1.112819
1.246929
1.280904
1.331568
1.402497
1.301765
1.457930
1.483560
1.656413
1.566410
1.654625
1.885891
2.079606
2.457500
5.429983
19.422770
78.102946
168.782473
373.781919
594.865680
935.371518
1015.605927
1015.605927
1015.605927
1015.605927
1015.605927
779.836774
539.084673
281.838775
150.659680
53.606629
21.685958
9.691715
9.580851
12.749434
18.116832
29.904842
41.235685
58.739781
72.460771
89.729428
97.971559
98.849535
92.660785
78.174472
64.395666
45.931935
33.016801
19.416809
12.913942
7.900000
5.726814
4.294515
3.918409
3.600717
3.536940
3.350973
3.580451
3.493428
3.488660
3.449917
3.427863
3.367662
3.250837
3.287792
3.219843
3.527999
3.113747
3.147721
3.223419
3.349781
##ZVALUE=320
0.881553
0.719428
0.835657
0.807643
0.932813
1.130700
0.816584
0.874996
0.967979
0.736713
0.997782
0.940561
0.970960
0.615716
0.818968
1.037717
0.937581
0.821948
1.061559
0.969768
1.042485
1.034737
1.014471
1.014471
1.040697
1.138449
1.218915
1.083612
1.199841
1.197457
1.109838
1.283884
1.436472
1.427531
1.598597
1.725554
1.644492
1.677871
1.983643
2.208948
2.284646
2.976656
8.202791
43.165684
108.342767
279.475451
457.359552
757.435560
989.872813
1015.611887
1015.611887
1015.611887
1015.611887
921.813846
669.987798
367.787480
208.512545
85.359812
36.686659
12.023449
8.101463
8.777976
10.570884
16.778708
24.748445
39.366484
52.469969
70.423484
82.784891
93.440413
93.580484
87.487698
77.894926
59.244633
45.391917
29.337406
20.317435
11.929870
8.006692
4.997849
4.204512
3.772974
3.318787
3.265738
3.297925
3.306866
3.046989
3.243685
3.203750
3.210902
3.069639
3.378987
3.215671
3.223419
2.918839
3.197789
##ZVALUE=325
0.837445
0.561476
0.724792
0.735521
0.803471
0.946522
0.806451
0.752807
0.771880
0.813603
0.905991
0.997782
0.944734
0.716448
0.825524
0.885725
1.002550
0.936985
0.949502
0.884533
1.010895
0.944734
1.050830
1.046658
1.056790
1.035929
1.108646
1.034737
1.064539
0.971556
0.953674
1.101494
1.214743
1.297593
1.309514
1.432896
1.361966
1.601577
1.632571
1.661777
1.718998
2.012849
2.027750
2.376437
4.614592
27.952790
72.102547
190.159678
342.241526
632.340908
876.674652
1015.584469
1015.584469
1015.584469
1015.584469
987.873673
756.886005
454.687476
271.807909
117.692947
54.505467
16.846657
8.904934
7.465482
7.769465
10.530949
15.164614
24.125576
35.198927
53.298473
66.092610
79.291463
86.586475
86.923838
82.248449
68.378448
55.916905
39.317608
28.751493
17.105937
11.157990
6.583929
5.146861
4.149675
3.626943
3.282428
3.184676
2.884865
2.998710
2.989769
2.929568
2.833605
2.958775
2.856851
2.833605
2.866983
##ZVALUE=330
0.729561
0.764728
0.702739
0.701547
0.776649
0.868440
0.774860
0.747442
0.800490
0.863671
0.764728
0.811815
0.742674
0.740886
0.774860
0.639558
0.854731
0.923872
0.960827
0.845790
0.811815
0.928640
1.058578
1.007915
0.904799
1.036525
0.888705
1.014471
1.137853
1.203418
1.168847
0.937581
1.051426
1.268983
1.263618
1.282692
1.398921
1.285672
1.446605
1.377463
1.531839
1.632571
1.791716
1.756549
1.981854
2.336502
2.966523
12.069941
37.958622
126.531720
243.721604
488.201976
719.133615
1007.561684
1015.612483
1015.612483
1015.612483
1015.612483
875.964761
563.768744
358.273983
164.362788
82.414746
27.571917
11.112690
6.605983
6.508827
7.261634
9.674430
15.466809
22.463799
34.064651
46.319962
62.699914
73.962808
81.613660
82.355738
76.507926
66.847801
50.653815
39.032698
24.723411
17.691851
11.164546
7.765889
5.132556
3.976822
3.464818
3.162622
3.148913
3.015995
2.856851
2.981424
2.690554
2.658963
2.699494
##ZVALUE=335
0.770688
0.619888
0.669956
0.654459
0.669956
0.582933
0.666976
0.748634
0.607967
0.708699
0.620484
0.576973
0.836849
0.760555
0.799894
0.927448
0.829697
0.558496
0.641942
0.767708
0.842810
0.734925
0.724792
0.943542
0.801682
0.805855
0.825524
0.926852
0.840425
0.882745
0.992417
1.006722
1.098514
1.129508
1.089573
0.983477
0.955462
1.113415
1.127720
1.079440
1.012683
1.276731
1.402497
1.218915
1.501441
1.575947
1.664758
1.953840
2.176762
5.744696
20.068884
78.414679
166.576505
369.841456
589.504838
918.862820
1015.505791
1015.505791
1015.505791
1015.505791
989.846587
676.037669
454.990864
230.911970
121.470690
42.101741
16.125441
7.175803
6.330609
6.099939
6.734729
9.387732
13.227463
22.530556
31.717420
46.195984
57.157874
68.749785
75.064898
75.948834
72.009563
60.165524
50.537586
36.312938
26.822686
17.048717
11.707544
6.940961
4.999638
3.807545
3.173947
2.804995
2.792478
2.779961
2.659559
2.622604
##ZVALUE=340
0.725985
0.610948
0.751615
0.843406
0.794530
0.727773
0.724792
0.805855
0.824928
0.686646
0.843406
0.800490
0.798702
0.778437
0.761747
0.868440
0.712872
0.759959
0.515580
0.832677
1.007915
0.804663
0.691414
0.963807
0.869632
0.926852
0.860691
0.962615
0.913739
1.090765
0.986457
0.991821
0.931621
1.060963
0.928640
0.984669
1.076460
1.122952
1.056790
1.180768
1.239777
1.139641
1.243949
1.318455
1.482964
1.436472
1.556873
1.677871
1.795888
1.985431
2.292991
3.356934
10.059476
48.058629
118.594766
291.092992
485.361814
787.123442
995.723009
1015.605927
1015.605927
1015.605927
1015.605927
781.439543
551.335812
293.220878
154.643655
55.448413
21.817684
8.385777
6.436706
6.497502
6.177425
7.005930
8.557439
13.816953
19.910932
30.794740
41.186810
55.109859
64.256787
71.172714
71.311593
64.981580
58.513880
45.635700
37.284493
26.004910
18.457770
10.719895
7.408857
4.672408
3.678799
3.131628
2.858639
2.846718
##ZVALUE=345
0.785589
0.613928
0.705719
0.755787
0.810623
0.634789
0.744462
0.792742
0.723600
0.784993
0.844598
0.729561
0.771880
0.868440
0.848770
0.808835
0.776649
0.757575
0.870824
0.763535
0.800490
0.844598
0.809431
0.750422
0.870824
0.849962
0.767708
0.829697
0.952482
0.913739
0.874996
0.974536
0.961423
1.044869
0.911951
0.976920
0.895858
1.058578
1.081824
1.123548
1.062751
1.094937
1.379848
1.288652
1.325607
1.355410
1.506805
1.419783
1.336932
1.609921
1.590848
1.757741
1.940727
2.100468
5.582571
21.505952
85.558891
176.867843
375.669003
579.909682
893.335938
1015.606523
1015.606523
1015.606523
1015.606523
931.419730
623.254776
403.387547
184.075832
88.094473
28.151870
12.049675
6.642938
6.131530
5.707741
5.424619
6.195903
7.531643
11.892915
17.654896
28.165579
37.846565
48.974752
57.131648
63.953996
65.976977
62.557459
56.090951
45.367479
36.443472
25.454760
17.857552
11.171699
7.368922
4.670620
3.945827
##ZVALUE=350
0.682473
0.661612
0.630617
0.591874
0.701547
0.742674
0.810623
0.751615
0.788569
0.909567
0.775456
0.735521
0.895858
0.746846
0.782609
0.769496
0.750422
0.788569
0.748634
0.692606
0.782609
0.822544
0.670552
0.843406
0.879765
0.861883
0.883937
0.795722
0.859499
0.919700
0.948906
0.943542
0.923872
0.911951
0.895858
0.981688
0.891685
0.869632
0.977516
1.048446
0.877976
1.061559
1.066923
1.046658
1.169443
1.232624
1.206994
1.230836
1.291633
1.472831
1.493692
1.509786
1.485944
1.943707
1.719594
2.275705
2.786517
14.068484
43.174624
133.608580
257.680416
512.634516
732.225776
998.559594
1015.605927
1015.605927
1015.605927
974.486470
745.792985
450.594425
271.476507
117.777586
52.514672
15.080571
7.440448
5.792975
5.533695
4.910827
4.986525
5.651712
7.077456
11.383891
15.927553
24.694800
32.550693
43.701530
51.788688
57.448745
59.605837
57.327747
52.296519
42.188764
34.840703
24.961829
17.850995
11.502504
##ZVALUE=355
0.706911
0.680685
0.714660
0.744462
0.831485
0.768900
0.717640
0.718832
0.742674
0.813603
0.825524
0.796914
0.908971
0.822544
0.803471
0.689626
0.778437
0.799894
0.727773
0.891685
0.829697
0.875592
0.840425
0.729561
0.702739
0.854731
0.817776
0.875592
0.830889
0.981688
0.764728
0.892878
0.887513
0.957847
1.065731
1.108646
0.967979
0.916719
0.948906
1.071692
1.019835
1.033545
1.130700
1.280904
1.281500
1.245737
1.149774
1.158714
1.232624
1.361966
1.358986
1.498461
1.572967
1.600981
1.518726
1.794696
1.921654
1.936555
2.363920
6.523728
23.103952
90.934634
186.907649
387.827754
605.676770
919.627547
1015.605927
1015.605927
1015.605927
1015.605927
843.825936
551.793575
343.874693
147.899985
69.615841
20.495653
8.726716
5.389452
5.260706
4.806519
4.445910
4.489422
4.924536
6.668568
8.688569
14.045835
20.165443
28.820634
37.038922
45.925975
51.969886
54.965615
53.442717
48.147440
41.385889
32.275915
##ZVALUE=360
0.838637
0.739694
0.787973
0.868440
0.650883
0.764728
0.837445
0.739694
0.770688
0.802875
0.815988
0.817776
0.812411
0.713468
0.744462
0.785589
0.804663
0.680685
0.711679
0.806451
0.871420
0.824928
0.903606
0.668764
0.838637
0.947714
0.899434
0.983477
0.934601
0.900626
0.812411
0.874996
0.900626
0.819564
0.927448
1.038909
1.004934
1.000762
0.997782
1.141429
0.952482
0.929832
0.967979
1.119971
0.917912
0.983477
1.104474
1.283884
1.095533
1.244545
1.216531
1.295805
1.213551
1.282692
1.400709
1.478791
1.728535
1.535416
2.001524
2.128482
2.207756
3.361702
10.468960
47.285557
113.611817
282.533765
466.506481
750.834942
978.019834
1015.605927
1015.605927
1015.605927
949.367881
643.367767
424.631834
204.845667
104.027987
36.225915
14.127493
5.828738
5.130768
4.608631
4.312992
4.095435
4.030466
4.451871
5.468726
7.467866
10.572672
16.542673
23.016930
32.360554
38.923621
46.417713
49.401522
49.130917
##ZVALUE=365
0.848770
0.792742
0.773668
0.693798
0.753999
0.767708
0.626445
0.720620
0.709891
0.649691
0.613928
0.784993
0.853539
0.790954
0.766516
0.774860
0.804663
0.892878
0.791550
0.834465
0.923872
0.910759
1.018643
0.909567
0.737906
0.847578
0.835657
0.936985
0.933409
0.835657
0.740886
0.916719
0.847578
0.960827
0.908971
0.925660
0.979900
0.901818
0.962615
0.935793
1.023412
0.969768
0.958443
1.004934
0.941753
0.977516
1.105666
1.039505
1.090765
1.083612
1.184940
1.033545
1.209974
1.185536
1.196861
1.372695
1.538992
1.470447
1.421571
1.607537
1.760721
1.975894
2.197623
2.459884
4.597902
23.853779
68.612695
190.979838
345.394611
617.036819
838.259459
1015.605927
1015.605927
1015.605927
997.880697
734.519958
515.977740
277.803540
150.197744
54.348707
21.583438
6.790757
5.086660
4.860759
4.351735
3.912449
3.828406
3.774762
3.752708
4.425645
5.823970
9.421706
13.072491
19.589663
25.990605
33.825636
##ZVALUE=370
0.686646
0.783801
0.717640
0.580549
0.625849
0.700951
0.689626
0.603795
0.781417
0.864863
0.901818
0.728965
0.612736
0.827909
0.878572
0.739694
0.743866
0.785589
0.718832
0.755787
0.772476
0.716448
0.763535
0.767708
0.835657
0.722408
0.727773
0.761747
0.846982
0.728965
0.942945
0.952482
0.996590
0.791550
0.857711
0.776649
0.881553
0.810623
0.804663
0.765920
0.921488
0.860691
0.970960
0.931621
0.965595
0.963807
1.067519
1.081824
0.955462
0.964999
1.095533
1.086593
1.144409
1.163483
1.073480
1.069903
1.226664
1.223683
1.268983
1.366735
1.341701
1.461506
1.641512
1.641512
1.940727
2.070665
2.812743
13.307929
43.432713
140.199661
262.419581
496.124625
723.045468
995.327830
1015.582681
1015.582681
1015.582681
832.404494
608.357787
337.635875
187.296867
71.659684
31.606555
10.549426
5.494952
4.516840
4.310608
3.807545
3.646612
3.474951
3.406405
3.414750
3.818870
5.292892
7.243752
11.606812
##ZVALUE=375
0.596642
0.618696
0.760555
0.699759
0.498891
0.836849
0.711679
0.756979
0.674725
0.682473
0.796914
0.670552
0.657439
0.670552
0.564456
0.675917
0.751615
0.864863
0.740886
0.715852
0.837445
0.855923
0.701547
0.679493
0.774860
0.831485
0.618696
0.635982
0.823736
0.861883
0.859499
0.778437
0.934601
0.969768
0.825524
0.803471
0.999570
0.892878
0.856519
1.029968
0.904799
0.894666
0.909567
0.879765
0.935793
1.005530
1.032948
0.930429
0.855923
0.956655
1.044869
0.882745
0.993609
1.020432
1.118779
1.062751
1.200438
1.167655
1.159906
1.219511
1.124740
1.265407
1.552701
1.346469
1.451969
1.587868
1.757741
1.986623
2.152920
6.796718
23.378730
85.051656
181.434751
400.030613
614.753962
904.290676
1015.605927
1015.605927
1015.605927
948.105454
737.662911
451.260805
275.585651
124.141574
59.702992
17.654896
7.379651
4.530549
4.300475
3.796816
3.563762
3.482699
3.155470
3.128648
3.033876
3.545880
##ZVALUE=380
0.653863
0.691414
0.767708
0.718832
0.700951
0.779629
0.655651
0.659823
0.732541
0.789762
0.625849
0.618696
0.554919
0.733733
0.660419
0.724792
0.704527
0.776649
0.731945
0.657439
0.919700
0.831485
0.645518
0.725985
0.774860
0.855923
0.898838
0.924468
0.892878
0.840425
0.905991
0.814795
0.999570
0.933409
0.888705
0.881553
1.014471
1.010895
0.837445
0.880957
0.895858
0.987649
0.976920
0.821948
0.999570
0.936985
1.004934
0.950694
0.911951
0.832677
0.883937
0.980496
0.929832
1.020432
0.916719
0.993609
0.934601
1.023412
0.979900
1.005530
1.224875
1.191497
1.230836
1.256466
1.395941
1.329780
1.562834
1.533628
1.664758
1.964569
2.259612
3.837943
12.985468
59.036613
136.939883
318.895578
512.021780
800.160766
995.178819
1015.605927
1015.605927
995.966792
826.031566
565.680861
372.921824
178.998709
89.258552
29.421449
11.551976
4.881620
3.980994
3.827810
3.500581
3.496408
3.160834
3.013611
##ZVALUE=385
0.695586
0.676513
0.620484
0.786781
0.766516
0.645518
0.704527
0.598431
0.600815
0.586510
0.602603
0.609756
0.502467
0.707507
0.733733
0.542998
0.704527
0.512600
0.780821
0.637770
0.681877
0.570416
0.570416
0.741482
0.847578
0.793934
0.686646
0.857711
0.794530
1.044869
1.031756
0.998974
1.091957
0.755787
1.036525
1.065731
0.922680
0.906587
1.060963
0.976920
1.035929
1.134872
1.079440
1.025796
1.041889
0.984669
0.901818
0.792742
1.020432
1.022816
1.040697
0.939965
1.032948
1.000762
0.943542
0.965595
1.030564
1.040697
0.901818
0.951886
1.107454
1.068711
1.197457
1.231432
1.323819
1.229644
1.348853
1.443624
1.715422
1.584888
1.847744
1.853704
1.902580
2.590418
6.321669
33.802986
87.038875
221.538544
387.417674
667.299628
889.122486
1015.605927
1015.605927
1015.605927
946.996808
685.173869
481.152534
258.829594
142.855644
56.110620
21.729469
6.095767
4.184842
3.709793
3.428459
3.268719
##ZVALUE=390
0.624657
0.724792
0.603795
0.790954
0.599623
0.721812
0.610948
0.547767
0.580549
0.732541
0.718832
0.573993
0.731945
0.636578
0.711679
0.524521
0.617504
0.566840
0.725985
0.562668
0.511408
0.609756
0.658631
0.470877
0.707507
0.816584
0.776649
0.989437
1.080632
1.164675
1.083612
0.997782
1.103878
1.178980
1.219511
1.256466
1.145601
1.190901
1.149774
1.206994
1.153946
1.092553
1.061559
1.123548
1.006722
1.106858
1.096725
1.228452
1.096725
1.185536
1.127720
1.006722
1.084805
0.937581
0.988841
0.977516
0.974536
0.943542
1.070499
1.084805
1.060963
1.176596
1.028776
1.000762
1.164675
1.177788
1.252890
1.159906
1.409650
1.597404
1.678467
1.718998
1.677871
1.933575
1.895428
1.959801
3.254414
18.067956
53.944588
162.435770
305.567980
569.878817
784.991980
1007.773876
1015.596986
1015.596986
1015.596986
826.959014
623.560548
371.145010
211.016536
83.278418
37.464499
11.091828
5.050898
3.692508
##ZVALUE=395
0.729561
0.598431
0.637770
0.631809
0.435710
0.604987
0.710487
0.717640
0.755787
0.835657
0.733733
0.664592
0.877976
0.638962
0.737906
0.622869
0.855923
0.641942
0.601411
0.638962
0.586510
0.602603
0.654459
0.590682
0.810623
0.796914
0.884533
0.830889
1.062751
1.135468
1.113415
1.203418
1.320839
1.417994
1.361966
1.278520
1.199841
1.323819
1.290441
1.344681
1.262426
1.227856
1.206994
1.214743
1.060963
1.124740
1.109838
1.176000
1.019835
1.077652
1.088977
0.993609
1.162887
1.062751
0.990629
0.918508
0.978708
1.013875
0.940561
1.037717
1.056790
0.996590
1.034737
1.127720
1.165867
1.170635
1.200438
1.449585
1.590848
1.574755
1.614690
1.606941
1.778603
1.578927
1.656413
1.675487
1.689792
1.806617
2.235770
10.173917
35.248399
119.277835
226.961970
431.494713
636.414886
924.479961
1015.605927
1015.605927
1015.605927
965.268612
747.886896
456.287861
280.873775
119.794607
55.240989
17.215610
##ZVALUE=400
0.818968
0.758767
0.747442
0.636578
0.619888
0.589490
0.502467
0.620484
0.502467
0.594854
0.686646
0.686646
0.614524
0.651479
0.653863
0.665784
0.577569
0.770688
0.620484
0.712872
0.740886
0.665784
0.766516
0.858903
0.772476
0.651479
0.776649
0.928640
0.945926
1.073480
0.963807
1.155734
1.312494
1.190901
1.272559
1.363754
1.368523
1.317859
1.248717
1.202822
1.077652
1.273751
1.341701
1.183748
1.129508
1.076460
0.977516
1.005530
1.013875
1.003742
1.045465
0.992417
1.019835
1.001954
1.015663
1.064539
1.057982
0.965595
1.079440
0.974536
0.916719
1.101494
1.009703
1.061559
1.093745
1.122952
1.010895
1.225471
1.326799
1.388788
1.528859
1.490712
1.585484
1.573563
1.323819
1.341701
1.606941
1.633763
1.731515
1.749992
1.984835
5.140901
18.912554
72.339773
154.081583
338.212848
531.061888
812.437534
994.503498
1015.608907
1015.608907
997.940898
831.799507
566.327572
371.620655
184.076428
##END
