##TITLE=FDDW02
##FORMAT=SPECTACLE-ASCII V-1.2
##DATA TYPE=ULTRAVIOLET SPECTRUM
##SECOND TYPE=ULTRAVIOLET SPECTRUM
##DATE=03/27/18
##TIME=17:23:47
##SPECTROMETER/DATA SYSTEM=SPECTACLE
##XUNITS=NM EM
##YUNITS=ENERGY
##YFACTOR=1
##FIRSTX=220
##LASTX=410
##NPOINTS=96
##3DDATA=Equidistant
##ZUNITS=NM EX
##FIRSTZ=210
##LASTZ=400
##ZPOINTS=39
##XYDATA=(Y..Y)
##ZVALUE=210
17.226934
15.944839
14.051795
11.750460
9.785891
9.761453
9.658933
8.342862
6.569624
6.810427
4.684925
3.880858
2.676845
3.331900
3.467798
3.708601
3.479719
3.266931
3.630519
4.130602
4.418492
4.647970
4.511476
4.978776
6.284714
7.750988
8.791685
10.774732
13.256669
15.919805
17.238855
21.060705
22.235513
19.351840
24.701953
24.053454
23.308992
23.939610
22.323728
24.009943
20.763874
20.833611
20.205975
20.388961
18.346906
19.342899
18.247962
15.632510
16.185641
15.678406
13.999939
13.549924
13.695955
14.372468
12.531877
12.499690
12.297630
13.652444
11.551976
11.231899
10.841489
10.907650
10.327697
10.106564
10.544658
9.873509
10.355711
11.285543
12.600422
13.684630
17.092824
16.386509
19.615889
22.683740
24.681687
26.435852
27.982593
26.899576
28.116703
25.738478
22.859573
21.854639
17.376542
16.180873
12.591481
12.283921
10.650754
9.143949
8.917451
10.394454
14.488697
17.276406
21.911860
27.829409
30.447841
37.195683
##ZVALUE=215
50.665736
46.878457
38.141608
28.414726
23.044944
18.605590
16.158819
16.197562
15.691519
15.140772
12.605786
9.583831
7.793903
7.084608
4.711747
4.081726
4.367828
3.921986
4.357696
4.806519
4.461408
4.827976
5.073547
6.458759
6.636977
6.715655
11.134744
13.229847
14.347434
19.053817
18.462539
23.323894
23.926497
29.232502
27.596951
29.870868
30.109882
28.975606
29.053688
27.340651
27.886629
23.970604
25.189519
22.744536
21.057725
20.079613
19.416809
19.322634
17.894506
16.465783
15.683770
15.322566
17.009974
14.456511
13.398528
12.284517
12.268424
12.767911
11.723638
11.899471
11.334419
10.450482
10.624528
10.057688
8.887649
9.751916
11.747479
10.660887
12.859702
12.332797
13.951659
15.978813
18.281937
18.649697
19.228458
20.487905
20.255446
20.426512
20.388961
16.581416
17.093420
14.783740
15.340447
12.463927
11.377931
9.444952
8.843541
7.901788
8.276701
7.509589
6.958842
8.023977
7.849932
8.567572
9.645820
14.759898
##ZVALUE=220
107.987523
109.547973
106.425881
86.820722
73.265433
49.233437
44.060946
32.282472
27.165413
25.482774
26.511550
23.575425
21.703839
17.945766
14.149547
11.397600
7.583499
6.200671
5.310774
5.041957
3.941655
5.442500
5.366802
6.299615
7.373691
9.839535
10.326505
14.805794
17.386675
19.720793
23.881793
26.825666
30.136704
31.801462
33.437610
32.060742
33.880472
33.076406
33.848882
33.567548
30.937791
29.831529
28.680563
27.115941
24.686456
22.147894
21.300912
21.309853
20.695925
19.738674
19.123554
16.013980
17.171502
16.282797
15.630722
16.984940
14.075637
13.069510
14.105439
12.784600
13.147593
12.071729
12.214780
11.390448
11.738539
11.372566
10.689497
12.454987
13.525486
14.017820
13.607740
16.222596
20.081997
19.017458
21.299720
21.390915
20.612478
20.338893
19.754767
19.543767
17.041564
16.070604
14.936924
13.086796
12.580752
10.518432
9.938478
8.947849
9.186864
8.661747
7.851720
9.167790
7.234812
7.530451
7.586479
7.542968
##ZVALUE=225
161.142945
166.104436
195.047855
211.925507
208.140612
183.222890
153.363943
110.500455
80.383420
59.579611
43.955445
38.792491
38.514733
38.135648
37.636757
35.307407
26.398897
20.077825
16.437769
10.325909
8.286834
6.486773
5.570650
6.156564
7.113814
9.184480
10.711551
15.366673
16.574860
20.894408
23.620725
27.263761
28.538704
30.991435
32.894611
34.895539
34.540892
32.496452
35.019517
34.004450
32.684803
31.495690
28.092861
27.328730
25.162697
26.539564
23.948550
22.506714
21.341443
19.444823
20.074844
19.251704
18.831491
17.721653
19.745827
16.184449
15.512705
15.958548
13.705492
15.211701
14.188886
14.501810
13.827682
14.275908
13.973713
12.827516
13.796687
13.273954
14.923811
15.840530
16.087890
17.747879
20.437837
19.018650
20.325780
23.051500
20.070672
20.328760
17.999411
19.944906
16.471744
16.599894
14.397502
13.363957
12.612939
11.296868
11.066794
11.674762
10.757446
9.439588
9.518862
9.117723
8.466840
9.194613
9.206533
9.534955
##ZVALUE=230
112.235546
122.334957
175.720453
255.287886
303.846598
342.868567
343.367457
316.298604
264.926553
212.682486
140.386820
97.287893
65.738559
58.971643
61.406493
63.115954
61.175823
59.133768
51.922798
41.892529
32.912493
21.557808
15.836954
9.829998
9.643435
9.017587
11.779666
12.297630
13.633966
15.776753
20.484924
20.473599
23.369789
25.537610
26.244521
24.743676
27.457476
27.950406
26.467443
25.742650
27.212501
25.320649
26.221871
24.495721
22.889972
22.185445
21.915436
20.401478
19.984841
20.636916
20.331740
18.486977
17.920732
17.513633
18.129945
18.266439
17.279983
16.736984
16.567707
17.250776
17.113686
17.199516
16.906857
15.260577
15.978813
15.511513
15.496612
17.311573
16.856790
18.997788
19.955635
21.452904
21.750927
25.472641
25.509000
23.184419
25.376678
24.360418
21.252632
20.738840
19.229650
18.318892
16.508698
14.205575
14.181733
14.141798
12.580752
11.038780
11.560917
11.013746
12.688637
10.811687
12.178421
11.300445
11.730790
11.365414
##ZVALUE=235
32.276511
36.667585
74.473619
166.924000
255.908966
394.302011
495.870709
623.167753
661.733747
655.372739
570.361018
447.386503
300.054550
212.223530
134.589672
96.896887
85.334778
84.059834
91.972947
93.662739
86.108446
70.175529
58.382750
41.953921
26.690960
19.233823
14.710426
11.963844
11.911988
14.626980
14.783740
15.387535
16.739964
16.482472
17.104745
18.632412
20.494461
21.046996
18.531680
20.023584
20.085573
19.548535
19.684434
18.642545
19.174814
18.585920
17.633438
18.384457
17.030835
18.750429
17.487407
17.784834
17.754436
17.453432
17.202497
16.822815
16.571879
16.860962
15.441775
15.525818
15.727878
15.640855
18.015504
17.197728
16.660690
15.902519
17.505884
16.706586
17.969608
19.926429
20.200610
22.115707
23.397803
24.858713
25.462508
27.081966
24.444461
25.595427
23.566484
23.293495
21.610856
19.529462
19.510984
17.079711
17.207861
15.608668
13.816953
13.917685
14.030933
11.976957
12.327433
11.550784
13.598800
12.772679
11.348724
12.310743
##ZVALUE=240
2.839565
3.317595
11.035800
31.797886
81.053972
153.761506
295.230746
442.147851
664.919615
786.906481
887.735486
865.893960
783.540606
583.629012
446.394682
262.240767
177.235007
118.804574
98.187923
102.715492
108.850598
111.638904
112.945437
99.785924
82.558990
64.547658
45.690536
35.171509
22.318959
16.296506
13.652444
13.403893
12.919903
13.224483
12.930632
14.654994
14.278889
17.067790
17.199516
16.011596
16.189814
16.381741
18.357635
17.617941
17.616749
18.175840
18.314719
16.994476
17.016530
17.415881
18.007755
16.029477
15.826821
16.749501
15.725493
16.197562
16.793609
17.099977
15.808940
17.751455
15.458465
15.630722
14.889836
14.559627
14.823675
15.341640
17.357469
18.399954
17.167926
18.212795
20.642877
21.719933
23.932457
25.126934
25.584698
25.713444
24.981499
23.082495
23.336411
21.871924
21.588802
18.554926
17.986894
16.383529
16.125441
14.353991
15.238523
14.394522
14.844537
14.132857
13.787746
13.354421
13.497472
12.343526
12.818575
11.350513
##ZVALUE=245
2.173781
2.068877
2.704859
2.796650
5.845428
23.993850
54.737926
147.586465
267.881751
428.607464
683.375597
875.381827
1015.290022
1015.605927
955.146551
815.562010
592.708588
420.437455
276.874900
153.508782
110.812783
97.732544
104.908943
124.831796
126.825571
121.641755
107.800961
90.007782
72.096586
56.092739
35.465956
28.561950
20.184517
15.834570
14.497638
15.070438
14.936924
15.517473
14.966726
16.346574
17.437935
16.643405
16.457438
16.532540
17.408729
16.534925
16.329885
16.314983
15.797615
15.381575
15.104413
15.852451
14.737844
14.357567
14.051795
14.240742
14.500618
12.914538
13.331771
12.394786
13.036728
13.025999
13.581514
13.098717
12.916923
12.553930
12.839437
14.217496
14.828444
16.348958
17.097592
19.451976
19.370914
20.650625
22.427440
21.735430
20.315647
19.584894
17.847419
17.111897
16.800761
15.995502
14.439821
13.637543
12.808442
12.875795
12.667775
12.052655
11.609793
11.615753
11.920929
11.439919
10.961890
10.056496
10.436773
10.390878
##ZVALUE=250
1.942515
1.953840
1.977682
2.361536
2.316833
2.475977
3.716946
10.965466
47.158003
103.481412
259.457827
431.878567
644.555688
935.616493
1015.688777
1015.688777
1015.688777
1010.367870
858.993530
563.847423
369.941592
227.388740
125.456452
97.937584
104.584694
115.390420
127.861500
130.034685
132.230520
120.769739
106.039643
79.148412
60.945749
39.519668
32.604933
22.125840
17.220974
17.583966
16.276836
16.593933
17.422438
17.684698
17.936826
17.815828
17.941594
18.219948
16.563535
16.800761
16.338825
16.350746
16.238689
15.698671
15.175939
14.126897
13.486743
14.039874
13.908744
13.288856
12.294650
12.831688
11.796951
11.508465
12.493730
12.059808
12.672544
11.655688
12.282729
12.337565
12.338758
13.908744
13.266802
15.137792
15.944839
16.561747
17.390847
17.109513
16.153455
16.792417
15.770793
14.773607
14.010668
12.945533
12.017488
11.196733
11.120439
10.129809
9.940863
10.259748
9.386539
9.346604
10.066628
9.125471
8.779764
9.844899
8.737445
8.648634
##ZVALUE=255
1.821518
1.793504
1.989603
1.713634
2.022982
1.973510
2.309680
2.247691
2.477765
5.448461
25.925636
71.120858
183.435678
316.835046
538.298488
732.733607
969.223976
1015.605927
1015.605927
1000.562906
862.213969
601.714849
424.199700
236.143470
145.319700
93.676448
88.334680
105.535984
123.952627
140.670538
143.286586
142.245889
130.100846
107.818842
86.628795
62.946677
47.338605
32.069683
25.535822
21.722913
20.162463
20.356774
20.028949
19.349456
20.432472
18.763542
18.328428
18.137693
16.745925
16.549826
15.396476
15.411973
14.381409
13.875961
13.486743
13.333559
12.171865
12.424588
12.169480
12.033582
11.112690
11.347532
11.011958
11.009574
10.727644
10.284781
10.544658
10.224581
10.577440
11.822581
11.946559
12.911558
12.751818
13.487935
13.483763
14.155507
13.811588
13.117790
12.067556
11.153817
10.842681
10.177493
9.496808
8.635521
7.911921
9.326935
8.313656
7.620454
7.775426
8.077621
7.467866
7.153749
7.630587
7.726550
7.339716
7.817745
##ZVALUE=260
1.509786
1.670718
1.670718
1.765490
1.804829
1.822710
1.828671
2.088547
2.003908
2.107620
2.465844
3.774762
12.603402
47.677755
106.091499
259.614587
418.358445
681.501627
877.737999
1015.606523
1015.606523
1015.606523
998.565555
810.091496
535.455942
361.138582
202.417970
129.029751
88.526607
88.018775
103.713870
131.096840
147.593617
156.498551
153.609514
139.141679
120.550990
93.968511
73.450804
53.710938
40.411949
30.082464
25.557876
23.166537
22.918582
21.340847
21.836758
20.197630
20.021796
18.744469
18.728971
16.638637
15.749931
15.046000
15.108585
13.748407
12.986660
12.591481
12.528896
11.735559
11.741519
11.696815
10.928512
10.856986
10.677576
10.583997
9.985566
10.086894
9.932518
10.201931
10.243654
11.473894
10.941625
11.418462
11.664629
10.697842
10.940433
10.589957
9.947419
9.387732
8.626580
8.502603
8.190870
8.530617
7.412434
7.565618
7.713437
6.914735
7.171631
6.684661
7.022619
6.644726
6.954670
6.720424
6.108880
6.745458
##ZVALUE=265
1.410842
1.458526
1.331568
1.615882
1.562834
1.656413
1.561642
1.772642
1.586676
1.939535
2.148747
2.176762
2.155900
2.637506
6.004572
31.471848
77.752471
197.913647
341.825485
615.095496
840.256810
1015.605927
1015.605927
1015.605927
1015.605927
962.553620
707.517862
502.019525
280.326009
172.431469
109.884739
83.187819
91.798902
120.334625
142.445564
160.931945
165.896416
158.888698
145.429969
119.469762
100.014806
71.970820
56.120753
40.824413
31.425953
25.656819
23.698807
22.585988
20.545721
20.086765
19.575953
18.298626
16.953945
16.120672
15.899539
14.976859
14.794469
13.325810
13.319850
12.470484
12.170672
11.183619
10.695457
11.018515
10.146499
9.552836
9.717941
10.119677
9.977818
9.895563
10.352731
10.587573
10.666847
11.414886
10.716915
10.202527
10.327697
9.709597
9.345412
8.634925
8.640885
8.239746
7.736683
7.521510
7.373691
6.663799
6.529689
6.965995
6.852746
6.304979
6.180406
6.899834
6.080866
6.073713
6.037951
6.596446
##ZVALUE=270
1.314878
1.485944
1.584888
1.643896
1.681447
1.545548
1.612902
1.717806
1.722574
1.642704
1.532435
1.763701
1.923442
1.979470
2.445579
2.513528
3.494620
15.748739
45.127869
142.138600
276.337862
466.286540
791.385770
1008.802652
1015.605927
1015.605927
1015.605927
1015.605927
909.838676
673.104525
461.290479
248.302817
145.357847
81.971884
77.371001
98.652840
119.219422
144.810677
158.401728
166.076422
163.697004
143.399835
127.034783
97.512603
76.060891
50.745606
40.151477
29.462576
24.607778
21.243691
20.107627
18.581748
17.634630
17.465949
15.822649
15.323758
14.163852
14.102459
12.999773
12.358427
11.920929
11.813641
11.159778
11.039972
10.792613
10.335445
10.197759
9.935498
9.937882
9.995699
10.403991
10.748506
10.417700
10.233521
10.297894
10.209680
9.918809
9.163618
9.152889
8.820891
7.857680
7.567406
7.124543
7.246733
7.049441
6.696582
6.865859
6.032586
6.332994
6.189942
6.761551
5.854964
5.316734
6.282926
6.091595
6.086826
##ZVALUE=275
1.415610
1.310706
1.533628
1.563430
1.516938
1.331568
1.298785
1.470447
1.607537
1.651645
1.655817
1.603961
1.560450
1.685619
1.909733
1.864433
2.317429
2.347827
2.820492
7.201433
27.615428
75.458884
215.377808
392.904878
710.998774
950.620770
1015.605927
1015.605927
1015.605927
1015.605927
1015.605927
843.685865
599.236488
325.006843
191.100836
92.397928
67.096949
72.518587
90.057850
117.734671
137.299895
155.149698
163.014531
154.181719
141.118765
116.091967
95.460415
68.475604
52.487850
35.405755
26.464462
20.445585
17.463565
15.589595
14.831424
14.236569
13.973713
12.713671
13.071895
12.023449
11.450648
10.663867
10.836720
10.303855
9.907484
9.996891
9.062886
9.575486
9.581447
10.174513
9.473562
10.163784
10.293722
10.772943
11.094809
9.612441
9.463429
9.513497
8.687973
7.956624
7.761717
7.756948
7.367730
7.196665
7.057786
6.575584
6.976724
6.716847
6.455779
6.357431
6.167889
6.086826
6.348491
5.747676
5.812645
6.025434
##ZVALUE=280
1.247525
1.038909
1.243949
1.326799
1.292825
1.148582
1.198649
1.385808
1.325607
1.471639
1.506805
1.588464
1.601577
1.620650
1.481771
1.650453
1.774430
1.820922
2.112985
2.388954
2.450943
3.579855
17.375946
55.973530
172.010660
309.869647
571.490526
814.691782
1015.605927
1015.605927
1015.605927
1015.605927
1015.605927
965.029597
709.644556
406.187773
244.370699
112.269521
64.383745
50.193667
60.814619
85.875988
108.149648
132.350922
145.457983
151.760578
145.336986
129.471421
110.613704
83.802938
64.590573
43.976903
31.352639
21.450520
16.555786
12.235641
12.323856
11.187792
11.359453
10.323524
10.102987
9.789467
9.424686
9.608865
9.576678
9.498596
9.217858
9.547472
9.073615
9.353757
9.877682
9.677410
10.160804
10.139942
9.475946
9.399652
9.790659
8.575916
8.457899
8.479953
8.195639
7.797480
6.860495
7.218719
6.920695
6.688833
6.450415
6.825924
6.244779
6.394982
5.997419
5.869865
6.274581
5.753636
6.176829
5.432963
##ZVALUE=285
1.047850
1.237988
1.084805
1.167655
1.197457
1.470447
1.285672
1.231432
1.238585
1.317859
1.295805
1.297593
1.424551
1.280904
1.308918
1.464486
1.750588
1.569986
1.699924
1.756549
1.938939
2.118945
2.601743
2.671480
8.335710
28.472543
96.845627
202.757716
427.571535
648.101568
891.250968
1015.606523
1015.606523
1015.606523
1015.606523
1015.606523
916.708708
566.176772
353.239775
165.515542
85.268617
42.009950
38.081408
54.608583
74.777603
101.123452
119.514465
134.830475
141.871572
136.445761
126.264691
104.427934
85.989833
60.331821
42.729974
26.423931
18.591881
12.534857
10.996461
9.608865
9.298921
8.639693
8.895993
8.372664
8.309484
8.519888
8.159876
8.395910
8.387566
8.854866
8.696914
8.961558
8.864999
8.892417
9.164810
8.785725
8.517504
8.071661
8.165836
8.250475
7.593632
7.232428
7.278919
6.776452
6.961823
6.789565
6.779432
6.611943
6.698966
6.466508
6.556511
6.424785
6.152987
6.193519
6.177425
5.963445
##ZVALUE=290
1.161695
1.105666
1.079440
1.074672
1.266599
1.153946
1.204610
1.192689
1.314878
1.137853
1.367927
1.556873
1.329780
1.352429
1.375675
1.676679
1.532435
1.425743
1.614690
1.815557
1.644492
1.780987
2.094507
2.091527
2.109408
2.811551
3.729463
11.344552
54.559708
127.558708
248.163939
507.287979
769.565701
1015.605927
1015.605927
1015.605927
1015.605927
1015.605927
1015.605927
837.958455
545.008779
265.579820
133.590698
48.638582
29.722452
35.818815
48.411489
69.185495
88.078976
112.846494
127.768517
136.919618
134.141445
120.992661
103.144646
76.575875
58.202744
38.407445
26.019812
16.660690
12.213588
8.910894
8.213520
8.166432
7.662773
7.792711
7.436872
7.749796
7.635951
8.182526
8.378625
8.242726
8.748770
8.807778
8.219481
8.540750
7.982850
8.216500
7.580519
7.179976
7.672906
7.447600
7.232428
6.889701
6.722808
6.470680
6.806850
6.593466
6.471872
6.737709
6.398559
6.388426
6.461740
6.158948
5.699992
6.388426
##ZVALUE=295
0.980496
1.122952
1.127720
1.150966
1.340508
1.101494
1.247525
1.237988
1.284480
1.241565
1.220703
1.178980
1.191497
1.133680
0.972748
1.297593
1.391768
1.386404
1.578927
1.514554
1.534820
1.637936
1.812577
1.832843
1.951456
2.122521
2.253652
2.462864
3.053546
5.217791
18.920898
78.190565
177.434683
405.035615
642.074943
993.997455
1015.614867
1015.614867
1015.614867
1015.614867
1015.614867
1013.841629
753.137469
392.976999
208.367705
70.250630
32.486916
22.864938
28.587580
45.122504
61.173439
85.490942
102.658868
120.747685
128.860474
126.267672
115.007758
95.059872
77.408552
53.848624
39.160848
22.938848
16.202927
10.780692
8.558631
7.138848
6.618500
6.954670
6.771684
7.023811
7.422566
7.890463
7.513762
7.776618
7.950664
7.813573
7.565618
7.707477
7.232428
7.379651
6.909966
6.791949
7.097721
6.944537
6.830692
6.465912
6.571412
6.843805
6.558895
6.458759
6.379485
6.330609
6.258488
6.613731
6.611943
6.010532
##ZVALUE=300
0.983477
0.871420
0.893474
1.085997
1.034737
1.085997
1.070499
1.008511
1.087785
0.989437
1.200438
1.276731
1.110435
1.176000
1.122952
1.104474
1.327991
1.250505
1.293421
1.482964
1.341701
1.510978
1.549721
1.533628
1.684427
1.857877
1.894832
2.093911
2.306700
2.455711
2.531409
3.262758
8.484721
47.596693
117.342472
292.342901
488.626957
840.058923
1015.605927
1015.605927
1015.605927
1015.605927
1015.605927
1015.605927
913.110971
529.977679
315.804482
136.346817
59.771538
21.309853
18.789768
27.048588
37.850738
58.009624
75.008869
98.660588
111.694932
120.391846
119.075775
108.644962
94.169974
71.686506
55.407882
36.609769
25.622845
14.759898
10.354519
7.646680
7.074475
6.804466
6.698966
7.023811
7.170439
7.205606
7.220507
7.047653
7.201433
6.907582
6.988645
6.766915
6.685853
6.628633
6.546974
6.421804
6.274581
6.044507
6.102920
6.183982
6.364584
6.210804
6.151795
6.188750
6.246567
6.124973
5.908608
6.156564
##ZVALUE=305
1.198649
1.271963
1.283884
1.124740
0.886917
1.158714
1.220703
1.065731
1.132488
1.130700
0.940561
1.161695
1.131892
1.003742
1.224875
1.191497
1.272559
1.287460
1.367927
1.396537
1.367927
1.402497
1.481771
1.441836
1.574755
1.625419
1.801848
1.849532
1.775622
1.942515
2.194643
2.122521
2.438426
2.654791
6.216764
22.287965
89.612603
192.242861
424.184799
653.727651
991.655588
1015.672684
1015.672684
1015.672684
1015.672684
1015.672684
913.607478
668.371916
375.152826
212.315917
80.819726
34.298897
15.135407
16.159415
24.915934
36.164522
56.438446
70.738792
92.545748
105.113983
114.613771
114.401579
103.913546
91.552734
68.942904
53.528547
34.672618
24.462938
14.588833
10.216832
7.819533
6.872416
6.802678
6.980896
6.645918
6.456971
6.408691
6.499887
6.566644
6.049871
6.141663
6.057620
6.243587
6.470680
6.487966
5.885959
6.116629
6.060600
6.212592
5.911589
5.882978
5.995631
5.609989
5.668998
5.752444
5.480647
##ZVALUE=310
1.049638
1.046658
1.005530
0.994802
1.019835
1.120567
0.921488
0.949502
1.072884
0.987649
0.956655
1.065731
1.094937
1.169443
1.176596
1.144409
1.141429
1.256466
1.172423
1.245737
1.330972
1.233816
1.512766
1.207590
1.327991
1.437664
1.356602
1.517534
1.599789
1.598597
1.679659
1.794696
1.877546
2.078414
2.487898
2.574921
3.037453
11.278987
38.199425
131.364465
257.150531
520.395637
779.943466
1015.605927
1015.605927
1015.605927
1015.605927
1015.605927
1015.605927
714.197755
471.211672
230.204463
121.770501
41.202903
17.777681
11.395812
14.220476
21.700859
31.157732
47.299862
63.327551
83.627701
97.169876
106.207728
107.585788
99.886656
86.661577
67.440867
52.550435
34.556985
24.599433
15.153885
10.679960
8.092523
6.944537
6.311536
5.617738
5.609989
5.596876
5.428791
5.586743
5.549788
5.630851
5.621910
5.663633
5.823970
5.905628
5.888939
5.764961
5.668998
5.618930
5.356669
5.563498
5.493760
5.035996
5.266666
##ZVALUE=315
0.904799
0.840425
0.852942
0.980496
1.009703
0.974536
0.908971
0.842810
0.832677
0.969768
0.997782
1.053810
0.968575
0.976920
1.008511
0.961423
0.956655
1.097918
1.028776
1.151562
1.134872
1.150966
1.146793
1.273751
1.181960
1.228452
1.297593
1.487732
1.351833
1.428723
1.554489
1.562834
1.495481
1.538992
1.948476
2.046824
2.132654
2.331734
2.669692
5.531907
19.688606
80.416799
179.485679
408.095717
648.586750
993.593931
1015.605927
1015.605927
1015.605927
1015.605927
1015.605927
858.363509
601.251721
318.033695
173.494816
61.729550
24.920702
10.529757
10.275841
13.233423
18.441677
30.609965
41.899681
60.008764
73.869824
91.723800
99.236965
101.079941
95.922947
79.623461
67.280531
49.826503
35.608411
21.815896
15.081763
9.550452
7.482767
5.856752
5.698800
5.355477
5.457997
5.355477
5.373955
5.428791
5.325675
5.217791
5.083680
5.346537
5.391836
5.182624
5.345941
5.086660
5.141497
5.195737
5.284548
5.139709
##ZVALUE=320
0.852942
0.891685
0.937581
0.887513
0.689626
0.976920
1.044869
0.857711
0.969768
0.941753
0.843406
0.934601
0.952482
1.101494
1.014471
0.886917
1.103878
0.833869
0.882745
0.984669
1.011491
0.966787
0.967979
0.971556
1.117587
1.316667
1.042485
1.335740
1.342893
1.295805
1.347661
1.328588
1.537800
1.361966
1.536608
1.683831
1.731515
1.770854
2.010465
2.140999
2.338886
2.990961
8.756518
44.981837
115.904808
296.382904
492.156744
817.937851
1015.602946
1015.602946
1015.602946
1015.602946
1015.602946
998.528600
748.643875
416.688919
237.924457
98.038912
43.125749
13.772845
8.852482
9.197593
11.500716
17.157793
24.866462
39.368868
52.459836
70.926547
84.785819
93.307495
95.365644
89.750886
80.374479
62.162876
47.439933
31.112432
21.749735
13.885498
9.431839
6.472468
5.780458
5.264878
5.169511
4.968643
5.071759
5.068779
5.064607
5.070567
4.588962
4.890561
5.072951
5.084872
5.053878
4.989505
4.998446
4.849434
##ZVALUE=325
0.868440
0.844598
0.900626
0.990629
0.871420
0.771880
0.826716
0.809431
0.854731
0.829697
0.964999
1.101494
0.849962
1.048446
0.916719
0.902414
0.926852
0.976920
1.063943
0.951886
0.918508
1.054406
1.044869
1.051426
1.081824
1.002550
1.238585
1.248717
1.103878
1.340508
1.231432
1.196861
1.224875
1.316667
1.343489
1.284480
1.526475
1.634955
1.705885
1.811981
2.028942
2.110600
2.306700
2.807975
4.842877
27.765632
76.272488
207.905769
371.436477
678.839684
946.563482
1015.605927
1015.605927
1015.605927
1015.605927
1015.605927
839.822888
503.843427
308.640599
137.837529
62.812567
18.291473
9.509921
7.902980
8.315444
11.398792
15.604496
25.512576
36.113858
52.753687
66.862702
81.903934
88.186860
88.896751
84.601641
69.822669
58.431625
42.524934
30.802488
19.083619
13.084412
8.585453
6.662607
5.482435
5.097985
4.921556
4.987717
4.823804
4.689693
4.645586
4.735589
4.820824
4.649758
4.814863
4.731417
4.663467
##ZVALUE=330
0.809431
0.885725
0.932813
0.937581
0.894666
0.851750
0.928640
0.973940
1.005530
0.977516
0.874996
1.044869
1.046658
0.897646
1.189709
0.891685
1.045465
0.863671
0.980496
1.014471
1.096725
1.129508
1.146793
1.085997
1.171827
0.979900
1.235604
1.324415
1.330972
1.245737
1.370907
1.200438
1.332760
1.370907
1.491904
1.640916
1.358986
1.576543
1.616478
1.570582
1.623631
1.673698
1.833439
2.029538
2.225637
2.671480
3.225803
12.888908
40.519834
136.076808
262.014866
525.968671
781.962872
1015.658975
1015.658975
1015.658975
1015.658975
1015.658975
971.935987
626.429915
401.345491
184.398890
91.600418
30.830503
12.796521
7.442832
7.238984
8.013844
10.107756
15.774965
22.866726
35.562515
47.307611
64.651966
75.158477
83.869696
84.026456
77.164769
68.606734
53.077936
40.735602
27.017593
19.699931
12.952685
9.421706
6.610751
5.569458
4.970431
4.753470
4.869699
4.627705
4.601479
4.511476
4.502535
4.558563
4.434586
##ZVALUE=335
0.829697
0.590682
0.778437
0.615716
0.703931
0.847578
0.766516
0.879765
0.774860
0.723600
0.843406
0.793934
0.838637
0.921488
0.775456
1.005530
0.931621
1.016855
0.953674
1.050830
0.954866
0.913739
0.979900
1.028776
0.949502
0.876784
0.946522
0.999570
0.955462
1.102686
1.049638
1.211762
1.186728
1.248717
1.194477
1.375675
1.281500
1.320839
1.394749
1.388788
1.548529
1.276731
1.608729
1.797676
1.704693
1.694560
2.032518
2.222657
2.535582
5.725622
20.999908
83.376765
177.470446
395.192504
631.095767
981.104970
1015.600562
1015.600562
1015.600562
1015.600562
1015.600562
751.052499
508.345962
258.754492
133.226514
44.037700
17.626882
8.165836
6.921887
6.971955
7.601976
10.032654
14.041662
23.026466
31.930804
46.893954
58.553815
70.526600
75.641870
77.788830
73.421001
62.228441
52.184463
38.223863
28.571486
18.977523
13.406873
8.764863
6.867647
5.393624
4.743934
4.569888
4.277825
4.421473
4.248619
4.108548
##ZVALUE=340
0.739694
0.811815
0.742674
0.958443
0.750422
0.793934
0.841618
0.966787
0.777841
0.843406
0.846982
0.879765
0.809431
0.915527
0.865459
0.933409
0.887513
0.740886
0.881553
0.888705
0.975728
0.947714
1.021624
0.949502
0.896454
1.019835
1.151562
1.011491
1.081824
1.048446
1.147985
1.206994
1.043677
1.154542
1.169443
1.082420
1.092553
1.297593
1.295805
1.347661
1.322627
1.258850
1.284480
1.393557
1.416802
1.674891
1.500845
1.979470
1.784563
2.107620
2.360940
3.365874
10.113716
50.516725
125.029683
312.675834
523.291826
854.455829
1015.606523
1015.606523
1015.606523
1015.606523
1015.606523
873.456001
611.551404
319.833755
174.014568
67.132711
26.065707
8.733869
6.784797
6.756783
6.540418
7.517934
9.352565
14.084578
20.492673
31.559467
42.103529
56.156516
65.025687
72.343946
72.229505
67.499876
61.196685
48.863888
39.257407
27.076602
19.632578
12.916923
9.132624
6.193519
5.158782
4.336834
4.168749
4.193783
##ZVALUE=345
0.944734
0.796914
0.972748
0.783801
0.792742
0.757575
0.749826
0.795722
0.823736
0.892878
0.806451
0.815988
0.797510
0.901818
0.880957
0.838637
0.979900
0.819564
0.904799
0.783801
0.910759
0.908971
0.904799
0.986457
1.086593
1.078844
1.031756
1.041889
1.061559
1.089573
1.073480
1.123548
1.011491
1.165867
1.106858
1.208782
0.963807
1.195669
1.200438
1.272559
1.183748
1.387596
1.277924
1.349449
1.418591
1.483560
1.461506
1.579523
1.763701
1.671910
1.894832
2.059937
2.166629
2.402663
4.577637
27.363896
78.297853
210.749507
378.581882
685.531497
936.724544
1015.664935
1015.664935
1015.664935
1015.664935
975.563526
727.671981
425.828695
239.990950
92.935562
40.828586
12.979507
7.845759
6.701946
6.513596
6.131530
6.592870
8.699894
11.895895
19.466877
27.341843
40.390491
49.597621
59.165955
65.286756
66.735744
64.812899
56.945682
48.406720
37.551522
28.428435
18.519759
13.172626
8.404851
6.414652
5.042553
##ZVALUE=350
0.766516
0.792742
0.941753
0.542998
0.932813
0.818968
0.712872
0.898838
0.840425
0.878572
0.717640
0.854731
1.033545
0.820756
0.769496
0.845790
0.868440
0.818968
0.878572
0.863671
0.817776
0.908971
0.847578
0.794530
0.941753
0.856519
0.884533
0.902414
0.839829
0.854731
0.851750
0.881553
0.958443
1.108646
1.094937
1.065731
1.142621
1.230836
1.000762
0.910759
1.027584
1.165867
1.207590
1.073480
1.249909
1.508594
1.420975
1.337528
1.313686
1.581907
1.682639
1.642704
1.725554
1.944900
1.739860
2.206564
3.092885
13.902783
43.073893
138.152838
270.229578
546.665788
790.031552
1015.605927
1015.605927
1015.605927
1015.605927
1015.605927
824.579000
506.049991
304.606557
131.842494
59.870481
16.790628
8.186698
6.523728
5.967617
5.307794
5.296469
6.098747
7.519722
11.524558
16.857982
25.248528
33.264756
45.218468
52.217841
58.995485
60.572624
59.506893
54.070950
44.435859
36.287904
26.265979
19.333959
12.498498
##ZVALUE=355
0.748634
0.762939
0.841618
0.826716
0.811815
0.826716
0.897646
0.866652
0.932813
0.764728
0.758767
0.824928
0.904799
0.825524
0.731945
0.855923
0.904799
0.884533
0.787973
0.868440
0.925660
0.919700
0.997782
0.949502
0.914931
0.947714
1.020432
0.921488
0.827909
0.883937
0.928640
0.945926
1.058578
0.882745
0.969768
0.978708
1.041889
1.018643
1.083612
1.210570
1.073480
1.142621
1.079440
1.145601
1.268983
1.273751
1.321435
1.254678
1.223683
1.369715
1.416802
1.479983
1.592636
1.613498
1.648664
1.926422
2.028942
2.242923
2.571940
6.731749
23.681521
92.950463
191.388726
406.378508
641.257763
977.998972
1015.569568
1015.569568
1015.569568
1015.569568
928.728580
611.881018
383.718014
168.116689
79.272985
23.644567
9.782910
6.250739
5.820990
5.559921
5.274415
5.056858
5.445480
6.910563
9.400845
14.588833
20.383596
29.652715
37.399530
46.683550
52.218437
55.621862
54.568648
49.965978
43.645501
34.158826
##ZVALUE=360
0.737906
0.811815
0.843406
0.922680
0.747442
0.971556
0.979900
0.800490
0.836849
0.915527
0.795722
0.702739
0.829697
0.840425
0.686646
0.892878
0.826716
0.841618
0.766516
0.815988
0.846982
0.933409
0.773668
0.991821
0.998974
1.047850
1.119971
0.998974
0.822544
1.002550
0.777841
1.186728
1.025796
1.122952
0.930429
1.116991
1.190901
1.148582
1.079440
1.180768
0.991821
1.156926
1.140833
1.199841
1.268983
1.211762
1.317859
1.282692
1.495481
1.505613
1.332760
1.224875
1.496673
1.490712
1.663566
1.507998
1.740456
1.995564
1.955628
2.063513
2.458692
3.629923
10.350943
48.117638
118.741989
294.652581
490.790606
801.790953
1015.248895
1015.640497
1015.640497
1015.640497
1009.512544
710.706711
471.768975
228.416920
117.931962
41.114688
15.879869
6.618500
5.718470
5.283952
5.128980
4.858971
4.730821
5.101562
5.724430
8.495450
11.205673
17.260909
23.242831
33.330917
40.386915
47.732592
50.000548
50.643682
##ZVALUE=365
0.851750
0.881553
0.790954
0.733733
0.854731
0.783801
0.776649
0.796914
0.932813
0.824928
0.779629
0.807643
0.744462
0.741482
0.847578
0.771880
0.687838
0.896454
0.904799
0.913739
0.945926
0.859499
0.802875
1.015663
1.057982
0.916719
0.914931
0.950694
0.779629
0.906587
0.948906
0.776649
0.981688
0.857711
1.024604
1.077652
1.137853
1.058578
0.990629
1.051426
1.113415
1.069903
1.092553
1.126528
1.051426
1.062751
1.093745
1.123548
1.289845
1.174808
1.377463
1.186728
1.358986
1.325607
1.496673
1.473427
1.516938
1.502633
1.730919
1.856685
1.988411
2.046824
2.299547
2.543926
5.224943
27.273893
74.212551
199.106932
368.730426
680.735707
924.611688
1015.606523
1015.606523
1015.606523
1015.606523
815.113783
581.752658
318.017006
169.748664
59.350729
23.163557
7.635951
5.563498
5.110502
4.979968
4.567504
4.389882
4.167557
4.323721
4.976988
6.460547
9.952784
14.032722
21.340847
27.577877
35.655499
##ZVALUE=370
0.810623
0.732541
0.782609
0.732541
0.701547
0.782609
0.763535
0.814795
0.622869
0.799894
0.811815
0.791550
0.860691
0.775456
0.908971
0.774860
0.779629
0.758767
0.726581
0.877976
0.817776
0.798702
0.873804
0.986457
0.786781
0.957847
0.973940
0.984669
0.880957
0.923872
0.899434
0.799894
0.919700
1.059771
0.898838
0.884533
0.872612
0.981688
0.902414
0.991821
0.954866
1.123548
0.990629
1.111627
1.025796
1.111627
1.140833
0.995994
1.244545
1.102686
1.215935
1.162887
1.249909
1.077652
1.290441
1.162887
1.376867
1.338720
1.453757
1.526475
1.552701
1.628995
1.705885
1.956820
1.895428
2.311468
2.987981
13.644695
45.699477
149.914622
282.607675
534.753799
785.049796
1015.605927
1015.605927
1015.605927
1015.605927
925.410986
682.554841
377.345681
213.486552
82.721710
37.014484
11.983514
6.308556
5.021691
4.535913
4.292727
3.897548
3.973842
3.782511
3.891587
4.278421
5.957484
8.067489
12.415648
##ZVALUE=375
0.778437
0.727773
0.753999
0.733733
0.855923
0.827909
0.625849
0.783801
0.781417
0.820756
0.693798
0.852942
0.623465
0.851750
0.740886
0.908971
0.727773
0.764728
0.746846
0.820756
0.908971
0.807643
0.743866
0.821948
0.803471
0.902414
0.776649
0.840425
0.937581
0.955462
1.134872
0.910759
0.984669
0.811815
1.027584
1.025796
1.033545
1.017451
1.094937
0.972748
1.006722
0.938773
1.005530
1.080632
0.990629
1.085997
1.195669
1.046658
1.023412
1.121759
0.947714
1.003742
1.107454
1.127720
1.153946
1.236796
1.106858
1.128912
1.268983
1.366735
1.437664
1.224875
1.592636
1.544952
1.700521
1.715422
1.830459
2.196431
2.531409
7.065535
24.831891
89.693666
195.444822
433.504581
668.550730
983.726978
1015.607715
1015.607715
1015.607715
1014.236808
815.119743
501.201749
310.452580
141.462684
69.055557
21.324754
8.265972
4.931688
4.455447
4.265904
3.856421
3.612638
3.395677
3.395677
3.469586
3.945827
##ZVALUE=380
0.761747
0.693798
0.727773
0.847578
0.877976
0.617504
0.708699
0.717640
0.673532
0.669956
0.705719
0.654459
0.731945
0.785589
0.741482
0.729561
0.730753
0.708699
0.747442
0.786781
0.786781
0.727773
0.767708
0.943542
0.780821
0.855923
0.826716
0.897646
0.982881
0.987649
1.133680
1.041889
1.114607
0.952482
0.866652
1.016855
1.043677
1.016855
1.153946
1.174808
1.069903
1.187921
0.899434
1.110435
1.148582
1.080632
1.037717
0.996590
1.072884
0.931621
1.138449
1.054406
1.049638
1.129508
1.124740
1.015663
1.157522
1.045465
1.032948
1.172423
1.431704
1.107454
1.382828
1.284480
1.334548
1.652837
1.624823
1.663566
1.906753
2.078414
2.421737
3.432631
16.850829
51.707625
158.904791
298.407078
567.823648
825.541615
1015.605927
1015.605927
1015.605927
1015.605927
898.560882
669.419765
389.192700
227.701664
92.464685
41.244626
11.131763
5.461574
4.442930
4.088879
3.960729
3.850460
3.673434
3.544688
##ZVALUE=385
0.746846
0.667572
0.701547
0.716448
0.747442
0.695586
0.616908
0.571609
0.598431
0.679493
0.737906
0.633597
0.530481
0.620484
0.699759
0.748634
0.654459
0.670552
0.670552
0.895858
0.747442
0.679493
0.773668
0.804663
0.840425
0.812411
0.909567
0.834465
1.065731
1.156926
1.292825
1.183748
1.389980
1.283884
1.292825
1.675487
1.548529
1.462698
1.510978
1.369715
1.325607
1.430511
1.372695
1.141429
1.244545
1.226664
1.131892
1.148582
1.276731
1.191497
1.014471
1.036525
1.174808
0.974536
1.113415
1.181960
1.230836
1.107454
1.174808
0.923872
1.222491
1.183748
1.157522
1.213551
1.385808
1.327991
1.486540
1.439452
1.757741
1.772642
2.032518
2.099872
2.239943
2.658963
6.437898
35.484433
92.181563
235.986710
414.826870
724.732876
965.114832
1015.605927
1015.605927
1015.605927
1013.729572
764.447451
540.415645
291.918516
163.432956
66.153407
25.603771
6.986856
4.351735
3.884435
3.931522
3.872514
##ZVALUE=390
0.634789
0.694990
0.667572
0.557899
0.687838
0.622869
0.657439
0.667572
0.684857
0.739694
0.731945
0.707507
0.643730
0.738502
0.744462
0.715852
0.674725
0.632405
0.739694
0.682473
0.574589
0.590682
0.768900
0.700951
0.824928
0.979900
1.049638
1.182556
1.263618
1.287460
1.572967
1.751781
1.604557
1.833439
1.782775
1.894832
1.870990
1.835823
1.709461
1.708865
1.794696
1.576543
1.610518
1.617670
1.455545
1.362562
1.268983
1.453757
1.420975
1.394749
1.365542
1.180768
1.200438
1.233816
1.243949
1.264811
1.202822
1.173615
1.111627
1.261830
1.141429
1.079440
1.097918
1.044869
1.271963
1.440644
1.417994
1.602769
1.587868
1.690984
1.766682
2.038479
2.017617
1.962781
1.980662
2.245903
3.507733
18.140674
58.182478
178.387761
336.951017
625.370741
850.171447
1015.606523
1015.606523
1015.606523
1015.606523
926.869512
704.967976
421.651006
242.696404
97.001791
42.325854
11.206865
5.227923
4.041791
##ZVALUE=395
0.743866
0.678897
0.570416
0.730753
0.778437
0.637770
0.733733
0.666976
0.686646
0.581741
0.810623
0.685453
0.571609
0.607967
0.855923
0.689626
0.647902
0.678897
0.553727
0.585914
0.779629
0.615716
0.833869
0.723600
0.723600
1.004934
1.049638
1.271963
1.436472
1.601577
1.760721
1.790524
2.008677
2.184510
2.174973
2.134442
2.185702
2.165437
2.287626
2.113581
2.110600
1.978874
2.028942
1.889467
1.744628
1.664758
1.604557
1.638532
1.463890
1.598597
1.439452
1.287460
1.398921
1.381636
1.269579
1.312494
1.267791
1.146793
1.183748
1.127720
1.223683
1.212955
1.190901
1.258850
1.244545
1.270771
1.362562
1.598597
1.440644
1.722574
1.617670
1.730919
1.764894
1.723766
1.733899
1.810789
2.057552
1.917481
2.861619
8.180737
45.232773
108.950734
259.822011
439.359546
748.487711
980.702639
1015.605927
1015.605927
1015.605927
1015.605927
794.219971
553.273559
290.720463
152.961612
56.039691
23.227930
##ZVALUE=400
0.828505
0.804663
0.737906
0.771880
0.773668
0.644922
0.716448
0.607967
0.771880
0.832677
0.723600
0.583529
0.671744
0.613928
0.679493
0.643730
0.731945
0.718832
0.614524
0.630617
0.694990
0.831485
0.598431
0.630617
0.749826
0.794530
0.987649
1.110435
1.331568
1.406670
1.679659
1.904964
2.162457
2.179742
2.338886
2.201796
2.179742
2.223849
2.283454
2.165437
2.081990
2.109408
2.115965
1.929998
1.884699
1.837611
1.710653
1.685619
1.624823
1.470447
1.491904
1.571774
1.273751
1.367927
1.269579
1.266599
1.082420
1.242757
1.159906
1.156926
1.293421
1.297593
1.121759
1.194477
1.210570
1.228452
1.325607
1.365542
1.480579
1.520514
1.557469
1.738667
1.592636
1.698732
1.596808
1.530647
1.561642
1.668930
1.761913
2.040863
2.239943
4.146695
21.440983
61.345696
175.969005
321.053863
598.592758
829.266906
1015.605927
1015.605927
1015.605927
1015.605927
881.613493
648.272634
368.376970
219.269991
##END
