##TITLE=TAPWATER
##FORMAT=SPECTACLE-ASCII V-1.2
##DATA TYPE=ULTRAVIOLET SPECTRUM
##SECOND TYPE=ULTRAVIOLET SPECTRUM
##DATE=03/27/18
##TIME=18:34:28
##SPECTROMETER/DATA SYSTEM=SPECTACLE
##XUNITS=NM EM
##YUNITS=ENERGY
##YFACTOR=1
##FIRSTX=220
##LASTX=410
##NPOINTS=96
##3DDATA=Equidistant
##ZUNITS=NM EX
##FIRSTZ=210
##LASTZ=400
##ZPOINTS=39
##XYDATA=(Y..Y)
##ZVALUE=210
18.936992
18.268824
14.227629
10.988712
9.964705
9.244680
8.788705
9.449720
8.024573
7.265806
6.479621
6.652474
6.277561
6.376505
6.830692
7.232428
8.213520
8.614659
9.341836
9.351969
10.107756
11.590719
11.275411
12.991428
14.189482
13.390779
14.621615
14.777780
15.789866
14.748573
16.122460
18.570423
19.408464
18.226504
19.753575
20.104647
22.156835
21.884441
22.512674
22.151470
22.665858
23.991466
23.006797
25.261641
26.423931
27.044415
25.869608
28.449893
27.887821
28.968453
30.515790
32.091737
32.223463
31.831861
33.372641
33.607483
35.445690
34.510493
35.330653
36.235452
38.013458
36.036968
38.016438
39.663911
43.561459
44.031739
46.044588
54.411888
63.969493
73.675513
98.253489
112.230778
128.299594
148.149729
160.204768
162.687898
171.293616
172.074437
166.651607
154.219866
139.006972
123.827457
107.953548
97.762942
80.502629
67.892671
60.399771
54.991841
53.787827
52.429438
52.870512
54.625869
58.414936
59.955716
66.084862
69.041848
##ZVALUE=215
73.063970
74.561834
60.449839
43.733716
32.264590
20.827651
16.960502
14.899969
14.977455
14.375448
13.621449
10.991693
9.802580
8.404851
8.580685
8.522868
8.013844
8.664727
8.958578
9.050965
11.508465
11.671782
12.397766
12.908578
14.074445
14.747977
15.871525
16.004443
16.756654
17.190576
18.354654
18.219948
17.822981
19.739866
19.299984
20.338893
22.759438
22.279620
24.760962
22.785664
24.686456
24.732947
25.747418
27.536750
28.065443
29.171705
27.469993
29.121637
29.746890
29.032826
31.305552
31.176805
30.867457
34.088492
32.987595
34.339428
36.271811
36.252737
36.119819
37.794709
38.890839
40.411949
41.468740
38.698912
43.363571
44.199824
48.307776
56.013465
63.099861
78.119636
87.047815
106.126666
122.432709
137.180686
147.840977
149.863958
155.703425
151.389837
149.250627
138.687491
132.743716
111.542940
101.497769
88.684559
79.469681
66.704750
59.543848
56.829453
51.172972
52.520633
51.754713
48.472881
51.655769
50.480962
51.730871
56.075454
##ZVALUE=220
187.069774
185.446739
184.795856
176.303983
148.554444
109.875798
79.861879
50.717592
33.507943
27.258992
24.625659
24.130940
23.977757
18.884540
18.615723
16.192794
12.067556
10.464787
10.377765
11.422634
12.342930
11.973977
14.159679
14.067888
14.852881
15.696883
15.168786
17.244816
17.869473
18.724799
20.911694
20.090938
19.852519
22.425652
21.903515
23.497939
23.327470
24.899840
25.006533
25.869608
26.686788
26.050806
27.606487
27.793646
29.956698
29.272437
31.400919
32.491684
30.937791
31.976700
33.291578
34.326911
34.343600
36.909580
35.907626
36.188960
38.023591
39.366484
39.553642
39.126873
40.721893
41.661859
41.992664
42.856932
46.374798
47.297478
48.736930
51.287413
63.251853
75.503588
89.921951
101.032853
118.833780
135.938525
147.034526
150.887966
156.501532
147.440434
145.566463
137.098432
131.525993
113.594532
101.529956
90.440512
80.129504
69.262981
61.301589
59.366822
53.211451
54.062605
50.721765
53.066611
49.366951
49.072504
49.532652
48.938990
##ZVALUE=225
269.152522
276.091695
330.429673
393.783450
401.764512
367.988944
325.739980
233.927965
168.530941
115.444660
66.185594
42.722821
38.560629
40.518641
37.826896
36.146641
30.979514
25.627613
21.644831
16.857982
16.660690
15.446544
14.099479
14.554858
18.170476
16.969442
16.480684
17.558932
18.958449
19.513965
21.237731
21.002889
23.063421
21.696687
23.691654
25.111437
25.467873
25.102496
27.242899
26.622415
28.011799
27.717948
28.817654
31.054616
28.098822
32.612681
32.396913
34.813881
33.746958
32.837987
34.819841
38.852692
35.551786
38.185716
36.746860
36.958456
38.916469
38.346648
40.499568
41.938424
43.635964
43.299794
44.055581
43.676496
45.526624
47.061443
51.106811
53.906441
65.292716
76.328516
90.458989
100.258589
116.679668
125.076771
132.589936
134.620667
131.469965
123.274922
119.067430
115.638971
105.717778
97.219944
87.559819
80.125928
70.664883
66.902637
59.831738
57.934523
55.641532
52.876472
53.580999
52.124858
51.318407
52.888989
53.936839
51.020980
##ZVALUE=230
193.015933
210.639834
321.923494
497.974753
634.470582
757.094026
791.156888
769.958496
651.805997
546.388626
345.663428
224.258900
118.021965
81.112981
63.978434
60.646534
63.336492
57.227612
53.540468
45.883656
37.819743
27.731657
23.796558
20.242929
17.770529
18.560886
20.099878
19.212961
19.578934
22.457838
21.096468
23.242831
21.714568
24.563670
25.234818
25.662780
27.175546
27.219653
28.654933
27.522445
27.001500
29.707551
33.042431
28.978586
32.431483
33.076406
34.242868
34.227967
34.356713
36.593676
36.090612
36.531687
37.344694
37.726760
41.040778
38.766861
39.968491
42.083859
42.046905
44.178963
42.858720
45.208931
45.369864
46.362877
44.977665
50.987601
53.026676
59.166551
67.030787
76.045990
88.886619
105.146766
113.343000
127.665997
133.527517
138.257742
136.471987
130.225420
124.292970
107.508898
103.233457
91.315508
84.196925
78.748465
70.388913
66.468716
63.866973
55.794716
56.023598
58.620572
56.418777
55.536628
53.834915
55.507421
52.472949
53.983927
##ZVALUE=235
59.315562
66.794753
139.369965
317.500830
502.983928
779.441595
997.654796
1015.605927
1015.605927
1015.605927
1015.605927
952.575803
633.916855
432.055593
248.012543
156.585574
97.580552
88.207722
92.308521
93.096495
84.933639
73.011518
62.200427
45.420527
37.025809
30.581951
25.651455
23.135543
23.769736
23.195744
23.936629
24.156570
25.682449
28.066635
26.828647
28.245449
28.028488
29.165745
28.559566
30.980706
31.671524
31.568408
33.878684
33.209920
32.737851
35.297871
34.701824
34.807920
35.273433
36.564469
37.623644
41.055679
38.193464
40.750504
38.714409
40.001869
43.245554
43.493509
45.647621
45.009851
45.222640
48.050880
47.644973
49.302578
50.322413
55.052638
54.614544
61.401725
70.451498
79.675913
93.794465
103.020668
121.276975
133.854747
140.115619
138.991475
136.571527
131.086707
124.235749
111.828446
101.509690
93.242526
82.171559
77.220798
69.093704
68.553686
62.901974
61.559677
57.828426
57.758689
58.002472
56.857467
56.576729
57.877898
54.623485
55.798888
##ZVALUE=240
6.209612
6.131530
25.137663
67.039728
185.964704
345.129967
693.120956
992.915630
1015.605927
1015.605927
1015.605927
1015.605927
1015.605927
1015.605927
1015.605927
738.034844
473.477840
252.903700
160.662532
117.617846
121.008754
126.547813
123.115778
112.994909
93.568563
75.870752
59.874654
47.128797
36.261678
31.037927
27.754903
26.072860
26.475787
28.606653
28.412938
28.828979
30.008554
28.891563
30.562878
32.084584
31.915903
33.071637
34.450889
34.070611
32.733679
34.403801
37.130713
36.421418
38.074851
39.735436
40.592551
39.354563
40.558577
41.172504
41.386485
42.820573
43.792725
43.995976
45.605898
43.372512
44.190884
47.154427
48.992634
48.244596
50.240755
52.655935
57.612658
62.855482
68.616867
79.073906
89.734793
104.033947
114.179850
127.878785
132.049918
138.053894
133.323669
127.055645
124.452710
111.215711
100.559592
92.336535
86.974502
72.981715
70.765615
63.660741
64.580441
59.958696
60.573816
58.191419
57.901740
57.081580
55.592656
55.319667
55.917501
55.586696
##ZVALUE=245
4.534721
4.949570
4.511476
6.030798
13.548732
54.636002
131.368637
354.445577
643.802881
1015.605927
1015.605927
1015.605927
1015.605927
1015.605927
1015.605927
1015.605927
1015.605927
1015.605927
716.301799
433.489680
207.690001
142.839551
123.315454
133.189559
139.822960
132.648945
123.873949
102.157593
86.782575
68.412423
51.977634
36.548972
33.025742
26.961565
27.461648
25.953650
28.851628
27.074814
28.246641
27.182698
29.450655
28.061867
27.919412
30.042529
30.439496
31.567812
31.328797
32.392740
33.366680
33.330917
33.507943
34.367442
35.656691
35.911798
36.150813
36.553741
37.295818
37.084818
37.001967
39.316416
38.069487
39.379001
41.865706
41.825771
42.236447
46.204925
47.245622
51.628947
57.076812
68.507791
79.092979
88.925958
96.914768
107.696652
113.087893
114.786625
110.051632
107.059479
98.698735
92.173815
83.854795
77.451468
67.631602
61.879754
58.360696
55.025816
53.397417
52.396655
51.559806
51.464438
49.701929
47.932863
46.455860
48.044920
47.956705
48.863888
##ZVALUE=250
4.239678
4.097819
4.070997
4.259944
4.918575
5.562901
9.475946
27.746558
127.962828
275.814533
678.129792
1015.605927
1015.605927
1015.605927
1015.605927
1015.605927
1015.605927
1015.605927
1015.605927
1015.605927
1015.605927
707.648993
317.963958
174.020529
122.345686
129.999518
142.412782
148.237944
143.122673
132.466555
116.197467
91.426969
71.013570
50.593615
38.235784
31.673908
27.716756
26.689768
23.813844
25.702715
26.626587
27.560592
27.059913
26.650429
25.942922
27.097464
28.470755
28.869510
30.579567
29.319525
28.675795
30.523539
29.512644
30.382872
30.127764
31.870604
32.881498
32.025576
33.839941
34.320951
34.170747
34.849644
35.386682
36.452413
37.222505
38.134456
40.551424
43.421984
49.435496
56.484938
65.285563
71.834922
81.178546
89.535713
93.422532
93.465447
90.402961
84.684491
80.221891
72.795749
69.751740
62.057972
56.741834
50.505996
47.745705
45.609474
44.757724
42.407513
42.226911
42.061806
40.566921
40.167570
41.063428
41.252971
40.067434
40.010810
##ZVALUE=255
3.586411
3.628731
3.574491
3.993511
4.128814
3.817677
4.758835
5.236864
6.036758
20.391941
71.953535
247.036815
507.383943
1007.142663
1015.605927
1015.605927
1015.605927
1015.605927
1015.605927
1015.605927
1015.605927
1015.605927
1015.605927
950.748920
462.808609
244.998932
142.488480
118.153691
134.238601
149.212480
153.078437
148.683786
138.224959
115.568638
97.022653
68.443418
53.591728
38.002729
30.298829
25.789738
24.931431
24.589896
24.391413
24.971962
24.470687
24.940968
25.113821
25.273561
25.310516
26.181936
25.544763
27.300715
27.170777
28.001666
28.073788
27.760863
28.149486
28.977990
27.579665
29.057860
29.811859
28.641820
28.195977
29.618740
30.514598
33.432841
33.668876
36.140680
40.367842
47.472715
53.128600
58.935881
66.824555
70.804954
75.041652
77.732801
75.044632
68.219900
66.175461
57.516694
54.164529
49.267411
45.221448
41.010976
38.609505
37.516952
36.223531
36.402941
36.291480
35.408735
33.844709
33.353567
32.290816
33.000708
33.532977
33.168793
##ZVALUE=260
3.430843
3.262758
3.445745
3.723502
3.888607
3.920794
4.284978
4.735589
4.814863
5.199909
5.728602
8.895993
48.455596
136.143565
389.253497
780.200958
1015.605927
1015.605927
1015.605927
1015.605927
1015.605927
1015.605927
1015.605927
1015.605927
1015.605927
1015.605927
881.172419
398.904681
206.870437
115.786791
118.104815
137.514472
152.177811
157.295465
155.940652
141.728520
123.628974
93.970895
73.231459
51.120520
38.701892
30.217767
24.778843
23.597479
23.133755
23.980737
22.864938
23.700595
23.743510
23.950934
24.068952
24.161935
24.096966
24.400949
23.936629
25.521517
24.572611
24.364591
24.661422
26.188493
25.468469
25.961995
26.588440
26.825666
27.763844
29.301643
29.984713
32.400489
35.460591
41.108727
45.434833
51.852465
55.147409
61.061978
63.168406
61.698556
60.551763
56.285858
53.543448
49.476624
43.732524
40.115714
38.157701
34.359694
32.789707
31.772852
31.729937
29.531717
28.893948
29.815435
28.352737
27.972460
28.559566
27.544498
27.996898
28.968453
##ZVALUE=265
3.336668
2.953410
3.579855
3.433824
3.475547
3.509521
4.053712
3.886819
4.566908
4.553795
5.488992
5.508661
6.081462
7.681847
18.845797
106.639862
269.606709
702.428818
1015.594602
1015.594602
1015.594602
1015.594602
1015.594602
1015.594602
1015.594602
1015.594602
1015.594602
1015.594602
1015.594602
699.646473
357.835889
139.238834
100.313425
120.702982
141.946673
160.876513
167.269707
158.726573
144.992471
119.892955
97.008944
69.187880
52.597523
36.977530
30.710697
24.378896
23.250580
22.923946
23.543835
23.641586
22.497773
23.054481
22.132993
22.018552
22.924542
22.666454
23.457408
23.375750
22.685528
23.467541
23.132563
24.207830
23.472905
24.235845
25.271773
26.271939
26.542544
28.265715
30.982494
36.363602
40.666461
46.909451
49.606562
52.685738
53.947568
52.695870
51.207542
47.238469
43.257475
40.027499
36.804676
33.737421
30.809641
29.443502
28.893948
27.203560
25.940537
26.079416
25.511980
26.847720
26.480556
25.311708
25.297999
25.360584
24.309754
25.377870
##ZVALUE=270
2.974868
3.235936
3.596544
3.669858
3.596544
3.615618
3.769994
3.973842
4.336834
4.323721
4.287958
4.473925
4.903674
5.195737
6.073713
6.510615
12.559891
43.244958
142.593980
487.834811
955.821872
1015.605927
1015.605927
1015.605927
1015.605927
1015.605927
1015.605927
1015.605927
1015.605927
1015.605927
1015.605927
981.497765
550.268888
200.110674
104.149580
97.741485
119.789839
148.122907
160.203576
166.732669
159.811974
142.201781
124.100447
93.953609
73.967576
50.593615
39.804578
29.511452
25.100708
22.954941
21.652579
21.041632
21.018982
21.121502
21.919608
21.160841
21.696687
21.470785
22.296906
21.712780
21.724701
22.391677
21.982789
22.996664
22.780895
23.881793
24.431944
26.389956
29.217601
32.880902
37.273765
41.264892
46.404600
47.478676
49.035549
48.668981
46.292543
44.156909
39.392710
36.415458
32.714605
29.787421
27.434826
26.036501
26.090741
23.969412
23.824573
23.780465
22.992492
23.329854
22.977591
21.880865
21.903515
22.593737
21.868944
21.966696
##ZVALUE=275
3.030896
3.168583
3.303885
3.265738
3.422499
3.601909
3.673434
3.792644
3.723502
3.735423
4.115701
4.253983
4.580617
4.770756
5.150437
5.233884
6.513596
6.742477
7.913709
24.664998
98.313689
292.657018
883.650780
1015.636921
1015.636921
1015.636921
1015.636921
1015.636921
1015.636921
1015.636921
1015.636921
1015.636921
1015.636921
1015.636921
873.779058
321.648717
142.862797
81.846714
96.135736
121.154785
141.241550
158.685446
165.010691
159.025788
145.430565
118.536949
95.913410
72.157979
52.850842
38.391948
30.235648
23.512840
21.780729
21.248460
21.286607
20.193458
20.656586
21.070838
20.531416
21.205544
20.958781
20.829439
21.251440
20.933747
22.530556
22.567511
23.229718
25.157928
27.440786
32.104850
34.512877
39.122701
42.222738
45.805573
45.620799
45.706630
44.945478
40.473938
37.931800
34.228563
30.982494
27.907491
26.433468
23.993850
23.197532
22.218823
21.072626
21.179914
21.930933
21.061897
21.101832
20.053983
19.782782
20.033717
20.077825
20.628572
##ZVALUE=280
2.969503
2.820492
3.087521
3.080964
3.185868
3.391504
3.269911
3.454685
3.508925
3.756881
3.776550
3.940463
4.453659
4.109740
4.324913
4.939437
5.033612
5.671978
6.321669
6.498694
7.796884
13.292432
55.059791
273.546576
655.692816
1015.605927
1015.605927
1015.605927
1015.605927
1015.605927
1015.605927
1015.605927
1015.605927
1015.605927
1015.605927
1015.605927
1015.605927
490.117669
211.559534
79.906583
72.779655
97.607970
116.899610
143.195987
156.202912
160.816908
154.687762
140.163898
120.685697
93.358755
74.468851
51.509738
39.823651
29.199719
24.230480
20.743608
20.586848
20.270944
20.172000
19.396544
19.893646
19.373894
19.339919
20.406842
20.559430
20.193458
22.460818
23.787618
25.005937
28.113723
30.767918
35.615563
37.449598
40.630698
39.614439
39.400458
39.033890
34.770966
33.226609
30.261874
27.360916
25.438666
23.204684
21.334887
20.665526
20.108819
19.642711
18.849969
20.042658
19.905567
19.072890
19.008517
19.125938
18.607974
18.823743
18.657446
##ZVALUE=285
2.927780
2.860427
3.004670
2.834797
3.325939
3.023744
2.951622
3.099442
3.124475
3.610849
3.428459
3.505945
3.868937
4.124641
4.100800
4.588962
4.721880
5.084872
5.248785
5.609989
6.197691
6.263852
8.136630
9.670854
32.843947
121.780634
434.895754
917.589664
1015.625596
1015.625596
1015.625596
1015.625596
1015.625596
1015.625596
1015.625596
1015.625596
1015.625596
1015.625596
1015.625596
844.767094
394.360423
118.174553
60.861707
70.139766
88.181496
116.786957
133.964419
150.818825
155.890584
152.072906
140.732527
118.287802
98.541975
71.258545
53.712726
36.443472
29.118657
22.772551
20.430684
19.336939
19.691586
19.121766
19.254684
19.260645
19.497871
19.872785
20.492673
21.242499
23.501515
26.419759
28.675795
31.505823
33.628941
35.701990
36.992431
35.820603
33.677816
31.845570
29.188991
26.573539
24.487972
23.038983
21.675825
20.674467
19.771457
18.825531
19.173622
18.085837
18.406510
18.494725
18.490553
17.352700
17.607808
17.169714
17.287731
16.891956
##ZVALUE=290
2.913475
2.715588
2.755523
3.074408
2.750754
3.090501
3.141761
2.984405
3.235936
3.404617
3.521442
3.296733
3.645420
3.543496
3.794432
3.836751
3.967881
4.478693
4.718900
4.698634
5.232692
5.857944
6.310940
6.808639
7.995963
9.522438
14.384985
49.059391
245.424509
611.622930
1015.609503
1015.609503
1015.609503
1015.609503
1015.609503
1015.609503
1015.609503
1015.609503
1015.609503
1015.609503
1015.610099
1015.610099
647.630692
205.947757
76.380968
52.930713
64.486861
84.707737
104.775429
131.026506
144.233704
152.975917
152.677894
136.156678
119.741559
91.292858
68.814754
49.257874
37.240982
27.894974
22.611618
19.517541
18.878579
18.108487
19.059777
18.664598
18.707514
19.864440
22.547841
24.498701
26.448965
28.775930
31.442642
32.311678
31.900406
31.069517
29.000640
26.940703
25.030971
22.439957
21.571517
19.271970
19.183755
18.433928
17.804503
17.285943
17.290711
17.288923
17.553568
18.044710
16.865730
16.297698
16.384721
15.808940
16.294718
15.717745
##ZVALUE=295
2.601743
2.634525
2.719760
2.881885
2.881885
2.786517
2.927780
2.845526
3.116727
3.000498
2.967715
3.097653
3.307462
3.183484
3.798604
3.423691
3.793836
3.928542
4.123449
4.391670
4.651546
4.902482
5.356669
5.787611
6.475449
7.019639
8.104444
9.224415
10.956526
21.294951
87.913871
398.320556
913.096666
1015.599966
1015.599966
1015.599966
1015.599966
1015.599966
1015.599966
1015.599966
1015.599966
1015.599966
1015.599966
1015.599966
945.757627
324.818492
125.099421
47.980547
47.752857
63.460469
79.188943
103.635788
120.913982
140.403509
146.894455
142.358541
131.505728
111.039877
92.461705
67.164898
51.843524
35.086870
27.173758
22.108555
19.292831
18.571615
17.948747
19.455552
20.745993
23.070574
25.162697
27.081966
28.658509
29.005408
29.453635
27.602911
26.378632
24.267435
22.539496
20.283461
19.024611
18.292665
17.224550
16.887784
16.817451
16.266704
16.649961
16.529560
16.596913
15.660524
15.688539
15.717745
15.607476
15.210509
15.040636
14.898777
##ZVALUE=300
2.651811
2.840757
2.777576
2.537966
2.803802
2.763867
2.741814
2.459884
2.764463
2.925992
2.810955
3.021955
3.003478
3.234744
3.426671
3.533959
3.552437
3.727674
4.036427
4.219413
4.356503
4.566908
4.708767
5.289912
5.582571
5.931854
6.266832
6.694794
8.041859
8.369684
9.621978
12.042522
51.587820
206.442475
744.208694
1015.606523
1015.606523
1015.606523
1015.606523
1015.606523
1015.606523
1015.606523
1015.606523
1015.606523
1015.606523
1015.606523
1015.606523
726.062655
221.126676
78.244805
39.628744
43.771863
57.023764
72.609782
95.822811
114.923716
130.536556
138.585567
137.168765
129.166842
108.605623
89.405775
66.637993
50.980449
36.376715
28.661489
22.100806
20.116568
20.922422
21.552444
23.980737
25.800467
27.552843
27.542710
27.947426
26.559830
24.200678
22.662878
20.505786
19.795895
18.699765
17.423630
16.945601
16.275644
16.572475
16.214848
15.390515
16.082525
15.259981
15.403628
15.896559
15.091896
14.782548
14.929771
14.537573
14.533997
##ZVALUE=305
2.512932
2.416968
2.766848
2.597570
2.502799
2.640486
2.735853
2.809763
2.569556
2.969503
2.735853
2.813935
3.101826
2.713799
3.216863
3.244877
3.175735
3.391504
3.586411
3.849864
3.960729
3.970861
4.431605
4.523993
5.061626
5.173683
5.385876
5.888939
6.497502
7.196665
7.813573
8.420944
9.281635
11.557937
22.114515
149.983764
439.291596
1015.605927
1015.605927
1015.605927
1015.605927
1015.605927
1015.605927
1015.605927
1015.605927
1015.605927
1015.605927
1015.605927
1015.605927
945.419669
460.129976
125.559568
45.560002
35.933852
41.573644
55.559874
70.119500
92.046857
107.066631
125.546455
130.589604
129.545927
120.148659
102.456808
86.755753
64.381957
49.068928
35.785437
28.614998
25.202632
24.707913
25.674701
26.298761
27.008653
25.714636
24.722815
23.145676
20.750761
19.534826
18.160939
17.417669
16.421676
15.979409
15.697479
15.969872
14.935732
15.456676
15.168786
15.027523
14.858842
14.509559
14.699697
14.406443
14.175773
13.592839
13.870597
##ZVALUE=310
2.552867
2.674460
2.427697
2.546906
2.611876
2.510548
2.645850
2.717972
2.620816
2.716780
2.888441
2.626777
2.789497
2.904534
2.904534
3.045797
3.193617
3.342628
3.163815
3.557801
3.678799
3.886819
4.234910
4.158616
4.431605
4.653931
4.974604
5.117655
5.473495
5.875826
5.662441
6.864667
7.348657
8.575916
9.451509
10.814667
12.952685
65.575838
233.229995
807.443857
1015.605927
1015.605927
1015.605927
1015.605927
1015.605927
1015.605927
1015.605927
1015.605927
1015.605927
1015.605927
1015.605927
1015.605927
838.811994
256.455541
81.313848
33.226609
32.766461
38.980842
47.940612
64.963698
80.235004
100.664496
114.698410
124.404430
124.518871
116.407871
103.690624
84.095001
68.373680
50.450563
41.534901
33.801794
30.345917
27.198792
26.165843
23.739934
21.957755
20.301938
18.636584
17.290711
16.195774
15.955567
15.203953
14.910698
14.827847
14.927983
14.919639
14.418960
14.583468
14.154911
14.153719
13.956428
13.458729
13.702512
13.369918
13.259649
##ZVALUE=315
2.419949
2.479553
2.382994
2.608895
2.536774
2.534986
2.487898
2.783537
2.729893
2.593994
2.705455
2.716780
2.980828
3.000498
2.907515
2.831817
2.932549
3.031492
3.240705
3.381968
3.619790
3.475547
3.712773
4.036427
4.305840
4.327893
4.500747
4.779696
5.026460
5.160570
5.516410
5.625486
6.272793
6.763935
7.050633
8.252859
9.285808
10.308623
11.955500
29.215813
119.509101
529.872775
1015.605927
1015.605927
1015.605927
1015.605927
1015.605927
1015.605927
1015.605927
1015.605927
1015.605927
1015.605927
1015.605927
1015.605927
1015.605927
421.575904
143.854618
39.073825
30.465722
31.316876
36.319494
48.026443
58.994889
76.997876
92.895627
109.706521
117.572546
119.208694
113.347769
98.884702
85.133910
68.366528
55.923462
42.200685
34.358501
26.492476
23.179650
20.137429
17.900467
16.256571
15.982985
15.373826
15.198588
14.702678
14.206767
14.119744
14.349818
14.533997
14.284849
14.012456
13.762712
13.508797
13.031960
13.148785
13.058782
12.878776
##ZVALUE=320
2.338886
2.440810
2.421737
2.505779
2.386570
2.439618
2.480745
2.613664
2.584457
2.480745
2.512932
2.576709
2.664924
2.556443
2.758503
3.001690
2.991557
2.969503
3.114939
3.209710
3.330708
3.168583
3.422499
3.643632
3.631711
3.805757
3.986955
4.432797
4.489422
4.708767
4.765987
5.021691
5.526543
5.922914
6.293654
7.132888
7.469654
8.327961
9.003878
10.248423
11.842847
16.064644
52.109361
303.593874
798.041821
1015.605927
1015.605927
1015.605927
1015.605927
1015.605927
1015.605927
1015.605927
1015.605927
1015.605927
1015.605927
1015.605927
1015.605927
724.335909
290.659666
64.988732
31.486750
28.063655
29.107928
33.786893
41.367412
55.578947
70.021749
89.534521
102.719665
115.359426
116.345882
111.025572
101.717710
82.508922
67.908764
48.960447
38.291812
27.083755
21.710992
17.505884
15.715957
15.129447
14.917850
14.385581
14.561415
14.147758
14.087558
13.814569
14.067888
13.691783
13.461709
12.894869
12.749434
12.879968
13.097525
12.558699
##ZVALUE=325
2.246499
2.229810
2.543926
2.420545
2.339482
2.199411
2.505779
2.628565
2.563000
2.629757
2.609491
2.738833
2.685785
2.525449
2.793670
2.593994
2.794862
2.715588
3.079772
2.970695
3.048778
3.169775
3.550649
3.420711
3.523827
3.563762
3.829598
3.900528
4.282594
4.534721
4.555583
4.995465
4.837513
5.255938
5.359650
5.751848
6.289482
6.763935
7.230639
8.147955
8.775592
9.906888
10.890961
13.181567
29.559731
207.886100
563.157797
1015.605927
1015.605927
1015.605927
1015.605927
1015.605927
1015.605927
1015.605927
1015.605927
1015.605927
1015.605927
1015.605927
1015.605927
964.056849
458.323956
110.244751
38.688779
27.418733
26.465654
28.498769
32.541752
41.818619
54.020882
74.059963
88.407993
104.557872
111.053586
111.611485
106.198788
89.395642
75.003505
56.983829
43.446422
30.447841
23.504496
18.099546
16.526580
15.135407
13.980865
14.254451
13.876557
13.233423
13.302565
12.908578
13.128519
12.574792
12.331605
11.859536
11.886954
11.924505
##ZVALUE=330
2.357960
2.408624
2.312660
2.566576
2.587438
2.333522
2.488494
2.586842
2.652407
2.696514
2.642870
2.459884
2.514720
2.669692
2.667904
2.665520
2.867579
2.855659
3.001690
3.068447
3.197789
3.149509
3.507733
3.377795
3.382564
3.668666
3.513694
3.827810
3.756881
3.868937
4.029870
4.063845
4.598498
4.633665
4.825592
4.991889
5.305409
6.104708
6.422997
6.789565
7.598996
8.010864
8.917451
9.831786
11.021495
13.045669
17.294884
89.808702
307.793021
964.627862
1015.671492
1015.671492
1015.671492
1015.671492
1015.671492
1015.671492
1015.671492
1015.671492
1015.671492
1015.671492
1015.671492
1015.671492
745.452642
221.336484
66.360831
27.826428
26.423931
26.120543
28.533936
34.806728
42.941570
57.237744
69.752932
87.790489
97.609758
104.002953
102.924705
93.793869
84.110498
66.787601
53.601861
38.280487
30.336976
22.561550
18.248558
15.756488
15.031695
13.645887
13.523698
12.918711
12.964606
12.571812
12.595654
12.139678
12.294650
12.053847
##ZVALUE=335
2.271533
2.195835
2.357960
2.160668
2.222657
2.177954
2.356768
2.325773
2.328753
2.474785
2.593994
2.413988
2.368689
2.364516
2.539754
2.485514
2.646446
2.700686
2.749562
2.811551
2.705455
3.078580
3.178716
3.139973
3.305674
3.169775
3.277659
3.373623
3.645420
3.719926
3.820658
3.923774
3.903508
4.339814
4.315972
4.709959
4.709959
5.174875
5.348921
5.939603
6.051660
6.617904
6.990433
7.730722
8.376837
9.635687
10.755658
12.444854
13.946891
39.311647
157.184601
665.951967
1015.605927
1015.605927
1015.605927
1015.605927
1015.605927
1015.605927
1015.605927
1015.605927
1015.605927
1015.605927
1015.605927
1015.605927
1015.605330
356.930494
115.546584
35.283566
28.705597
27.946830
28.507710
31.552911
35.492778
44.254661
52.501559
65.818429
76.381564
88.395476
92.426538
92.735887
87.961555
76.233745
64.774752
50.735474
40.247440
29.309988
23.165941
18.124580
15.456676
14.251471
13.331771
12.705922
12.301803
12.093782
12.136698
11.522770
##ZVALUE=340
2.417564
2.200603
2.169609
2.529621
2.420545
2.550483
2.507567
2.518892
2.416968
2.453923
2.460480
2.743602
2.410412
2.507567
2.690554
2.743602
2.736449
2.639890
2.761483
2.934933
2.877712
2.981424
2.994537
2.940893
3.254414
3.459454
3.214478
3.459454
3.477931
3.505945
3.757477
3.906488
4.242659
3.860593
4.308820
4.401803
4.542470
4.780889
5.024672
5.008578
5.279779
5.980730
6.181598
6.672740
7.089972
7.823706
8.443594
9.082556
10.271668
12.201667
13.142824
20.810962
77.748895
420.377851
968.471766
1015.751958
1015.751958
1015.751958
1015.751958
1015.751958
1015.751958
1015.751958
1015.751958
1015.751958
1015.751958
1015.751958
1015.751362
587.363839
197.234750
45.158863
31.907558
30.512810
29.519796
29.138923
29.942989
32.837987
37.101507
47.137737
57.121515
72.080493
79.868436
87.186694
86.988807
81.776977
73.304772
61.073899
49.488544
37.467480
29.736757
22.116899
18.189549
15.003681
13.434887
12.453794
12.337565
11.742711
##ZVALUE=345
2.187490
2.173781
2.355576
2.218485
2.332926
2.212524
2.297759
2.287626
2.314448
2.223849
2.416968
2.359748
2.576709
2.504587
2.440810
2.613664
2.815723
2.726912
2.597570
2.881885
2.839565
2.633929
2.914667
3.003478
3.137589
2.989769
3.130436
2.971888
2.989769
3.209710
3.286600
3.512502
3.686547
3.760457
3.673434
4.139543
4.208684
4.253983
4.525781
4.736781
4.920959
5.372763
5.598664
5.638599
6.106496
6.608963
7.215738
7.681847
8.202791
9.141564
9.409785
11.139512
12.581944
15.180707
34.771562
243.320465
700.655580
1015.605927
1015.605927
1015.605927
1015.605927
1015.605927
1015.605927
1015.605927
1015.605927
1015.605927
1015.605927
1015.605927
1015.605927
883.721709
347.518921
82.647800
38.398504
31.670928
30.083656
26.673675
25.122762
24.284720
26.302934
33.078790
40.102005
53.539872
63.223839
74.341893
79.377890
81.441998
78.158975
69.430470
60.861707
47.983527
38.502812
27.851462
22.295713
17.287731
14.751554
13.006926
##ZVALUE=350
2.308488
2.437830
2.410412
2.341866
2.489686
2.387762
2.257824
2.549887
2.543926
2.500415
2.678633
2.740622
2.516508
2.581477
2.866983
2.760887
2.765656
2.816916
2.720952
2.680421
2.828836
2.892613
3.050566
2.863407
3.062487
2.942681
3.186464
3.134608
3.281832
3.391504
3.499985
3.452897
3.563762
3.635883
3.874898
4.007816
4.223585
4.290938
4.297495
4.549623
4.442930
4.756451
4.936457
5.449653
5.490780
5.867481
6.245971
6.689429
7.128716
7.663965
8.482933
9.108782
10.085702
10.996461
12.646914
14.522672
21.171570
119.400024
406.959653
1015.605927
1015.605927
1015.605927
1015.605927
1015.605927
1015.605927
1015.605927
1015.605927
1015.605927
1015.605927
1015.605927
1015.605927
1015.605927
578.116775
127.600431
45.071840
30.219555
26.956797
23.941994
22.016764
20.978451
21.772981
25.915504
30.467510
38.526654
46.495795
57.854652
66.694617
73.050857
74.967742
72.291493
66.753626
55.954456
46.715736
35.104752
28.287768
21.119714
##ZVALUE=355
2.664924
2.719760
2.848506
2.694726
2.555847
2.726912
2.715588
2.728701
2.620816
2.774596
2.822876
3.099442
2.957582
2.853870
2.999902
2.811551
2.850890
2.948642
3.047585
3.156662
3.143549
3.140569
3.299713
3.382564
3.370643
3.344417
3.382564
3.410578
3.677607
3.575683
3.769994
3.758669
3.886819
4.179478
4.185438
4.111528
4.234910
4.146695
4.486442
4.672408
4.608631
4.819632
5.023479
5.404949
5.558729
5.793571
6.050467
6.355643
6.798506
7.316470
7.630587
8.261800
9.037852
9.789467
10.124445
11.737943
12.820959
14.207959
16.876459
57.302713
223.146677
897.171497
1015.608907
1015.608907
1015.608907
1015.608907
1015.608907
1015.608907
1015.608907
1015.608907
1015.608907
1015.608907
1015.608907
1015.608311
789.099932
200.273991
61.414838
30.013919
27.074814
24.185777
22.709966
20.925999
20.223856
21.072626
23.222566
28.148890
34.397840
43.680668
51.813722
60.521960
66.468716
69.158673
67.203641
62.100887
54.777861
44.825673
##ZVALUE=360
2.755523
2.845526
3.054738
2.732873
2.924800
2.927780
3.054738
3.008842
3.048778
2.903938
2.977848
2.992749
3.268719
3.152490
3.216863
3.257990
3.152490
3.115535
3.086925
3.434420
3.560781
3.613830
3.558993
3.749728
3.675818
3.778934
3.736615
3.644824
3.763437
3.745556
3.983974
3.910661
4.133582
4.337430
4.265904
4.500747
4.613996
4.637837
4.708767
4.979968
4.915595
5.098581
5.158782
5.411506
5.619526
5.896688
5.976558
6.399751
6.633997
7.035732
7.100701
7.892847
8.242726
8.486509
9.022951
10.024905
10.657907
11.949539
12.902617
15.194416
16.975403
28.540492
99.948645
487.358570
1015.605927
1015.605927
1015.605927
1015.605927
1015.605927
1015.605927
1015.605927
1015.605927
1015.605927
1015.605927
1015.605927
1015.605927
1015.605927
399.569869
125.573874
35.179853
28.126836
25.161505
23.359656
21.321774
20.240545
19.508600
19.759536
21.167994
24.375916
30.295849
36.769509
46.218634
52.931905
59.607625
62.554479
62.643886
##ZVALUE=365
3.072619
3.025532
2.863407
3.045797
3.073812
2.978444
2.923608
2.956986
3.065467
3.144741
3.149509
2.851486
3.194809
3.435612
3.273487
3.331900
3.399849
3.382564
3.476739
3.316998
3.352761
3.462434
3.551841
3.697872
3.726482
3.799796
3.940463
3.736615
3.862977
4.056692
4.151464
4.270673
4.292727
4.245639
4.281998
4.398823
4.561543
4.509687
4.606843
4.801750
4.831553
4.945993
5.274415
5.420446
5.497932
5.838871
5.924702
5.912781
6.044507
6.475449
6.708503
7.052422
7.415414
7.844567
8.041859
8.784533
8.970499
9.838939
10.877848
12.063980
13.211966
15.514493
17.369986
20.779967
45.025945
282.398462
793.524981
1015.605927
1015.605927
1015.605927
1015.605927
1015.605927
1015.605927
1015.605927
1015.605927
1015.605927
1015.605927
1015.605927
1015.605927
644.803643
215.656757
44.452548
28.668642
24.821758
23.487806
21.185875
19.647479
18.197894
17.724633
17.422438
18.362999
21.248460
24.963617
31.846762
37.645698
45.823455
##ZVALUE=370
2.941489
2.859831
2.787709
2.879500
3.043413
2.942681
2.981424
3.056526
2.979636
3.069639
2.974868
3.039837
3.055930
3.293753
3.085732
3.031492
3.143549
3.183484
3.322959
3.297925
3.328919
3.263950
3.413558
3.271699
3.355742
3.416538
3.633499
3.487468
3.633499
3.743768
3.832579
3.737807
3.824830
3.906488
3.978610
4.168749
4.020929
4.304647
4.459620
4.413724
4.499555
4.445910
4.541874
4.673600
4.794598
5.015731
5.106926
4.990697
5.335808
5.667806
5.470514
6.054640
6.291866
6.187558
6.969571
7.109642
7.521510
7.993579
8.366704
9.274483
10.068417
11.396408
12.164712
14.074445
15.128851
17.835498
26.261806
155.833364
529.548526
1015.605927
1015.605927
1015.605927
1015.605927
1015.605927
1015.605927
1015.605927
1015.605927
1015.605927
1015.605927
1015.605927
1015.605927
929.239988
391.160846
84.874630
32.904744
24.676919
22.751689
20.443797
19.034743
17.788410
16.249418
15.584826
15.504956
16.509891
18.162727
22.237897
##ZVALUE=375
2.819896
2.733469
2.696514
2.768636
2.768636
2.688766
2.687573
2.824664
2.708435
2.929568
2.760887
2.885461
2.776980
2.826452
2.769828
3.140569
3.171563
2.989769
2.978444
2.928972
3.165603
3.136992
3.039837
2.982616
3.106594
3.057718
3.165603
3.130436
3.223419
3.206730
3.417730
3.278852
3.354549
3.393888
3.496408
3.732443
3.508925
3.591776
3.757477
3.887415
3.919601
3.991723
4.022717
4.131794
4.129410
4.193783
4.220605
4.399419
4.377961
4.659891
4.855990
5.189776
5.294681
5.455613
5.585551
5.930662
6.292462
6.533861
6.804466
7.261634
7.753968
8.302927
9.104609
10.001659
10.793805
12.386441
13.771653
16.379952
19.785762
73.335767
279.932618
961.988568
1015.601754
1015.601754
1015.601754
1015.601754
1015.601754
1015.601754
1015.601754
1015.601754
1015.601754
1015.601754
1015.601754
1015.601754
860.604644
224.239826
64.022541
26.251674
23.314953
20.902753
19.197464
17.457604
16.225576
15.056729
14.471412
13.956428
##ZVALUE=380
2.543926
2.475977
2.493858
2.427697
2.443790
2.516508
2.404451
2.543926
2.385974
2.718568
2.462864
2.278686
2.434850
2.482533
2.665520
2.722740
2.793670
2.582669
2.408624
2.743602
2.830625
2.836585
2.715588
2.745986
2.752542
2.773404
2.731681
2.826452
2.916455
2.940893
2.984405
3.060699
3.053546
3.165603
3.072619
3.141761
3.218651
3.466606
3.297925
3.345609
3.548861
3.668666
3.517866
3.589988
3.961921
3.810525
3.951788
3.890991
4.047751
4.114509
4.201531
4.536510
4.780889
4.877448
4.822612
5.351901
5.318522
5.601645
5.820990
6.217957
6.628633
6.815791
7.566810
8.279681
8.811951
9.696484
10.968447
12.427568
14.852881
17.445683
20.800829
33.596754
197.377801
644.046664
1015.582681
1015.582681
1015.582681
1015.582681
1015.582681
1015.582681
1015.582681
1015.582681
1015.582681
1015.582681
1015.582681
1015.582681
1008.126736
482.067466
101.399422
33.913851
23.507476
21.031499
18.675923
17.543435
15.871525
15.296936
##ZVALUE=385
2.314448
2.313852
2.432466
2.299547
2.286434
2.263784
2.189875
2.267957
2.497435
2.441406
2.342463
2.301931
2.448559
2.391934
2.407432
2.516508
2.549887
2.474785
2.591610
2.507567
2.446771
2.547503
2.422929
2.527833
2.558827
2.573729
2.505779
2.564788
2.871752
2.636909
2.785921
2.913475
2.776980
3.014803
3.146529
2.950430
2.938509
3.215671
3.129840
3.154874
3.286600
3.311634
3.428459
3.303885
3.455877
3.678799
3.574491
3.699660
3.734827
3.946424
4.057884
4.302859
4.342794
4.461408
4.638433
4.740953
4.918575
5.156994
5.370975
5.644560
5.921721
6.234646
6.565452
6.838441
7.420778
8.457899
9.295940
10.777712
11.851788
13.858676
15.360713
17.159581
19.019842
23.680925
70.673823
446.438789
1015.610695
1015.610695
1015.610695
1015.610695
1015.610695
1015.610695
1015.610695
1015.610695
1015.610695
1015.610695
1015.610695
1015.610695
1015.610695
870.220065
308.919549
55.463910
26.002526
20.889640
19.219518
17.581582
##ZVALUE=390
2.254844
2.276897
2.255440
2.153516
2.362728
2.153516
2.236962
2.415776
2.287626
2.290606
2.063513
2.276897
2.318621
2.501607
2.369881
2.328753
2.362728
2.304912
2.458692
2.387762
2.307892
2.563000
2.412796
2.403855
2.615452
2.563000
2.536774
2.506971
2.679825
2.578497
2.595782
2.723932
2.730489
2.812743
2.840757
2.970695
2.836585
3.071427
3.191829
3.345609
3.116727
3.246665
3.149509
3.385544
3.366470
3.619790
3.554821
3.807545
3.703833
3.871918
3.905892
3.978610
4.174709
4.212856
4.667640
4.501939
4.845858
4.800558
5.286932
5.166531
5.478859
5.982518
5.926490
6.520748
6.929636
7.670522
8.789897
9.581447
10.922551
12.415648
13.981462
14.753938
15.918612
16.377568
17.791986
19.273758
40.606856
188.694000
897.514820
1015.605927
1015.605927
1015.605927
1015.605927
1015.605927
1015.605927
1015.605927
1015.605927
1015.605927
1015.605927
1015.605927
1015.605927
1015.605927
489.893556
148.971677
31.375885
23.282766
##ZVALUE=395
2.175570
2.139807
2.229810
2.217889
2.216697
2.355576
2.433658
2.224445
2.315640
2.363920
2.368689
2.251863
2.445579
2.262592
2.439618
2.234578
2.224445
2.293587
2.410412
2.585649
2.414584
2.401471
2.502799
2.401471
2.600551
2.510548
2.520680
2.644658
2.739429
2.716780
2.773404
2.755523
2.786517
2.865791
2.844930
2.859831
3.018975
3.063679
3.094673
3.126860
3.192425
3.383756
3.430843
3.294945
3.474951
3.712773
3.548861
3.638864
3.708601
3.781915
3.780723
3.945827
4.019737
4.071593
4.464984
4.568696
4.711747
4.883409
5.168915
5.219579
5.352497
5.592704
6.035566
6.262660
6.610751
7.462502
7.954836
8.964539
10.069609
11.309981
12.450814
13.494492
13.551712
14.053583
14.462471
15.307665
16.512871
18.682480
24.676919
136.338472
527.014732
1015.605927
1015.605927
1015.605927
1015.605927
1015.605927
1015.605927
1015.605927
1015.605927
1015.605927
1015.605927
1015.605927
1015.605927
1015.605927
911.388397
256.341696
##ZVALUE=400
2.290606
2.215505
2.442598
2.145767
2.277493
2.180934
2.155900
2.234578
2.314448
2.109408
2.280474
2.254844
2.277493
2.293587
2.285838
2.325773
2.326965
2.288818
2.263784
2.398491
2.618432
2.498627
2.352595
2.535582
2.441406
2.653599
2.511740
2.656579
2.641678
2.713799
2.574921
2.729893
2.767444
2.918839
3.017783
3.016591
2.826452
3.168583
3.255606
3.209710
3.227592
3.305674
3.437996
3.547668
3.497601
3.402829
3.547668
3.698468
3.687739
3.773570
3.960729
3.876686
4.130602
4.149675
4.182458
4.438758
4.367828
4.738569
4.805923
4.829764
4.943609
5.478859
5.473495
6.074905
6.168485
7.012486
7.652640
8.675456
9.399652
10.628700
11.226535
12.254715
12.107491
12.383461
12.376904
13.122559
13.393760
14.621615
15.908480
18.536448
21.767616
68.791509
273.460746
960.437655
1015.606523
1015.606523
1015.606523
1015.606523
1015.606523
1015.606523
1015.606523
1015.606523
1015.606523
1015.606523
1015.606523
1015.606523
##END
