##TITLE=TAPF5
##FORMAT=SPECTACLE-ASCII V-1.2
##DATA TYPE=ULTRAVIOLET SPECTRUM
##SECOND TYPE=ULTRAVIOLET SPECTRUM
##DATE=12/04/17
##TIME=10:27:16
##SPECTROMETER/DATA SYSTEM=SPECTACLE
##XUNITS=NM EM
##YUNITS=ENERGY
##YFACTOR=1
##FIRSTX=220
##LASTX=410
##NPOINTS=96
##3DDATA=Equidistant
##ZUNITS=NM EX
##FIRSTZ=210
##LASTZ=400
##ZPOINTS=39
##XYDATA=(Y..Y)
##ZVALUE=210
11.004806
11.973977
7.983446
9.123683
8.227825
7.673502
7.190704
6.136894
5.220771
4.510880
3.495812
2.691746
2.583861
2.635717
2.453923
2.954602
2.787709
2.895594
2.872944
3.243685
3.298521
2.876520
4.109740
4.491806
4.828572
6.401539
6.924868
8.284450
9.166598
10.025501
10.954738
11.445880
11.874437
11.086464
12.299418
11.282563
10.569692
11.957884
11.204481
10.731816
11.360645
11.040568
10.209680
9.693503
10.367632
9.311438
9.825826
8.813739
9.136796
9.169579
9.223819
9.543896
8.580685
9.791851
9.412766
9.007454
10.250807
9.640455
9.605885
8.790493
8.703470
8.415580
9.104609
9.891987
10.043979
11.053681
9.273887
10.786653
11.600852
13.029575
14.503598
16.370416
18.568635
19.925833
21.943450
24.200678
23.906827
23.455620
24.093986
20.601749
21.320581
19.368529
17.558932
13.838410
14.214516
10.276437
9.988546
8.466840
8.718967
9.516478
10.296702
10.608435
13.989806
17.198920
17.327666
23.022890
##ZVALUE=215
37.314892
35.433769
30.138493
22.908449
16.299486
15.615821
14.729500
13.730526
13.253689
12.014508
10.935664
8.411407
6.529689
4.580617
3.991723
2.866983
2.347827
3.039837
3.310442
3.085732
2.843738
3.475547
3.908873
4.855990
5.558729
6.642938
7.721782
10.202527
10.719895
13.245940
14.644861
14.216900
15.106797
16.828775
14.739633
15.328526
14.173985
15.664697
14.146566
14.581680
11.220574
12.909770
11.353493
11.310577
11.892915
11.293888
11.255741
9.921789
9.575486
11.424422
10.479689
9.861588
9.382963
8.617640
10.621548
10.045767
9.685755
10.850430
10.781884
9.417534
8.814931
10.212660
9.264946
9.217858
10.079741
9.814501
9.303689
10.643601
11.520982
12.493730
12.648702
14.687777
15.416741
15.818477
19.442439
20.334721
20.038486
18.912554
18.419623
16.959906
17.255545
15.095472
13.800859
11.507869
11.252761
9.634495
8.668900
7.028580
7.656813
7.256866
6.735921
6.127954
6.989837
7.202625
9.702444
10.663867
##ZVALUE=220
91.055632
89.363456
86.617470
76.465607
63.655972
45.990944
36.907792
27.513504
22.673607
22.402406
22.029877
21.702647
19.011497
18.676519
12.893677
10.662675
8.637905
5.421638
3.912449
3.959537
3.235936
3.451705
3.894567
4.795790
6.109476
8.011460
9.288788
10.936856
11.404753
14.201999
16.334653
14.965534
18.971562
17.889738
17.168522
18.844604
18.069744
17.049909
16.847849
15.507936
14.034510
13.819933
12.540817
13.051629
13.538599
12.216568
11.272430
11.399984
10.680556
11.062622
10.824800
11.423826
11.217594
12.577772
10.863543
11.295676
11.298656
10.852814
10.618567
10.878444
11.086464
11.837482
10.906458
11.584759
9.909868
11.696815
11.488795
11.528730
11.728406
12.857914
13.479590
15.731454
16.197562
16.590953
17.277598
19.603968
18.983483
17.624497
17.034411
16.994476
15.435815
13.973713
12.926459
10.849833
11.008978
9.388924
8.647442
8.175969
7.898808
7.861853
6.878972
7.595420
7.828474
7.468462
6.748438
7.001758
##ZVALUE=225
121.058822
123.970509
143.409967
158.910751
154.632926
139.043927
116.134882
87.185502
66.549778
51.363707
38.598776
37.300587
38.203597
37.464499
37.662983
34.958720
27.044415
22.406578
16.369820
10.070801
7.016659
4.292727
4.650950
4.826784
6.062984
7.131696
8.423924
9.391904
11.614561
11.978745
12.611747
11.916757
13.997555
14.426708
16.338825
15.811920
15.024543
14.752746
13.698936
15.751719
14.247894
13.686419
13.088584
13.468862
13.948679
11.753440
11.800528
12.486577
12.134910
12.470484
12.844801
13.486743
12.188554
12.698770
12.931824
14.356971
13.994575
13.975501
14.067888
13.849735
13.633966
14.549494
13.853908
13.591647
13.959408
14.333725
14.296770
13.962984
15.592575
15.094876
17.221570
17.987490
16.903877
17.438531
18.248558
17.740726
18.915534
18.916726
16.641617
17.894506
15.460849
14.859438
14.024973
12.621880
11.949539
10.387897
10.364652
8.955598
10.270476
8.345842
8.131862
8.928776
7.325411
7.760525
8.940697
8.054972
##ZVALUE=230
83.629489
90.269446
127.074718
194.854736
227.295756
256.105661
267.517567
248.703957
207.376480
165.329576
111.779571
83.740950
61.338544
57.081580
56.750774
61.896443
61.475635
57.991743
49.370527
38.916469
31.111836
19.695759
12.669563
7.847548
6.416440
6.671548
6.455779
6.835461
7.606745
8.472800
8.092523
10.096431
9.543896
9.758472
9.991527
10.034442
11.453629
10.579824
11.053681
12.273788
12.255907
11.719465
11.942983
11.919737
12.435913
13.248920
13.397932
13.296604
13.713837
15.435815
14.428496
14.928579
16.573668
17.286539
18.221736
18.499494
17.733574
19.255877
17.314553
19.015670
18.779635
18.894672
19.600987
19.217730
20.937920
20.359755
19.628406
19.508600
19.653440
19.437671
21.895766
22.761822
23.312569
24.631619
22.813678
23.237467
21.952987
22.044778
23.639798
18.992424
18.002987
16.635656
16.027689
15.994906
16.346574
14.702678
13.031960
13.667941
12.923479
12.776852
12.312531
12.739897
10.970831
11.772513
11.000633
10.810494
##ZVALUE=235
25.978684
29.167533
55.095553
121.502876
183.670521
271.784663
339.013934
406.529903
424.311757
407.785773
346.596837
281.037688
183.523893
139.373541
100.046992
83.468556
81.275702
87.122917
93.243718
95.206499
86.363554
73.670745
55.446625
38.538575
24.818778
16.629696
13.350844
9.748936
8.426905
7.698536
8.506775
7.838607
7.931590
8.212924
8.573532
8.325577
9.814501
10.003448
10.632873
12.249947
11.858940
12.351871
13.106465
13.839602
15.397668
15.835762
15.529990
16.544461
18.706918
19.148588
20.294785
20.718575
20.426512
22.441745
23.173690
25.460720
23.120642
24.785995
25.662780
25.373697
25.704503
25.765896
25.859475
25.217533
27.303696
24.638772
28.088689
25.637746
24.643540
27.922988
29.863715
29.088855
30.494928
31.000972
31.457543
29.608607
29.103756
30.878782
27.536750
24.172664
24.999976
22.351742
22.887588
22.520423
19.666553
19.363761
18.588901
17.059445
16.265512
16.047955
16.295910
17.296672
14.827847
14.671683
13.190508
14.072657
##ZVALUE=240
2.252460
1.917481
8.933544
23.781657
63.331723
112.445951
212.223530
297.777653
434.123874
500.424504
560.495853
541.424751
495.817661
393.884778
301.610827
189.143419
137.544870
101.706982
93.617439
97.655654
112.293959
117.185712
113.289952
100.739598
84.328651
67.277551
48.359632
35.153627
20.650625
15.947819
12.942553
11.351705
11.886954
10.806918
11.150837
9.666681
11.399984
10.978580
12.018681
13.736486
13.058782
14.040470
15.964508
16.250610
17.368793
19.012690
19.848943
20.708442
22.615790
23.611784
26.535988
26.332736
25.876760
29.197931
28.422475
28.117895
28.786659
29.164553
30.208826
28.721690
32.647848
30.911565
30.488968
31.373501
30.896664
31.408668
33.161640
32.772422
31.534433
32.224655
33.215880
31.988621
34.199953
35.231709
33.968687
33.930540
30.488968
31.637549
29.995441
29.176474
27.764440
25.766492
27.021766
24.470687
22.860765
21.860600
20.369887
20.543933
20.959973
19.628406
18.095970
18.291473
17.615557
17.853975
16.416907
15.499592
##ZVALUE=245
1.366735
1.443624
1.356602
1.402497
4.302859
13.890862
46.547651
90.382695
200.960636
305.682421
453.494787
554.753542
624.556541
647.958517
614.074469
500.815511
396.751761
271.678567
190.111995
122.888684
102.648735
98.539591
114.476681
126.294494
131.704807
129.295588
112.338662
97.837448
73.320866
55.484772
43.168664
26.373863
20.421743
14.927983
13.281703
12.471676
12.597442
12.428761
13.448596
14.396906
14.487505
15.767813
18.204451
18.538833
19.302964
21.665692
22.271872
24.573803
26.432872
27.265549
28.741956
29.585958
29.420853
30.394793
31.465888
33.400655
31.170845
32.556653
31.507611
31.837821
31.549931
31.224489
31.091571
31.833649
31.589866
29.728413
29.258728
29.789805
31.045675
30.460954
29.835701
31.493902
30.630827
29.680729
29.655695
29.054880
29.933453
28.620958
27.728677
26.160479
25.602579
24.545789
23.499727
22.066832
21.137595
20.162463
19.843578
19.877553
18.533468
17.732978
16.642809
16.369820
16.153455
16.338825
15.381575
14.748573
##ZVALUE=250
1.209974
1.414418
1.257658
1.597404
1.590848
2.016425
2.604723
7.935762
35.352707
73.210001
174.177885
277.653933
403.921604
563.501716
657.966733
734.700561
723.799467
643.859506
538.585782
366.192460
249.274969
165.150762
105.075836
94.193816
104.305744
119.161606
134.034753
140.693784
137.363672
126.623511
109.546781
84.240437
64.359903
40.870905
30.423999
19.721985
15.754700
15.698671
14.425516
15.933514
15.192628
17.834902
18.844604
20.137429
20.938516
23.220778
23.932457
25.011897
25.552511
27.142763
28.530955
29.329658
30.072927
31.331778
30.129552
30.011535
31.561852
31.019449
30.116439
28.802752
29.594898
28.801560
28.037429
27.923584
26.658773
26.280880
26.739836
26.086569
26.069880
26.167631
26.742816
25.380850
24.434924
25.310516
24.911761
24.204850
23.089647
22.471547
21.370649
21.121502
19.941926
19.188523
18.980503
18.267632
17.296672
15.847683
16.178489
15.675426
14.926791
14.044642
14.473796
14.536977
13.380647
13.492703
13.777614
12.717843
##ZVALUE=255
1.212955
1.138449
1.357794
1.207590
1.035929
1.126528
1.586676
1.498461
1.594424
4.079938
23.400784
54.642558
110.897422
237.625837
357.581973
545.434952
659.769773
765.037537
806.330442
744.618773
643.332601
506.103635
322.072506
208.676457
118.983984
94.255805
88.911653
102.178454
125.575662
136.222839
147.541761
144.937634
133.496523
108.354688
85.941553
62.405467
43.610930
27.330518
20.983815
16.960502
15.957952
15.997887
19.083619
18.708706
20.608902
21.272898
22.770762
23.582578
24.185777
26.417971
26.360750
26.654601
27.648807
26.197433
26.534796
26.362538
25.756955
25.802851
26.232600
25.788546
25.874972
24.331808
23.732781
24.059415
22.660494
22.883415
21.988750
21.561980
21.158457
21.336675
21.300912
20.825863
19.739866
20.675659
20.361543
19.739866
18.918514
17.776489
16.721487
17.472506
16.908646
14.786720
14.452934
14.475584
14.340878
13.845563
13.657808
13.360977
12.722611
12.370944
11.734962
11.595488
10.470748
11.396408
10.839701
11.256933
##ZVALUE=260
0.974536
1.004934
1.166463
1.322627
1.111627
1.277924
1.069903
1.461506
1.379848
1.547933
1.580715
2.439618
8.924603
34.995675
80.109835
186.175704
297.261477
477.579832
623.842478
800.620914
874.306560
872.552991
766.986012
625.267625
413.803458
284.117460
164.417624
108.444691
79.456568
83.023906
98.360777
124.130845
141.763687
150.829554
150.411725
132.953525
113.575459
84.093809
65.267682
42.846799
32.103658
22.807717
20.451546
18.863678
18.622875
19.394755
19.127727
20.968914
22.307634
22.571683
22.233725
22.735596
22.835732
23.229718
22.823811
23.411512
23.641586
22.477508
22.341609
21.658540
22.468567
19.931793
20.623803
19.039512
18.467903
18.858910
17.494559
18.486977
17.319918
17.918944
17.935634
18.281937
17.456412
17.275810
16.860962
16.441941
16.154647
16.212463
15.277863
14.751554
13.402700
13.458729
12.825727
11.818409
11.521578
11.373758
11.646748
11.055470
10.680556
10.491610
10.141730
9.826422
10.286570
9.378791
10.049939
9.524822
##ZVALUE=265
1.102686
0.921488
1.210570
1.069903
1.192689
1.316667
1.166463
1.089573
1.269579
1.203418
1.133680
1.686811
1.572967
2.005696
5.124807
24.300814
56.520700
144.471526
246.521831
449.768901
613.048673
739.367008
911.771655
946.767926
854.383707
736.912489
536.594987
379.061699
210.455656
132.761002
80.960989
70.028901
82.190633
104.974508
131.633878
146.682858
152.324438
148.012638
129.798651
111.984611
84.187984
64.463615
45.018792
32.515526
23.428798
19.970536
18.287897
18.203855
19.199848
19.394755
19.887686
20.989776
20.082593
19.778609
20.234585
20.182729
20.401478
20.219684
19.200444
19.044876
18.283725
18.885732
18.898845
18.307567
18.384457
17.171502
16.312599
17.218590
16.356707
16.216636
15.798807
15.878677
16.541481
16.269684
15.402436
15.521646
15.418530
14.718771
13.545752
13.084412
12.788773
12.594461
11.639595
11.782646
11.036992
11.231899
10.681748
9.852648
9.851456
9.682775
10.087490
9.463429
8.790493
9.491444
9.193420
8.690953
##ZVALUE=270
0.965595
0.923872
0.887513
1.075864
0.888705
0.980496
1.075864
1.200438
1.223683
1.015663
1.400709
1.179576
1.377463
1.460910
1.588464
1.658797
2.824664
9.310842
37.973523
93.069673
181.649923
376.112461
551.554561
774.200559
920.323730
1012.079716
988.192558
875.231028
730.308890
510.002971
354.322791
183.721781
109.654665
64.135790
61.836839
80.110431
103.046894
128.702521
144.553781
154.509544
150.354505
133.812428
113.871694
85.939765
67.525506
44.495463
32.658577
24.681687
20.664930
18.516779
18.435717
18.576980
18.448830
18.295646
19.149780
18.267632
18.945932
18.292665
18.516779
18.527508
17.818809
17.750859
17.204881
17.751455
16.953945
16.244650
16.322732
16.838908
16.287565
16.156435
16.161799
16.999841
15.971661
15.952587
14.990568
14.902949
14.853477
14.163852
13.484955
13.286471
12.249947
11.543632
11.207461
11.673570
10.595918
10.841489
10.254979
9.854436
9.404421
9.161830
9.332895
8.903742
8.480549
8.537769
8.817911
8.249879
##ZVALUE=275
0.856519
0.868440
0.782609
0.923872
0.784993
0.882745
0.977516
0.903606
1.071692
0.979900
1.040697
0.956655
1.241565
1.021624
1.145601
1.481771
1.368523
1.606941
1.580715
5.422831
19.325614
52.280426
150.544643
278.420448
505.470037
673.163533
878.702998
991.557837
1015.502810
980.561972
810.701847
639.977455
454.582572
245.919824
142.670870
67.652464
49.709678
58.944821
77.149868
105.151534
122.913718
143.681765
150.447488
145.168900
133.675933
109.549761
91.011524
65.602660
49.755573
32.993555
26.182532
20.789504
18.879771
18.129945
18.286705
17.726421
18.477440
17.826557
18.655658
18.512607
18.165708
17.835498
18.412471
17.816424
17.544627
17.159581
17.093420
16.552806
16.546845
16.688704
16.904473
16.392469
16.419888
15.961528
15.996695
15.034676
15.645623
13.849735
14.043450
13.265610
13.002753
12.577772
11.612773
11.125803
11.499524
10.975599
10.455847
9.999871
9.699464
9.298921
8.871555
8.441806
9.045601
8.169413
8.953810
8.727908
##ZVALUE=280
0.815988
0.808835
0.890493
0.801682
0.637770
0.714660
0.869632
0.866652
0.738502
0.892878
1.120567
0.988841
1.088977
1.030564
1.134872
1.375675
1.242757
1.137853
1.479983
1.514554
1.764894
2.019405
11.955500
39.253831
120.484829
220.801830
398.845673
579.998493
811.074972
960.106850
1015.502810
1015.502810
947.851539
721.091032
536.055565
308.853984
184.325576
83.735585
50.975680
41.557550
53.931475
78.763962
100.916624
125.722885
140.819550
146.496892
144.819617
130.143762
112.553835
85.538626
67.401528
45.638680
35.129786
25.747418
21.207929
18.921494
18.178821
18.600821
18.714666
17.799735
18.561482
18.381476
18.905997
18.076897
17.616749
18.244982
18.189549
17.334819
16.923547
16.719699
16.377568
17.356873
17.293692
16.658902
15.863776
15.889406
15.084743
14.507771
14.132857
13.356805
13.226867
12.246966
12.165904
11.516809
11.365414
11.144876
11.025667
10.439754
9.626746
9.470582
9.183884
9.074807
8.858442
8.374453
8.744597
8.008480
##ZVALUE=285
0.657439
0.654459
0.715852
0.731945
0.806451
0.707507
0.804663
0.830889
0.872612
0.857711
0.700951
0.734925
0.799894
0.902414
1.013875
1.111627
1.056790
1.155734
1.125932
1.411438
1.405478
1.610518
1.542568
1.794696
5.536675
20.416975
67.710876
136.070848
286.210775
449.837446
633.168817
858.225822
990.760922
1015.504003
996.980667
813.403726
641.040802
400.228500
250.448585
122.336745
65.521002
34.916997
35.227537
52.127838
71.331859
99.059939
116.840601
135.934949
142.677426
139.536858
131.870508
110.469460
91.413856
66.355467
50.519705
33.305883
26.398897
22.085905
20.220876
19.093752
19.271970
18.827915
18.757582
18.433928
18.482804
18.243790
18.430948
18.110871
18.429756
17.695427
17.799735
17.766953
17.278790
16.726851
16.275644
15.453696
15.423894
14.922619
14.114976
13.568997
13.197660
12.114644
12.305975
11.364818
11.599660
10.530949
10.714531
10.150671
9.895563
9.647608
9.376407
8.604527
9.285808
8.343458
7.728934
8.249879
##ZVALUE=290
0.711679
0.852942
0.746846
0.747442
0.729561
0.681877
0.786781
0.707507
0.738502
0.990629
0.738502
0.772476
0.781417
0.821948
0.983477
0.869632
0.953674
1.034737
0.998974
1.211762
1.168847
1.031756
1.337528
1.456738
1.544952
1.701713
2.421737
7.977486
37.935972
88.019967
169.009566
343.190432
521.471500
769.614577
927.248001
1015.502810
1015.502810
898.262858
738.173723
491.963625
328.807831
166.790485
88.854432
38.687587
26.236773
34.096837
45.957565
67.742467
89.634657
115.606785
131.580830
139.457583
140.738487
127.182603
111.283660
85.978508
68.022609
47.384501
37.436485
27.557611
23.257732
20.796657
20.036697
19.947886
18.930435
18.764734
18.667579
18.401742
18.959641
18.099546
18.111467
17.355680
16.939640
16.936660
16.456842
15.138984
14.729500
14.779568
14.267564
13.880730
13.230443
12.557507
12.218952
11.538863
11.339784
10.966659
10.650754
10.143518
9.775758
9.739995
8.841753
8.847713
8.873940
8.522868
8.406639
7.781982
##ZVALUE=295
0.749826
0.452995
0.516772
0.735521
0.696778
0.619888
0.741482
0.459552
0.766516
0.759959
0.790954
0.679493
0.735521
0.744462
0.720620
0.798702
0.860691
0.882745
0.823736
0.935793
0.963807
0.889897
1.160502
1.195669
1.393557
1.313686
1.669526
1.663566
1.854897
3.600717
19.103885
53.795576
119.109750
274.891853
430.719852
679.246783
847.931504
1004.339457
1015.461683
963.134766
826.964974
599.366426
417.316556
223.386884
123.506784
48.894882
26.632547
21.739602
28.809905
46.619773
63.164830
89.317560
107.665658
128.236413
134.648681
133.288503
125.850439
106.602907
89.175701
66.631436
51.555634
37.080646
29.215813
23.327470
20.689964
19.374490
18.373728
18.537641
17.718673
18.096566
17.997622
17.151833
16.391873
16.292930
15.642643
15.195608
14.850497
14.032722
13.638735
13.106465
12.603998
12.090802
11.800528
11.212826
11.017919
10.441542
9.716749
9.614825
9.480715
9.857416
8.883476
8.595586
8.400679
8.103848
8.025765
7.861853
##ZVALUE=300
0.617504
0.700951
0.671744
0.828505
0.690818
0.816584
0.771880
0.631809
0.775456
0.759959
0.694990
0.759959
0.600815
0.705719
0.724792
0.681877
0.770688
0.897646
0.818968
0.840425
0.735521
0.926852
0.954866
1.044869
1.029968
1.146793
1.319647
1.204610
1.530647
1.647472
1.558661
2.050996
7.573962
27.876496
92.698932
177.308917
352.272987
529.273748
768.066645
913.848877
1014.544964
1012.450457
878.117681
726.783872
484.620929
318.920016
163.688660
89.160800
35.292506
20.982623
22.279620
28.980970
44.801831
60.392618
83.643794
101.265907
122.969747
129.822493
130.137801
122.933984
106.969476
89.143515
67.600608
51.732659
37.742853
29.154420
22.879839
20.072460
18.358827
17.960668
17.046928
16.781688
16.145706
15.409589
15.217662
15.101433
14.004707
13.825893
13.751984
12.456775
11.957884
11.956692
11.367798
11.234879
10.871887
10.195971
9.600520
9.805560
9.367466
9.241700
8.471608
8.342862
8.057952
8.024573
7.957816
7.850528
##ZVALUE=305
0.587702
0.571609
0.636578
0.701547
0.557899
0.656843
0.586510
0.735521
0.642538
0.624657
0.610948
0.640750
0.690818
0.558496
0.667572
0.702739
0.769496
0.626445
0.881553
0.735521
0.901818
0.712872
0.902414
0.911951
1.147985
1.046658
0.995994
1.183748
1.062751
1.136661
1.248717
1.374483
1.700521
1.703501
3.942847
15.309453
61.605573
129.692554
281.430483
432.751775
663.738847
829.874873
988.096595
1015.502810
944.823027
803.444982
579.653978
410.207510
219.153762
123.267770
53.271651
27.871728
19.203424
21.521449
30.797720
42.202473
63.441992
80.260634
101.253986
114.975572
125.140548
126.447678
116.548538
102.975965
80.803633
65.095425
46.997666
35.670996
25.274754
20.686984
17.297864
16.470551
15.116930
15.260577
14.255643
13.798475
13.795495
13.206601
12.251735
12.111664
11.523962
11.426806
11.072755
10.605454
10.398626
10.110736
9.803772
9.179711
9.078979
8.800626
8.401871
8.238554
7.911921
7.888675
7.829666
7.630587
##ZVALUE=310
0.578761
0.407696
0.549555
0.621676
0.493526
0.563860
0.528693
0.416636
0.508428
0.601411
0.682473
0.661612
0.653863
0.690818
0.649691
0.574589
0.526905
0.684857
0.558496
0.611544
0.700951
0.671744
0.740886
0.686646
0.724792
0.819564
0.906587
0.998974
0.842810
1.002550
1.087785
1.198649
1.329780
1.287460
1.405478
1.471639
1.764894
8.499622
27.927756
92.251897
177.890658
349.963903
521.068573
754.847527
910.578966
1015.431881
1004.198790
882.377625
730.852485
497.592688
334.907770
172.895789
95.565915
39.376616
21.320581
17.059445
20.166636
28.323531
38.809776
56.089759
70.521832
91.575980
104.546547
114.235878
115.338564
108.311772
97.763538
78.402758
62.958002
43.608546
33.143759
23.777485
18.449426
14.857650
13.611913
12.444854
12.135506
11.564493
11.453629
11.300445
10.842681
10.340810
10.157824
10.306835
9.657741
9.321570
9.058714
8.721948
8.549690
8.486509
8.226633
8.165836
7.990599
7.587671
7.550716
7.463694
##ZVALUE=315
0.590682
0.540614
0.623465
0.517964
0.686646
0.598431
0.595450
0.577569
0.669956
0.505447
0.696778
0.599623
0.724792
0.782609
0.718832
0.680685
0.640750
0.658631
0.733733
0.841618
0.665784
0.756979
0.644922
0.949502
0.780821
0.815988
0.905991
1.167655
1.005530
1.099706
0.929832
1.022816
0.997782
1.200438
1.199841
1.458526
1.452565
1.549721
1.603961
3.739595
15.191436
61.787963
131.538510
282.045603
443.850756
693.379641
846.640468
984.005928
1015.551686
947.667956
820.555687
593.444705
419.551730
229.753852
128.468871
51.621795
26.034713
16.040802
15.926957
19.670725
25.022626
35.770535
47.934651
65.876842
81.131458
97.971559
105.838776
107.475519
102.275610
87.346435
72.438717
54.825544
42.340755
27.737617
20.224452
14.985800
12.665987
10.900497
10.388494
10.123849
9.926558
9.566545
9.405613
9.086728
8.777976
8.934736
8.757710
8.504987
8.165836
8.111596
7.597804
7.989407
7.690787
7.224679
7.267594
7.403493
##ZVALUE=320
0.530481
0.559688
0.512600
0.540614
0.625849
0.755787
0.760555
0.611544
0.681877
0.631809
0.653863
0.684857
0.571609
0.674725
0.757575
0.756979
0.517964
0.553727
0.743866
0.589490
0.668764
0.587702
0.644922
0.655651
0.875592
0.859499
0.947714
0.922680
0.826716
0.800490
0.820756
0.954866
1.047850
1.070499
1.038909
1.136661
1.176596
1.422763
1.348853
1.391768
1.673698
2.123713
5.936623
34.126639
87.209940
213.917494
344.117880
558.671951
734.837651
933.445692
1011.819839
1000.527740
909.405947
699.929595
520.016551
292.613506
172.026753
78.367591
39.260983
15.808940
12.584925
12.837648
14.599562
20.359755
27.605891
42.562485
56.684613
73.583722
86.994767
97.748637
99.034905
92.903972
83.348751
64.312816
51.797628
35.037994
25.438666
17.419457
13.702512
10.003448
9.307861
8.409619
8.155704
8.236766
8.103848
7.728934
7.570982
7.474422
7.692575
7.405877
7.380843
6.873608
7.157922
6.873608
7.012486
7.000566
##ZVALUE=325
0.467896
0.466704
0.523925
0.583529
0.497699
0.577569
0.517964
0.427961
0.498891
0.482798
0.450611
0.447631
0.519753
0.429749
0.529885
0.652671
0.503659
0.634789
0.772476
0.573993
0.644922
0.533462
0.715852
0.693798
0.766516
0.763535
0.670552
0.841618
0.779629
0.856519
0.866652
0.780821
0.822544
0.850558
0.976920
0.858903
0.923872
1.126528
1.142621
1.143813
1.182556
1.423955
1.476407
1.728535
3.383756
22.329688
59.677958
151.975751
267.512798
482.465625
657.420754
872.148871
974.138975
1012.966037
947.865844
753.109455
574.073792
355.612636
218.533874
98.331571
48.075914
17.575622
10.196567
8.566976
9.159446
12.028813
16.232729
26.240945
36.783814
54.077506
67.113638
81.804991
89.612603
90.856552
84.638000
72.696805
60.863495
45.033693
32.951832
21.608472
15.623569
10.680556
8.953810
7.684827
7.184744
7.301569
6.988645
6.822944
6.618500
6.814599
6.446838
6.576777
6.479621
6.504655
6.601810
6.484985
##ZVALUE=330
0.554919
0.517964
0.578761
0.505447
0.532866
0.508428
0.529885
0.567436
0.524521
0.511408
0.640750
0.486970
0.494719
0.470877
0.586510
0.532866
0.536442
0.623465
0.658631
0.616908
0.497699
0.744462
0.652671
0.689626
0.656843
0.776649
0.557899
0.621676
0.601411
0.729561
0.801682
0.653863
0.765920
0.809431
0.808835
0.830889
0.946522
1.006722
1.126528
1.022816
1.057982
0.987649
1.179576
1.174808
1.373887
1.603961
2.045631
9.236932
31.490922
103.649497
195.193887
378.252864
547.126532
775.715709
917.927623
1004.716754
975.282788
818.058848
660.125017
436.104536
280.994773
133.017898
68.552494
24.837852
11.405945
7.260442
7.045865
7.831454
10.136962
16.109943
22.807717
34.740567
46.346784
64.079762
74.761510
83.264709
84.667802
78.946948
70.071816
55.449605
42.534471
29.048920
21.273494
14.629960
11.232495
8.484721
7.389784
6.832480
6.560683
6.617904
6.555915
6.376505
6.237626
5.971789
6.015897
6.048679
##ZVALUE=335
0.520945
0.592470
0.384450
0.383854
0.547767
0.532866
0.480413
0.389814
0.479817
0.597835
0.526905
0.643730
0.671744
0.500679
0.520945
0.717640
0.442863
0.565648
0.596642
0.672936
0.561476
0.642538
0.704527
0.722408
0.544786
0.601411
0.505447
0.607967
0.730753
0.786781
0.642538
0.710487
0.849962
0.871420
0.880957
0.807643
0.774860
0.975728
0.854731
0.910759
0.920892
0.932813
0.902414
1.063943
1.047850
1.279712
1.372695
1.549721
1.619458
4.224777
16.257763
65.016747
137.756467
294.819474
459.091663
701.560974
853.336453
972.595811
989.454985
889.440775
748.698711
519.812703
355.551839
184.620619
97.671747
34.144521
14.886856
7.609725
6.863475
6.831884
7.669926
10.013580
13.755560
23.314953
31.927824
47.192574
58.264732
70.031881
76.295733
77.745914
74.822903
63.497424
53.863525
39.270520
30.316710
20.479560
15.078783
10.406971
8.671880
6.774664
6.357431
6.026626
6.031990
5.720854
5.796552
5.779862
##ZVALUE=340
0.452995
0.475645
0.580549
0.598431
0.562668
0.620484
0.491738
0.561476
0.542998
0.539422
0.583529
0.522733
0.615716
0.564456
0.432730
0.440478
0.566840
0.476837
0.562668
0.736713
0.651479
0.544786
0.514984
0.502467
0.579953
0.585914
0.638962
0.634789
0.792742
0.586510
0.684857
0.571609
0.652671
0.547767
0.715852
0.808835
0.759959
0.766516
0.683665
0.879765
0.805855
0.850558
0.912547
0.911951
1.021624
1.153946
0.995994
1.083612
1.214743
1.399517
1.561642
2.223849
7.387996
38.587451
92.471838
230.502486
376.575589
597.264767
762.205720
929.319859
980.301499
923.819542
807.725787
600.355864
427.705646
223.590732
125.266910
51.067472
21.191835
8.014441
6.727576
6.560683
6.365776
7.447600
9.146929
14.029741
20.412803
31.420588
42.598844
56.679845
65.839887
72.654486
73.118806
69.542527
62.307715
51.183701
40.527582
28.563738
21.576881
13.966560
10.528564
7.601976
6.589890
5.868673
5.632639
5.937815
##ZVALUE=345
0.479817
0.575781
0.516772
0.516772
0.407696
0.505447
0.562668
0.460744
0.400543
0.474453
0.531673
0.484586
0.568628
0.386834
0.505447
0.563860
0.349879
0.498891
0.445843
0.473857
0.550747
0.626445
0.582933
0.588894
0.616908
0.727773
0.569820
0.586510
0.627637
0.655651
0.599623
0.540614
0.703931
0.669956
0.670552
0.715852
0.631809
0.629425
0.713468
0.846982
0.711679
0.845790
0.875592
0.822544
0.890493
0.881553
0.943542
1.001954
0.892878
1.000762
1.366735
1.342893
1.313686
1.591444
3.010631
20.192862
57.896972
157.577991
283.137560
505.006909
679.765940
877.061486
956.342816
956.953764
873.173475
669.480562
499.797463
300.908685
172.473788
69.312453
31.624436
11.097789
7.032752
6.025434
5.892515
6.100535
6.527901
8.401871
11.618733
19.207597
27.392507
40.442944
49.412847
59.150457
64.923763
67.418814
65.177679
58.139563
50.080419
38.193464
29.106736
19.576550
14.483929
9.268522
7.521510
5.847812
##ZVALUE=350
0.551939
0.473857
0.367761
0.473857
0.400543
0.466704
0.416636
0.404716
0.453591
0.458956
0.329614
0.600815
0.436902
0.521541
0.638962
0.631809
0.499487
0.509620
0.606775
0.589490
0.494719
0.639558
0.457764
0.671744
0.585914
0.512600
0.481606
0.663996
0.554919
0.574589
0.598431
0.741482
0.706911
0.585914
0.658631
0.818968
0.739694
0.683665
0.817776
0.824928
0.712872
0.580549
0.740886
0.583529
0.631809
0.844598
0.741482
0.852942
0.820756
1.069903
1.053810
1.179576
1.207590
1.236796
1.360774
1.514554
1.796484
9.315610
31.342506
103.213787
198.884606
386.223793
553.790927
765.881538
885.734558
937.923789
890.893936
721.251965
557.837486
350.577831
213.235617
96.808672
45.469999
13.714433
7.107854
5.778670
5.578995
5.287528
5.114675
5.879998
7.658601
11.305809
16.533732
24.972558
33.129454
44.581890
52.135587
59.165955
61.235428
60.184002
55.108666
44.476986
37.334561
27.188659
20.628572
13.899803
##ZVALUE=355
0.342727
0.436902
0.536442
0.397563
0.528693
0.555515
0.479817
0.588894
0.562668
0.514984
0.503659
0.638962
0.510812
0.672936
0.541806
0.354648
0.461936
0.506639
0.481606
0.455976
0.517964
0.527501
0.587702
0.632405
0.575781
0.627637
0.619888
0.611544
0.667572
0.661612
0.599623
0.525713
0.570416
0.448823
0.570416
0.637770
0.637770
0.612736
0.802875
0.556707
0.670552
0.717640
0.857711
0.772476
0.798702
0.726581
0.808835
0.819564
0.912547
0.782609
0.948906
0.862479
1.069903
0.955462
1.256466
1.257658
1.067519
1.426935
1.601577
3.201962
18.285513
50.947666
135.848522
242.949724
448.078513
616.093874
799.835920
889.323950
886.852741
784.247518
585.788488
428.960919
244.974494
136.340857
53.276420
22.922754
7.959604
5.598664
4.825592
4.898906
4.745722
4.721880
5.413890
6.611943
9.814501
13.518929
20.955801
27.962923
38.659573
45.568943
53.465962
55.532455
54.381490
50.480962
42.524934
35.511851
##ZVALUE=360
0.413656
0.523925
0.416636
0.424981
0.424981
0.466704
0.512600
0.483990
0.450611
0.657439
0.551939
0.493526
0.535846
0.640750
0.534654
0.563860
0.437498
0.676513
0.257492
0.555515
0.449419
0.696778
0.356436
0.367761
0.443459
0.623465
0.647902
0.615716
0.796914
0.523925
0.639558
0.634789
0.754595
0.570416
0.654459
0.497699
0.475645
0.673532
0.617504
0.597835
0.508428
0.730753
0.635982
0.666976
0.773668
0.679493
0.757575
0.683665
0.639558
0.777841
0.872612
0.914931
1.018643
1.011491
1.050830
1.031756
1.104474
1.106858
1.214743
1.359582
1.387596
2.089739
6.535649
30.494928
76.077580
194.610953
321.269631
525.417924
692.656636
850.390792
888.423920
827.512741
705.111623
485.583544
329.643488
162.744522
85.711479
31.282902
12.860894
5.644560
5.015731
4.836917
4.514456
4.575849
4.353523
4.871488
5.380511
7.747412
10.931492
16.578436
23.220778
32.586455
39.374828
46.176910
49.982667
50.845742
##ZVALUE=365
0.348687
0.395775
0.603795
0.532866
0.528693
0.394583
0.500679
0.453591
0.701547
0.494719
0.537634
0.535846
0.592470
0.446439
0.458956
0.569820
0.456572
0.480413
0.612736
0.575781
0.604987
0.611544
0.332594
0.491738
0.367761
0.537634
0.504851
0.552535
0.650883
0.640750
0.655651
0.637770
0.645518
0.714660
0.515580
0.801682
0.758767
0.522733
0.499487
0.640750
0.626445
0.710487
0.737906
0.682473
0.755787
0.616908
0.745654
0.728965
0.843406
0.742674
0.846982
0.787973
0.796914
0.788569
0.963807
0.916719
1.058578
1.103878
1.038909
1.208782
1.308918
1.462698
1.475811
1.698732
3.094673
17.084479
46.434402
124.143958
232.767463
431.783795
596.771836
783.625841
866.205692
853.012800
758.668780
573.987961
409.213901
217.330456
119.146705
43.699741
17.837882
6.265640
5.030632
4.690886
4.601479
4.143715
3.903508
3.913641
4.200935
4.663467
6.254911
9.968877
13.335943
20.967722
26.821494
34.977794
##ZVALUE=370
0.543594
0.562668
0.499487
0.402927
0.475645
0.493526
0.383854
0.425577
0.361800
0.627637
0.525713
0.529885
0.527501
0.463724
0.516772
0.404716
0.501871
0.477433
0.553727
0.464916
0.513792
0.661612
0.595450
0.505447
0.584722
0.536442
0.668764
0.493526
0.599623
0.499487
0.459552
0.509620
0.487566
0.606775
0.524521
0.547767
0.800490
0.810623
0.582933
0.532866
0.657439
0.594854
0.540614
0.703931
0.591874
0.705719
0.540614
0.698566
0.576973
0.751615
0.724792
0.601411
0.813603
0.812411
0.922680
0.932813
0.743866
0.975728
0.999570
1.041889
1.153946
0.987649
0.990629
1.205802
1.297593
1.516938
1.918674
8.536577
28.476715
93.457699
178.002715
341.164470
501.112938
710.894465
820.256472
860.945582
799.355507
635.202527
473.702550
268.841982
152.905583
60.802698
27.987957
9.677410
5.208850
4.404783
3.990531
3.830791
3.909469
3.644824
3.660917
3.658533
4.179478
5.798936
8.067489
12.239814
##ZVALUE=375
0.307560
0.483990
0.435710
0.424981
0.501871
0.401735
0.477433
0.337958
0.292659
0.385642
0.417829
0.376701
0.320673
0.330806
0.275970
0.525713
0.563860
0.554919
0.574589
0.518560
0.481606
0.572801
0.516772
0.537634
0.430942
0.419617
0.531673
0.510812
0.465512
0.462532
0.559688
0.592470
0.607967
0.524521
0.554919
0.345707
0.520945
0.495911
0.530481
0.440478
0.551939
0.662804
0.481606
0.591874
0.524521
0.689626
0.571609
0.601411
0.666976
0.609756
0.686646
0.621676
0.700951
0.558496
0.575781
0.555515
0.588894
0.706911
0.791550
0.783801
0.737906
0.897646
0.896454
1.021624
0.839829
0.859499
1.114607
1.325607
1.588464
3.808737
20.085573
50.951838
134.463906
241.945982
436.158776
585.379004
757.658482
830.896497
808.361769
706.684589
510.516763
364.607573
205.658674
116.624832
46.084523
19.782782
6.303787
4.739761
3.827810
3.790855
3.618598
3.409982
3.400445
3.440976
3.401637
3.798604
##ZVALUE=380
0.542998
0.475645
0.426769
0.490546
0.399947
0.309944
0.298619
0.440478
0.494719
0.351667
0.414848
0.503659
0.325441
0.458956
0.444651
0.559688
0.314713
0.417829
0.401735
0.308752
0.487566
0.456572
0.524521
0.469685
0.506639
0.516772
0.367761
0.402927
0.446439
0.542998
0.500679
0.622869
0.586510
0.564456
0.492930
0.573993
0.537634
0.546575
0.581741
0.533462
0.476837
0.634789
0.530481
0.600815
0.626445
0.402927
0.389814
0.520945
0.485778
0.646710
0.594854
0.583529
0.723600
0.638962
0.688434
0.814795
0.869632
0.731945
0.874996
0.798702
0.622869
0.826716
0.842810
0.860691
0.953674
0.924468
0.862479
0.989437
1.133680
1.394749
1.688600
2.376437
8.248687
38.826466
91.100931
214.733481
344.636440
536.697507
678.320527
799.009800
808.674693
708.276033
588.243008
416.850448
282.551646
142.391920
73.772669
25.935769
10.708570
4.498959
3.770590
3.686547
3.529787
3.297925
3.206730
3.076792
##ZVALUE=385
0.410676
0.358820
0.397563
0.435710
0.189543
0.389814
0.464916
0.507832
0.457764
0.361800
0.480413
0.357628
0.514984
0.309944
0.399947
0.399947
0.420809
0.295639
0.434518
0.449419
0.405908
0.349879
0.353456
0.452995
0.432730
0.607967
0.514984
0.637770
0.642538
0.501871
0.714660
0.675917
0.673532
0.593662
0.622869
0.610948
0.572801
0.704527
0.604987
0.537634
0.606775
0.584722
0.548959
0.640750
0.524521
0.545979
0.412464
0.556707
0.532866
0.558496
0.434518
0.586510
0.711679
0.585914
0.683665
0.577569
0.648499
0.527501
0.759959
0.883937
0.696778
0.793934
0.727773
0.776649
0.849962
0.841618
0.958443
0.978708
0.998974
1.005530
1.059771
1.333952
1.456738
1.622438
3.884435
21.686554
57.426691
147.560835
259.796977
457.269549
608.156919
757.566690
803.502798
768.561959
677.225590
502.720475
362.044573
199.779868
114.817619
47.890544
19.804835
5.866885
3.794432
3.367662
3.055930
3.102422
##ZVALUE=390
0.449419
0.373721
0.368953
0.402927
0.467896
0.479817
0.346899
0.290871
0.169873
0.333786
0.417829
0.545979
0.440478
0.560880
0.642538
0.471473
0.465512
0.544786
0.569820
0.433922
0.426769
0.558496
0.419617
0.430942
0.517964
0.509620
0.550747
0.625849
0.755787
0.612736
0.680685
0.854731
0.759959
0.794530
0.643730
0.747442
0.734925
0.714660
0.694990
0.844598
0.657439
0.716448
0.690818
0.663996
0.683665
0.808835
0.668764
0.526905
0.568628
0.712872
0.695586
0.751615
0.670552
0.727773
0.607967
0.686646
0.550747
0.723600
0.736713
0.774860
0.744462
0.708699
0.793934
0.754595
0.856519
0.805855
0.929832
0.922680
1.032948
1.011491
1.045465
1.068711
1.193881
1.238585
1.217723
1.443624
2.056956
11.012554
34.769773
107.122660
200.649500
379.512906
525.558591
697.411895
778.592825
801.152587
740.375519
593.947768
456.530452
282.356739
166.428685
69.437623
32.298565
10.500550
4.841685
3.423691
##ZVALUE=395
0.451803
0.462532
0.432730
0.335574
0.250936
0.368953
0.430942
0.555515
0.445843
0.424981
0.549555
0.361800
0.474453
0.417829
0.319481
0.493526
0.254512
0.413656
0.447631
0.525713
0.388622
0.499487
0.413656
0.417829
0.531673
0.497699
0.636578
0.676513
0.625849
0.727773
0.718832
0.721812
0.814795
0.953674
0.779629
0.829697
0.740886
0.759959
0.860691
0.755787
0.737906
0.819564
0.763535
0.605583
0.612736
0.672936
0.678897
0.633597
0.576973
0.673532
0.685453
0.735521
0.746846
0.758767
0.780821
0.756979
0.589490
0.718832
0.813603
0.697970
0.594854
0.667572
0.781417
0.722408
0.698566
0.644922
0.707507
0.894666
0.795722
1.056790
1.115799
1.019835
1.026988
1.044869
1.196861
1.176000
1.147985
1.306534
1.689792
6.510615
23.089647
81.133842
154.472589
291.730762
430.808663
630.626678
749.640465
826.149583
804.820657
688.785911
544.628501
342.928767
216.024518
96.255541
46.880841
15.167594
##ZVALUE=400
0.466704
0.541806
0.461936
0.388622
0.318885
0.470877
0.298619
0.327826
0.387430
0.411868
0.475645
0.550747
0.449419
0.435710
0.445843
0.394583
0.509620
0.465512
0.224710
0.348687
0.373721
0.316501
0.510812
0.481606
0.412464
0.422597
0.600815
0.677705
0.735521
0.631809
0.645518
0.714660
0.641942
0.825524
0.620484
0.778437
0.817776
0.924468
0.776649
0.778437
0.717640
0.692606
0.736713
0.432730
0.611544
0.652671
0.671744
0.629425
0.590682
0.592470
0.672936
0.810623
0.580549
0.583529
0.728965
0.764728
0.836849
0.589490
0.697970
0.788569
0.764728
0.522733
0.625849
0.738502
0.825524
0.785589
0.837445
0.815988
0.851750
1.082420
0.947714
1.254678
1.202822
1.105666
1.177788
0.972748
1.004934
1.189709
1.295805
1.391768
1.410842
3.539920
12.049675
45.157671
98.823905
222.940445
357.341766
551.197529
680.412650
788.838863
802.042484
713.405013
592.388511
400.312543
268.276930
138.037801
##END
