##TITLE=DDW130
##FORMAT=SPECTACLE-ASCII V-1.2
##DATA TYPE=ULTRAVIOLET SPECTRUM
##SECOND TYPE=ULTRAVIOLET SPECTRUM
##DATE=01/30/18
##TIME=15:30:08
##SPECTROMETER/DATA SYSTEM=SPECTACLE
##XUNITS=NM EM
##YUNITS=ENERGY
##YFACTOR=1
##FIRSTX=220
##LASTX=410
##NPOINTS=96
##3DDATA=Equidistant
##ZUNITS=NM EX
##FIRSTZ=210
##LASTZ=400
##ZPOINTS=39
##XYDATA=(Y..Y)
##ZVALUE=210
12.444854
11.615753
10.483861
10.425448
7.910728
7.841587
7.249713
6.109476
5.025864
4.949570
3.451705
2.324581
2.147555
1.430511
1.390576
1.479983
1.902580
1.605749
1.426935
1.864433
1.589656
2.133846
2.063513
2.724528
1.783967
2.609491
2.400875
2.605915
2.589822
2.955794
2.624989
2.834797
2.613664
2.887845
2.603531
3.142953
2.701879
2.837777
2.600551
3.796816
3.508925
2.968907
3.613830
2.888441
3.300905
3.199577
2.968907
3.999472
3.644824
3.027916
3.156662
2.785921
3.329515
3.373623
3.601909
2.773404
3.590584
3.091693
3.553629
3.034472
3.348589
3.436804
3.747940
2.959967
3.854632
3.575683
3.672838
3.592968
4.122853
5.027652
5.004406
6.391406
7.189512
7.390976
7.748604
7.518530
8.658767
8.236766
7.624626
8.261800
6.559491
7.034540
5.373955
5.159974
4.204512
3.671646
4.045963
3.952980
3.814697
5.362630
7.064939
8.365512
11.522770
15.653968
21.310449
24.398565
##ZVALUE=215
31.782985
32.697916
26.828647
21.943450
17.589927
15.369654
14.465451
14.367700
14.262795
13.246536
10.359883
8.671880
6.219745
3.859997
3.049970
2.312660
1.919866
1.657605
1.893640
2.111793
2.063513
2.395511
2.091527
2.596974
2.306700
2.202988
2.358556
2.239943
3.375411
2.330542
2.489686
2.770424
3.200769
3.215671
3.336668
3.374815
3.478527
3.311634
3.520846
3.846884
3.500581
3.437996
3.138781
3.319979
4.023910
3.434420
3.640652
3.494620
3.705621
3.454685
3.238916
3.776550
3.765821
3.416538
3.887415
3.064871
3.340840
3.061891
3.531575
3.745556
3.749728
4.086494
4.039407
3.967881
3.528595
3.631711
3.390908
4.800558
4.598498
5.524755
6.003976
6.780624
6.835461
7.416606
7.050633
8.405447
7.326603
8.166432
7.764697
8.316636
7.838607
7.957816
6.610751
5.827546
5.140901
4.944801
4.276633
3.514886
3.741980
3.297925
3.472567
3.425479
3.243685
3.939867
5.499721
8.356571
##ZVALUE=220
65.652728
66.947937
63.057542
58.042407
49.632788
40.739775
32.902956
25.547743
26.113987
23.712516
25.227666
21.563768
19.798875
16.326904
13.670921
10.178685
6.027818
4.822612
3.172755
2.727509
2.906919
2.922416
2.544522
2.287626
2.647638
2.603531
3.222823
3.588796
2.595782
3.052950
3.244877
3.066659
3.879666
3.507733
3.266931
3.284812
3.584623
4.153848
4.302859
3.763437
3.477931
4.488826
4.263520
3.996491
4.120469
3.625751
3.980994
3.451705
3.932714
3.872514
4.128814
4.049540
3.556609
3.562570
4.386902
4.422665
3.576875
4.214644
4.668832
4.217625
4.190803
3.537536
3.624558
3.773570
4.501939
4.426837
3.955960
4.715919
4.937649
5.200505
5.591512
6.258488
7.576942
7.496476
7.888675
8.496642
8.792877
8.086562
8.954406
7.703900
7.807612
6.790757
6.628633
5.501509
4.777908
4.509687
3.752708
3.796816
4.374981
3.592968
3.858805
3.915429
3.412962
3.614426
2.677441
3.408790
##ZVALUE=225
82.340837
86.836815
104.073882
111.450553
111.085773
106.733441
91.969967
72.838664
56.005716
48.106909
37.725568
35.150647
37.584901
41.071773
37.085414
31.814575
23.834705
19.384623
11.458993
8.836985
5.190969
3.300905
2.567768
2.983809
2.457500
3.333688
3.538728
3.637671
3.374815
3.544688
2.957582
3.423691
3.916621
4.820824
4.113913
4.400611
4.652739
5.225539
4.637837
4.819632
4.273653
4.351735
4.154444
4.616976
4.530549
4.387498
4.255772
4.375577
4.375577
3.996491
4.865527
4.486442
4.167557
4.239678
4.417896
4.360676
4.664660
4.864931
5.063415
4.934669
4.510880
4.683733
4.597902
4.236698
5.060434
4.845858
5.717874
4.861951
5.056858
5.932450
5.366802
6.265640
6.837845
8.645654
8.588433
8.221865
9.000897
8.292794
7.218719
6.651878
6.803870
5.979538
5.741715
5.356669
5.673766
4.988909
4.938841
4.144907
3.787875
4.581809
4.418492
3.686547
3.751516
3.862977
3.940463
4.148483
##ZVALUE=230
54.654479
58.028698
87.254643
127.774477
160.489678
192.630887
198.697448
191.377997
164.308548
127.292871
96.892715
74.732900
56.714416
54.733753
58.766603
57.037473
57.265759
53.651929
47.697425
37.313700
25.050640
17.503500
9.849668
6.278753
4.968643
3.255606
3.610849
3.406405
3.817677
4.044771
3.953576
4.497766
3.869534
4.044771
4.568696
4.399419
4.396439
5.222559
4.492998
4.845858
4.709959
4.947782
4.676580
4.755855
4.653931
4.754663
5.259514
4.640818
4.425645
5.292892
4.615784
5.124807
5.221963
4.787445
5.446672
4.987717
4.968643
5.286932
5.330443
5.575418
5.592704
5.856752
5.699992
5.601645
5.054474
5.240440
5.518794
5.753636
6.046891
6.690621
7.162690
7.443428
7.716417
8.472800
8.556843
9.629726
9.132624
8.368492
9.542704
9.322762
8.011460
6.827712
7.102489
6.374717
5.861521
4.765987
5.339980
4.960895
5.383492
5.384684
5.115867
4.830956
4.792809
4.605651
4.225969
4.956722
##ZVALUE=235
13.834834
17.365813
34.691691
77.286959
121.184587
186.295509
236.967802
282.273889
312.752724
305.539966
265.143514
216.479897
158.417821
116.967559
86.082816
77.285767
78.015924
81.397891
88.078976
89.496970
78.213811
69.654584
49.362779
35.145879
24.943948
14.516711
10.638833
7.060766
6.167889
5.131960
6.172657
4.898906
5.410910
5.199909
5.287528
5.058646
5.714893
5.769730
5.480647
5.324483
5.144477
5.433559
5.095601
4.756451
5.154610
4.974604
5.399585
5.236864
5.270839
4.688501
5.446672
5.749464
5.718470
5.740523
5.216599
5.796552
5.152822
5.926490
5.768538
5.319715
5.818605
5.666614
6.254911
5.708933
5.927682
6.801486
6.636977
7.034540
7.066727
8.440614
8.027554
8.698702
8.898973
9.836555
10.279417
9.876490
10.865927
10.181665
9.571910
9.685755
9.086728
7.596612
8.790493
7.020831
7.469654
6.631613
7.386804
6.168485
5.730987
6.233454
5.919933
5.884767
5.996823
5.579591
5.110502
6.253719
##ZVALUE=240
1.246929
1.667738
4.714727
17.760992
36.649704
81.359744
138.108730
231.696963
307.228565
367.142558
424.058437
429.267883
381.002426
323.018432
241.262913
170.484781
114.180446
96.702576
92.688799
99.960566
110.457540
113.576651
112.560987
99.247694
81.411600
58.603883
44.134855
29.202700
20.274520
13.703704
10.123849
7.985830
7.943511
6.810427
7.879734
6.924868
6.849766
6.683469
5.888939
5.701780
5.744696
5.155802
6.190538
5.488992
5.216599
5.647540
5.321503
5.600452
5.546808
4.950762
5.511642
5.807877
5.131960
5.260706
4.970431
5.436540
5.693436
5.625486
5.567670
5.676746
5.388856
5.681515
6.139874
5.805492
6.968975
6.416440
6.095767
6.517768
7.326603
7.351637
8.407831
9.061694
9.689927
9.987950
10.406971
10.922551
11.243820
10.625720
9.381771
9.973645
9.763837
8.756518
8.203983
8.446574
8.614659
6.533861
7.471442
7.679462
6.696582
6.040931
6.849766
6.993413
6.579757
6.939769
6.350875
6.772876
##ZVALUE=245
1.107454
0.974536
1.228452
1.366735
2.664924
9.403825
25.590658
71.234703
125.599504
221.472979
304.174423
418.664813
478.186607
500.868559
472.534895
404.482484
326.878428
218.772888
159.371495
106.820464
92.184544
98.289847
109.971762
119.794607
127.895474
119.147897
109.157562
91.158748
67.131519
51.517487
36.796927
24.285913
14.905930
11.045933
9.319782
8.807778
7.900596
7.579923
6.119609
5.757809
6.437898
6.530881
5.357862
6.097555
5.332828
5.273819
4.388690
5.369782
5.029440
5.049706
4.239678
4.773736
5.257726
5.231500
4.958510
4.822612
4.788637
5.055666
4.714727
5.162954
4.547834
5.143881
5.367994
5.332828
5.515814
5.549788
6.519556
6.000996
6.357431
6.721616
7.070899
8.026958
8.764863
7.484555
9.965897
8.492470
9.624958
8.952618
9.591579
8.319616
8.416772
7.270575
7.617474
6.743670
7.365942
7.188916
6.938577
6.782413
5.721450
5.653501
6.116629
5.793571
6.314516
5.763769
6.104708
5.436540
##ZVALUE=250
0.891685
1.099706
1.087785
0.941753
1.093745
1.063943
1.805425
5.745888
21.793842
47.252774
117.648840
194.360614
287.462473
415.163636
494.054556
551.824570
561.652780
503.312945
424.819589
293.174982
206.622481
140.962601
95.810890
89.677572
101.279616
113.029480
131.476521
135.969520
132.720470
117.776990
106.062889
75.765848
56.452751
36.424994
22.987723
13.789535
10.541677
7.765889
6.894469
6.912947
6.288886
6.353855
6.114841
5.551577
5.741715
5.245805
4.794598
4.508495
5.047917
4.734993
4.913807
4.496574
4.484653
4.500747
4.853606
4.622936
4.485846
4.733801
5.057454
4.075766
4.637837
4.141927
4.713535
4.786849
4.679561
4.904866
5.079508
5.123615
5.696416
5.868673
6.444454
7.244945
6.775856
7.387996
7.560849
7.816553
7.903576
7.772446
7.098913
6.995797
6.615520
6.283522
5.932450
5.448461
5.497932
5.032420
5.853772
5.147457
5.182624
5.095601
4.479885
5.265474
4.446507
5.513430
5.003810
5.293489
##ZVALUE=255
0.840425
0.619888
0.869632
0.918508
1.118779
0.994802
0.848770
1.079440
1.078844
3.800988
13.047457
31.328797
87.220669
152.958632
265.028477
375.149846
511.209965
583.156943
623.285770
596.229434
502.989888
397.740006
249.851942
165.650845
101.740956
84.602833
83.225965
102.453828
114.836693
133.262873
137.720704
133.917928
122.626424
98.761916
77.690482
50.467849
36.248565
20.178556
13.548732
8.252859
6.720424
5.686879
5.313754
5.531907
4.709959
4.801750
5.175471
4.763603
4.706979
4.608631
4.680753
4.511476
4.536510
4.591942
4.178882
3.950596
4.166961
4.128814
4.151464
4.012585
4.461408
4.307628
4.665852
3.972650
4.578829
4.455447
4.370809
4.951954
4.858971
4.786849
5.621910
6.188750
6.279945
6.292462
6.577969
6.157756
5.837679
6.400943
6.025434
5.748868
5.360842
4.490614
4.780889
4.888773
4.349947
4.509687
3.906488
3.812909
4.233718
4.391670
4.181862
3.708601
3.899932
3.804564
4.420877
3.458858
##ZVALUE=260
0.620484
0.707507
0.692606
0.893474
0.852942
0.938773
0.776649
0.925660
1.057982
1.067519
1.366735
1.783967
5.297661
22.631884
51.788688
125.716925
205.465555
348.051786
467.443466
607.094765
671.144724
676.894784
604.285002
497.981906
338.411927
236.853957
141.133666
92.607737
71.270466
76.972842
93.386769
118.876696
133.240819
140.368938
138.787627
122.824907
102.504492
73.566437
55.693984
33.049583
21.319985
12.105703
8.446574
5.770922
4.932880
5.418658
4.997849
4.685521
4.518628
4.321933
4.993677
4.455447
4.593730
4.480481
3.816485
3.981590
3.713965
4.092455
4.242659
3.727674
4.117489
3.650784
4.199743
3.874898
4.218817
4.445910
4.461408
4.315972
4.402995
4.465580
5.177855
4.954934
5.054474
5.420446
5.024672
4.964471
5.430579
4.440546
4.206896
4.456639
4.286766
3.912449
3.982782
3.830791
3.633499
3.423691
3.849864
3.503561
2.881885
3.538728
3.314614
3.480911
2.875924
2.806783
2.751946
3.514886
##ZVALUE=265
0.372529
0.401735
0.642538
0.537634
0.380874
0.476837
0.472665
0.418425
0.682473
0.499487
0.786781
0.669956
0.749826
1.080632
2.362728
14.462471
35.987496
96.764565
169.146657
315.184593
450.785756
576.161742
707.017779
736.279488
669.717789
587.840676
429.267883
304.991603
172.241926
109.000802
74.826479
63.165426
74.249506
101.177692
120.966434
138.811469
142.418742
136.852860
124.532580
98.409653
74.742436
50.072670
34.458637
18.649697
11.273623
6.213784
5.138516
4.263520
4.320741
4.034638
4.170537
3.848672
3.905892
3.463626
3.973842
3.879666
3.661513
3.675818
3.632903
3.352761
3.517866
3.345609
3.196597
3.324747
3.200769
2.953410
3.790855
3.324747
3.894567
3.853440
3.890991
3.681779
3.970861
4.322529
4.576445
4.415512
4.120469
4.045963
3.614426
3.717542
3.221631
3.228784
3.061891
3.098845
3.107786
2.608895
2.533793
2.648830
2.494454
2.720952
2.499819
2.397895
2.513528
2.548695
2.551675
2.293587
##ZVALUE=270
0.471473
0.621676
0.493526
0.704527
0.562668
0.691414
0.746846
0.794530
0.609756
0.896454
0.775456
1.008511
0.961423
0.779629
1.113415
1.276731
1.364946
6.689429
20.928979
65.427423
133.391619
231.193900
408.912897
550.674796
705.903769
764.320493
757.277608
688.242912
544.609427
408.662558
282.474756
150.107741
91.517568
54.153800
54.911971
76.446533
97.656846
124.350786
136.814713
142.331719
138.051510
120.242834
102.481842
72.716475
53.736567
30.973554
20.176768
11.676550
7.620454
5.205870
4.153848
4.221797
4.298687
3.866553
4.328489
3.862977
4.092455
3.557801
3.930926
3.638864
3.570914
3.314614
3.471971
3.569722
3.731847
3.671646
3.685951
3.150702
3.502965
3.680587
3.743768
4.423857
4.283786
4.270673
4.073977
4.120469
4.308820
3.626943
3.995895
3.477931
3.384948
3.196597
2.979636
3.023744
2.929568
2.977848
3.137589
2.594590
2.624989
2.524853
2.670884
2.342463
2.607703
2.429485
2.603531
2.407432
##ZVALUE=275
0.779629
0.534654
0.643730
0.695586
0.642538
0.625849
0.698566
0.514984
0.807643
0.571609
0.907779
0.648499
0.806451
0.923872
0.820756
0.923872
0.885725
1.001954
1.047850
3.255606
12.536645
33.887625
100.096464
190.551877
357.264876
488.767624
653.437972
755.971670
803.507566
758.927464
636.188984
506.714582
321.879983
202.234983
98.378658
59.068799
42.926669
52.456856
76.507926
94.643831
120.351911
133.212805
140.934587
135.284662
119.689703
99.452734
73.480606
53.928494
33.508539
21.065474
11.705756
7.436872
5.016923
4.714727
4.178882
3.417730
3.964901
3.812909
3.754497
3.355742
3.785491
3.426671
3.400445
3.220439
3.469586
3.219843
3.338456
3.302693
3.370643
3.210902
3.483891
3.742576
3.667474
4.068613
3.672838
4.033446
3.978610
3.694892
3.662705
3.445745
3.489852
3.020763
2.975464
2.867579
2.618432
2.650619
2.650619
2.383590
2.541542
2.581477
2.573729
2.668500
2.429485
2.637506
2.727509
2.308488
##ZVALUE=280
0.514984
0.414848
0.488758
0.418425
0.528693
0.432730
0.578761
0.635982
0.694990
0.444651
0.611544
0.443459
0.692606
0.809431
0.680685
0.795722
0.888705
1.028776
0.914931
1.069903
1.125932
1.430511
7.516742
25.160909
79.965591
146.850944
281.515718
413.442850
599.074960
715.251565
806.774497
812.960863
753.546953
583.039522
433.720946
249.344707
146.955848
67.394972
40.476918
37.108660
48.461556
72.273612
93.546510
117.108822
131.478906
137.451887
132.426620
115.114450
97.360611
72.058439
51.873922
33.089519
21.380782
11.026859
7.047653
4.342794
3.762841
3.468990
3.618598
3.201962
3.257990
3.448725
3.188848
3.279448
3.358722
2.858639
3.060699
3.238916
3.160834
3.668666
3.577471
3.349781
3.329515
3.611445
3.452897
3.427863
3.235936
3.436804
3.229976
3.294945
3.234744
2.951622
2.707839
2.755523
2.419949
2.521873
2.511740
2.481937
2.308488
2.626777
2.493858
2.319813
2.536774
2.576709
2.158880
2.157688
##ZVALUE=285
0.470877
0.402927
0.422597
0.544786
0.451803
0.415444
0.383854
0.475645
0.516772
0.446439
0.437498
0.539422
0.753999
0.436902
0.469685
0.581741
0.551939
0.752807
0.781417
0.821948
0.869632
0.923872
0.920892
1.341701
3.508925
12.312531
43.917894
91.235638
198.003650
319.271684
457.287431
641.029477
752.624869
811.015964
776.409507
645.720959
514.133573
317.085981
198.708773
97.511411
51.266551
28.762817
30.907989
47.550797
66.054463
93.132854
111.091733
127.629638
131.735802
128.214955
117.742419
94.252825
75.527430
51.024556
36.219954
19.923449
11.786819
6.514788
4.532933
3.200769
3.128648
3.071427
3.238916
3.047585
3.009439
2.817512
2.611876
2.879500
2.913475
3.230572
3.305674
3.035665
3.039837
3.365874
3.142953
3.076792
3.249645
3.053546
3.234744
3.062487
2.808571
2.607703
2.610683
2.356768
2.322793
2.286434
2.214909
2.369881
2.362728
2.264977
2.417564
2.415776
2.089739
2.192855
2.475977
2.281666
##ZVALUE=290
0.372529
0.386834
0.594854
0.408888
0.326633
0.339746
0.413656
0.465512
0.427961
0.443459
0.428557
0.711679
0.440478
0.485778
0.423789
0.455976
0.759959
0.644922
0.632405
0.640750
0.830889
0.571609
0.886917
0.983477
0.798702
1.306534
1.884699
5.223751
24.777651
57.716966
113.249421
241.659880
377.936959
580.013990
708.358884
807.314515
804.109573
711.918473
586.536527
396.252871
266.038775
134.000778
71.837902
30.111670
21.354556
29.287934
42.540431
63.824654
82.494617
106.505752
119.680762
128.313899
126.662850
112.439990
95.517635
71.468949
51.198006
32.064915
20.080805
10.863543
6.658435
4.088879
3.164411
2.928972
2.502799
2.679825
2.811551
2.779961
2.586842
2.684593
2.947450
3.079772
3.141761
2.899766
2.720952
3.085732
2.709627
2.617836
2.721548
2.450943
2.194643
2.561808
2.525449
2.610683
2.431870
2.348423
2.287626
2.215505
2.446771
2.219677
1.942515
2.434850
2.115965
2.163649
1.897812
1.984835
##ZVALUE=295
0.292659
0.533462
0.357628
0.359416
0.273585
0.362992
0.434518
0.338554
0.618696
0.458956
0.431538
0.564456
0.539422
0.564456
0.560880
0.630617
0.594854
0.467896
0.468493
0.485778
0.464916
0.688434
0.656843
0.884533
0.873804
0.901818
0.844598
1.095533
1.110435
2.115965
8.340478
35.043955
81.265569
190.882683
312.484503
503.051877
640.622973
772.547722
809.831619
752.018690
648.394823
470.173955
330.341458
177.764893
98.245740
37.850738
21.032691
17.751455
24.509430
41.009784
56.682825
80.099702
99.330544
113.775730
121.621490
119.286776
107.840896
88.137984
70.585608
47.682524
34.030676
19.404888
11.936426
6.227493
3.677607
2.822876
2.707839
2.415776
2.344847
2.194643
2.549887
2.804995
2.759695
2.819896
3.110766
2.508759
2.568960
2.505779
2.643466
2.310872
2.280474
2.187490
2.253652
2.222657
2.157688
2.296567
2.234578
2.087951
1.846552
1.997948
2.067685
1.909733
1.974702
2.089739
1.835823
1.840591
##ZVALUE=300
0.323653
0.334978
0.178814
0.375509
0.283718
0.331998
0.311732
0.261664
0.388622
0.376701
0.397563
0.362992
0.318885
0.338554
0.409484
0.428557
0.357628
0.473857
0.566840
0.615716
0.639558
0.618696
0.606775
0.833869
0.530481
0.667572
0.814795
0.847578
0.884533
0.913739
1.173615
1.101494
5.103946
18.046498
62.685609
124.865770
259.232521
395.025015
582.422018
699.200630
793.125629
793.255568
690.980554
573.952794
386.173725
252.729654
127.722621
68.874955
26.015639
14.753938
15.076995
21.408796
36.551952
50.762892
74.084997
91.181993
109.993815
114.740729
113.114715
104.707479
86.709857
71.155429
48.193932
33.704638
19.079447
12.216568
6.270409
3.802776
2.980828
2.638698
2.423525
2.480745
2.324581
2.462864
2.532601
2.396703
2.275705
2.287626
2.447963
2.239943
2.230406
2.158880
2.273917
2.184510
2.097487
2.023578
2.076626
1.960993
2.056956
1.934767
2.113581
1.941919
1.920462
1.805425
1.968741
1.650453
##ZVALUE=305
0.294447
0.436902
0.190735
0.286698
0.345707
0.231862
0.245571
0.362992
0.374913
0.353456
0.427961
0.376701
0.415444
0.454783
0.564456
0.530481
0.650883
0.363588
0.334978
0.514984
0.543594
0.396967
0.604987
0.565648
0.547767
0.541806
0.506639
0.587702
0.749826
0.710487
0.753999
0.940561
0.980496
1.290441
2.122521
11.627674
34.203529
99.108815
179.498792
338.328481
476.293564
653.803945
752.439499
796.932578
748.633742
600.867867
469.337702
298.385620
188.000798
85.799694
43.073893
15.715957
10.614991
13.431907
20.316839
35.099983
49.851537
70.941448
86.978674
101.166964
108.617544
106.942654
98.544955
82.479715
65.477490
44.057965
30.247569
18.353462
11.237860
5.882978
3.897548
2.859831
2.447963
2.362728
2.274513
2.306700
2.092719
2.077818
2.025962
1.988411
1.856685
2.057552
2.124906
2.072453
1.922846
2.049804
1.924634
1.954436
2.044439
1.828671
1.890659
1.713634
1.624823
1.851916
1.585484
1.604557
##ZVALUE=310
0.264645
0.269413
0.461936
0.361800
0.354648
0.307560
0.276566
0.295639
0.291467
0.168681
0.468493
0.513792
0.322461
0.292659
0.304580
0.286698
0.394583
0.357628
0.410676
0.506639
0.432730
0.389814
0.550747
0.259876
0.478625
0.533462
0.658631
0.621676
0.645518
0.795722
0.824928
0.689626
0.753999
0.824928
0.899434
0.986457
1.316667
4.842877
16.789436
58.138967
117.466450
247.410536
382.508636
571.881533
693.048835
781.608820
778.511763
683.789849
568.891764
384.483933
258.292556
131.015778
69.873929
26.079416
11.615753
8.605719
11.567473
18.849969
28.494596
44.780970
60.070753
78.993440
91.944933
101.623535
102.435946
92.857480
82.495809
63.282847
48.252940
29.291511
19.939542
11.304617
6.831884
3.952980
2.845526
2.209544
2.142787
1.988411
1.821518
1.979470
1.856685
1.679659
1.704693
1.566410
1.864433
1.773834
1.940727
1.624823
1.744628
1.743436
1.820922
1.780987
1.731515
1.553893
1.615882
1.606941
##ZVALUE=315
0.288486
0.286698
0.366569
0.272989
0.222921
0.422597
0.312924
0.311732
0.322461
0.313520
0.241995
0.225902
0.342727
0.333786
0.470877
0.374913
0.397563
0.246763
0.382662
0.449419
0.421405
0.291467
0.429749
0.290871
0.467896
0.432730
0.208616
0.358820
0.518560
0.406504
0.560880
0.577569
0.676513
0.744462
0.918508
0.856519
0.608563
1.121759
1.141429
2.422929
9.064674
36.944747
83.057880
189.616680
310.584903
503.192544
627.578497
743.992925
776.402950
722.951889
623.541474
452.829003
321.094990
174.275637
96.390843
34.988523
15.353560
7.462502
7.438660
11.086464
16.190410
27.307868
38.981438
56.661963
71.752667
87.537766
94.032884
96.048713
89.463592
73.892474
61.294436
43.874979
30.586720
17.499924
10.740757
5.665421
3.771782
2.619624
1.971722
1.770854
1.705885
1.834631
1.717806
1.620650
1.616478
1.768470
1.705885
1.947880
1.968741
1.581907
1.609921
1.639724
1.707673
1.753569
1.537800
1.410842
##ZVALUE=320
0.203848
0.211596
0.280738
0.292659
0.257492
0.357628
0.224710
0.108480
0.195503
0.236630
0.350475
0.242591
0.167489
0.337958
0.557899
0.419617
0.424981
0.455976
0.213981
0.283718
0.267625
0.446439
0.426769
0.363588
0.376701
0.353456
0.411868
0.337958
0.243783
0.387430
0.335574
0.506639
0.594854
0.636578
0.613928
0.707507
0.745654
0.890493
0.927448
0.870824
1.091957
1.425743
4.144907
22.401810
55.158734
140.633583
234.073997
400.751829
532.330871
685.516000
758.276582
757.994652
690.543652
531.130433
390.259624
222.440958
126.500726
52.144527
24.764538
9.190440
6.536841
6.800890
8.907914
14.656782
22.570491
36.885738
50.679445
67.871809
79.665780
89.478493
90.659857
83.218813
74.627995
56.588650
42.628646
26.937723
17.891526
9.969473
6.271601
3.288984
2.565980
2.002716
1.595616
1.671910
1.634955
1.527667
1.576543
1.367927
1.401901
1.648664
1.425743
1.557469
1.527667
1.533628
1.363754
1.587868
##ZVALUE=325
0.209808
0.184774
0.105500
0.390410
0.164509
0.250936
0.223517
0.367761
0.234842
0.214577
0.248551
0.211596
0.321865
0.364780
0.274777
0.324845
0.246763
0.361800
0.348687
0.321865
0.273585
0.403523
0.272989
0.357628
0.471473
0.287890
0.413656
0.529885
0.441670
0.450611
0.516772
0.521541
0.567436
0.458956
0.560880
0.564456
0.526905
0.705719
0.735521
0.656843
0.776649
0.961423
1.093745
1.052618
2.875924
10.516644
40.841699
85.559487
188.298821
304.379463
479.929447
603.723526
722.301602
748.967528
690.409541
586.726665
407.200456
285.800695
153.123736
84.023476
32.119751
13.894439
6.437898
5.755424
6.260872
8.313656
14.199615
21.711588
36.121607
49.067736
67.037940
76.552629
84.542632
84.147453
77.200532
68.085790
52.132607
39.764643
24.872422
16.601682
8.706450
5.884767
3.483891
2.536774
1.985431
1.812577
1.589656
1.615882
1.541972
1.414418
1.479983
1.398921
1.402497
1.418591
1.457930
1.489520
##ZVALUE=330
0.349879
0.312924
0.271797
0.095963
0.200868
0.256896
0.234842
0.243783
0.193715
0.294447
0.239611
0.284910
0.258684
0.279546
0.324845
0.249743
0.220537
0.176430
0.263453
0.298619
0.263453
0.249743
0.306964
0.266433
0.236630
0.530481
0.397563
0.432730
0.237823
0.297427
0.042915
0.402927
0.558496
0.328422
0.548959
0.458956
0.538826
0.510812
0.602603
0.685453
0.728965
0.698566
0.791550
0.833869
0.942945
1.152754
1.216531
6.241798
19.716620
63.964725
123.540759
247.354507
367.538929
539.696813
649.854541
725.579858
713.577867
609.511733
493.843555
324.249864
210.966468
99.537969
50.644875
18.305779
8.171797
4.914999
4.990697
5.780458
7.810593
13.610721
19.828677
32.529831
44.361949
60.654879
70.552826
78.079700
78.408718
72.500706
63.037872
47.622919
35.879612
22.597909
15.390515
9.493828
6.099939
3.452897
2.402663
1.843572
1.662970
1.579523
1.384616
1.559854
1.423955
1.323819
1.165867
1.406670
##ZVALUE=335
0.262856
0.088811
0.241995
0.170469
0.213981
0.277758
0.338554
0.345707
0.359416
0.308752
0.197887
0.108480
0.159740
0.310540
0.311732
0.142455
0.175834
0.175834
0.381470
0.157952
0.351667
0.426769
0.296831
0.250936
0.300407
0.342727
0.308752
0.397563
0.503659
0.440478
0.408888
0.335574
0.435710
0.322461
0.503659
0.507832
0.468493
0.605583
0.419617
0.458956
0.624657
0.769496
0.602603
0.801682
0.517964
0.704527
0.778437
0.694990
1.119971
2.817512
10.304451
39.827824
85.083842
188.351870
301.531553
473.738909
595.807433
704.237819
721.009970
656.901598
556.303859
389.588475
268.387794
141.864419
74.033737
25.359988
10.642409
5.312562
4.747510
4.843473
5.166531
7.742643
11.478662
20.303726
29.563904
44.610500
55.545568
67.133904
72.163939
73.551536
68.336725
57.277679
46.821833
34.937859
25.091767
15.487671
10.197759
5.766749
4.023910
2.327561
1.808405
1.739860
1.556873
1.666546
1.290441
1.483560
##ZVALUE=340
0.149608
0.125766
0.169873
0.394583
0.210404
0.078678
0.359416
0.243783
0.218749
0.233650
0.228882
0.180602
0.227690
0.208616
0.258684
0.204444
0.389814
0.338554
0.405908
0.357628
0.301600
0.313520
0.296831
0.269413
0.284910
0.547767
0.378489
0.195503
0.304580
0.447631
0.333786
0.348687
0.582933
0.469685
0.525713
0.439882
0.409484
0.405908
0.502467
0.480413
0.468493
0.503659
0.522733
0.498891
0.642538
0.476837
0.636578
0.570416
0.713468
0.887513
0.969768
1.248717
6.710887
21.094680
67.343712
132.537484
268.545747
386.378765
539.472699
635.367036
695.787668
677.548647
574.916005
461.653471
293.661952
187.040567
86.568594
41.659474
12.731552
6.088614
4.562736
4.499555
4.558563
5.041957
7.439852
10.712743
18.872619
27.752519
41.666627
52.258968
63.203573
67.808628
68.156719
65.442920
55.565834
45.708418
33.538938
24.887919
14.817715
9.716749
5.636811
3.721714
2.233982
1.700521
1.588464
1.527667
##ZVALUE=345
0.168681
0.206828
0.182986
0.205636
0.178814
0.149608
0.105500
0.221729
0.283718
0.085831
0.093579
0.239611
0.144839
0.117421
0.180602
0.109673
0.217557
0.252724
0.199676
0.186563
0.158548
0.273585
0.308752
0.340939
0.204444
0.297427
0.231862
0.259876
0.271797
0.255704
0.362992
0.216961
0.257492
0.410676
0.293851
0.471473
0.327826
0.425577
0.423789
0.267625
0.422597
0.533462
0.499487
0.324845
0.459552
0.579953
0.446439
0.382662
0.695586
0.697970
0.723600
0.693798
0.867844
1.091957
3.008842
11.002421
44.704676
90.303421
189.379454
294.003487
454.834700
565.072894
659.017563
678.465962
608.353615
509.055853
350.948572
232.558846
108.960867
54.260492
18.409491
8.425713
4.939437
4.538894
4.075766
4.094839
4.558563
5.880594
10.514855
16.064644
26.920438
35.891533
47.051907
54.943562
62.173605
63.334703
59.914589
53.332448
42.598844
33.567548
23.018718
16.237497
9.943843
5.992651
3.508925
2.568960
##ZVALUE=350
0.200868
0.149608
0.197887
0.185966
0.238419
0.162721
0.248551
0.252724
0.145435
0.196695
0.248551
0.159740
0.142455
0.227690
0.151992
0.057817
0.116825
0.174642
0.173450
0.220537
0.238419
0.290871
0.325441
0.213981
0.154972
0.238419
0.298619
0.264645
0.222921
0.416636
0.143647
0.069737
0.339746
0.403523
0.255704
0.347495
0.231862
0.392795
0.246763
0.266433
0.349879
0.409484
0.331998
0.476837
0.496507
0.487566
0.466704
0.396967
0.371933
0.541806
0.511408
0.536442
0.503659
0.645518
0.615716
0.951886
1.366735
6.963611
21.505952
65.667629
125.663877
250.846744
364.661813
509.777665
603.863001
654.735565
627.246499
549.217463
385.509729
157.472491
147.127509
69.296956
31.972528
6.199479
5.288720
3.936887
3.930926
3.376603
3.412962
4.101992
7.055998
8.733869
18.456578
21.557808
31.216741
41.962862
48.531890
55.557489
57.434440
56.063533
50.749779
40.967464
32.341480
22.064447
15.762448
9.861588
##ZVALUE=355
0.339746
0.289679
0.463724
0.402927
0.327826
0.201464
0.207424
0.136495
0.313520
0.381470
0.296831
0.309944
0.184774
0.234842
0.306964
0.214577
0.171661
0.247955
0.265837
0.258684
0.208616
0.247955
0.269413
0.277758
0.266433
0.308752
0.398755
0.279546
0.245571
0.283718
0.185966
0.351667
0.162721
0.328422
0.254512
0.299811
0.228882
0.403523
0.409484
0.254512
0.388622
0.122786
0.449419
0.467896
0.405908
0.506639
0.478625
0.529885
0.518560
0.418425
0.341535
0.363588
0.610948
0.540614
0.557899
0.580549
0.926852
0.873804
1.138449
2.232790
13.954639
38.096905
101.695657
173.981786
311.688781
427.825451
562.266707
624.653697
626.641512
560.906529
423.360467
313.306451
180.665851
101.275444
39.582849
17.482638
6.021857
4.511476
3.607869
3.478527
3.109574
3.225803
3.337860
4.517436
8.182526
11.627674
19.290447
26.184916
36.769509
43.574572
49.871802
52.122474
50.609708
46.410561
38.477778
31.424761
##ZVALUE=360
0.234842
0.170469
0.219941
0.120997
0.363588
0.311732
0.284910
0.424981
0.166893
0.209808
0.174642
0.085831
0.268817
0.246763
0.041723
0.275970
0.323653
0.331998
0.373721
0.327826
0.374913
0.289679
0.291467
0.326633
0.390410
0.207424
0.425577
0.415444
0.364780
0.251532
0.200868
0.389814
0.328422
0.419617
0.324845
0.352859
0.359416
0.443459
0.375509
0.322461
0.399947
0.382662
0.347495
0.357628
0.447631
0.429749
0.312924
0.472665
0.426769
0.485778
0.405908
0.599623
0.437498
0.558496
0.592470
0.570416
0.687838
0.732541
0.884533
0.827909
0.865459
1.685619
5.283952
25.320649
60.723424
153.533816
251.794457
401.069522
511.752963
619.623661
640.232563
591.171980
502.914786
346.876979
235.188007
117.546916
62.260628
23.364425
9.506941
4.368424
3.809929
3.449917
3.226995
3.066659
2.885461
3.245473
3.969669
6.480813
9.502769
15.362501
21.896958
31.499863
37.389994
44.168830
46.961904
47.378540
##ZVALUE=365
0.392795
0.261664
0.165701
0.201464
0.243783
0.322461
0.380874
0.119805
0.058413
0.287890
0.348687
0.190735
0.245571
0.293851
0.269413
0.198483
0.228882
0.324845
0.361800
0.357628
0.224710
0.291467
0.310540
0.211596
0.179410
0.059605
0.235438
0.175834
0.174642
0.197887
0.207424
0.139475
0.196695
0.156760
0.347495
0.252724
0.284910
0.494719
0.332594
0.297427
0.454783
0.320673
0.493526
0.317693
0.308752
0.382662
0.334978
0.288486
0.446439
0.518560
0.438690
0.393987
0.468493
0.478625
0.493526
0.522733
0.600815
0.609756
0.600815
0.750422
0.761747
0.747442
1.048446
0.928640
2.794862
10.284781
39.764643
85.184574
191.491842
301.164985
451.177955
538.072586
606.134534
601.187944
516.576767
418.235660
273.717642
171.208978
77.497959
37.198663
11.642575
5.463958
3.619790
3.329515
3.085732
2.850890
2.682805
2.696514
2.753735
3.303885
5.284548
7.621646
13.000965
18.443465
26.426911
32.155514
##ZVALUE=370
0.219941
0.139475
0.163913
0.139475
0.179410
0.038743
0.186563
0.225902
0.078678
0.187755
0.028610
0.162721
0.133514
0.200868
0.098944
0.158548
0.318885
0.181794
0.423789
0.163913
0.329614
0.218749
0.254512
0.172853
0.299811
0.304580
0.455976
0.295639
0.324845
0.108480
0.042915
0.246763
0.138879
0.354648
0.399947
0.235438
0.193715
0.324845
0.337958
0.337958
0.370741
0.520945
0.526905
0.365973
0.198483
0.348687
0.344515
0.450611
0.440478
0.533462
0.271797
0.366569
0.446439
0.502467
0.479817
0.478625
0.597835
0.599623
0.483990
0.266433
0.609756
0.422597
0.499487
0.702739
0.872612
0.902414
1.291633
6.884933
22.557974
70.272684
130.086541
244.994760
361.656547
509.387851
584.390759
605.518818
562.262535
442.544818
330.617428
187.204480
107.044578
43.316483
20.155907
7.328987
3.984571
3.241897
2.983809
2.712607
2.357960
2.328753
2.119541
2.557635
2.841949
4.046559
6.367564
10.780692
##ZVALUE=375
0.117421
0.239611
0.092983
0.225902
0.248551
0.145435
0.237823
0.101924
0.169873
0.134706
0.193715
0.182986
0.187755
0.191927
0.168681
0.240803
0.132918
0.251532
0.222921
0.288486
0.068545
0.289679
0.188947
0.274777
0.272989
0.205636
0.132918
0.128746
0.233650
0.260472
0.200868
0.291467
0.276566
0.373721
0.225902
0.256896
0.165701
0.302792
0.430942
0.267625
0.321865
0.297427
0.154972
0.406504
0.242591
0.265837
0.360608
0.431538
0.316501
0.442863
0.571609
0.513792
0.430942
0.396967
0.625849
0.379682
0.274777
0.394583
0.470877
0.488758
0.520945
0.503659
0.677705
0.742674
0.685453
0.550747
0.617504
0.897646
0.976920
3.298521
12.937784
45.575500
94.745755
201.428533
304.434896
442.696810
534.368753
595.722795
584.770441
488.309860
382.675529
238.118768
151.027441
76.112747
38.373470
12.172461
5.300641
3.108978
2.984405
2.767444
2.586842
2.231598
2.293587
2.193451
1.908541
2.442598
##ZVALUE=380
0.255704
0.323653
0.225902
0.207424
0.315905
0.272989
0.134706
0.307560
0.293851
0.255704
0.302792
0.311732
0.225902
0.214577
0.304580
0.446439
0.319481
0.282526
0.332594
0.316501
0.277758
0.374913
0.496507
0.323653
0.372529
0.232458
0.262856
0.363588
0.397563
0.330806
0.178814
0.259876
0.335574
0.393987
0.192523
0.486970
0.517964
0.363588
0.320673
0.325441
0.361800
0.404716
0.296831
0.401735
0.420809
0.236630
0.470877
0.296831
0.465512
0.441670
0.392795
0.621676
0.473857
0.469685
0.357628
0.423789
0.552535
0.512600
0.447631
0.552535
0.492930
0.554919
0.306964
0.584722
0.592470
0.724792
0.718832
0.703931
0.562668
0.840425
1.209974
1.818538
6.657839
30.949712
69.798827
157.660842
249.642730
385.982990
485.366583
573.688745
583.985448
514.457822
431.209803
305.833817
207.246542
104.126930
54.067969
19.163489
7.752776
3.340840
2.761483
2.820492
2.539754
2.319813
2.550483
2.201796
##ZVALUE=385
0.111461
0.050664
0.138879
0.185966
0.283718
0.260472
0.124574
0.189543
0.060797
0.106692
0.212789
0.132918
0.406504
0.185966
0.130534
-0.004768
0.256896
-0.023842
0.225902
0.142455
0.119805
0.223517
0.169873
0.171661
0.157952
0.304580
0.289679
0.142455
0.091791
0.301600
0.089407
0.175834
0.197887
0.212789
0.108480
0.318885
0.324845
0.343919
0.373721
0.138879
0.360608
0.266433
0.282526
0.375509
0.237823
0.296831
0.302792
0.256896
0.279546
0.313520
0.331998
0.303984
0.345707
0.257492
0.276566
0.272989
0.128746
0.383854
0.275970
0.225902
0.280738
0.267625
0.385642
0.376701
0.523925
0.395775
0.556707
0.549555
0.575781
0.623465
0.743866
0.672936
0.925660
1.029968
2.830625
17.525554
44.760704
108.627677
188.528895
326.841474
434.411764
542.328954
577.249527
556.178689
493.533611
370.178819
267.021656
148.959756
85.614920
36.106706
14.872551
4.356503
2.891421
2.448559
2.341866
2.275705
##ZVALUE=390
0.109673
0.118613
0.143647
0.208616
0.276566
0.152588
0.048876
0.099540
0.318885
0.329614
0.176430
0.311732
0.189543
0.317693
0.306964
0.172853
0.139475
0.133514
0.061989
0.332594
0.142455
0.197887
-0.040531
0.323653
0.148416
0.233650
0.279546
0.189543
0.372529
0.262856
0.265837
0.293851
0.237823
0.164509
0.301600
0.343919
0.308752
0.058413
0.136495
0.326633
0.212789
0.213981
0.244975
0.245571
0.257492
0.379682
0.384450
0.289679
0.192523
0.393987
0.378489
0.427961
0.351667
0.290871
0.299811
0.383854
0.366569
0.414848
0.301600
0.312924
0.310540
0.343919
0.429749
0.243783
0.376701
0.406504
0.531673
0.467896
0.492930
0.611544
0.617504
0.526905
0.711679
0.754595
0.731945
0.814795
1.474619
8.723736
27.975440
82.566738
151.036978
278.569460
378.441811
488.279462
553.639531
571.540594
531.598926
423.126817
326.661468
201.207995
119.135976
49.766898
22.316575
6.493926
3.354549
2.681613
##ZVALUE=395
0.140667
0.240803
0.224710
0.128746
0.181794
0.151992
0.223517
0.241995
0.050664
0.236630
0.206828
0.225902
0.232458
0.176430
0.106692
0.187755
0.127554
0.126958
0.094771
0.079870
0.084639
0.177622
0.305772
0.121593
0.221729
0.101924
0.150800
0.199676
0.129938
0.173450
0.107884
0.167489
0.278950
0.187755
0.208616
0.269413
0.264645
0.178814
0.187755
0.319481
0.177622
0.255704
0.196695
0.450611
0.232458
0.206828
0.276566
0.346899
0.324845
0.118613
0.260472
0.223517
0.178814
0.331998
0.111461
0.353456
0.355840
0.418425
0.359416
0.270605
0.287890
0.405908
0.453591
0.363588
0.422597
0.308752
0.667572
0.408888
0.516772
0.630617
0.642538
0.489950
0.638962
0.698566
0.432730
0.756979
0.470877
0.710487
1.066923
4.823804
18.703938
63.185692
115.036964
213.621855
311.375856
448.132753
529.373884
584.654808
570.669770
488.101840
386.099815
242.077708
152.191520
67.721605
33.146739
10.984540
##ZVALUE=400
0.190735
0.287890
0.120997
0.167489
0.091791
0.011921
0.028610
0.111461
-0.012517
0.043511
0.071526
-0.037551
0.202656
0.048876
0.088811
0.017881
0.135899
0.039935
0.075698
-0.026822
0.067949
0.110865
-0.049472
0.204444
0.116825
0.077486
0.077486
0.234842
0.113845
0.206828
0.155568
-0.085831
0.071526
-0.030994
0.172853
0.173450
0.240803
0.333786
0.123978
0.362992
0.270605
0.047684
0.215769
0.079870
0.262856
0.237823
0.277758
0.370741
0.247955
0.214577
0.187755
0.211596
0.291467
0.346899
0.145435
0.178814
0.150800
0.156760
0.118613
0.247955
0.380874
0.270605
0.310540
0.190735
0.306964
0.333786
0.355840
0.298619
0.366569
0.408888
0.632405
0.477433
0.491738
0.519753
0.439882
0.440478
0.471473
0.582933
0.566840
0.614524
0.832677
2.458692
9.872913
36.157966
75.728893
164.947510
258.697867
395.596623
487.097502
563.722849
573.108792
505.591631
416.754484
277.470946
184.674859
93.821883
##END
