##TITLE=DDW2
##FORMAT=SPECTACLE-ASCII V-1.2
##DATA TYPE=ULTRAVIOLET SPECTRUM
##SECOND TYPE=ULTRAVIOLET SPECTRUM
##DATE=01/30/18
##TIME=15:34:08
##SPECTROMETER/DATA SYSTEM=SPECTACLE
##XUNITS=NM EM
##YUNITS=ENERGY
##YFACTOR=1
##FIRSTX=220
##LASTX=410
##NPOINTS=96
##3DDATA=Equidistant
##ZUNITS=NM EX
##FIRSTZ=210
##LASTZ=400
##ZPOINTS=39
##XYDATA=(Y..Y)
##ZVALUE=210
13.440847
13.640523
11.778474
11.281967
9.760857
9.357929
9.466410
8.208752
6.169677
4.668832
3.570914
2.442598
2.204776
1.904964
1.859665
2.107620
2.061725
2.320409
2.326965
2.106428
2.434850
2.256632
2.632737
2.228618
2.996922
2.328753
3.023744
3.033876
3.138781
2.814531
3.423691
3.991723
3.128648
3.960729
3.738999
3.437996
3.391504
3.631711
2.971888
4.053712
3.722906
4.301667
3.364682
3.719926
4.013777
3.964901
3.380775
3.838539
3.906488
3.831983
3.890991
3.972650
3.349781
3.977418
4.354715
3.510714
3.706813
3.560781
3.257990
3.526807
3.339648
3.772974
3.527999
3.402829
3.454685
4.020929
3.835559
3.852844
4.383922
5.399585
5.933642
6.089807
7.310510
8.058548
7.947683
8.506775
7.640719
9.294748
8.548498
7.802844
6.688833
6.784797
6.010532
4.605651
4.477501
3.606677
3.902912
3.412962
4.157424
5.497932
6.925464
9.397864
13.443828
16.685724
20.101666
25.610924
##ZVALUE=215
31.695962
31.231642
29.723644
22.583604
17.562509
16.841888
16.295910
14.180541
15.419722
14.752746
10.651946
8.621812
5.554557
4.104972
3.488660
2.638698
2.484918
2.214909
2.040863
2.299547
2.018809
2.143979
2.181530
2.496839
2.570748
2.643466
2.738833
3.043413
3.100634
2.494454
3.472567
2.930760
3.769994
3.334880
3.423691
3.270507
4.240870
3.300905
3.539920
3.091693
3.216863
4.253983
3.597736
3.298521
3.865957
3.892779
3.553629
4.136562
3.698468
3.913641
3.430843
3.297925
3.689528
3.837943
4.304647
3.451705
4.395843
4.139543
4.113913
3.845692
3.703833
3.657937
4.207492
3.728867
4.470944
4.704595
3.876686
5.088449
4.297495
5.668998
6.333590
6.071925
7.643700
7.854700
7.587671
8.391738
7.107854
8.142591
7.098913
6.850958
7.084608
6.170869
6.053448
4.480481
4.025698
4.262924
4.142523
3.796816
4.738569
3.448725
3.752708
3.148913
3.872514
5.467534
6.652474
9.566545
##ZVALUE=220
68.690777
73.095560
71.096420
63.537955
55.042505
44.951439
33.098459
27.494431
24.671555
26.220679
23.587942
24.699569
19.703507
17.853975
13.204813
9.459853
5.694628
4.460812
4.529953
2.512932
2.592802
2.716780
2.541542
2.585649
3.133416
3.310442
3.092885
3.564954
3.085732
3.394485
3.794432
3.850460
2.906919
3.633499
3.376603
4.230738
4.483461
4.062653
4.307628
3.869534
3.890991
3.881454
4.314780
4.058480
3.710985
3.984571
4.180670
4.339814
3.857613
4.286766
4.547834
3.965497
5.151629
4.068613
4.764795
3.926754
3.911853
4.417896
3.718734
3.808737
4.710555
4.704595
4.279613
4.173517
4.066825
4.196763
5.063415
4.341602
5.267859
5.373955
6.542802
6.553531
8.078814
8.661747
8.109808
8.032918
8.738637
9.067655
8.087754
6.867647
7.492900
6.832480
6.615520
4.699826
5.252957
4.632473
4.163980
3.517866
3.748536
3.679991
3.783703
3.872514
3.508925
3.966689
3.783703
3.220439
##ZVALUE=225
87.597966
90.752840
108.697414
124.953985
122.398734
113.046765
97.107887
73.374510
58.170557
47.074556
37.124753
39.290786
39.163828
38.753748
37.073493
32.229424
24.096966
19.683838
14.657974
9.195805
6.331801
3.900528
3.597736
3.028512
3.173947
4.183650
3.678799
3.614426
3.920794
4.192591
3.954768
4.719496
3.988743
4.199743
3.886819
4.249811
4.253983
4.592538
4.139543
4.101992
4.187822
4.879832
4.767776
5.102754
4.899502
4.678965
4.634857
3.892779
4.850626
4.292727
3.874898
3.872514
4.282594
5.216599
5.098581
4.546642
5.251765
4.457831
5.062819
4.173517
4.216433
4.669428
4.589558
4.615784
5.066991
4.435778
5.309582
5.691648
5.399585
6.169677
6.270409
5.845428
7.951856
7.828474
8.509755
8.575916
9.486675
9.366870
7.418990
6.790757
6.509423
5.797744
5.380511
5.338788
4.324913
4.481673
5.039573
4.232526
3.978610
3.821850
3.606677
3.703833
3.954768
3.904700
3.312826
3.817677
##ZVALUE=230
57.511926
63.353777
93.499422
140.632987
176.290870
198.375583
214.328766
196.792483
171.456933
138.014555
96.074939
71.314573
57.509542
55.574775
57.885647
60.374737
61.644912
58.465004
51.477551
40.629506
28.174520
18.068552
11.432767
7.365942
4.940629
4.027486
4.509687
4.897714
4.639626
4.280806
4.596710
4.269481
4.169941
4.254580
4.564524
5.012751
4.332662
4.147887
5.051494
5.495548
4.269481
4.725456
4.494786
4.791617
4.959702
5.232692
4.589558
4.781485
4.811883
4.990697
4.915595
4.046559
5.167723
4.375577
4.936457
5.022883
5.675554
5.287528
4.742742
5.456805
5.276799
5.230904
5.272627
4.819632
5.576611
5.413890
5.692840
5.430579
6.230474
6.757975
6.950498
7.403493
8.162856
7.809997
10.354519
9.630919
8.561611
9.224415
7.922649
8.030534
7.195473
6.964803
5.688667
5.910993
5.803704
5.021691
4.468560
5.879998
5.267859
4.799962
4.792809
5.060434
4.650950
4.810691
4.894733
4.362464
##ZVALUE=235
16.153455
19.033551
36.983490
80.475807
132.215619
196.977854
255.958438
307.585597
328.331590
320.712924
277.355909
224.811435
150.429606
115.954876
90.790987
77.731609
81.136823
81.436634
90.022683
91.090798
82.310438
65.471530
52.631497
35.557747
23.720860
13.969541
10.325909
7.166862
6.125569
5.557537
5.877614
5.746484
5.357862
4.950762
5.516410
5.357862
6.215572
5.199909
5.437732
4.519820
5.432963
4.593730
4.791617
4.311800
5.212426
5.451441
5.262494
5.171895
4.193783
4.509687
4.776716
4.928708
5.094409
5.050898
5.227923
5.277991
4.721880
5.510449
4.957914
4.991889
6.112456
5.620718
4.591942
5.856752
5.828738
5.646944
5.619526
6.157756
6.431937
7.213950
7.438660
8.489490
8.562803
8.487701
9.200573
9.319782
9.258986
9.269714
9.031892
7.538795
8.319616
6.916523
6.485581
6.280541
6.343722
6.347895
5.799532
5.965829
5.449653
6.234646
5.972981
4.955530
5.226731
4.916787
4.505515
4.823804
##ZVALUE=240
1.742840
1.753569
5.886555
14.931560
41.178465
76.201558
142.825842
214.563608
314.587951
372.454524
425.621867
432.757735
392.522812
312.510729
246.537924
161.348581
124.536753
95.868707
89.752674
103.091598
110.674500
114.183426
111.383796
100.553632
80.432892
63.070655
44.304729
31.766891
18.852949
12.510419
10.220408
8.654594
8.351803
7.223487
6.928444
7.535815
6.458759
6.527901
6.454587
6.159544
6.332994
5.288720
5.184412
5.649924
5.208850
5.527735
4.442930
4.963875
4.800558
5.462766
4.766583
4.375577
4.521608
5.270839
5.100965
4.645586
4.464984
5.556941
4.525781
5.442500
4.431605
5.061626
4.026890
5.241632
5.003810
5.266666
5.517602
5.761981
6.252527
6.149411
6.387830
8.457899
8.493662
8.256435
9.546876
8.906722
9.240508
9.007454
7.947683
7.516742
7.532835
7.098913
6.602407
5.598664
5.688667
6.286502
6.307960
4.709959
6.277561
5.907416
5.940795
5.302429
5.481839
5.194545
5.582571
5.276799
##ZVALUE=245
1.152754
1.291633
1.423955
1.501441
3.552437
9.961724
30.768514
63.065886
136.284828
214.055777
322.332978
407.807827
468.700528
492.377877
465.970635
392.825603
321.189761
216.374993
157.533884
108.094811
94.209909
93.633533
107.551813
123.562813
129.832625
125.110745
110.405684
93.321800
67.729950
52.674413
38.177967
22.824407
16.561747
12.365580
9.294748
8.038878
8.266568
5.815625
6.421804
6.139874
5.952716
4.985929
5.425811
5.088449
4.866719
4.713535
4.498959
4.785657
4.488826
4.415512
4.034638
4.338622
5.120635
4.464984
4.030466
3.795624
3.899932
4.778504
4.295707
4.301667
4.602671
4.903674
4.460812
4.158616
4.124641
4.106760
4.948974
5.040765
4.955530
5.498528
6.109476
7.216930
6.388426
6.077886
8.439422
6.897449
7.252693
7.717609
7.123947
7.167459
6.363988
6.526709
6.319880
5.996823
6.225705
6.184578
4.688501
5.389452
5.752444
4.994869
5.255938
4.977584
4.428625
5.342960
5.452633
4.769564
##ZVALUE=250
1.165867
1.070499
1.168847
0.979900
1.155734
1.474619
1.775622
5.348921
22.953749
48.967004
118.791461
192.599893
280.835629
403.085947
484.030843
540.338755
543.274879
489.305854
410.016775
288.382769
203.214884
139.231682
93.988776
86.774826
100.844502
118.993521
132.501721
136.351585
126.804709
120.325685
104.796886
77.310801
57.696700
36.013722
23.766756
13.805628
9.522438
7.799864
6.561875
6.014705
5.750656
5.483627
6.089807
4.682541
5.232692
4.437566
4.384518
4.588962
4.110932
3.786683
4.261732
4.081726
3.961921
3.563762
3.099442
3.856421
3.837943
3.638864
3.354549
3.965497
3.545880
3.862977
3.411770
3.927946
3.910661
3.559589
4.303455
4.367828
4.269481
5.422831
4.864931
5.615950
5.611777
6.127954
6.286502
6.108880
6.123781
5.852580
5.253553
5.519986
5.108714
5.414486
4.969835
4.864931
4.771948
4.553795
3.925562
4.219413
4.068613
4.090667
3.731847
4.069805
4.030466
3.889799
3.831983
3.452897
##ZVALUE=255
0.726581
0.986457
1.059771
0.893474
0.761747
0.963807
1.051426
1.310706
1.522899
3.468990
13.010502
33.060908
90.496540
150.076747
267.044902
377.583504
504.335761
573.385954
614.923835
585.090518
484.319925
381.380916
243.385434
160.752535
110.015869
81.257820
81.992745
103.241801
117.437840
136.457682
139.079690
135.647655
120.562911
97.653866
76.779723
51.578879
36.551952
19.986629
13.151765
7.715821
6.106496
4.890561
4.866719
4.801750
4.537702
4.307628
4.465580
5.044937
3.976822
3.433824
4.133582
3.244877
3.409982
3.357530
3.346801
3.465414
3.514886
3.484488
3.479719
3.205538
3.483891
3.561974
3.666878
3.678799
3.644824
3.410578
3.662705
3.816485
3.922582
4.128814
4.313588
4.837513
4.960895
5.186796
5.005598
4.790425
4.903674
4.915595
4.366636
4.008412
3.997684
3.581643
3.925562
3.425479
3.259778
3.608465
3.639460
3.340840
3.156662
3.262758
2.988577
3.497601
2.627969
2.731681
3.005862
2.513528
##ZVALUE=260
0.845790
0.775456
0.694990
0.757575
0.995994
0.958443
0.777841
1.059771
1.132488
1.248717
0.963807
1.739860
5.215406
23.425817
52.874684
125.727654
209.923983
347.900987
459.513664
598.403811
661.014915
672.151446
593.613982
488.529801
330.471992
228.280425
137.658715
91.827512
70.307851
78.047514
93.783736
120.462775
133.928657
143.193603
139.359832
122.900605
103.965998
75.487494
54.751635
33.698678
21.913648
10.707974
7.250905
4.898906
4.390478
4.082918
3.728867
3.789663
4.003644
3.584623
3.652573
3.535748
3.574491
3.471971
3.444552
3.426671
3.111959
3.319979
3.161430
3.060699
3.081560
3.128648
3.020763
3.302693
3.122687
2.723932
3.410578
3.782511
3.593564
3.609657
3.906488
4.058480
4.151464
4.228950
4.419684
4.498959
4.048944
4.070997
3.816485
3.618598
3.030896
3.101826
3.203750
3.067851
3.136992
3.081560
2.755523
2.713799
2.582669
2.299547
2.577901
2.515912
2.367496
2.124906
1.989603
2.344847
##ZVALUE=265
0.893474
0.730753
0.608563
0.729561
0.880957
0.737906
0.817776
0.815988
0.739694
1.030564
1.021624
1.094937
0.938773
1.306534
3.888607
15.257597
37.673712
99.796653
174.901485
322.845578
444.394946
563.950539
686.464906
721.178651
659.377575
570.264459
418.776870
299.843550
170.002580
108.229518
68.472624
62.890649
74.660778
102.203488
118.882656
138.760805
143.752694
137.330890
122.858882
97.949505
76.589584
49.420595
33.667684
17.821789
10.992885
6.177425
4.537702
4.023910
3.976822
3.836751
3.660917
3.805757
3.444552
3.084540
3.249645
3.285408
3.349781
3.511906
3.397465
3.177524
3.380775
2.961755
3.217459
2.903938
2.607703
3.090501
3.047585
2.853870
3.084540
2.922416
3.164411
3.385544
3.809929
3.955960
4.041791
3.726482
3.415942
3.648996
3.338456
3.179908
2.676845
2.893806
2.642870
2.585649
2.293587
2.494454
2.530813
2.238750
2.034903
2.369881
2.265573
2.217889
2.173781
2.258420
2.343655
2.375841
##ZVALUE=270
0.657439
0.721812
0.716448
0.783801
0.641942
0.767708
0.737906
0.878572
0.810623
0.983477
0.835657
0.853539
0.931621
1.065731
1.298785
1.138449
1.646876
7.010698
21.133423
69.056749
133.179426
228.810906
408.551693
550.195575
700.002909
752.674937
741.526484
675.599575
526.518822
397.281647
269.494653
144.545436
85.654855
53.912997
55.937767
77.386498
97.386837
124.607682
135.454535
144.063830
140.627623
121.392608
101.198554
72.222948
52.914619
29.476881
20.408630
10.912418
6.764531
4.539490
3.973842
3.440976
3.808737
3.432631
3.455877
3.426671
3.510714
3.235936
3.057718
2.738833
2.922416
3.238916
2.692938
2.847910
2.609491
2.710819
2.417564
3.026724
2.796650
2.963543
3.170967
3.399849
3.400445
3.598928
3.323555
3.640652
3.204942
3.217459
2.936721
2.909899
2.680421
2.324581
2.505779
2.279878
2.182722
2.207756
2.236962
2.100468
2.277493
2.217889
2.143979
1.830459
2.060533
1.961589
1.692772
1.906753
##ZVALUE=275
0.714660
0.832677
0.682473
0.744462
0.752807
0.729561
0.969768
0.784993
0.849962
0.885725
0.925660
0.956655
1.053810
0.881553
1.119971
0.841618
0.916719
1.188517
1.472831
3.383756
13.105869
35.757422
104.592443
194.148421
359.573960
483.123660
641.275644
731.831789
777.713656
734.962821
653.622746
484.098792
343.623757
185.999870
109.620690
54.564476
42.957664
52.377582
72.094798
98.692775
117.857456
136.294961
141.866803
133.817792
120.363832
94.972849
75.838566
50.285459
35.252571
20.133853
12.304783
6.902814
4.825592
3.736615
3.451705
3.517866
3.842711
3.573895
3.074408
3.109574
3.356934
3.160834
2.986789
3.232956
2.725720
2.799630
2.860427
2.796650
3.067851
2.764463
3.372431
2.963543
3.277659
3.169775
3.546476
3.499985
3.303885
3.042817
3.066659
2.893806
2.605915
2.556443
2.781749
2.429485
2.684593
2.327561
2.311468
2.376437
2.028942
2.242923
2.145767
2.150536
2.208948
1.731515
1.971722
2.024770
##ZVALUE=280
0.682473
0.552535
0.557899
0.621676
0.697970
0.558496
0.463724
0.624657
0.617504
0.530481
0.572801
0.628829
0.737906
0.613928
0.773668
0.803471
1.126528
0.862479
1.069903
1.176596
1.330972
1.496673
7.601976
25.640726
80.340505
148.809552
282.119513
408.909917
582.702756
699.123740
769.298673
775.401592
701.540709
539.484620
399.020910
231.830478
139.283538
63.326955
39.774776
37.178993
49.215555
73.948503
92.813969
117.532611
131.508708
137.389898
131.113529
115.888715
98.071694
70.752501
52.545667
32.801628
20.640492
11.388659
6.765723
3.957748
3.293753
3.040433
2.757907
2.833605
2.938509
2.678633
2.717972
3.016591
2.803802
2.712607
2.931952
2.937913
2.902746
2.798438
3.042817
3.116727
2.993941
3.010631
3.099442
2.935529
2.985597
2.619624
2.548695
2.386570
2.456903
2.138615
2.026558
2.202988
2.251863
1.852512
1.876950
2.048612
1.956820
1.806617
1.771450
1.995564
1.958609
1.912713
1.894832
1.908541
##ZVALUE=285
0.674725
0.578761
0.650883
0.628829
0.468493
0.558496
0.396967
0.541806
0.653863
0.737906
0.814795
0.714660
0.818968
0.638962
0.730753
0.667572
0.714660
0.857711
0.903606
0.828505
0.824928
0.955462
1.099706
1.373887
4.056692
12.574792
44.578910
93.176961
198.002458
317.075849
450.684428
635.646582
741.325617
803.517699
768.308640
632.404685
497.628450
312.498808
195.384622
92.817545
50.266981
28.170943
30.946732
47.303438
65.909624
94.106793
111.452937
127.744675
134.480000
129.057765
116.710663
96.510649
76.193810
52.122474
35.064816
19.426942
11.811852
6.137490
4.344583
2.903938
2.450943
2.946854
2.600551
2.840757
2.647638
2.890825
2.560616
2.748966
2.639890
2.811551
2.977848
3.009439
2.845526
2.858639
2.681613
3.095865
2.936721
2.809763
2.716780
2.426505
2.302527
2.207756
2.176762
1.822710
2.116561
1.896620
1.965761
2.104640
1.852512
2.105832
1.845956
1.815557
1.661777
1.727939
1.635551
1.885891
##ZVALUE=290
0.655651
0.630617
0.683665
0.637770
0.623465
0.632405
0.631809
0.659823
0.804663
0.682473
0.689626
0.750422
0.652671
0.671744
0.726581
0.743866
0.853539
0.865459
0.790954
0.914931
0.955462
0.842810
1.077652
1.016855
1.187921
1.222491
1.739860
5.081892
24.131536
58.480501
116.997957
245.921016
378.724933
575.079918
702.869892
799.788833
798.980594
697.328448
577.664971
389.972925
260.271430
131.349564
70.854425
30.931830
21.687746
30.102730
42.693615
63.886642
83.202720
106.757879
119.605660
129.323602
125.979781
112.758875
96.610785
71.579814
52.365661
32.128692
20.570755
11.289716
6.816983
3.843904
2.963543
2.752542
2.463460
2.413988
2.489686
2.644658
2.802610
2.791882
2.702475
2.884865
3.141761
3.351569
2.879500
2.748966
2.711415
2.681613
2.429485
2.177954
2.301931
2.090931
2.226830
2.108812
2.045631
2.189875
2.051592
2.092719
2.135634
1.972914
1.868606
1.687407
1.747608
1.822710
1.913905
1.809597
##ZVALUE=295
0.596642
0.420809
0.537634
0.626445
0.602603
0.488758
0.489950
0.554919
0.618696
0.508428
0.596642
0.655651
0.722408
0.744462
0.670552
0.612736
0.731945
0.828505
0.849962
0.811815
0.785589
0.701547
0.837445
1.039505
1.143813
1.291633
1.243949
1.510978
1.631975
2.390742
12.467504
35.552979
82.866549
195.623636
320.647955
514.917970
654.487610
776.529908
809.592605
747.125745
647.114515
464.870930
326.425433
175.363421
96.480846
37.391782
20.509958
18.093586
24.128556
41.510463
56.368709
81.407428
96.121430
115.998983
122.328997
118.544698
107.159615
88.876486
70.495605
48.520565
33.280849
19.178987
12.263656
6.426573
4.382730
2.878904
2.761483
2.558827
2.614856
2.483726
2.457500
2.708435
2.823472
2.699494
2.720952
2.928972
2.609491
2.675653
2.345443
2.362728
2.216697
2.059937
2.004504
2.031922
1.744628
1.994967
1.943707
2.096891
1.950860
1.879930
1.920462
1.859665
1.849532
1.809597
1.775622
1.791716
##ZVALUE=300
0.508428
0.326633
0.499487
0.332594
0.492930
0.431538
0.424981
0.371933
0.539422
0.387430
0.611544
0.466704
0.477433
0.556707
0.641942
0.618696
0.645518
0.579953
0.587702
0.555515
0.522733
0.618696
0.653863
0.576973
0.721812
0.683665
0.825524
0.883937
0.942945
1.104474
1.091957
1.606941
5.444884
18.676519
63.094497
123.973489
261.635780
398.541689
586.954951
704.662800
797.981620
798.119903
696.690679
575.836897
385.600924
252.992511
127.555728
67.415833
25.789738
14.162660
15.412569
22.114515
36.858916
51.212907
74.043870
92.593431
109.150410
115.561485
113.644004
103.966594
87.920427
70.595741
49.089789
34.372807
19.355416
12.026429
6.465912
4.035830
2.926588
2.539754
2.319813
2.298951
2.368689
2.363920
2.535582
2.286434
1.948476
2.042651
2.318621
1.898408
1.922846
2.196431
1.920462
1.975894
1.835823
1.860857
1.946688
1.789927
1.671910
1.617670
1.842976
1.530647
1.514554
1.539588
1.612902
1.801848
##ZVALUE=305
0.403523
0.387430
0.277758
0.470877
0.356436
0.325441
0.445843
0.526905
0.310540
0.334978
0.534654
0.456572
0.418425
0.502467
0.351667
0.488758
0.472665
0.383854
0.556707
0.537634
0.583529
0.633597
0.573993
0.803471
0.624657
0.663996
0.765920
0.840425
0.802875
0.735521
0.850558
0.949502
0.952482
1.257658
2.961755
9.805560
40.035844
88.864565
200.850964
316.330791
496.605635
625.110865
753.434896
790.182948
727.532506
618.706942
447.842479
313.119888
165.883899
94.164610
37.793517
17.593503
10.624528
13.205409
21.629930
32.331944
51.287413
67.675710
88.678598
99.644661
109.172463
107.837915
98.648667
86.419582
63.970685
49.066544
30.143857
19.668937
9.834766
6.239414
3.843904
2.848506
2.446771
2.356768
2.456903
2.446771
2.013445
2.206564
1.886487
2.093911
1.896620
1.913905
2.034903
1.751781
1.968741
1.844764
1.826882
1.943707
1.743436
1.714826
1.445413
1.624823
1.524687
1.418591
1.723766
1.436472
##ZVALUE=310
0.469685
0.416636
0.432730
0.508428
0.447631
0.533462
0.517964
0.432730
0.336766
0.410676
0.378489
0.430942
0.294447
0.425577
0.292659
0.364780
0.531673
0.485778
0.407696
0.404716
0.475645
0.454783
0.506639
0.575781
0.568628
0.604987
0.668764
0.642538
0.677705
0.770688
0.793934
0.806451
0.815988
0.882745
1.252890
1.128912
1.547933
5.052686
17.253757
59.411526
117.673874
245.460868
374.044776
558.333993
681.287646
777.431726
771.845579
680.677891
568.093657
383.245945
257.809758
129.733682
69.342852
25.211573
11.540651
9.072423
11.489987
19.096732
27.956963
44.838786
60.074925
79.489946
92.409849
101.868510
102.583766
93.346834
81.960559
64.279437
48.171878
29.707551
20.347834
11.051893
6.952882
3.838539
3.040433
2.026558
2.114773
2.044439
1.889467
1.733899
1.573563
1.662970
1.712441
1.875758
1.904964
1.867414
1.977682
1.836419
1.650453
1.560450
1.444817
1.618862
1.486540
1.579523
1.445413
1.452565
##ZVALUE=315
0.216961
0.332594
0.233650
0.295639
0.346899
0.378489
0.308752
0.349879
0.272989
0.424981
0.467896
0.413656
0.454783
0.381470
0.392795
0.529885
0.292659
0.475645
0.507832
0.504851
0.499487
0.378489
0.496507
0.502467
0.604987
0.397563
0.507832
0.533462
0.606775
0.681877
0.703931
0.618696
0.621676
0.687838
0.834465
0.978708
0.973940
1.109838
1.213551
2.423525
8.336902
37.342906
83.910823
192.875862
309.123993
494.404435
619.761944
738.269687
768.007636
718.894601
619.276762
452.503562
323.581696
175.062418
97.220540
36.246777
15.066862
7.582903
7.612705
11.194944
16.003847
27.391911
39.282441
57.012439
71.937442
87.628961
95.029473
95.642805
90.694427
75.284839
61.645508
44.170618
30.809641
18.044710
10.980964
5.831718
3.725886
2.651811
2.094507
1.875758
1.910925
1.674891
1.695752
1.507998
1.495481
1.656413
1.575947
1.645684
1.486540
1.623631
1.411438
1.440644
1.503825
1.499653
1.550913
1.467466
##ZVALUE=320
0.500679
0.393987
0.412464
0.421405
0.375509
0.391603
0.390410
0.374913
0.581741
0.474453
0.592470
0.357628
0.528693
0.391603
0.537634
0.481606
0.548959
0.506639
0.479817
0.679493
0.581741
0.580549
0.572801
0.489950
0.410676
0.676513
0.701547
0.698566
0.715852
0.633597
0.812411
0.770688
0.552535
0.804663
0.795722
0.842810
0.879765
0.872612
0.755787
1.008511
1.167655
1.497865
4.369617
22.266507
54.525733
138.476491
231.173635
392.315984
522.566438
676.137805
743.215680
745.442510
675.152540
523.496866
386.853814
219.746828
126.768947
55.252910
25.659800
9.158850
6.300807
6.992817
9.313822
15.019774
22.846460
37.581921
51.474571
68.490505
80.438852
90.098977
91.392994
85.525513
74.932575
57.348609
43.320656
27.568936
18.541813
10.849833
6.338954
3.587604
2.602935
1.870990
1.769662
1.911521
1.756549
1.597404
1.536608
1.652837
1.602769
1.633763
1.575947
1.462698
1.643896
1.397729
1.459718
1.507998
##ZVALUE=325
0.232458
0.216961
0.403523
0.466704
0.327826
0.279546
0.176430
0.309944
0.453591
0.308752
0.233650
0.345707
0.151992
0.386834
0.205636
0.346899
0.361800
0.352859
0.387430
0.407696
0.561476
0.408888
0.327826
0.334978
0.305772
0.588894
0.412464
0.444651
0.440478
0.638962
0.487566
0.596642
0.640750
0.649691
0.532866
0.639558
0.593662
0.633597
0.725985
0.606775
0.859499
0.927448
0.991821
1.278520
2.031922
12.649894
35.180449
96.585751
172.627568
317.297578
443.863869
606.645942
695.814490
735.797882
690.825582
555.163622
427.919626
263.283849
163.856745
74.219704
35.093427
11.719465
6.344914
5.773902
6.147623
8.910894
13.142824
23.702979
34.246445
50.557852
63.903928
77.589750
85.886717
84.716678
79.500675
65.643787
53.648949
37.570000
26.579499
15.431643
9.812713
5.217791
3.335476
2.336502
2.062917
1.690984
1.575947
1.524687
1.563430
1.507998
1.410842
1.326799
1.365542
1.315475
1.486540
1.187921
##ZVALUE=330
0.317693
0.394583
0.240803
0.308752
0.214577
0.271797
0.393987
0.276566
0.298619
0.254512
0.236630
0.411868
0.368953
0.318885
0.297427
0.341535
0.211596
0.268817
0.227690
0.291467
0.334978
0.309944
0.364780
0.355840
0.344515
0.610948
0.376701
0.531673
0.470877
0.658631
0.460744
0.427961
0.541806
0.530481
0.578761
0.621676
0.635982
0.652671
0.639558
0.715852
0.673532
0.841618
0.786781
0.841618
0.863671
0.965595
1.318455
6.010532
18.662810
61.950684
119.911432
242.233872
360.729694
530.963540
638.207793
713.755488
696.694851
593.680739
482.503772
319.201946
208.427906
98.760724
49.750805
17.906427
8.366704
5.279779
4.906654
5.796552
7.679462
13.870597
20.527840
32.117963
44.415593
61.136484
71.409941
78.865886
79.737902
73.306561
63.563585
48.839450
36.202669
23.052692
15.866756
9.801984
6.027818
3.571510
2.589822
1.957417
1.739860
1.564622
1.494884
1.369715
1.480579
1.245737
1.247525
1.066923
##ZVALUE=335
0.263453
0.266433
0.221729
0.278950
0.068545
0.151992
0.459552
0.389814
0.281930
0.138879
0.127554
0.310540
0.212789
0.362992
0.366569
0.486970
0.354648
0.277758
0.443459
0.234842
0.445843
0.447631
0.294447
0.361800
0.355840
0.328422
0.442863
0.513792
0.378489
0.443459
0.315905
0.476837
0.585914
0.555515
0.583529
0.523925
0.523925
0.470877
0.558496
0.603795
0.553727
0.679493
0.678897
0.498891
0.822544
0.841618
0.861883
0.969768
0.985861
2.559423
9.233952
37.813783
81.904531
182.265639
292.419791
462.517738
576.813817
674.587488
690.782666
626.721978
529.571772
369.310975
253.715515
132.659674
70.087910
24.226904
5.632639
5.250573
4.710555
4.691482
5.525947
7.226467
16.836524
20.184517
37.543774
42.450428
56.429505
66.336989
73.402524
74.418783
62.827468
57.360530
41.113496
33.373833
16.763806
15.071630
10.341406
6.042719
3.893971
1.630783
1.834631
1.391768
1.341701
1.155734
1.377463
1.336932
##ZVALUE=340
0.216961
0.300407
0.220537
0.232458
0.053644
0.276566
0.322461
0.253916
0.207424
0.271797
0.365973
0.300407
0.264645
0.333786
0.259876
0.306964
0.336766
0.150800
0.351667
0.364780
0.426769
0.197887
0.293851
0.198483
0.274777
0.257492
0.356436
0.433922
0.367761
0.394583
0.296831
0.456572
0.342727
0.416636
0.393987
0.491738
0.475645
0.547767
0.519753
0.455976
0.670552
0.427961
0.579953
0.595450
0.471473
0.589490
0.714660
0.813603
0.785589
0.820756
0.926852
1.412630
4.508495
22.331476
55.380464
136.754513
234.088898
390.963554
503.308773
622.204542
664.176941
636.449456
558.393002
416.488647
296.557546
156.965852
88.026524
35.637617
14.929771
5.904436
4.810691
4.427433
4.404783
5.228519
7.079840
11.535883
17.861724
29.358864
40.018559
53.640604
62.717795
68.431497
69.194436
64.819455
57.701468
45.608878
35.174489
23.445487
16.663671
9.843707
6.054640
3.279448
2.255440
1.618862
1.368523
1.247525
##ZVALUE=345
0.210404
0.202656
0.107884
0.275970
0.298619
0.168681
0.254512
0.272989
0.207424
0.327826
0.176430
0.211596
0.272989
0.279546
0.401735
0.340939
0.382662
0.459552
0.296831
0.346899
0.354648
0.319481
0.222921
0.317693
0.341535
0.345707
0.242591
0.451803
0.522733
0.446439
0.392795
0.316501
0.289679
0.355840
0.488758
0.298619
0.291467
0.386834
0.497699
0.422597
0.384450
0.482798
0.561476
0.587702
0.475645
0.463724
0.526905
0.615716
0.656843
0.609756
0.684857
0.711679
0.796914
0.987649
2.011657
12.879968
34.887791
95.421672
170.552731
305.397511
422.718525
561.999679
630.078912
643.673539
593.616962
460.089445
344.959497
207.089782
118.434429
47.969818
21.960735
7.785559
5.124807
4.402995
4.172921
3.963709
4.657507
6.498694
9.715557
17.282963
25.335550
37.571788
46.693683
56.027770
61.762929
63.487887
61.113834
52.540898
44.929981
33.631921
25.092959
15.039444
9.670854
5.539656
3.616810
2.176762
##ZVALUE=350
0.300407
0.181794
0.224710
0.288486
0.337958
0.276566
0.263453
0.142455
0.308752
0.193715
0.419617
0.406504
0.116825
0.309944
0.390410
0.231862
0.179410
0.336766
0.306964
0.303984
0.397563
0.318885
0.254512
0.263453
0.287890
0.316501
0.390410
0.243783
0.461936
0.356436
0.423789
0.282526
0.333786
0.437498
0.394583
0.318885
0.451803
0.322461
0.279546
0.405908
0.408888
0.444651
0.384450
0.320673
0.402927
0.442863
0.541806
0.524521
0.616908
0.673532
0.676513
0.728965
0.674725
0.599623
0.703931
0.960827
1.237988
6.313920
20.263791
62.772632
120.469928
240.694880
349.054933
493.736863
582.263470
633.252859
604.775548
505.717993
391.129851
236.392617
147.073865
68.386793
31.930804
9.745955
5.304813
4.235506
3.782511
3.570914
3.477931
4.087687
5.841851
10.032654
14.312863
22.589564
30.574799
42.145848
49.701929
56.628585
57.856441
55.691600
50.759912
40.605664
32.133460
21.989942
15.835762
9.618998
##ZVALUE=355
0.238419
0.250936
0.196695
0.307560
0.245571
0.254512
0.281930
0.150800
0.130534
0.455976
0.297427
0.371933
0.327826
0.278950
0.322461
0.282526
0.263453
0.215769
0.338554
0.270605
0.258684
0.472665
0.329614
0.240803
0.349879
0.392795
0.246763
0.297427
0.323653
0.246763
0.444651
0.309944
0.275970
0.336766
0.312924
0.427961
0.310540
0.417829
0.283718
0.366569
0.468493
0.375509
0.348687
0.554919
0.441670
0.445843
0.638962
0.534654
0.567436
0.518560
0.542998
0.615716
0.650883
0.809431
0.664592
0.772476
0.795722
0.839829
1.020432
2.895594
10.396838
41.055679
85.369945
179.960728
283.614993
438.145995
536.062717
605.983734
605.813861
522.008538
424.440503
285.575986
182.011724
82.125664
40.290952
13.113618
5.954504
4.180670
3.647804
3.452897
3.224611
3.182888
3.575683
5.015731
7.287860
12.449622
18.377900
27.855635
35.786629
44.021606
49.097538
52.400827
51.517487
45.552850
39.080977
30.030608
##ZVALUE=360
0.139475
0.158548
0.225902
0.254512
0.263453
0.179410
0.286698
0.248551
0.212789
0.130534
0.308752
0.156760
0.348687
0.216961
0.207424
0.265837
0.294447
0.371933
0.326633
0.478625
0.269413
0.281930
0.217557
0.200868
0.198483
0.187755
0.206828
0.225902
0.236630
0.214577
0.412464
0.278950
0.197887
0.273585
0.434518
0.368953
0.293851
0.321865
0.377893
0.383854
0.295639
0.203848
0.437498
0.403523
0.223517
0.530481
0.421405
0.364780
0.366569
0.336766
0.537634
0.570416
0.574589
0.620484
0.671744
0.630617
0.903606
0.809431
0.871420
0.867844
1.014471
1.481771
4.813671
21.912456
53.417683
131.249428
216.767788
354.040861
463.566780
571.606755
599.098802
557.110906
473.710895
326.382518
220.401883
108.044744
57.330728
21.419525
8.771420
4.030466
3.450513
3.401637
3.193617
2.950430
2.822876
3.188848
3.978610
6.312728
9.339452
15.121698
21.621585
30.898452
37.566423
44.706464
47.454834
47.411919
##ZVALUE=365
0.291467
0.258684
0.452995
0.318885
0.323653
0.360608
0.404716
0.169873
0.248551
0.295639
0.208616
0.356436
0.417829
0.322461
0.380874
0.509620
0.311732
0.267625
0.511408
0.480413
0.372529
0.277758
0.460744
0.401735
0.375509
0.289679
0.327826
0.421405
0.313520
0.390410
0.416636
0.295639
0.382662
0.379682
0.487566
0.312924
0.452995
0.375509
0.397563
0.447631
0.447631
0.473857
0.614524
0.498891
0.520945
0.507832
0.486970
0.493526
0.527501
0.544786
0.527501
0.328422
0.294447
0.550747
0.642538
0.747442
0.603795
0.649691
0.627637
0.881553
0.717640
0.996590
1.090765
1.282692
2.147555
12.789965
34.340620
89.473724
163.711905
298.822522
404.266715
517.319441
569.873452
561.582446
497.027636
366.813540
264.166594
146.619678
82.003474
30.442476
12.597442
4.816651
3.674626
3.144741
3.051758
2.846718
2.644658
2.500415
2.521873
3.367662
4.614592
8.295774
12.417436
19.471645
25.578737
33.407807
##ZVALUE=370
0.142455
0.278950
0.233650
0.217557
0.148416
0.224710
0.321865
0.258684
0.264645
0.141859
0.342727
0.403523
0.396967
0.263453
0.336766
0.204444
0.026822
0.189543
0.274777
0.360608
0.228882
0.205636
0.237823
0.161529
0.382662
0.165701
0.112653
0.368953
0.288486
0.197887
0.261664
0.279546
0.285506
0.436902
0.363588
0.366569
0.362992
0.271797
0.367761
0.379682
0.363588
0.338554
0.544786
0.495911
0.344515
0.300407
0.389814
0.428557
0.323653
0.405908
0.427961
0.374913
0.444651
0.309944
0.501871
0.515580
0.589490
0.668764
0.676513
0.470877
0.821948
0.825524
0.651479
0.743866
0.838637
0.913739
1.314878
6.857514
24.019480
77.206492
140.467882
256.178975
365.430713
496.065617
560.133457
572.514534
525.823832
414.497852
308.989882
175.120831
99.642873
39.799809
18.519759
6.845593
3.963709
3.248453
2.909899
2.771616
2.620816
2.272725
2.228618
2.270937
2.650619
4.315972
6.557703
10.784864
##ZVALUE=375
0.182986
0.331998
0.273585
0.286698
0.357628
0.207424
0.222921
0.190735
0.117421
0.255704
0.268817
0.356436
0.230670
0.123978
0.163913
0.206828
0.219941
0.447631
0.257492
0.223517
0.212789
0.371933
0.404716
0.241995
0.312924
0.331998
0.445843
0.231862
0.112653
0.255704
0.205636
0.328422
0.188947
0.298619
0.255704
0.416636
0.355840
0.427961
0.273585
0.329614
0.502467
0.366569
0.428557
0.296831
0.316501
0.379682
0.483990
0.352859
0.487566
0.565648
0.364780
0.343919
0.337958
0.429749
0.503659
0.474453
0.411868
0.395775
0.542998
0.488758
0.566840
0.647902
0.530481
0.507832
0.615716
0.478625
0.812411
0.671744
1.050830
2.832413
15.604496
39.955974
106.060505
187.142491
325.126648
430.516005
539.819002
582.537651
553.873777
482.008457
343.945622
245.599747
139.861703
80.182552
31.876564
13.383627
4.697442
3.073812
2.775788
2.792478
2.466440
2.357960
2.184510
1.934767
2.065897
2.262592
##ZVALUE=380
0.277758
0.315905
0.153780
0.225902
0.235438
0.252724
0.156760
0.084639
0.268817
0.280738
0.283718
0.409484
0.273585
0.348687
0.270605
0.225902
0.152588
0.324845
0.198483
0.287890
0.215769
0.228882
0.271797
0.241995
0.280738
0.202656
0.284910
0.167489
0.380874
0.316501
0.282526
0.101924
0.230670
0.303984
0.261664
0.410676
0.385642
0.216961
0.342727
0.227690
0.352859
0.480413
0.191927
0.217557
0.269413
0.329614
0.468493
0.238419
0.266433
0.229478
0.320673
0.292659
0.359416
0.285506
0.390410
0.447631
0.399947
0.482798
0.354648
0.559688
0.542998
0.526905
0.448823
0.524521
0.432730
0.564456
0.557899
0.805855
0.954866
0.874996
1.072884
2.271533
8.589625
35.640597
77.094436
170.535445
267.897844
403.132439
501.231551
580.058694
578.621626
500.702858
410.706997
287.366509
194.411874
98.075867
51.899552
18.899441
7.664561
3.418922
2.666712
2.706647
2.407432
2.216697
2.007484
1.921654
##ZVALUE=385
0.227690
0.115633
0.149608
0.207424
0.345707
0.263453
0.214577
0.167489
0.234842
0.237823
0.275970
0.055432
0.098944
0.181794
0.256896
0.079870
0.198483
0.351667
0.256896
0.273585
0.305772
0.162721
0.219941
0.295639
0.265837
0.115633
0.208616
0.179410
0.302792
0.131726
0.178814
0.187755
0.166893
0.145435
0.239611
0.194907
0.330806
0.339746
0.323653
0.293851
0.349879
0.394583
0.155568
0.302792
0.258684
0.289679
0.137687
0.329614
0.453591
0.379682
0.357628
0.286698
0.327826
0.286698
0.328422
0.386834
0.475645
0.370741
0.366569
0.421405
0.420809
0.441670
0.399947
0.601411
0.549555
0.608563
0.550747
0.613928
0.668764
0.649691
0.861883
0.782609
0.939965
1.063943
3.222823
18.890500
48.403740
117.910504
203.967690
346.465707
452.777743
554.174781
581.405759
548.519492
481.547713
353.642702
251.932740
138.082504
78.975558
32.743812
13.468862
4.200935
2.946854
2.458692
2.259612
2.591610
##ZVALUE=390
0.159740
0.347495
0.180602
0.246763
0.095963
0.168681
0.253916
0.289679
0.094771
0.096560
0.114441
0.162721
0.252724
0.249743
0.293851
0.326633
0.124574
0.292659
0.071526
0.265837
0.298619
0.251532
0.252724
0.236630
0.416636
0.237823
0.246763
0.348687
0.320673
0.268817
0.192523
0.331998
0.243783
0.218749
0.269413
0.382662
0.338554
0.242591
0.332594
0.263453
0.335574
0.362992
0.332594
0.193715
0.051856
0.264645
0.379682
0.319481
0.427961
0.315905
0.304580
0.181794
0.284910
0.268817
0.390410
0.273585
0.315905
0.405908
0.275970
0.452995
0.334978
0.216961
0.223517
0.442863
0.356436
0.438690
0.396967
0.459552
0.598431
0.696778
0.664592
0.790954
0.840425
1.035929
0.962615
0.813603
1.492500
8.128881
24.829507
77.570677
146.799684
277.399421
386.165977
508.306623
562.674999
570.531487
526.661873
417.718887
318.666697
196.649432
114.813447
48.062801
22.650957
7.070899
3.519654
2.582669
##ZVALUE=395
0.330806
0.159740
0.140667
0.298619
0.249743
0.179410
0.133514
0.141859
0.005960
0.154972
0.256896
0.205636
0.167489
0.193715
0.259876
0.198483
0.232458
0.245571
0.233650
0.259876
0.144839
0.065565
0.255704
0.175834
0.383854
0.206828
0.358820
0.250936
0.348687
0.237823
0.237823
0.090599
0.329614
0.202656
0.410676
0.307560
0.254512
0.291467
0.300407
0.354648
0.430942
0.320673
0.385642
0.337958
0.297427
0.264645
0.359416
0.374913
0.345707
0.371933
0.254512
0.256896
0.397563
0.298619
0.211596
0.358820
0.299811
0.209808
0.430942
0.339746
0.371933
0.320673
0.483990
0.341535
0.532866
0.562668
0.398755
0.471473
0.544786
0.561476
0.644922
0.665784
0.710487
0.701547
0.756979
0.789762
0.652671
0.849962
1.143813
4.267693
15.167594
53.678751
104.042888
203.351974
305.795670
446.861982
529.929996
579.681993
565.101504
474.914908
374.813676
235.152841
148.550868
66.221952
32.012463
10.762811
##ZVALUE=400
0.379682
0.493526
0.226498
0.290871
0.142455
0.192523
0.250936
0.054836
0.260472
0.278950
0.155568
0.195503
0.228882
0.242591
0.094771
0.273585
0.172853
0.296831
0.206828
0.202656
0.134706
0.144839
0.239611
0.240803
0.189543
0.415444
0.184774
0.408888
0.185966
0.235438
0.132918
0.148416
0.150800
0.348687
0.270605
0.201464
0.155568
0.330806
0.304580
0.190735
0.339746
0.221729
0.300407
0.249743
0.314713
0.341535
0.400543
0.305772
0.360608
0.316501
0.308752
0.220537
0.247955
0.462532
0.399947
0.408888
0.340939
0.374913
0.278950
0.291467
0.282526
0.433922
0.332594
0.509620
0.359416
0.493526
0.536442
0.539422
0.508428
0.555515
0.548959
0.643730
0.654459
0.600815
0.656843
0.767708
0.721812
0.624657
0.677705
0.692606
1.009703
2.339482
8.345842
29.849410
64.613819
146.525502
234.851837
362.573862
450.313687
526.466966
538.226962
477.847457
396.474600
268.011689
178.629756
90.295672
##END
