##TITLE=FDDW1
##FORMAT=SPECTACLE-ASCII V-1.2
##DATA TYPE=ULTRAVIOLET SPECTRUM
##SECOND TYPE=ULTRAVIOLET SPECTRUM
##DATE=01/30/18
##TIME=15:37:13
##SPECTROMETER/DATA SYSTEM=SPECTACLE
##XUNITS=NM EM
##YUNITS=ENERGY
##YFACTOR=1
##FIRSTX=220
##LASTX=410
##NPOINTS=96
##3DDATA=Equidistant
##ZUNITS=NM EX
##FIRSTZ=210
##LASTZ=400
##ZPOINTS=39
##XYDATA=(Y..Y)
##ZVALUE=210
13.970733
14.429688
12.081861
11.405945
9.946823
9.376407
9.668469
7.855892
5.693436
5.026460
3.557801
2.971888
2.238750
1.916885
1.752973
2.551675
2.234578
2.001524
2.320409
1.945496
2.433658
2.442598
2.891421
2.419949
3.629923
3.491640
4.317760
5.075932
4.918575
5.569458
7.560849
8.253455
7.426739
8.379817
8.038878
9.644628
10.102987
10.698438
8.907914
8.817911
9.517670
8.773804
7.812977
8.044839
7.835627
6.500483
6.730556
7.162690
6.497502
7.606745
6.539822
5.842447
5.972981
6.147623
5.585551
4.972816
5.285740
5.085468
5.418658
5.357862
4.409552
4.697442
5.027652
5.231500
3.974438
4.615784
5.595684
5.322695
6.111860
5.937815
7.104874
7.517934
8.557439
9.795427
10.424852
10.762811
11.513829
10.523796
10.186434
9.530783
9.565949
6.935596
7.025599
6.765723
5.524755
5.254745
4.289746
4.996657
4.742742
5.172491
9.166598
11.179447
14.794469
18.089414
24.076700
28.987527
##ZVALUE=215
37.647486
34.574866
29.849410
23.929477
20.607710
17.858744
16.114712
14.254451
15.919805
14.418960
12.257695
9.047985
6.562471
4.927516
3.487468
2.426505
2.312660
2.423525
2.666712
2.575517
2.496839
2.858639
2.459884
2.804995
3.501773
3.708601
4.590750
5.768538
7.930994
7.040501
7.998943
8.425713
9.342432
9.885430
11.096597
11.699796
10.641813
11.446476
11.046529
11.312962
10.369420
10.035634
9.963512
8.928776
8.289814
8.395910
7.363558
7.703900
7.408857
7.459521
7.476807
6.844997
6.701946
6.316900
5.390644
5.253553
5.308986
5.090833
4.921556
5.863905
5.979538
5.036592
5.313754
4.955530
4.712939
5.170703
5.547404
5.246997
5.506873
5.897880
7.759929
6.814599
8.058548
8.517504
9.466410
10.910630
9.697676
9.477735
9.895563
7.475615
7.554889
7.564425
6.890893
6.491542
5.049706
5.568862
4.579425
3.594756
3.855824
3.602505
3.794432
4.478693
4.779696
5.124807
7.023811
8.470416
##ZVALUE=220
74.867606
75.061917
78.019500
66.170692
58.070421
43.708682
36.124587
29.833913
27.100444
25.855899
25.028586
23.205876
20.105839
19.277930
12.799501
10.789633
7.550716
4.681945
3.512502
3.014803
3.034472
2.879500
3.644824
2.750754
3.983974
3.874898
5.802512
7.146597
7.406473
8.635521
9.479523
11.307597
12.909770
11.788607
11.968613
13.958812
12.986660
13.396740
13.508797
12.973547
12.664795
11.366606
10.726452
11.216998
11.617541
9.657741
10.402799
8.752942
8.685589
8.148551
7.360578
7.836819
7.115602
6.904602
7.176995
6.370544
6.249547
6.890893
6.168485
5.924702
5.758405
5.760789
5.462766
5.246997
5.563498
5.665421
5.584955
5.660653
6.655455
6.359816
7.172823
7.696748
8.424520
9.102821
8.886456
10.181665
8.887649
9.323955
9.366870
8.772612
8.366704
6.334782
6.892681
5.735755
5.859733
4.677773
4.689693
4.571676
4.439950
3.769994
4.133582
3.981590
4.110932
3.463626
4.020929
3.214478
##ZVALUE=225
88.865757
91.143847
114.204884
124.757886
125.161409
118.123889
102.737546
77.333450
60.463548
45.960546
36.510825
36.666989
40.194988
39.786696
36.942959
32.574534
24.904609
21.123886
13.128519
8.696914
5.300641
4.694462
3.740788
3.723502
3.810525
4.612803
5.602837
6.595850
7.578731
7.996559
8.790493
11.246800
11.191964
12.889504
12.282729
12.802482
12.827516
13.537407
13.029575
12.510419
12.005568
12.148619
11.215806
11.124611
10.193586
10.102987
8.968711
8.663535
9.091496
8.275509
9.074807
6.986856
7.829666
7.445812
8.068681
7.487535
7.120967
6.265640
6.423593
7.349849
6.548762
5.839467
6.594658
6.778836
6.025434
6.300807
6.246567
6.189942
6.084442
6.733537
7.078648
8.086562
8.621812
9.057522
8.735657
8.363724
8.507967
9.455681
8.655787
7.836819
6.833673
5.883574
6.341934
5.944967
4.990697
5.545616
5.079508
5.080700
4.360676
4.146695
4.527569
4.688501
4.741549
4.160404
4.318953
4.381537
##ZVALUE=230
57.915449
65.249801
93.083978
138.968825
170.476437
204.167962
213.396549
191.082954
169.806480
144.621730
101.025701
78.158975
62.425733
55.983663
61.097741
62.940717
58.687925
57.990551
48.976541
39.013624
30.568838
17.359853
12.482405
6.959438
5.212426
5.750656
5.487800
6.482601
7.028580
7.611513
8.225441
10.314584
9.437799
9.292960
9.725690
10.661483
10.122657
10.446906
10.936856
8.809566
9.914637
10.086894
8.700490
8.408427
9.084940
9.008646
9.747744
7.978678
7.538795
7.592440
7.179976
7.081628
7.229447
7.636547
6.891489
6.594658
6.726980
7.551908
7.414818
7.307529
5.926490
6.837845
6.505847
6.472468
6.608963
7.113814
6.533861
7.327795
6.457567
6.833673
8.354783
8.198619
8.300543
8.969903
9.812713
10.751486
9.484887
9.141564
8.925796
8.358955
8.165836
6.596446
7.409453
6.283522
5.561709
5.380511
6.322861
5.558729
5.293489
5.368590
4.892945
4.541874
5.164742
4.290938
3.798604
4.553795
##ZVALUE=235
16.393661
18.321872
39.215684
85.970759
130.620599
201.427937
254.470706
317.494869
335.918665
330.302715
284.732580
233.177543
161.183476
120.967627
91.288686
80.827475
81.541538
85.011721
92.270970
90.397000
82.073808
69.008470
55.769682
35.842657
24.856925
14.435649
10.103583
7.849932
7.079840
7.074475
7.573962
7.578731
7.314682
8.215904
7.825494
8.169413
8.032918
7.624626
8.405447
9.014606
8.473992
9.209514
7.954836
8.473992
8.343458
8.291602
8.007884
7.222891
8.213520
7.753968
7.939935
7.346869
7.256866
6.572604
7.787943
7.498860
6.594658
7.514954
7.284880
7.335544
6.745458
6.604791
7.974505
6.944537
7.073879
6.907582
6.917715
7.466674
7.035732
7.867813
8.439422
9.265542
9.301901
10.200739
9.787679
9.550452
10.491610
9.424686
9.452701
9.789467
8.666515
8.016825
7.567406
6.974936
6.387830
6.112456
6.317496
6.194711
5.908608
6.535649
5.788803
6.063581
5.905628
5.729795
5.443692
4.687905
##ZVALUE=240
1.112819
1.459718
5.792975
14.815927
34.743547
82.693696
139.044523
238.254666
313.775539
411.473513
452.880859
464.037657
428.272486
340.876579
271.305442
178.317428
133.024454
102.052689
94.391704
104.425550
112.994909
117.335916
112.522840
101.600885
79.306960
63.631535
47.688484
35.534501
19.789934
14.556646
9.984970
8.951426
9.247661
9.267926
8.842945
8.985996
8.815527
7.984638
7.798672
7.911921
7.956624
7.861853
7.022619
7.942915
7.122755
7.829666
6.831884
7.731915
7.903576
6.736517
6.145835
6.990433
7.274747
7.070899
6.933808
7.323623
6.290674
6.106496
6.043911
6.724000
7.021427
6.749630
6.685853
7.371902
6.130934
6.684661
6.464720
7.323623
7.329583
7.444620
8.016825
9.048581
9.213686
10.561943
9.114742
9.950995
10.021925
9.572506
9.512901
8.463860
9.148717
7.059574
7.361770
7.577538
5.992651
6.161928
6.771684
7.302761
6.487966
6.010532
5.661845
6.355643
6.358624
5.885959
5.466938
4.749894
##ZVALUE=245
1.267791
1.354814
1.108646
1.529455
3.214478
11.245608
25.823712
71.485639
127.166510
198.219419
328.289866
430.732965
532.606840
558.471680
537.529588
479.824543
362.983942
271.714926
241.566896
122.803450
100.987554
99.805593
108.071566
126.224756
127.848983
123.776793
113.945603
91.677904
75.780749
54.033995
40.118694
25.336742
17.659664
12.490749
10.309815
10.037422
9.601712
9.357929
10.059476
8.585453
9.287596
8.039474
8.655787
7.794499
7.621646
7.459521
8.307695
8.103848
7.729530
6.756783
6.604791
6.492734
6.895661
7.405877
6.102920
5.984902
6.368756
7.195473
6.608963
6.621480
6.064773
6.318688
5.889535
6.224513
5.931854
6.014705
6.298423
5.786419
6.144643
6.777644
6.583929
8.285642
7.783771
8.547902
8.771420
9.180903
8.758903
8.787513
9.341836
7.931590
7.743835
7.356405
6.865859
8.002520
6.300807
5.875826
6.026626
5.075932
5.789995
5.211830
5.623698
5.298853
4.991889
5.037785
5.310774
5.661845
##ZVALUE=250
1.258850
1.227856
1.103878
1.329780
1.462698
1.414418
1.525879
6.639957
19.445419
52.512884
103.216767
212.776661
305.087566
440.974832
521.667600
594.142675
585.500598
521.630645
441.392660
308.317542
212.375522
146.341920
100.140572
91.347694
102.617741
121.958852
133.365989
137.594938
134.024620
120.996833
101.273656
81.565976
60.305595
39.553642
28.002858
16.730428
12.315512
10.593534
9.650588
9.892583
8.839965
9.022951
9.002686
8.507967
8.157492
8.422732
7.548928
7.350445
7.597804
6.884933
7.285476
7.129908
6.621480
6.083846
6.378889
6.484985
6.201863
6.304979
5.470514
5.844831
5.931854
5.675554
5.257726
5.269647
5.219579
5.683899
5.527735
5.477667
5.972981
5.898476
5.967617
6.627440
6.024837
6.812811
6.713867
7.683635
7.576942
7.916689
7.196665
6.663799
6.163716
6.030798
5.391836
5.541444
5.175471
4.994869
5.026460
4.906654
4.870892
4.928708
4.694462
4.809499
4.321933
4.364848
4.323721
4.008412
##ZVALUE=255
1.112819
0.976920
1.213551
1.236796
0.989437
1.060963
1.194477
1.222491
1.562834
3.273487
16.933680
38.800836
83.277822
173.774958
266.112685
407.795906
513.442755
610.177517
639.894605
599.289536
519.028902
419.726968
266.442895
175.109506
105.418563
86.606741
88.473558
100.152493
125.112534
137.098432
142.588615
140.551925
126.134753
103.752613
83.035827
57.868958
39.856434
25.559664
18.208623
12.664795
9.533763
9.230971
9.688735
9.776950
8.825660
8.790493
8.758903
8.162856
7.263422
7.485747
7.513762
7.059574
7.253885
6.821752
6.303787
6.677508
6.387830
5.944967
5.345941
5.541444
5.300641
5.159974
5.248785
5.093813
4.572868
4.587770
4.678965
4.933476
5.135536
5.900860
5.926490
6.128550
6.557703
6.093979
6.321669
6.021857
6.105900
5.866885
5.344748
5.707741
4.943609
5.201697
4.683733
4.449487
4.705787
4.316568
3.430843
3.708601
3.713965
3.708601
3.993511
3.552437
3.651977
3.961921
3.860593
3.809929
##ZVALUE=260
0.922680
0.854731
0.911951
1.084805
0.808835
0.960827
1.047850
1.113415
1.393557
1.327991
1.403689
2.322793
6.510615
27.811527
64.164400
150.349736
238.601565
390.938520
508.425832
651.538968
710.247755
711.624622
631.172657
515.497923
343.998671
240.212679
142.927766
97.322464
74.673891
80.242753
97.705722
123.979449
138.900876
147.814751
145.517588
131.829977
112.128854
83.655715
62.023997
39.150715
28.150678
16.631484
12.932420
10.412931
9.843707
9.204745
9.098649
8.710623
8.432865
8.019805
7.941723
7.544756
7.092953
6.957650
6.982684
6.403923
5.791783
5.482435
5.279779
5.333424
5.113482
5.029440
5.100965
5.069971
4.893541
4.903674
4.486442
4.619956
4.605651
4.794598
5.225539
5.164742
5.764961
5.809665
5.689859
5.514622
5.579591
5.475879
5.284548
4.976988
4.518628
4.483461
4.164577
4.031658
3.403425
3.648996
3.225803
3.259778
3.459454
3.131628
3.325939
3.432631
3.415942
2.999902
2.961755
3.367662
##ZVALUE=265
0.832677
0.816584
0.829697
0.771880
0.787973
0.860691
1.009703
0.978708
0.972748
1.138449
1.045465
1.411438
1.399517
1.605749
3.176928
16.233921
44.435859
102.377534
250.012875
404.012799
641.461015
821.651816
956.498981
945.456624
823.898911
679.266453
480.494499
332.459807
182.506442
115.379691
74.293613
66.956878
81.309676
108.267665
127.526522
147.559643
153.678656
143.508911
132.829547
106.423497
83.755851
57.767630
40.307641
25.795698
18.017888
13.319850
10.431409
9.576678
9.463429
8.735657
8.334517
8.503795
7.817745
7.555485
6.815791
6.414652
6.624460
6.449819
5.787611
5.371571
5.131960
4.970431
4.746914
5.119443
4.675984
4.590750
4.554987
4.219413
4.351735
4.491806
4.651546
5.358458
5.283952
4.870892
5.153418
4.917979
4.886985
4.867911
4.781485
4.098415
3.880858
3.714561
3.534555
3.131628
2.985597
3.263950
3.089905
3.211498
2.944469
3.013611
3.064871
3.190637
2.586842
2.649426
2.891421
2.814531
##ZVALUE=270
0.837445
0.845790
0.814795
0.838637
0.873804
0.922680
0.844598
0.900626
0.934601
0.863671
0.811815
1.108646
1.112819
1.417994
1.152754
1.433492
1.583695
7.236600
21.362901
69.178939
148.344636
277.248025
523.237586
720.613599
939.223766
1003.356576
957.161784
847.941041
627.890825
460.739732
312.927961
162.917972
96.269846
61.236620
62.238574
84.022880
105.550885
132.406950
145.474672
151.453614
146.783590
128.740668
110.070705
83.203912
61.969757
37.962794
27.309656
16.360879
12.881756
9.252429
8.842945
8.022785
7.825494
7.159710
6.454587
6.786585
6.678700
6.340742
5.799532
5.213618
5.444884
4.761815
4.626513
4.795790
4.863739
4.304647
4.083514
3.902912
4.386902
4.526973
4.203916
4.577637
4.707575
4.736781
4.649758
4.896522
4.370809
4.141927
3.981590
3.719926
3.356934
3.201962
3.474951
2.925992
3.191829
2.783537
2.798438
2.615452
2.385974
2.653599
2.755523
2.695918
2.565980
2.655983
2.766848
2.688766
##ZVALUE=275
0.723600
0.599623
0.628829
0.454783
0.750422
0.766516
0.533462
0.756979
0.587702
0.716448
0.765920
0.830889
0.997782
0.996590
0.915527
1.080632
0.909567
1.301765
1.627803
3.228784
12.863874
35.939813
105.379820
199.797750
391.746759
547.497869
737.159848
847.003460
896.790028
841.022730
729.506016
534.619689
370.056629
197.975636
116.751790
61.045885
48.157573
58.636665
76.293945
105.198622
124.514699
142.581463
148.811936
142.580867
129.271746
102.936625
82.218647
56.613684
40.165782
24.445653
16.242862
10.964870
8.745790
7.044673
6.375909
5.867481
6.107688
5.766749
5.217791
5.306602
4.911423
4.818439
4.374981
4.260540
4.071593
3.985763
4.083514
3.437996
4.005432
4.090667
4.228950
4.314780
4.466772
4.444718
4.273653
3.985763
3.786683
3.833771
4.106760
3.757477
3.966689
3.276467
3.013611
3.084540
2.768636
2.626777
2.747774
2.649426
2.698898
2.527833
2.641678
2.319813
2.395511
2.255440
2.215505
2.324581
##ZVALUE=280
0.644922
0.772476
0.835657
0.931621
0.769496
0.887513
0.861883
0.823736
0.820756
0.759959
1.096725
1.014471
1.003742
0.958443
1.044869
0.985861
1.038909
1.404881
1.115799
1.266599
1.496673
1.701713
8.294582
26.004910
82.109571
154.297948
301.689506
454.710722
665.344596
795.270801
872.153640
872.532725
784.992576
590.613484
431.906581
243.665576
147.848725
70.865750
44.173598
40.485859
53.775907
77.572465
98.253489
123.134851
136.213899
142.554641
138.681531
121.165514
103.697777
75.763464
57.404637
35.081506
24.168491
14.039874
9.539723
6.597638
5.727410
5.051494
5.079508
4.959702
4.326701
4.548430
4.326701
4.466772
4.357696
4.144907
3.781915
4.008412
3.739595
4.050732
4.302859
3.997684
4.053712
4.075766
4.003644
3.855824
3.556609
3.296733
3.299713
3.530979
3.236532
3.079772
2.943873
2.963543
2.701879
2.887845
2.843738
2.682805
2.728701
2.653599
2.703667
2.755523
2.777576
2.428889
2.437830
2.650619
##ZVALUE=285
0.501871
0.698566
0.656843
0.685453
0.695586
0.578761
0.810623
0.631809
0.696778
0.674725
0.835657
0.702739
0.694990
0.871420
0.598431
0.833869
0.806451
0.930429
0.830889
0.988841
1.111627
1.308918
1.278520
1.385808
4.129410
13.461709
45.617819
96.289515
209.408998
333.115458
465.919971
655.632019
768.544674
834.702849
788.307786
650.220513
513.020754
325.114727
206.422806
98.895431
52.899718
30.415654
31.629801
49.878955
69.415569
95.479488
113.412738
132.117867
137.552619
132.869482
122.138858
99.035501
78.926682
53.669810
37.773848
21.130443
13.748407
7.379651
5.883574
4.668832
4.130602
3.796816
3.843904
3.675818
3.488660
3.473759
3.782511
3.305674
3.669858
3.291965
3.535748
3.325939
3.665686
3.431439
3.334880
3.072619
3.438592
2.992749
3.172755
3.225803
2.866983
2.895594
2.677441
2.610683
2.847910
2.531409
2.504587
2.435446
2.267957
2.583861
2.437830
2.214909
2.343655
2.234578
2.254844
2.283454
##ZVALUE=290
0.594854
0.422597
0.354648
0.558496
0.483990
0.596642
0.632405
0.549555
0.761747
0.605583
0.779629
0.715852
0.476837
0.694990
0.780821
0.674725
0.669956
0.788569
0.796914
0.702739
0.713468
0.774860
1.000762
1.048446
1.493692
1.201630
2.529621
12.175441
49.025416
101.446509
173.159838
317.124724
448.120832
631.027818
739.423037
833.762884
822.389722
719.934702
592.962503
402.478576
267.528892
134.629607
72.295666
32.250881
23.450851
31.280518
43.901801
65.921545
84.062815
108.861923
123.224854
132.346749
130.011439
116.077662
98.522902
72.355866
54.294467
34.753680
21.509528
11.499524
7.671714
4.728436
3.532767
3.137589
3.256798
3.236532
2.871752
2.886653
3.096461
3.334880
3.036857
3.214478
3.427863
3.489852
3.366470
3.192425
2.971888
2.827644
3.037453
2.748966
2.447963
2.460480
2.470613
2.472997
2.577901
2.247691
2.275705
2.441406
2.159476
2.392530
2.296567
2.228618
2.263784
2.349615
2.182722
1.971722
##ZVALUE=295
0.431538
0.549555
0.282526
0.596642
0.405908
0.384450
0.384450
0.618696
0.411868
0.573993
0.514984
0.527501
0.518560
0.639558
0.493526
0.569820
0.427961
0.693798
0.728965
0.570416
0.614524
0.835657
0.813603
1.020432
1.222491
1.197457
1.151562
1.355410
1.503825
2.997518
19.621849
52.917600
137.515664
238.254666
414.582491
547.944903
711.117983
798.962712
830.594897
785.999894
637.232661
503.766537
315.250754
197.700858
90.994835
46.349764
20.301938
18.346906
27.216673
40.395856
61.784983
79.394579
103.188753
117.194653
124.686956
122.315884
107.605457
93.397498
70.994496
53.338408
33.417940
22.066832
11.906624
7.537603
4.479885
3.145933
3.032684
2.530813
2.771616
2.787709
2.932549
3.013611
3.065467
3.215671
3.151894
2.798438
3.097653
2.972484
2.913475
2.495646
2.437830
2.475977
2.156496
2.027750
2.445579
2.291799
2.007484
2.198815
2.099872
2.012849
2.084970
2.044439
2.023578
2.061725
2.203584
2.012849
##ZVALUE=300
0.342727
0.390410
0.463724
0.610948
0.358820
0.431538
0.383854
0.443459
0.582933
0.486970
0.396967
0.404716
0.608563
0.517964
0.466704
0.599623
0.468493
0.698566
0.636578
0.700951
0.726581
0.945926
0.933409
0.877976
0.804663
0.941753
0.946522
0.940561
1.070499
1.008511
1.118779
1.505613
3.917813
21.128654
53.715706
137.670636
239.786506
415.830612
556.528568
717.424750
791.114569
792.082548
716.166496
551.225543
407.532454
230.980515
138.715506
62.222481
30.216575
14.609694
15.069842
23.926497
35.529733
54.790974
72.991848
95.824003
108.271837
117.010474
116.487741
105.840564
91.288686
67.688823
51.560998
33.335686
21.923780
11.549592
7.300973
4.276633
3.160834
2.539754
2.508759
2.607703
2.685785
2.749562
2.548695
2.468824
2.879500
2.507567
2.376437
2.410412
2.302527
2.252460
2.393723
2.207756
2.363920
2.186894
2.219677
2.141595
2.040863
1.899600
2.036691
1.924634
1.992583
2.222657
1.943707
2.055764
##ZVALUE=305
0.357628
0.378489
0.462532
0.337958
0.288486
0.543594
0.459552
0.377893
0.576973
0.592470
0.458956
0.488758
0.464916
0.536442
0.716448
0.624657
0.365973
0.374913
0.508428
0.548959
0.577569
0.498891
0.663996
0.673532
0.587702
0.663996
0.685453
0.584722
0.707507
1.103878
0.917912
0.959635
1.206994
1.419783
2.164841
11.898875
34.120679
99.800825
181.272626
340.670943
479.590893
658.543706
755.980015
793.367624
745.690465
602.882504
473.055840
299.281478
191.036463
90.836883
44.702888
16.359687
11.162758
14.116764
20.628572
35.586953
49.786568
71.274638
87.412596
104.396939
110.360980
109.443665
101.188421
83.752871
67.048669
45.941472
32.869577
19.361973
11.815429
6.105900
4.060864
3.044605
2.849698
2.792478
2.303720
2.514720
2.462864
2.169609
2.420545
2.367496
2.204776
2.259612
2.070665
2.398491
2.234578
2.295971
2.338886
2.149940
2.353787
2.069473
2.061725
1.964569
1.897812
2.156496
1.872778
1.883507
##ZVALUE=310
0.335574
0.409484
0.458956
0.376701
0.410676
0.342727
0.283718
0.578761
0.414848
0.449419
0.464916
0.467896
0.325441
0.293851
0.495911
0.406504
0.428557
0.483990
0.396967
0.449419
0.543594
0.527501
0.621676
0.530481
0.464916
0.510812
0.721812
0.745654
0.669956
0.872612
0.708699
0.912547
1.059771
0.991821
1.133680
1.288652
1.425743
5.284548
17.766953
60.218573
120.477676
250.568986
379.838943
566.378832
691.580772
785.408616
781.034827
688.233972
572.137833
387.505889
259.835720
133.098960
70.721507
26.328564
11.991858
8.703470
11.759996
19.194484
28.427839
46.743751
60.472488
81.778765
93.888640
103.841424
104.306936
96.840858
84.277987
65.188408
48.723817
31.307936
20.604730
11.709929
7.230639
3.926754
3.022552
2.413988
2.412796
2.201796
2.073646
2.158880
2.098680
1.870990
2.012849
2.201796
2.101660
2.046824
1.986623
2.143979
2.093911
2.019405
2.070665
2.037883
2.008677
2.004504
1.747608
1.773834
##ZVALUE=315
0.273585
0.417829
0.277758
0.356436
0.465512
0.404716
0.363588
0.318885
0.520945
0.505447
0.296831
0.437498
0.394583
0.504851
0.211596
0.439882
0.407696
0.371933
0.524521
0.454783
0.478625
0.442863
0.427961
0.443459
0.304580
0.337958
0.661612
0.607967
0.546575
0.552535
0.794530
0.720620
0.596642
0.790954
0.862479
0.946522
0.921488
1.213551
1.316667
2.474785
8.936524
37.758946
85.408688
196.022987
315.772891
502.810478
630.206466
749.920607
783.866644
728.982687
632.543564
459.373593
325.146914
174.400806
96.440911
36.362410
15.518665
7.856488
7.505417
11.090636
16.048551
28.153658
39.985776
58.310628
72.153807
89.898705
97.026825
98.279715
91.828704
76.977611
63.024759
44.533610
31.471848
18.063784
11.578798
6.236434
3.838539
2.878904
2.506971
2.267957
2.178550
1.828671
2.025962
1.920462
1.973510
1.954436
2.115965
1.968741
2.011657
1.944900
1.895428
1.929998
1.945496
1.868606
1.826882
1.741648
##ZVALUE=320
0.283718
0.281930
0.459552
0.228882
0.276566
0.230670
0.285506
0.371933
0.437498
0.321865
0.416636
0.299811
0.429749
0.221729
0.178814
0.283718
0.355840
0.479817
0.423789
0.481606
0.500679
0.463724
0.607967
0.565648
0.377893
0.513792
0.403523
0.544786
0.573993
0.504851
0.618696
0.690818
0.488758
0.707507
0.627637
0.780821
0.800490
0.930429
0.942945
0.975728
1.125932
1.402497
5.319715
16.824603
60.158968
121.755600
249.690413
372.557640
552.411675
675.833821
764.641762
764.330626
665.481687
548.628569
369.850993
242.981911
115.432739
60.699582
23.353696
10.532737
6.403923
6.798506
9.851456
14.419556
24.607778
35.202503
53.117871
66.557527
84.256530
91.620684
91.520548
87.068677
74.073672
61.004758
42.435527
30.633807
18.359423
11.292696
5.981922
3.743768
2.662539
2.387762
2.174973
1.854897
1.909733
1.699924
1.868606
1.793504
1.758933
1.856685
1.660585
1.788735
1.947880
1.689792
1.861453
1.655817
##ZVALUE=325
0.223517
0.237823
0.383854
0.310540
0.426769
0.392795
0.432730
0.388622
0.324845
0.403523
0.356436
0.345707
0.413656
0.313520
0.427961
0.233650
0.302792
0.351667
0.538826
0.484586
0.493526
0.412464
0.435710
0.552535
0.456572
0.541806
0.667572
0.592470
0.520945
0.736713
0.559688
0.609756
0.557899
0.431538
0.612736
0.698566
0.569820
0.753999
0.625849
0.820756
0.732541
1.083612
1.196861
1.075864
2.651811
16.048551
40.527582
105.413795
182.910562
333.184004
464.890599
625.945926
712.942481
751.539469
705.565810
568.387508
431.211591
260.754824
160.210729
73.709488
36.126971
12.163520
6.694794
5.656481
6.219745
9.327531
13.984442
22.848845
34.812689
51.978827
63.826442
77.341795
85.482001
86.124539
81.230998
66.845417
54.096580
38.439631
27.838945
15.610456
9.845495
5.263686
3.792644
2.494454
2.240539
1.882911
2.020597
1.792908
1.696944
1.625419
1.584888
1.605749
1.678467
1.786947
1.777411
1.695752
##ZVALUE=330
0.259876
0.433922
0.376701
0.443459
0.366569
0.397563
0.304580
0.254512
0.304580
0.327826
0.317693
0.478625
0.411868
0.431538
0.385642
0.456572
0.405908
0.404716
0.362992
0.386834
0.352859
0.458956
0.578761
0.506639
0.512600
0.396967
0.397563
0.481606
0.524521
0.377893
0.417829
0.558496
0.524521
0.523925
0.508428
0.573993
0.728965
0.543594
0.666976
0.730753
0.730753
0.896454
1.055598
1.116991
1.044869
1.277924
1.591444
12.372732
41.487813
117.324591
197.303891
339.368582
455.491543
603.350997
692.619681
747.675896
724.037886
612.060428
495.795012
322.534442
209.472775
99.994540
51.670671
18.489957
8.301735
5.114675
5.420446
6.092787
7.985830
13.920665
20.859838
33.187866
44.956803
63.026547
72.588921
80.222487
81.108809
73.783994
64.975619
48.932433
37.370920
23.356676
16.065836
9.988546
6.268620
3.589988
2.593994
2.181530
1.938939
1.989603
1.735687
1.569986
1.662970
1.686811
1.549721
1.624823
##ZVALUE=335
0.284910
0.369549
0.438690
0.457764
0.554919
0.341535
0.349879
0.259876
0.214577
0.278950
0.268817
0.294447
0.296831
0.290871
0.313520
0.243783
0.298619
0.353456
0.465512
0.316501
0.466704
0.355840
0.384450
0.587702
0.369549
0.387430
0.406504
0.446439
0.268817
0.410676
0.270605
0.466704
0.381470
0.494719
0.454783
0.625849
0.586510
0.710487
0.463724
0.483990
0.765920
0.755787
0.647902
0.726581
0.914931
0.994802
1.084805
1.168847
1.239777
3.480911
16.013980
73.696971
148.705840
293.781757
428.213477
596.588850
690.279007
751.113892
743.695498
657.221675
551.024675
379.348993
259.327888
135.405660
72.333813
25.480986
10.987520
5.765557
4.924536
4.839897
5.538464
8.140802
11.800528
20.892620
30.502677
45.602918
56.272745
68.106651
73.663592
75.185895
69.920421
58.290958
48.620701
35.864711
26.469827
16.402602
10.616779
5.815625
3.900528
2.961755
2.154708
2.053976
1.777411
1.749992
1.536608
1.500845
##ZVALUE=340
0.319481
0.204444
0.296831
0.149608
0.298619
0.202656
0.336766
0.403523
0.217557
0.433922
0.224710
0.232458
0.313520
0.326633
0.228882
0.253916
0.291467
0.321865
0.198483
0.335574
0.406504
0.281930
0.309944
0.298619
0.297427
0.191927
0.403523
0.452995
0.442863
0.531673
0.407696
0.576973
0.493526
0.432730
0.481606
0.481606
0.447631
0.633597
0.616908
0.376701
0.498891
0.623465
0.583529
0.670552
0.637770
0.679493
0.634789
0.867844
0.909567
0.978708
1.007915
1.796484
6.804466
35.224557
87.499619
205.421448
324.301720
494.077802
613.134503
713.589787
734.546781
679.700971
589.588881
436.790586
310.043693
164.833665
91.958642
37.505627
15.785694
6.145835
5.094409
4.697442
4.694462
5.547404
7.476807
12.397766
18.553734
29.289722
40.091872
54.578781
63.137412
70.060492
70.496798
65.670609
58.699846
45.958757
36.304593
23.916960
17.010570
10.288954
6.491542
3.725886
2.681613
1.934767
1.831651
1.628995
##ZVALUE=345
0.281930
0.205636
0.156760
0.291467
0.298619
0.187755
0.261664
0.322461
0.207424
0.326633
0.409484
0.212789
0.210404
0.339746
0.361800
0.296831
0.404716
0.201464
0.237823
0.345707
0.173450
0.457764
0.208616
0.274777
0.401735
0.393987
0.319481
0.361800
0.473857
0.359416
0.688434
0.310540
0.428557
0.481606
0.443459
0.342727
0.332594
0.342727
0.371933
0.398755
0.274777
0.390410
0.471473
0.564456
0.545979
0.543594
0.685453
0.630617
0.545979
0.804663
0.685453
0.880957
0.806451
1.121759
2.026558
12.204647
34.858584
94.324946
169.254541
311.211944
429.342985
576.005578
645.924807
664.041638
610.234737
476.932526
357.914567
213.777423
122.779608
49.441457
22.510886
8.090734
5.113482
4.567504
4.185438
4.004836
4.694462
6.474853
9.821653
17.518997
25.814772
38.321614
47.640800
57.085752
62.115788
64.475536
62.197447
54.720640
45.844913
34.508705
25.427938
15.530586
10.606647
5.699992
3.989935
2.636909
##ZVALUE=350
0.315905
0.242591
0.159740
0.255704
0.333786
0.334978
0.377893
0.134706
0.169873
0.201464
0.284910
0.349879
0.299811
0.323653
0.166893
0.409484
0.345707
0.422597
0.396967
0.345707
0.192523
0.184774
0.257492
0.339746
0.459552
0.266433
0.173450
0.250936
0.312924
0.369549
0.317693
0.262856
0.343919
0.429749
0.270605
0.443459
0.458956
0.411868
0.408888
0.487566
0.427961
0.382662
0.376701
0.460744
0.435710
0.509620
0.559688
0.500679
0.698566
0.681877
0.622869
0.789762
0.932813
0.881553
0.968575
1.043677
1.672506
4.839897
22.803545
53.420663
131.044984
219.386816
367.702842
483.080745
604.432821
648.278594
616.254807
533.917546
377.004743
256.562829
130.937696
72.866678
28.477907
11.992455
5.195737
4.246831
3.617406
3.348589
3.580451
4.080534
6.130934
9.190440
15.120506
21.982789
33.084750
40.396452
51.109791
57.075620
59.146881
56.948662
51.283836
42.947531
32.226443
24.528503
15.384555
11.098981
##ZVALUE=355
0.218749
0.353456
0.221729
0.269413
0.226498
0.340939
0.430942
0.376701
0.256896
0.326633
0.281930
0.326633
0.475645
0.361800
0.246763
0.329614
0.216961
0.360608
0.301600
0.387430
0.247955
0.462532
0.275970
0.492930
0.258684
0.481606
0.282526
0.393987
0.321865
0.422597
0.380874
0.514984
0.361800
0.262856
0.469685
0.452995
0.386834
0.450611
0.295639
0.503659
0.381470
0.460744
0.438690
0.537634
0.368953
0.429749
0.486970
0.446439
0.443459
0.598431
0.598431
0.605583
0.638962
0.614524
0.618696
0.799894
0.833869
0.825524
0.972748
2.903938
10.516644
41.386485
85.120797
179.280639
285.134912
441.854596
543.281436
620.941520
623.772740
537.923574
438.729525
295.259953
188.716650
85.493922
41.284561
13.351440
6.447434
4.022717
4.113913
3.373623
3.125668
3.297925
3.767610
4.985929
7.593632
12.916923
18.933415
28.323531
35.464764
44.566989
50.389767
53.614974
52.797794
47.336817
41.038990
31.863451
##ZVALUE=360
0.176430
0.248551
0.257492
0.397563
0.368953
0.258684
0.391603
0.255704
0.308752
0.211596
0.232458
0.216961
0.128746
0.344515
0.202656
0.209808
0.349879
0.400543
0.327826
0.336766
0.490546
0.329614
0.267625
0.287890
0.304580
0.278950
0.243783
0.399947
0.218749
0.363588
0.550747
0.530481
0.467896
0.378489
0.488758
0.313520
0.519753
0.393987
0.505447
0.585914
0.463724
0.346899
0.448823
0.264645
0.516772
0.527501
0.530481
0.634789
0.441670
0.440478
0.262856
0.360608
0.410676
0.613928
0.516772
0.572801
0.625849
0.686646
0.737906
0.989437
0.900626
1.404881
4.579425
21.214485
50.855875
124.235749
213.507414
360.555649
471.169949
575.654507
609.535575
571.132898
487.436652
338.018537
228.741765
112.437606
59.282780
22.102594
9.477735
4.403591
3.842711
3.370643
3.357530
3.048778
2.921820
3.384948
4.044771
6.445646
9.595752
15.697479
22.452474
31.538606
38.290620
44.960976
47.591925
48.082471
##ZVALUE=365
0.167489
0.147820
0.103712
0.210404
0.182986
0.213981
0.260472
0.174642
0.227690
0.249743
0.112653
0.204444
0.167489
0.192523
0.169873
0.206828
0.243783
0.147820
0.157952
0.285506
0.182986
0.193715
0.403523
0.189543
0.299811
0.268817
0.224710
0.274777
0.218749
0.251532
0.257492
0.180602
0.203848
0.264645
0.231862
0.193715
0.161529
0.315905
0.214577
0.186563
0.197887
0.329614
0.294447
0.238419
0.318885
0.318885
0.401735
0.484586
0.476837
0.370741
0.274777
0.298619
0.514984
0.466704
0.463724
0.575781
0.591874
0.719428
0.512600
0.700951
0.729561
0.768900
0.691414
1.166463
2.038479
11.813641
31.563640
85.863471
158.146620
293.790698
399.248004
519.635677
578.392744
576.546788
514.105558
381.490588
274.550915
152.829885
84.521770
31.461716
13.235807
4.525781
3.673434
3.255606
3.167987
2.927780
2.675653
2.632737
2.649426
3.360510
4.821420
8.064508
12.298822
19.344687
25.975704
33.797622
##ZVALUE=370
0.204444
0.299811
0.350475
0.102520
-0.082850
0.168681
0.274777
0.348687
0.292659
0.230670
0.214577
0.178814
0.265837
0.219941
0.201464
0.278950
0.296831
0.121593
0.241995
0.349879
0.393987
0.377893
0.295639
0.285506
0.379682
0.283718
0.282526
0.368953
0.322461
0.373721
0.426769
0.341535
0.376701
0.374913
0.240803
0.252724
0.356436
0.462532
0.203848
0.463724
0.519753
0.563860
0.570416
0.336766
0.598431
0.500679
0.562668
0.481606
0.499487
0.429749
0.454783
0.470877
0.580549
0.502467
0.608563
0.663996
0.570416
0.663996
0.567436
0.750422
0.703931
0.815988
0.728965
0.879765
0.958443
1.012683
1.383424
5.829930
19.583702
63.906908
120.651722
228.391886
336.640477
478.491783
550.825596
576.235652
536.274910
425.529480
319.205523
182.872415
104.431510
42.364597
19.728541
7.100701
4.194975
3.269911
3.026724
2.833605
2.481937
2.371669
2.327561
2.401471
2.996922
4.377961
6.610751
11.276603
##ZVALUE=375
0.198483
0.349879
0.286698
0.219941
0.399947
0.254512
0.318885
0.230670
0.363588
0.213981
0.295639
0.272989
0.252724
0.337958
0.372529
0.391603
0.214577
0.417829
0.135899
0.273585
0.164509
0.145435
0.407696
0.289679
0.207424
0.433922
0.149608
0.320673
0.375509
0.345707
0.360608
0.261664
0.337958
0.426769
0.466704
0.444651
0.463724
0.233650
0.404716
0.280738
0.336766
0.381470
0.366569
0.389814
0.497699
0.442863
0.405908
0.297427
0.461936
0.478625
0.405908
0.325441
0.479817
0.474453
0.495911
0.354648
0.456572
0.512600
0.596642
0.460744
0.383854
0.543594
0.614524
0.635982
0.608563
0.641942
0.687838
0.890493
1.082420
2.909899
9.991527
37.604570
80.489516
179.208517
279.644728
421.862006
509.291887
568.937659
560.305715
470.435619
367.771983
229.481459
146.065950
73.481798
37.333965
12.117624
5.140901
3.334880
2.908707
2.651811
2.656579
2.378821
2.268553
2.099872
2.176762
2.509952
##ZVALUE=380
0.193715
0.086427
0.226498
0.178814
0.230670
0.322461
0.467896
0.282526
0.268817
0.259876
0.094771
0.225902
0.280738
0.215769
0.229478
0.142455
0.163913
0.243783
0.351667
0.210404
0.129938
0.283718
0.083447
0.369549
0.286698
0.319481
0.328422
0.289679
0.254512
0.289679
0.461936
0.261664
0.350475
0.535846
0.423789
0.330806
0.282526
0.396967
0.441670
0.415444
0.241995
0.338554
0.462532
0.369549
0.388622
0.386834
0.282526
0.210404
0.434518
0.177622
0.223517
0.325441
0.440478
0.307560
0.423789
0.509620
0.364780
0.343919
0.390410
0.367761
0.413656
0.570416
0.515580
0.542998
0.523925
0.478625
0.549555
0.733733
0.741482
0.901818
0.986457
1.593828
5.536675
26.221871
60.788989
143.289566
232.846737
367.018580
466.191769
552.797914
565.890670
499.203801
413.203835
281.995535
190.351605
96.724629
50.599575
17.914772
7.646680
3.483891
2.892613
2.769828
2.325773
2.217889
2.188683
2.096891
##ZVALUE=385
0.377893
0.249743
0.295639
0.237823
0.265837
0.104904
0.197887
0.126958
0.255704
0.110865
0.232458
0.278950
0.224710
0.180602
0.268817
0.080466
0.162721
0.097752
0.350475
0.164509
0.305772
0.330806
0.228882
0.393987
0.225902
0.291467
0.343919
0.482798
0.299811
0.312924
0.732541
0.355840
0.572801
0.592470
0.572801
0.622869
0.679493
0.606775
0.678897
0.632405
0.599623
0.649691
0.421405
0.508428
0.406504
0.624657
0.447631
0.588894
0.537634
0.554919
0.600815
0.479817
0.512600
0.624657
0.434518
0.621676
0.415444
0.534654
0.421405
0.481606
0.642538
0.608563
0.562668
0.595450
0.535846
0.512600
0.597835
0.645518
0.740886
0.818968
0.790954
0.891685
1.074672
1.239777
2.720952
14.694929
38.107634
97.044706
172.472000
308.011770
412.310958
521.168709
553.338528
531.093478
469.180942
348.511934
249.021649
137.770772
79.454780
33.095479
13.532639
4.497766
3.021955
2.681613
2.439618
2.577901
##ZVALUE=390
0.413656
0.296831
0.270605
0.323653
0.266433
0.346899
0.221729
0.347495
0.301600
0.304580
0.194907
0.445843
0.275970
0.313520
0.330806
0.330806
0.363588
0.395775
0.257492
0.309944
0.283718
0.337958
0.150800
0.347495
0.213981
0.315905
0.463724
0.526905
0.379682
0.481606
0.683665
0.529885
0.635982
0.920892
0.885725
0.835657
0.855923
0.658631
0.733733
0.707507
0.644922
0.670552
0.489950
0.666976
0.635982
0.650883
0.772476
0.585914
0.568628
0.505447
0.471473
0.657439
0.540614
0.448823
0.517964
0.565648
0.551939
0.472665
0.614524
0.681877
0.472665
0.561476
0.582933
0.487566
0.570416
0.610948
0.540614
0.644922
0.808835
0.776649
0.734925
0.759959
0.952482
0.926852
0.955462
0.883937
1.377463
7.352829
23.554564
71.980953
137.306452
258.269906
356.797576
466.387868
528.368950
551.572442
511.491895
409.125686
314.652920
194.207430
114.695430
47.993660
22.251606
6.568432
3.400445
2.663732
##ZVALUE=395
0.347495
0.403523
0.180602
0.205636
0.461936
0.332594
0.181794
0.258684
0.356436
0.445843
0.276566
0.438690
0.258684
0.324845
0.353456
0.281930
0.311732
0.327826
0.283718
0.473857
0.415444
0.183582
0.275970
0.272989
0.535846
0.463724
0.371933
0.384450
0.558496
0.636578
0.636578
0.773668
0.812411
0.897646
0.989437
0.898838
0.897646
0.794530
0.810623
0.693798
0.665784
0.773668
0.776649
0.717640
0.586510
0.469685
0.668764
0.481606
0.523925
0.500679
0.538826
0.512600
0.587702
0.585914
0.508428
0.538826
0.413656
0.588894
0.430942
0.409484
0.516772
0.474453
0.473857
0.478625
0.455976
0.556707
0.597835
0.604987
0.712872
0.723600
0.607967
0.672936
0.634789
0.682473
0.778437
0.855923
0.970960
1.011491
1.087785
4.211664
15.165806
52.708983
100.287795
191.204548
286.178589
419.165492
505.353808
560.970902
549.948812
467.790961
373.357534
235.685706
147.628784
66.186786
31.525493
10.830760
##ZVALUE=400
0.398755
0.365973
0.432730
0.142455
0.162721
0.219941
0.241995
0.240803
0.377893
0.162721
0.376701
0.133514
0.210404
0.181794
0.212789
0.163913
0.194907
0.247955
0.200868
0.215769
0.231862
0.117421
0.235438
0.278950
0.206828
0.290871
0.448823
0.569820
0.436902
0.423789
0.471473
0.659823
0.796914
0.828505
0.740886
0.626445
0.750422
0.651479
0.636578
0.710487
0.736713
0.619888
0.660419
0.581741
0.526905
0.636578
0.592470
0.506639
0.495911
0.526905
0.526905
0.382662
0.484586
0.404716
0.559688
0.424981
0.248551
0.349879
0.482798
0.366569
0.479817
0.558496
0.301600
0.464916
0.339746
0.475645
0.338554
0.427961
0.539422
0.493526
0.589490
0.590682
0.457764
0.596642
0.800490
0.652671
0.492930
0.601411
0.631809
0.689626
0.918508
2.503991
7.819533
29.457808
63.964725
144.926906
232.720971
364.843011
454.295874
532.332659
542.171001
484.373569
401.116610
268.723965
179.850459
91.932416
##END
