##TITLE=FDDW2
##FORMAT=SPECTACLE-ASCII V-1.2
##DATA TYPE=ULTRAVIOLET SPECTRUM
##SECOND TYPE=ULTRAVIOLET SPECTRUM
##DATE=01/30/18
##TIME=15:40:26
##SPECTROMETER/DATA SYSTEM=SPECTACLE
##XUNITS=NM EM
##YUNITS=ENERGY
##YFACTOR=1
##FIRSTX=220
##LASTX=410
##NPOINTS=96
##3DDATA=Equidistant
##ZUNITS=NM EX
##FIRSTZ=210
##LASTZ=400
##ZPOINTS=39
##XYDATA=(Y..Y)
##ZVALUE=210
14.750957
14.646649
12.659431
11.238456
9.861588
9.658933
9.330511
8.627772
7.115602
4.998446
3.889799
2.368689
2.210736
2.177954
1.984835
3.136992
2.013445
2.721548
2.307892
3.353953
2.743602
3.000498
3.345609
3.557801
4.657507
7.047653
9.614825
12.867451
16.349554
19.512773
23.972988
28.096437
30.415654
33.869743
36.012530
35.685897
36.325455
36.746860
36.195517
34.139752
31.384826
30.981898
29.842854
26.104450
24.979711
24.487972
21.543503
19.725561
19.939542
20.005703
16.339421
17.117858
14.951825
13.904572
13.706684
12.379885
12.115836
11.250973
10.117888
10.192990
9.325743
8.924603
8.880496
8.684993
8.704662
9.427667
7.827878
9.640455
8.675456
10.845661
12.098551
12.909770
14.190674
15.138984
17.677546
18.189549
19.510984
19.188523
18.959641
18.005967
19.538999
17.689466
15.585423
12.478828
11.670589
8.928776
8.512735
7.318854
7.821918
8.134842
11.346936
14.926791
18.244982
22.870898
28.030872
32.917857
##ZVALUE=215
39.541721
40.503740
35.585761
26.265979
22.055507
18.465519
15.808940
14.835596
13.801455
13.300776
11.135936
9.351969
6.752610
4.412532
3.701448
2.774596
2.845526
2.823472
2.256632
3.085732
2.722740
3.109574
3.841519
3.762841
4.960895
8.986592
9.460449
15.208721
20.062923
25.079846
28.461814
32.978654
34.612417
41.188002
41.523576
42.150617
42.999983
43.018460
41.279793
40.485859
38.618445
36.749840
33.954978
33.414960
29.613972
27.841926
26.591420
23.164749
22.445917
19.969940
18.754601
16.951561
15.895963
16.880631
15.797615
13.366938
11.601448
12.853742
11.887550
10.642409
9.775758
9.621978
10.257959
9.911656
9.178519
9.163618
9.507537
8.976460
9.770989
10.107756
11.344552
11.607409
13.456941
13.832450
14.248490
15.620589
16.903877
16.155839
14.267564
15.041828
14.695525
11.414886
13.163686
10.526776
9.031892
8.150935
7.398725
6.183982
4.840493
4.920959
5.363822
5.723834
5.286932
6.288886
8.804798
12.703538
##ZVALUE=220
82.190633
84.970593
75.815916
74.069500
62.218904
46.216846
38.709641
27.854443
25.491714
23.704767
22.801757
23.719668
23.188591
17.686486
11.733770
10.580420
6.881952
5.625486
3.848672
3.311634
2.920628
3.131628
4.103780
4.372597
6.194711
9.003878
13.040900
16.535521
20.193458
29.585958
34.522414
39.528608
42.134523
45.849681
51.084757
49.915910
50.914884
50.175786
47.785640
47.108531
44.982433
40.732622
38.155913
37.888885
32.721758
32.221675
30.096769
27.357936
25.332570
24.858713
22.645593
21.080971
18.511415
17.745495
17.429590
15.234947
15.798807
13.682842
13.696551
12.706518
13.047457
11.490583
12.480617
10.321736
10.308623
10.622740
11.338592
9.114742
10.567904
10.207891
11.148453
12.238622
13.222694
15.123487
13.677478
15.004873
16.528964
15.111566
16.401410
13.109446
14.434457
13.974905
11.529922
10.664463
9.483695
7.751584
7.015467
5.591512
5.688667
5.461574
5.705953
5.164742
5.051494
5.091429
5.276799
5.608797
##ZVALUE=225
107.290745
109.481812
126.559734
141.299963
142.199993
128.811598
113.348961
86.471438
68.226457
49.751997
41.880608
39.264560
41.101575
40.016770
37.468672
35.387874
26.803613
19.597411
16.659498
9.621978
7.832646
4.587770
3.638864
4.235506
5.704761
7.698536
12.334585
15.795827
17.981529
24.880767
30.949712
35.256743
38.086772
42.959452
43.588877
46.205521
45.991540
45.423508
44.109821
43.887496
42.845607
39.544702
39.246678
36.846995
32.665730
30.858517
27.524829
25.575757
24.453998
22.861958
23.396611
21.479726
19.621849
20.635724
16.966462
16.939640
15.873909
15.725493
14.188886
12.490749
14.282465
11.240840
13.210773
12.549758
10.909438
12.491941
10.882616
10.866523
10.801554
11.353493
12.421608
12.145638
13.942719
14.406443
14.176965
14.592409
15.391707
14.083982
14.793873
14.154911
11.685491
11.652708
9.700656
9.884834
9.323955
9.022951
7.018447
6.993413
6.774664
6.032586
5.647540
6.042719
5.529523
5.532503
6.270409
5.100965
##ZVALUE=230
71.424842
74.811578
128.332973
165.794492
210.889578
234.303474
241.454840
228.186846
188.672543
151.692629
103.802681
78.834891
64.373612
57.314634
58.348775
60.907602
60.652494
56.899786
52.838922
40.385723
29.766560
19.530654
12.930632
8.457899
7.261634
6.566644
8.637905
11.402965
13.235807
17.923713
19.844770
22.763610
24.482608
28.454661
28.302670
30.129552
31.838417
29.438734
30.995607
29.287934
27.613640
25.693774
26.671886
25.297999
23.346543
22.490621
21.543503
19.537807
18.687844
19.597411
19.162893
17.986894
16.484857
15.515685
14.837980
15.187860
14.712811
13.273954
13.758540
13.400912
13.130903
11.133552
10.706782
11.087656
11.548996
9.140968
10.856986
10.822415
11.093616
11.869669
11.666417
12.612939
13.448596
13.945699
14.445782
13.909936
15.131831
15.825629
13.549924
12.965798
12.088418
11.193752
11.102557
10.414720
8.285642
8.745790
8.594990
6.630421
6.840825
6.903410
6.261468
7.057786
7.341504
6.127954
5.522966
6.012917
##ZVALUE=235
22.048950
26.118755
52.598715
115.804672
176.031590
255.027413
316.942930
379.863977
396.666527
385.582447
315.117836
252.474546
171.853900
128.288865
91.907978
81.119537
78.608990
85.800886
92.593431
89.805722
82.178712
65.991879
53.290725
37.051439
25.956631
16.491413
12.687445
10.058880
9.905696
12.110472
12.306571
13.507605
12.864470
15.068650
15.172958
17.378926
15.854836
17.106533
17.078519
16.349554
15.838742
16.924739
16.763806
17.079711
14.803410
16.266704
15.899539
15.247464
14.062524
13.767481
13.876557
13.076663
12.781620
12.989640
12.183785
11.465549
11.788607
11.472702
10.764599
10.689497
10.823607
10.376573
11.241436
11.483431
10.827780
10.240674
9.771585
11.069775
11.278987
11.986494
12.737513
13.364553
13.201833
15.076995
15.012622
15.648603
15.719533
14.373660
14.938712
12.601614
13.148785
11.587739
11.886954
10.074973
9.851456
8.552670
7.934570
8.079410
7.491708
8.780956
6.938577
7.437468
7.462502
6.996989
7.994771
6.572604
##ZVALUE=240
1.986623
2.408624
8.232594
22.374988
62.845945
117.405653
216.154456
316.088796
447.740555
521.331429
545.825958
520.749688
467.920899
351.149440
274.301767
172.078609
127.941966
100.606680
93.418956
104.085803
114.070773
117.983818
112.357736
100.346804
84.085464
66.238642
47.792792
35.134554
22.118688
16.953945
13.623834
12.448430
12.490749
12.790561
14.504790
12.825727
13.163686
13.911724
12.672544
13.986826
13.907552
12.979507
13.330579
14.081597
11.787415
12.273788
12.361407
11.251569
12.681484
13.684630
11.768937
12.272596
10.732412
10.652542
10.001659
9.962916
10.782480
9.855628
10.810494
9.979606
10.368824
9.120703
9.424686
8.722544
9.452701
9.847879
10.743737
10.780692
10.059476
11.349916
10.829568
11.548996
11.969805
13.673902
12.415648
12.521744
11.937618
12.126565
10.833740
11.098981
11.002421
11.089444
9.884834
9.444952
9.796619
8.775592
7.818937
8.316636
7.321835
7.676482
6.793737
7.866621
7.112622
7.224679
6.694794
6.987453
##ZVALUE=245
1.410842
1.491904
1.697540
1.648664
3.426671
13.648868
31.799674
80.179572
151.306391
242.805481
386.679769
485.139489
579.898953
586.915612
536.273718
465.655923
331.519842
248.988867
175.637007
113.666654
95.436573
98.660588
111.057758
124.114752
130.632520
127.028823
112.912655
95.695853
73.398948
54.896474
43.387413
26.684999
22.075772
15.734434
16.378760
15.017986
14.314651
14.531612
14.382601
14.495850
15.253425
15.096664
14.579892
14.219880
13.165474
13.219714
13.016462
11.732578
11.990666
11.970997
12.050867
10.995865
11.417866
10.488629
11.016726
9.855628
9.929538
9.790659
9.001493
9.032488
9.075999
8.596778
9.054542
8.510947
8.165836
8.571744
7.944703
8.083582
7.877946
9.180903
8.560419
9.511709
10.438561
9.491444
10.005832
10.313988
10.329485
9.919405
9.792447
9.188652
8.275509
8.623600
7.427931
7.634759
7.707477
6.907582
6.869435
6.169677
6.406903
6.567836
6.427765
6.591678
5.785823
5.792975
6.171465
6.609559
##ZVALUE=250
1.119971
1.176596
1.058578
1.115799
1.544952
1.415610
1.760721
6.695986
20.826459
57.901740
109.678507
216.597915
323.664546
449.379683
532.306433
589.057803
587.170720
519.436598
438.408852
303.510427
213.896632
148.937702
97.979903
90.770721
103.554726
119.254589
135.246515
137.853622
136.123896
126.683712
106.725693
86.551905
66.775680
47.899485
35.848618
26.463866
22.618771
21.241903
18.898845
18.832684
18.853545
18.385649
17.761588
17.223954
16.357899
15.745759
15.551448
14.603734
14.318824
13.148785
13.095737
12.599826
11.573434
12.199879
11.967421
10.658503
9.321570
9.978414
9.909868
8.726716
8.959770
8.728504
8.189678
8.382797
7.668734
7.621646
7.953644
7.693768
7.871985
7.763505
7.767677
8.460879
9.016991
8.935928
8.701682
8.728504
8.147955
7.984638
7.409453
7.403493
7.429719
6.738901
6.388426
6.296635
6.497502
5.721450
5.739927
5.601645
5.712509
5.210638
5.710721
5.937815
4.680753
5.057454
5.072951
4.765987
##ZVALUE=255
1.122952
1.306534
0.948906
1.197457
1.101494
1.186728
1.295805
1.235604
1.253486
3.180504
16.292930
39.620996
80.736876
169.546008
262.497663
410.087705
509.223938
608.136654
641.461015
608.973503
529.547930
422.546864
272.144675
179.286599
106.432438
87.944865
91.270804
102.135539
130.121708
142.451525
150.963664
151.395798
140.633583
117.020607
96.640587
71.665645
55.961609
38.976669
32.521486
26.527643
23.889542
23.629665
23.576617
20.950437
21.534562
20.011663
19.703507
17.566681
18.394589
17.183423
15.532970
14.025569
14.756918
13.130903
12.074709
12.205839
11.181831
11.161566
10.000467
9.574890
9.325743
9.323955
8.538961
9.046793
8.841753
8.422732
7.609725
7.359982
7.256866
7.711649
7.264614
7.453561
8.158684
7.923841
7.676482
8.425713
7.563829
7.684827
6.629825
7.085800
6.564856
6.024837
5.863905
5.421638
4.706979
5.462766
5.030632
4.868507
4.576445
5.027652
4.238486
4.445910
4.320741
4.460812
4.304647
4.782677
##ZVALUE=260
0.892878
0.967979
0.900626
1.034737
1.101494
1.030564
0.827909
1.137853
1.168847
1.435876
1.077652
1.971722
6.136894
23.577809
56.799650
133.457780
218.033791
367.679000
479.825735
620.891452
695.813894
704.141855
617.154837
515.821576
352.455974
245.555639
149.026513
103.142858
83.901882
92.067719
108.397007
140.366554
159.229636
168.877840
165.688992
151.286721
132.389665
102.033615
81.265569
59.877634
48.795938
37.606955
32.879710
29.332638
27.980804
23.899674
24.527907
23.193955
21.850467
20.332932
19.715428
18.360615
17.047524
15.653968
14.916658
13.625622
13.650656
11.762977
11.498928
10.911822
10.238886
9.488463
9.650588
8.909702
8.837581
8.550882
8.499622
8.327961
7.895827
7.722974
7.670522
7.429719
7.572770
7.475615
7.360578
7.333755
7.543564
6.679893
6.759763
6.409883
5.909801
5.592704
5.327463
5.040765
5.237460
4.692674
4.807711
4.726648
4.979968
4.547834
4.131794
4.290938
3.891587
4.081726
4.222989
4.082918
##ZVALUE=265
1.048446
1.035929
0.707507
0.934601
0.897646
0.943542
1.107454
0.946522
1.119971
1.027584
1.265407
1.125932
1.282692
1.511574
3.308654
16.376972
41.110516
102.752447
179.334879
331.965685
465.618968
600.333810
728.870630
755.653977
700.857639
612.957478
458.583832
332.499743
192.687511
129.194856
89.768767
85.131526
99.821687
131.866932
152.386427
174.804926
178.610682
173.494816
161.289573
134.028792
111.078620
84.426999
65.074563
47.318935
40.092468
32.067895
29.028654
26.665926
25.133491
23.634434
22.473931
20.693541
18.785000
17.658472
16.851425
14.815927
15.290976
13.602972
12.744665
12.187958
11.816621
11.369586
10.611415
9.476542
9.679794
9.019971
8.057952
8.296967
8.079410
7.677674
7.586479
7.844567
7.406473
7.293820
7.404685
7.476807
7.323623
6.969571
6.246567
6.166697
5.481839
5.384684
5.523562
4.751682
4.630685
4.487634
4.615784
4.712939
4.537702
4.289746
4.302859
3.852844
3.996491
4.076958
3.686547
4.046559
##ZVALUE=270
0.649691
0.729561
0.704527
0.746846
0.726581
0.665784
0.778437
0.938773
0.982881
0.976920
0.985861
0.999570
1.288652
1.121759
1.271963
1.315475
1.603961
7.502437
22.875667
70.823431
140.566826
248.162746
428.454876
579.815507
736.593604
795.623660
791.189671
715.484619
568.756461
432.681441
306.609869
177.113414
116.652846
82.938671
87.574720
110.508800
133.666992
159.020424
173.512697
179.266930
175.017715
158.268809
136.116743
104.207993
83.548427
59.405565
46.548843
35.462976
29.675961
24.803877
22.788644
21.559000
20.078421
18.988848
17.656684
16.190410
15.278459
14.121532
13.226867
11.858940
11.423826
10.567904
9.987950
9.688735
9.648800
8.952618
8.070469
8.256435
7.849932
7.353425
7.486939
7.624626
7.569790
7.266998
7.507801
7.235408
6.790757
6.163716
6.459951
5.641580
5.310774
5.401969
4.906654
4.745722
4.677773
4.776716
4.758835
3.976822
3.879666
3.814697
4.219413
3.632903
3.567934
3.725886
3.793836
3.621578
##ZVALUE=275
0.837445
0.749826
0.804663
0.865459
0.779629
0.847578
0.812411
0.834465
1.079440
0.667572
0.700951
0.900626
0.841618
1.254678
1.271963
1.090765
0.833869
1.186728
1.205802
3.164411
13.102889
37.666559
109.100938
202.373862
374.834538
514.193773
674.632788
775.440931
823.451877
784.358978
663.519502
526.660681
383.793712
221.357942
138.526559
82.275867
69.723725
81.610680
100.091696
127.395988
147.998929
164.432526
169.717669
162.605643
147.760510
119.886994
99.657774
72.260499
54.557920
37.222505
28.686523
22.255778
18.934608
17.271638
15.959740
14.778972
13.954639
13.067722
12.131929
11.764765
11.308789
10.391474
9.890795
9.672642
8.848906
9.037852
8.348823
8.437634
7.793903
8.057952
7.547736
7.248521
7.387996
7.394552
6.921887
6.576777
6.261468
6.242990
5.970597
5.616546
5.489588
5.061626
5.017519
4.825592
4.532933
4.030466
4.545450
3.848672
3.946424
3.797412
3.500581
3.957748
3.610849
3.769994
3.475547
3.433824
##ZVALUE=280
0.517964
0.660419
0.783801
0.677705
0.714660
0.765920
0.741482
0.870824
0.598431
0.801682
0.803471
0.667572
0.889897
0.696778
0.789762
0.956655
0.804663
0.977516
0.975728
1.137853
1.292825
1.610518
8.216500
27.915835
87.333918
157.172680
298.257470
433.156490
619.736910
738.085508
818.343759
823.252797
750.826597
580.901504
434.917808
256.379843
158.678889
83.186626
55.899620
52.056909
63.607693
90.146661
109.216571
135.609508
147.386789
153.226852
148.881674
130.494833
112.448931
84.283948
64.744949
43.283701
30.057430
19.915700
15.198588
12.141466
10.931492
10.313988
10.051727
9.687543
8.806586
8.843541
7.775426
8.370876
7.565618
7.694960
7.583499
6.897449
6.929636
6.618500
6.604791
6.563663
6.705523
6.140471
6.321669
6.009936
5.973577
5.779862
5.852580
5.235672
5.417466
4.675984
4.813671
4.300475
4.510880
4.114509
3.776550
4.181862
3.969669
4.139543
3.887415
3.612638
3.543496
3.105998
3.409982
3.239512
##ZVALUE=285
0.622869
0.797510
0.604987
0.655651
0.772476
0.451803
0.666976
0.604987
0.582933
0.839829
0.585914
0.961423
0.833869
0.536442
0.793934
0.721812
0.920892
1.011491
0.861883
0.952482
1.014471
0.799894
1.129508
1.293421
3.946424
13.496876
47.689676
99.504590
216.916800
336.870551
519.910455
662.024617
777.095556
835.206509
795.256495
658.060908
520.576835
327.850580
209.710002
102.094412
56.915879
35.352707
37.665963
55.263638
73.417425
100.471973
117.508769
135.761499
142.456889
136.622787
125.623941
104.108453
83.188415
59.109926
40.962696
25.156736
17.103553
10.672808
8.889437
7.701516
7.066727
6.849766
6.463528
6.673932
6.345510
6.287694
6.063581
6.256700
6.020665
5.795956
5.978942
5.772710
5.871654
5.657673
5.986691
5.346537
5.317926
5.045533
5.010962
4.518628
4.717708
4.434586
4.501939
4.453659
4.179478
3.929734
3.929734
3.752708
3.624558
3.534555
3.463626
3.263950
3.331900
3.200769
3.164411
3.124475
##ZVALUE=290
0.451803
0.612736
0.644922
0.523925
0.549555
0.625849
0.571609
0.576973
0.601411
0.753999
0.729561
0.636578
0.718832
0.635982
0.627637
0.828505
0.760555
0.714660
0.648499
0.826716
0.851750
0.773668
0.857711
1.084805
1.194477
1.189709
1.922846
5.200505
25.258660
61.176419
120.150447
253.332853
396.404862
600.982904
734.030604
832.003951
830.045938
728.031993
601.663589
404.262543
271.360874
136.885643
73.867440
33.605695
24.759769
33.636689
45.796633
67.518950
86.852908
111.433864
125.320554
133.792758
133.015513
119.081736
101.499557
75.963736
55.548549
35.169721
23.678541
13.783574
9.370446
6.440878
5.763769
5.406737
5.260706
5.482435
5.180836
5.089641
5.193949
4.821420
5.268455
5.171895
5.034804
5.239844
5.192757
4.845858
4.940629
4.681945
4.249811
4.257560
4.454851
4.244447
3.924966
4.073977
3.798604
3.737807
3.787875
3.375411
3.631711
3.231764
3.405809
3.333688
3.326535
3.266931
3.471971
2.788901
##ZVALUE=295
0.394583
0.428557
0.555515
0.556707
0.506639
0.471473
0.413656
0.498891
0.590682
0.562668
0.485778
0.592470
0.589490
0.547767
0.619888
0.756979
0.727773
0.596642
0.634789
0.702739
0.853539
0.797510
0.759959
0.807643
0.932813
0.899434
1.081824
1.289845
1.277924
2.432466
8.533001
36.653876
84.138513
200.336576
325.622559
521.976948
662.720799
795.746446
829.590559
769.009590
663.581491
482.720733
339.568853
182.701945
101.997852
40.044785
22.238493
20.163655
25.975704
43.364763
60.136914
83.805919
100.893974
119.477510
126.555562
124.575496
113.674998
93.056560
74.069500
51.993728
36.615729
21.410584
14.104843
8.263588
5.892515
4.476905
4.469752
4.186630
4.057884
4.240870
4.405975
4.442930
4.632473
4.592538
4.405975
4.587770
4.402995
4.234910
4.386902
4.141927
3.994703
3.687739
3.666878
3.579855
3.708601
3.691912
3.341436
3.540516
3.130436
3.178716
3.179908
3.242493
3.244877
3.037453
3.203750
3.212690
##ZVALUE=300
0.394583
0.405908
0.494719
0.386834
0.474453
0.435710
0.537634
0.575781
0.503659
0.479817
0.307560
0.488758
0.452995
0.472665
0.434518
0.566840
0.474453
0.550747
0.668764
0.774860
0.779629
0.844598
0.702739
0.711679
0.742674
0.695586
0.743866
0.947714
0.772476
1.229644
1.186728
1.545548
5.027652
18.126965
63.044429
125.209689
260.906816
400.441885
599.269867
717.284679
812.234879
809.941888
710.494518
586.346984
396.647453
261.330009
133.720636
72.093606
26.969910
15.146732
16.426444
23.358464
38.005710
53.557754
75.770617
94.820857
113.429427
118.011832
116.372705
108.939409
90.321898
72.370768
49.673915
36.201477
21.157861
13.798475
7.710457
5.340576
3.893971
3.852844
3.887415
3.798604
3.970861
4.083514
3.670454
3.932714
4.032850
3.619790
3.782511
3.700852
3.641844
3.661513
3.651977
3.354549
3.452897
3.201962
3.180504
3.333688
3.183484
3.352761
3.180504
3.254414
2.979636
2.735853
2.898574
2.937913
##ZVALUE=305
0.487566
0.436902
0.475645
0.510812
0.508428
0.549555
0.283718
0.325441
0.486970
0.333786
0.418425
0.366569
0.347495
0.402927
0.479817
0.420809
0.609756
0.376701
0.523925
0.742674
0.645518
0.728965
0.614524
0.788569
0.710487
0.578761
0.786781
0.722408
0.838637
0.864863
0.958443
1.002550
1.189709
1.187921
2.515912
13.466477
36.099553
104.123950
185.675621
347.303748
490.636826
670.101643
766.440034
805.168748
760.052800
610.006452
480.161905
306.717753
193.365812
87.954998
44.315457
17.105937
11.439919
14.350414
20.991564
36.350489
50.786734
72.459579
88.080764
105.702877
112.593770
109.535456
102.783442
84.808469
69.140792
46.195984
33.238530
20.005703
12.098551
6.730556
4.861951
3.918409
3.633499
3.488660
3.635883
3.533959
3.362894
3.329515
3.514886
3.250837
3.423691
3.245473
3.383756
3.504753
3.523827
3.190637
3.357530
3.117919
3.092885
3.057718
3.076792
3.049970
3.037453
2.737641
2.782941
2.684593
##ZVALUE=310
0.230670
0.331998
0.496507
0.485778
0.431538
0.384450
0.325441
0.444651
0.355840
0.419617
0.397563
0.453591
0.420809
0.366569
0.458956
0.483990
0.391603
0.598431
0.482798
0.593662
0.503659
0.558496
0.464916
0.593662
0.499487
0.666976
0.725985
0.680685
0.728965
0.825524
0.864863
0.962615
0.864863
0.967979
1.293421
1.396537
1.402497
5.666614
19.618869
64.086914
124.362707
256.088972
392.566919
583.592653
704.285502
800.798535
795.781016
700.089931
580.568910
392.481685
261.883736
133.447647
71.527958
26.633739
12.101531
9.251833
12.562871
20.306706
29.438734
46.355724
61.963797
82.366467
95.036626
103.544593
105.492473
98.029971
84.720850
65.510869
49.910545
31.804442
20.883679
12.084842
7.657409
4.949570
3.947616
3.607869
3.689528
3.326535
3.052950
3.278852
3.264546
3.282428
3.228784
3.281832
3.023744
3.416538
3.083944
3.139973
3.187656
2.873540
3.152490
3.005862
2.801418
2.854466
2.847910
2.921820
##ZVALUE=315
0.438690
0.421405
0.371933
0.364780
0.474453
0.452995
0.217557
0.385642
0.337958
0.420809
0.541806
0.334978
0.582933
0.517964
0.385642
0.401735
0.613928
0.285506
0.556707
0.441670
0.403523
0.516772
0.595450
0.451803
0.581741
0.593662
0.533462
0.527501
0.607967
0.668764
0.611544
0.741482
0.880957
0.804663
0.787973
0.986457
1.187921
1.321435
1.299977
2.688766
10.284781
41.549802
88.765621
197.599530
320.016742
515.192747
641.520619
757.686496
795.351863
744.630694
641.006827
464.140773
328.937769
177.613497
96.852779
36.689639
16.632676
8.188486
8.173585
11.675954
16.728640
28.153658
40.794611
58.648586
74.129701
91.480613
98.827481
98.331571
92.609525
77.177882
63.553452
45.294762
32.625794
19.002557
12.459755
6.911755
5.033612
3.630519
3.155470
3.228784
3.183484
2.889633
2.920628
3.009439
2.730489
3.227592
2.880692
2.883673
3.025532
3.031492
2.954602
3.036857
2.931952
2.876520
2.804995
2.901554
##ZVALUE=320
0.386834
0.173450
0.377893
0.219941
0.260472
0.201464
0.254512
0.184774
0.235438
0.174642
0.201464
0.120997
0.341535
0.104904
0.256896
0.315905
0.295639
0.369549
0.296831
0.355840
0.241995
0.333786
0.155568
0.246763
0.352859
0.333786
0.407696
0.428557
0.435710
0.445843
0.336766
0.436902
0.566840
0.544786
0.700951
0.689626
0.770688
0.729561
0.697970
1.001954
1.011491
1.327991
3.939867
21.428466
55.062771
142.486691
239.357948
401.028991
538.803935
697.060823
768.502951
765.906572
695.325732
538.497567
399.258733
226.961970
132.243633
56.409836
26.131868
8.822680
6.829500
7.143617
9.586811
15.437603
22.801757
38.460493
52.139759
69.796443
81.901550
92.876554
94.098449
87.437630
77.145696
59.311986
45.399666
28.438568
19.406676
11.137724
7.144809
4.149675
3.560781
2.972484
2.870560
2.626777
2.968907
2.752542
2.430677
2.584457
2.593994
2.648830
2.584457
2.431870
2.563000
2.594590
2.678633
2.581477
##ZVALUE=325
0.303984
0.309944
0.235438
0.263453
0.267625
0.180602
0.389814
0.312924
0.343919
0.360608
0.280738
0.193715
0.283718
0.188947
0.404716
0.351667
0.186563
0.168681
0.234842
0.244975
0.101924
0.218749
0.397563
0.284910
0.402927
0.336766
0.524521
0.523925
0.525713
0.460744
0.504851
0.700951
0.564456
0.528693
0.660419
0.707507
0.628829
0.692606
0.779629
0.605583
0.820756
0.859499
1.024604
1.179576
2.194643
13.749003
35.920739
95.943809
175.240636
329.746604
464.069843
632.724762
723.776817
766.204000
719.249845
573.680997
440.106988
272.963643
168.577433
74.615479
36.549568
12.304783
6.908774
5.861521
6.409883
9.679794
13.749599
23.920536
34.587979
52.977800
64.694881
79.419613
85.816979
87.184906
81.817508
67.960620
55.551529
39.861798
28.333664
16.757846
10.912418
6.378889
4.337430
3.376603
3.049970
2.885461
2.747774
2.583861
2.472997
2.582669
2.676845
2.760887
2.426505
2.429485
2.457500
2.544522
##ZVALUE=330
0.426769
0.205636
0.348687
0.277758
0.369549
0.380874
0.273585
0.283718
0.462532
0.296831
0.386834
0.259876
0.296831
0.281930
0.371933
0.510812
0.395775
0.471473
0.398755
0.195503
0.366569
0.382662
0.377893
0.448823
0.404716
0.433922
0.676513
0.478625
0.446439
0.444651
0.568628
0.521541
0.499487
0.628829
0.638962
0.630617
0.634789
0.742674
0.703931
0.838637
0.836849
0.819564
0.833869
0.892878
0.854731
1.149774
1.476407
5.777478
19.032955
64.077973
123.714805
250.979662
373.870730
548.696518
660.565495
741.412640
726.206899
619.684458
500.932932
330.350995
214.041471
101.988912
51.818490
19.062757
8.771420
5.669594
5.385876
6.202459
8.338690
14.111996
20.945668
33.943653
45.895576
62.817931
73.213577
81.897974
81.995726
76.135993
65.797567
50.028563
38.189888
24.708509
17.394423
10.702610
7.324815
4.421473
3.672838
2.833605
2.826452
2.634525
2.603531
2.643466
2.650619
2.611876
2.488494
2.645850
##ZVALUE=335
0.224710
0.400543
0.401735
0.261664
0.402927
0.349879
0.449419
0.458956
0.363588
0.420809
0.505447
0.430942
0.384450
0.217557
0.249743
0.276566
0.383854
0.555515
0.225902
0.583529
0.480413
0.496507
0.416636
0.502467
0.549555
0.404716
0.515580
0.588894
0.457764
0.436902
0.286698
0.464916
0.509620
0.482798
0.645518
0.554919
0.375509
0.382662
0.619888
0.537634
0.686646
0.664592
0.766516
0.859499
0.828505
0.988841
1.052618
1.016855
1.278520
2.707839
9.549856
38.358569
83.137751
185.142756
299.368501
477.066636
597.901940
704.160929
719.891787
654.774904
548.400879
383.486748
261.862874
138.188601
73.224902
25.425553
11.277795
5.477667
4.906654
5.186796
5.582571
8.208752
12.019873
20.972490
30.286908
45.902729
56.858659
68.623424
74.574947
75.301528
70.214868
59.712529
48.716664
36.704540
27.378798
17.091632
11.422634
7.057786
4.884601
3.613830
2.941489
2.767444
2.537966
2.329946
2.527833
2.521873
##ZVALUE=340
0.351667
0.291467
0.245571
0.110865
0.188947
0.390410
0.234842
0.175834
0.283718
0.254512
0.308752
0.268817
0.205636
0.298619
0.326633
0.249743
0.296831
0.235438
0.270605
0.275970
0.278950
0.416636
0.280738
0.272989
0.329614
0.433922
0.402927
0.404716
0.443459
0.346899
0.557899
0.507832
0.397563
0.401735
0.398755
0.374913
0.252724
0.519753
0.511408
0.513792
0.553727
0.499487
0.681877
0.761747
0.609756
0.714660
0.686646
0.704527
0.808835
0.983477
1.041889
1.606941
4.525781
23.614764
57.282448
142.992735
245.212913
402.160883
527.894497
653.787851
701.763034
668.591857
589.350462
440.303683
311.679840
166.337490
92.758536
37.486553
15.807748
6.198883
4.796982
4.671812
4.771948
5.763769
7.467866
12.615919
19.115806
30.502677
40.870905
55.187941
64.467788
70.982575
71.121454
66.277981
59.418678
46.690702
36.355853
24.853945
18.102527
10.894537
7.244945
4.573464
3.418922
2.787709
2.593994
2.420545
##ZVALUE=345
0.244975
0.399947
0.336766
0.242591
0.320673
0.341535
0.282526
0.407696
0.137687
0.424981
0.236630
0.165701
0.200868
0.293851
0.375509
0.437498
0.241995
0.443459
0.475645
0.267625
0.232458
0.253916
0.212789
0.441670
0.222921
0.282526
0.261664
0.428557
0.471473
0.468493
0.377893
0.551939
0.512600
0.537634
0.622869
0.449419
0.368953
0.456572
0.540614
0.640750
0.596642
0.636578
0.446439
0.674725
0.705719
0.649691
0.793934
0.667572
0.694990
0.737906
0.855923
0.953674
0.944734
1.113415
2.331734
12.750626
36.601424
97.800493
175.035596
320.597887
440.207720
588.519573
660.959482
674.548745
621.520877
483.578444
363.489985
216.467977
122.757554
49.604774
22.403598
8.353591
5.164742
4.795790
4.657507
4.410744
5.011559
7.066727
10.092854
17.843843
26.141405
38.649440
48.241615
57.913661
62.912703
65.400600
62.730908
54.888725
46.283603
34.950972
26.595592
16.867518
11.175871
6.439686
4.643798
3.205538
##ZVALUE=350
0.215769
0.144839
0.073910
0.231862
0.203848
0.194907
0.148416
0.251532
0.153780
0.283718
0.365973
0.245571
0.256896
0.285506
0.305772
0.202656
0.326633
0.272989
0.358820
0.279546
0.260472
0.272989
0.100732
0.204444
0.321865
0.350475
0.260472
0.207424
0.419617
0.306964
0.246763
0.193715
0.383854
0.461936
0.410676
0.325441
0.400543
0.496507
0.498891
0.355840
0.349879
0.420809
0.556707
0.519753
0.477433
0.387430
0.371933
0.388622
0.491738
0.658631
0.676513
0.652671
0.803471
0.807643
0.709891
0.892878
1.382828
6.298423
19.795895
64.331889
122.637749
247.318745
361.101627
513.918996
606.151819
662.694573
635.436773
529.912710
411.501527
247.711539
152.819753
71.657896
33.607483
10.376573
5.560517
4.551411
3.967881
3.753901
3.815889
4.716516
6.151795
10.487437
14.967918
23.319721
31.046867
42.763948
50.411820
57.130456
59.733987
57.154894
51.867962
41.658878
33.617616
23.276806
16.821623
10.535717
##ZVALUE=355
0.204444
0.141859
0.165701
0.127554
0.147820
0.157952
0.187755
0.181794
0.130534
0.172853
0.173450
0.252724
0.270605
0.188947
0.191927
0.164509
0.394583
0.364780
0.199676
0.197887
0.136495
0.118613
0.187755
0.303984
0.177622
0.214577
0.348687
0.270605
0.302792
0.219941
0.335574
0.234842
0.224710
0.301600
0.164509
0.219941
0.257492
0.364780
0.289679
0.280738
0.338554
0.325441
0.273585
0.332594
0.223517
0.450611
0.325441
0.477433
0.412464
0.422597
0.474453
0.431538
0.555515
0.536442
0.637770
0.653863
0.750422
0.753999
0.931621
1.974702
11.989474
34.333467
93.292594
166.071653
307.277441
426.588655
563.617945
630.942583
631.350875
561.676621
419.587493
309.307575
176.122785
97.571611
38.382411
17.056465
6.058812
4.504919
3.887415
3.609657
3.607869
3.502965
4.212856
5.237460
8.540750
12.713671
20.303726
27.494431
38.158894
44.960976
52.031875
54.289699
52.886605
48.607588
40.163994
32.899976
##ZVALUE=360
0.209808
0.354648
0.120997
0.282526
0.367761
0.268817
0.207424
0.130534
0.241995
0.387430
0.250936
0.201464
0.260472
0.303984
0.341535
0.139475
0.344515
0.114441
0.383854
0.337958
0.302792
0.306964
0.325441
0.316501
0.328422
0.410676
0.330806
0.441670
0.334978
0.300407
0.350475
0.459552
0.402927
0.261664
0.387430
0.404716
0.405908
0.501871
0.364780
0.210404
0.518560
0.496507
0.531673
0.386834
0.525713
0.633597
0.690818
0.526905
0.610948
0.695586
0.596642
0.543594
0.692606
0.605583
0.763535
0.836849
0.750422
0.632405
0.765920
0.788569
1.150966
1.499653
4.764795
21.631718
53.468943
131.881833
220.150948
365.018845
480.154753
596.391559
626.518726
586.063862
501.487851
346.832871
233.759880
115.918517
61.291456
22.989511
9.641647
4.635453
3.973842
3.544688
3.576875
3.303885
3.353953
3.616810
4.397631
6.913543
10.020733
16.192794
22.418499
32.265782
38.788915
46.129823
48.396587
48.458576
##ZVALUE=365
0.316501
0.288486
0.072718
0.242591
-0.024438
0.230670
0.166893
0.140667
0.124574
0.235438
0.215769
0.181794
0.331998
0.438690
0.201464
0.274777
0.313520
0.348687
0.277758
0.248551
0.305772
0.206828
0.317693
0.270605
0.315905
0.311732
0.263453
0.270605
0.221729
0.406504
0.443459
0.297427
0.346899
0.404716
0.396967
0.353456
0.231862
0.398755
0.284910
0.483990
0.552535
0.362992
0.515580
0.389814
0.530481
0.453591
0.489950
0.553727
0.591874
0.426769
0.445843
0.399947
0.380874
0.576973
0.584722
0.603795
0.579953
0.551939
0.738502
0.735521
0.666976
0.888705
0.993609
1.140833
2.192855
11.842847
32.277703
86.454749
160.447955
298.919678
409.639478
533.081889
594.638586
590.632558
524.384975
390.786529
279.313922
156.615973
85.816979
32.156706
13.444424
5.014539
3.831983
3.616810
3.333688
3.139973
2.924800
2.931952
2.924800
3.698468
5.297661
8.666515
12.770891
20.311475
26.312470
34.542680
##ZVALUE=370
0.325441
0.371933
0.244975
0.364780
0.213981
0.236630
0.460744
0.217557
0.287890
0.432730
0.250936
0.275970
0.362992
0.264645
0.315905
0.338554
0.300407
0.349879
0.339746
0.341535
0.342727
0.395775
0.434518
0.216961
0.387430
0.371933
0.250936
0.487566
0.352859
0.566840
0.220537
0.328422
0.298619
0.461936
0.351667
0.588894
0.417829
0.456572
0.434518
0.535846
0.511408
0.508428
0.526905
0.363588
0.406504
0.443459
0.300407
0.538826
0.507832
0.540614
0.578761
0.566840
0.424981
0.491738
0.543594
0.704527
0.442863
0.634789
0.606775
0.685453
0.745654
0.760555
0.775456
0.825524
0.908971
0.923872
1.348853
6.280541
20.650625
63.819885
121.896863
236.623883
346.435905
490.169525
565.567613
590.096712
547.010899
435.086489
327.781439
190.438628
109.534860
44.604540
19.766688
6.758571
3.980994
3.544688
3.133416
3.064871
2.702475
2.627969
2.584457
2.733469
3.140569
4.463792
6.748438
11.491776
##ZVALUE=375
0.296831
0.317693
0.369549
0.302792
0.239611
0.224710
0.329614
0.200868
0.246763
0.268817
0.312924
0.316501
0.347495
0.312924
0.235438
0.311732
0.252724
0.361800
0.384450
0.325441
0.342727
0.276566
0.290871
0.385642
0.342727
0.368953
0.235438
0.499487
0.343919
0.431538
0.502467
0.615716
0.583529
0.339746
0.500679
0.398755
0.476837
0.516772
0.570416
0.539422
0.594854
0.529885
0.479817
0.708699
0.497699
0.539422
0.505447
0.608563
0.549555
0.554919
0.318885
0.473857
0.526905
0.621676
0.553727
0.514984
0.518560
0.501871
0.676513
0.508428
0.448823
0.536442
0.693798
0.579953
0.740886
0.716448
0.854731
0.902414
1.002550
3.030896
10.325909
38.087964
82.273483
182.969570
285.595655
430.268645
520.355701
581.838489
571.174622
480.986834
376.885533
232.646465
149.924755
75.551867
37.963986
12.611747
5.281568
3.306866
2.962947
2.892613
2.534986
2.402663
2.543926
2.358556
2.403855
2.772808
##ZVALUE=380
0.238419
0.190735
0.164509
0.173450
0.315905
0.214577
0.294447
0.264645
0.293851
0.154972
0.382662
0.263453
0.222921
0.325441
0.230670
0.050664
0.322461
0.300407
0.247955
0.196695
0.335574
0.369549
0.285506
0.253916
0.290871
0.156760
0.233650
0.407696
0.491738
0.491738
0.582933
0.404716
0.715852
0.810623
0.855923
0.752807
0.875592
0.751615
0.773668
0.729561
0.705719
0.701547
0.647902
0.576973
0.525713
0.548959
0.443459
0.483990
0.597835
0.545979
0.377893
0.444651
0.579953
0.517964
0.551939
0.453591
0.449419
0.612736
0.530481
0.665784
0.450611
0.540614
0.628829
0.616908
0.654459
0.710487
0.745654
0.692606
0.783801
1.019835
1.070499
1.672506
5.884767
27.028918
62.937737
147.106647
238.325000
375.458002
476.351976
565.028787
576.026440
510.921478
420.866609
286.122561
193.798542
97.878575
51.627755
18.513799
7.786751
3.636479
3.016591
2.729893
2.367496
2.575517
2.411604
2.248883
##ZVALUE=385
0.202656
0.142455
0.165701
0.215769
0.263453
0.268817
0.172853
0.345707
0.339746
0.113845
0.303984
0.211596
0.106692
0.125766
0.275970
0.157952
0.199676
0.212789
0.123978
0.153780
0.285506
0.175834
0.187755
0.318885
0.238419
0.315905
0.571609
0.543594
0.674725
0.914931
0.911951
0.953674
1.129508
1.382828
1.261830
1.473427
1.287460
1.316667
1.365542
1.358986
1.203418
1.099706
1.248717
0.902414
1.123548
1.040697
0.955462
0.823736
0.783801
0.638962
0.740886
0.703931
0.578761
0.663996
0.649691
0.638962
0.527501
0.511408
0.482798
0.590682
0.471473
0.468493
0.493526
0.635982
0.590682
0.535846
0.751615
0.798702
0.735521
0.830889
0.874996
0.913739
1.102686
1.166463
2.631545
14.064908
37.483573
102.055669
179.361701
317.147970
423.630476
532.381535
564.626455
542.300940
479.596853
355.917811
255.486965
140.944719
80.845952
33.894777
13.854504
4.485846
3.209710
2.662539
2.729893
2.541542
##ZVALUE=390
0.281930
0.073910
0.159740
0.199676
0.301600
0.363588
0.221729
0.221729
0.244975
0.327826
0.114441
0.238419
0.242591
0.182986
0.180602
0.215769
0.390410
0.246763
0.281930
0.162721
0.257492
0.247955
0.405908
0.332594
0.305772
0.457764
0.635982
0.859499
1.111627
1.256466
1.479983
1.680851
1.938939
1.994967
2.033710
2.062917
2.194643
2.019405
2.009869
1.832843
1.910925
1.749992
1.447797
1.527667
1.472831
1.438856
1.288652
1.283884
1.081824
1.029968
0.870824
0.635982
0.783801
0.708699
0.692606
0.774860
0.838637
0.768900
0.820756
0.665784
0.608563
0.584722
0.631809
0.594854
0.537634
0.544786
0.560880
0.651479
0.702739
0.694990
0.716448
0.898838
0.851750
0.974536
0.836849
0.926852
1.446605
7.611513
24.172664
74.590445
141.098499
266.834497
367.811918
478.963852
542.455912
565.683842
522.812009
416.975617
319.654942
196.290612
116.279721
49.024820
22.182465
6.787777
3.530979
2.750754
##ZVALUE=395
0.324845
0.323653
0.263453
0.213981
0.309944
0.355840
0.173450
0.380874
0.329614
0.411868
0.362992
0.335574
0.307560
0.292659
0.383854
0.281930
0.263453
0.274777
0.170469
0.398755
0.190735
0.356436
0.384450
0.344515
0.397563
0.519753
0.742674
0.990629
1.377463
1.635551
1.947880
2.179742
2.393723
2.535582
2.715588
2.840757
2.981424
2.781749
2.811551
2.735853
2.630949
2.386570
2.193451
1.958609
2.070665
1.529455
1.558661
1.456738
1.347661
1.255870
1.104474
1.064539
1.041889
0.943542
1.077652
0.753999
0.767708
0.784993
0.790954
0.836849
0.697970
0.806451
0.700951
0.647902
0.608563
0.599623
0.575781
0.636578
0.699759
0.895858
0.865459
0.938773
0.884533
0.701547
0.837445
0.830889
0.770688
0.909567
1.105666
4.227757
14.950633
52.183867
103.408694
204.069614
302.236676
436.006784
520.050526
574.096441
562.166572
480.968952
379.247665
237.350464
153.131485
73.248744
35.786629
11.711717
##ZVALUE=400
0.393987
0.435710
0.344515
0.242591
0.326633
0.257492
0.209808
0.195503
0.410676
0.274777
0.355840
0.128746
0.261664
0.226498
0.117421
0.209808
0.296831
0.208616
0.231862
0.281930
0.272989
0.240803
0.197887
0.487566
0.457764
0.428557
0.894666
1.071692
1.526475
1.725554
1.987815
2.389550
2.730489
2.908707
2.849698
3.136992
3.064871
3.031492
2.932549
2.875924
2.891421
2.640486
2.218485
2.153516
2.114773
1.965761
1.980662
1.545548
1.639724
1.353621
1.375675
1.305938
1.155734
1.116991
0.873804
0.808835
0.823736
0.853539
0.831485
0.753999
0.722408
0.636578
0.668764
0.778437
0.706911
0.673532
0.543594
0.554919
0.868440
0.714660
0.785589
0.856519
0.640750
0.778437
0.672936
0.718832
0.760555
0.754595
0.813603
0.852942
0.958443
2.427697
8.576512
31.163692
67.063570
152.754784
243.201852
380.456448
472.850800
549.422503
559.453964
495.312810
412.314534
287.658572
191.804767
97.904801
##END
