##TITLE=FQP00651
##FORMAT=SPECTACLE-ASCII V-1.2
##DATA TYPE=ULTRAVIOLET SPECTRUM
##SECOND TYPE=ULTRAVIOLET SPECTRUM
##DATE=01/30/18
##TIME=16:08:05
##SPECTROMETER/DATA SYSTEM=SPECTACLE
##XUNITS=NM EM
##YUNITS=ENERGY
##YFACTOR=1
##FIRSTX=220
##LASTX=410
##NPOINTS=96
##3DDATA=Equidistant
##ZUNITS=NM EX
##FIRSTZ=210
##LASTZ=400
##ZPOINTS=39
##XYDATA=(Y..Y)
##ZVALUE=210
1.311898
1.483560
1.790524
1.780987
1.607537
1.918674
2.017617
1.858473
2.182722
2.197623
2.008677
1.736879
2.440810
1.820922
2.393723
2.453923
2.171993
2.286434
2.156496
2.344847
2.390742
3.103614
3.218651
2.923608
3.083944
3.438592
3.458858
3.507733
3.585815
4.175901
5.047917
4.211664
4.696846
4.897714
5.018711
5.180836
4.607439
3.803968
4.426837
4.567504
4.944801
3.986955
4.282594
4.405975
4.527569
4.748702
4.817843
4.584789
4.579425
3.982782
4.869699
4.508495
4.570484
4.651546
3.718734
4.092455
4.272461
4.484653
4.796982
4.617572
4.591942
5.271435
4.479885
4.326701
5.427599
4.653931
5.498528
6.175637
6.615520
6.683469
7.976890
8.586645
10.055900
12.420416
11.675954
12.521744
13.783574
14.577508
14.521480
13.061762
12.019873
11.410713
10.414720
9.410977
7.870793
7.212758
5.559921
5.905628
5.469918
4.503727
4.564524
4.568696
4.497766
4.826784
5.314946
4.749894
##ZVALUE=215
4.522800
4.971623
3.822446
3.745556
3.195405
3.176928
4.220605
4.458427
5.048513
4.361868
4.824996
4.231930
3.731847
2.936721
3.850460
2.787709
2.116561
2.287626
2.845526
2.371669
2.672672
2.842546
3.119707
2.859831
3.404617
3.660917
4.189610
4.028678
4.367828
5.153418
4.786849
5.585551
5.089641
4.425645
6.083846
5.666614
5.989671
5.208850
6.159544
5.878806
4.749894
5.550981
5.019903
5.058646
4.513860
5.468726
4.350543
4.808903
4.712939
4.891753
5.578995
5.329847
4.172921
4.298687
4.630685
4.665852
5.584955
4.798770
4.628897
4.701614
4.353523
3.801584
4.644990
4.542470
4.341602
4.676580
4.645586
5.535483
5.650520
6.184578
6.338954
7.210970
9.374619
9.928942
10.410547
10.835528
11.406541
10.531545
9.787679
9.859800
8.973479
8.595586
8.180737
6.901622
6.186962
6.478429
4.643798
4.672408
4.403591
4.004836
3.920794
3.828406
3.808737
4.154444
3.750920
4.592538
##ZVALUE=220
15.766621
17.324686
18.379688
18.531680
16.652942
14.723539
11.373758
9.533763
9.606481
9.780526
10.484457
9.555817
10.873675
9.738803
8.010864
6.513000
5.009770
3.897548
3.433824
3.167987
2.715588
3.390908
2.529621
3.033876
3.291965
4.521608
4.622936
4.921556
4.988909
6.289482
6.398559
6.309748
7.309914
7.728934
7.178783
6.948709
8.451939
7.176995
6.841421
7.249713
6.603599
7.012486
6.657839
5.667806
6.207824
5.794764
6.031990
5.446672
5.932450
6.158948
5.641580
5.430579
5.433559
5.436540
5.172491
5.236864
5.242825
4.946589
4.672408
5.572438
4.556775
5.096793
5.662441
4.821420
4.705787
5.010962
4.958510
6.140471
6.149411
6.073713
7.027984
9.174943
9.254813
10.218620
10.847449
10.918975
11.304617
10.494590
9.500980
9.012818
8.637905
7.858872
7.980466
7.047653
6.297827
5.325675
5.481839
5.929470
4.507899
5.100965
5.284548
4.753470
4.172921
4.494786
4.441738
4.583597
##ZVALUE=225
31.748414
32.083988
43.121576
56.411624
66.335797
63.947439
54.656863
44.247508
31.969547
25.596619
21.838546
22.072792
23.208857
23.354888
24.602413
23.635626
21.434426
16.405582
11.982918
8.206964
5.567670
4.222989
3.844500
4.452467
4.629493
4.200935
6.559491
6.132722
6.960630
6.959438
7.975698
8.159876
9.137988
8.322597
9.465814
9.989738
10.766983
9.607673
8.980632
9.033680
9.273887
8.188486
8.561611
8.503795
8.957982
7.514954
7.335544
7.884502
7.488728
6.705523
6.975532
6.120801
6.935596
6.627440
7.083416
6.606579
6.431937
6.594658
6.878972
5.931854
6.742477
6.507635
6.314516
6.189942
7.026792
6.997585
7.441640
7.667542
7.742643
9.048581
9.228587
10.589957
11.965632
12.907982
13.581514
13.669729
13.411641
12.566447
12.897849
12.388825
11.121631
10.588765
9.069443
9.388924
8.669496
7.480979
7.757545
7.318854
6.556511
5.917549
6.281734
7.006526
6.994605
6.232858
5.797744
6.660819
##ZVALUE=230
28.714538
30.100942
50.108433
84.899664
111.119747
134.077668
149.626732
144.264698
133.551955
110.819936
77.781677
58.075786
44.038892
43.279529
42.262673
47.673583
49.299598
47.621727
42.006969
36.420822
26.898980
17.898679
11.825562
8.142591
5.612969
5.311966
6.361604
7.127523
6.848574
7.521510
8.553863
9.284616
9.892583
9.825826
9.543896
10.224581
10.261536
9.417534
10.833740
10.837913
10.102987
9.573698
8.966923
8.996725
8.888841
8.765459
7.814765
9.152889
8.870959
7.419586
7.226467
7.430911
7.205606
7.424951
7.030964
7.821918
8.085966
8.163452
8.225441
7.918477
7.912517
7.317662
9.138584
7.988811
9.287596
8.648634
8.409619
9.088516
9.575486
10.849833
11.251569
11.680722
12.285709
14.273524
15.153885
15.380979
14.768839
14.906526
14.311671
14.042854
13.126731
12.044907
11.542439
10.938644
12.275577
10.510683
10.287762
9.604692
10.336637
9.961724
9.746552
8.725524
9.104609
9.487867
9.488463
9.056926
##ZVALUE=235
11.124611
13.258457
25.870800
62.422752
100.037456
160.002708
208.015442
259.987712
284.472704
288.796425
250.899792
209.369659
147.144794
109.152794
78.596473
69.417953
69.244504
74.523687
79.437494
83.176494
77.637434
66.666603
51.003695
36.088824
24.319887
16.566515
12.368560
8.238554
8.594990
8.827448
9.466410
8.576512
9.864569
9.799600
9.495616
9.871721
9.829998
9.353757
9.354949
8.985996
9.807944
9.139776
9.149909
9.779930
9.124875
8.227825
8.458495
9.133816
8.718967
8.798838
8.794665
9.086728
10.006428
9.283423
8.802414
7.892847
8.706450
9.140968
9.525418
9.858608
8.782744
10.399818
9.693503
11.330843
10.754466
11.942983
10.602474
12.502670
11.995435
13.440847
14.012456
15.419722
16.963482
17.588735
17.591715
17.412901
18.010736
17.651916
18.101931
17.417669
16.443729
17.218590
14.992952
15.665889
15.029907
15.172958
14.752746
13.886690
15.685558
14.774799
12.424588
15.165806
14.462471
13.654828
13.147593
13.976693
##ZVALUE=240
1.602769
1.694560
6.216764
15.758872
52.618980
96.449852
182.943940
276.523829
397.448540
463.177562
509.798527
507.129431
458.640456
356.124640
273.570418
175.225735
122.228861
93.996525
92.373490
97.859502
110.092759
112.868547
113.399625
100.541711
82.557797
68.860650
45.586824
33.903718
21.919608
15.349984
12.276769
9.825826
10.160804
9.521842
9.990931
9.172559
10.354519
9.205937
9.047985
10.778904
9.521842
8.950830
9.128451
9.557605
10.210872
9.829998
8.611679
8.763671
8.745790
8.905530
9.018779
9.418726
8.621812
8.134842
9.884834
8.528829
10.215640
9.764433
8.776784
10.584593
9.628534
10.746717
10.606647
10.817647
11.329651
12.098551
12.171865
13.453960
14.780760
15.343428
16.173720
17.307997
19.662976
21.516681
20.806789
21.486878
22.972822
22.920966
19.641519
19.339919
19.518733
19.183755
19.498467
18.637776
20.392537
17.988682
17.060637
16.803741
17.073750
16.669631
17.616749
16.243458
17.366409
16.265512
16.956925
15.955567
##ZVALUE=245
1.515746
1.395941
1.300573
1.513958
3.531575
10.255575
38.710833
80.017447
185.481906
299.367905
460.071564
574.246645
661.438704
680.415630
643.914938
511.216521
399.709940
260.763764
184.546709
113.439560
98.343492
95.033646
110.858679
124.662519
127.627850
128.318667
115.138888
98.914504
74.909925
56.275725
42.327642
26.945472
18.869638
14.574528
12.487769
11.994839
11.177659
11.623502
11.015534
11.297464
9.900928
10.220408
10.854602
10.443926
10.148883
9.120703
9.934902
8.905530
10.719895
10.069609
9.358525
9.315610
8.700490
9.268522
8.720756
8.972883
8.655787
9.461641
9.383559
8.563995
9.686947
9.726882
9.190440
10.136962
10.821819
11.860728
10.386705
11.044741
12.950897
13.751984
14.737844
14.641881
15.823841
16.925931
17.120838
19.489527
16.839504
18.338561
17.079711
17.432570
16.962886
17.886758
17.862916
18.847585
18.233657
17.257929
16.863942
16.825795
17.293692
16.605854
17.776489
16.697645
16.778708
16.619563
15.502572
16.773939
##ZVALUE=250
1.246929
1.201630
1.313686
1.384616
1.234412
1.319647
1.821518
6.288886
19.349456
55.945516
109.095573
229.958892
345.018506
499.103665
594.403744
679.274797
672.565699
591.491461
492.463708
331.533551
230.785608
157.756805
100.650787
93.197823
107.061863
119.656920
135.658979
138.369799
136.073828
125.350952
101.923943
83.387494
61.459541
40.546656
28.677583
18.578768
13.625622
11.988878
10.991693
11.337996
10.962486
10.485649
10.231733
10.701418
10.377765
10.012984
9.630919
8.712411
9.038448
9.523630
9.167790
8.219481
8.182526
8.031726
8.313656
8.074641
7.915497
8.158684
7.196665
7.781982
8.657575
8.115768
8.059740
8.382797
8.180737
8.974671
9.784698
8.999705
10.179877
10.924935
11.960864
13.700724
14.727712
14.909506
15.227795
15.457869
15.357733
14.829636
16.021729
15.897751
16.006827
15.972853
15.602708
16.318560
16.783476
16.006827
15.994906
16.144514
16.118884
17.200708
15.128851
15.972853
15.404820
15.718937
16.595721
15.838742
##ZVALUE=255
0.933409
1.220703
1.365542
1.201630
0.960827
1.644492
1.056790
1.454949
1.502633
3.817677
18.115640
46.125650
91.687441
196.114779
301.283598
453.872681
565.655828
666.641593
713.886619
675.446987
602.558851
498.545766
328.570008
226.017833
138.713717
110.614896
97.044706
106.290579
129.220486
139.986873
143.583417
145.173669
132.607818
108.398795
84.579587
59.918761
44.692755
26.830435
19.459724
13.555884
12.416840
12.140870
11.690855
10.646582
10.790825
9.574890
10.276437
10.442734
9.849668
9.365678
8.738637
9.455681
9.321570
7.955432
7.768869
7.726550
7.729530
7.472634
7.994771
7.669926
7.968545
7.477999
7.706881
8.557439
8.578897
8.008480
9.086728
9.455681
10.119677
10.143518
11.465549
13.149977
13.281703
13.807416
13.084412
15.035868
15.211701
14.996529
14.882684
16.078949
15.406609
15.485883
15.813708
14.837980
15.086532
14.806986
15.459657
15.327930
15.221834
14.379621
15.710592
15.808940
15.615821
15.515685
15.799999
15.183687
##ZVALUE=260
1.101494
0.958443
0.892878
0.923872
0.954866
1.344681
1.048446
1.024604
1.591444
1.674891
1.860857
2.439618
6.297827
32.130480
89.986920
229.717493
379.248857
623.830557
809.069872
992.991924
1015.871763
999.714732
827.025771
640.264750
402.413607
273.510814
156.913996
105.788708
79.577565
84.315538
104.748607
129.495859
146.080852
153.075457
150.206685
135.670900
114.911795
84.835887
65.800548
41.689873
29.129982
19.279718
14.784932
11.796951
11.262894
10.885000
10.566711
11.098981
9.773970
8.847713
9.435415
9.181499
9.014606
8.406639
8.731484
7.982850
7.812977
7.382631
8.173585
7.916689
7.644892
7.476807
7.515550
7.993579
7.843971
7.572770
7.775426
8.612871
8.755922
9.856820
9.975433
11.154413
11.887550
11.914968
13.538599
13.304949
12.922883
13.063550
13.021827
14.161468
14.058948
13.661981
13.141632
13.644695
13.795495
13.675690
13.799667
13.593435
13.484955
14.179945
14.794469
14.428496
14.704466
14.091730
14.648438
14.991760
##ZVALUE=265
0.913739
0.779629
1.044869
0.884533
0.820756
1.069903
0.922680
1.050830
1.042485
1.040697
1.520514
1.566410
1.546741
1.714826
3.687739
18.351674
46.010613
119.452477
216.561556
400.448442
556.998849
707.520843
837.080479
854.741931
757.516026
651.636720
470.382571
332.081914
189.409852
123.108625
82.724690
70.802569
82.932711
112.758875
132.649541
154.352784
159.144998
150.229931
138.714910
110.278726
87.831616
60.853958
43.016672
26.281476
19.199848
12.844801
11.156797
10.204911
9.540915
9.154677
9.258986
8.457899
8.117557
8.721948
8.030534
7.642508
7.126927
7.281899
7.544756
7.087588
7.111430
7.046461
7.008910
7.061958
7.243752
7.185936
7.427931
7.996559
8.243918
8.248687
8.808970
9.549856
10.155439
10.306835
10.504723
10.906458
10.349751
10.473728
11.407733
11.523962
11.590719
11.712909
12.038946
12.745857
12.956858
12.317896
13.175607
12.115836
12.521744
12.185574
12.616515
13.372898
13.456941
12.881756
12.695789
12.881756
##ZVALUE=270
0.919700
0.920892
0.999570
0.992417
1.066923
1.218915
1.211762
1.213551
1.134872
1.167655
1.367927
1.335740
1.226664
1.681447
1.403689
1.573563
2.002716
8.050799
22.392869
71.843863
141.822696
239.323974
427.655578
582.872629
748.666525
813.995004
806.522965
738.672018
574.134588
433.265567
268.194675
169.315934
89.538693
63.792467
66.268444
85.079670
112.334490
131.331682
151.444674
156.421661
149.461627
136.747956
107.963681
86.191893
60.831904
41.871667
25.766492
18.319488
13.209581
9.896755
9.656549
9.124875
8.144975
8.242726
7.908940
7.708669
7.677674
7.913709
7.920861
6.929636
6.931424
7.584691
7.340908
7.422566
7.779598
7.451773
8.180737
7.621646
8.772612
8.510947
8.399487
9.609461
9.894967
9.743571
10.580420
10.435581
10.073781
10.979772
11.323690
10.805726
11.080503
10.930896
11.595488
11.101961
11.545420
11.537671
12.169480
11.811852
12.012720
11.881590
11.475682
12.575984
12.161732
12.392998
12.102723
11.939406
##ZVALUE=275
0.656843
0.655651
0.759959
0.862479
0.726581
0.834465
0.723600
0.792742
0.812411
0.880957
0.949502
0.836849
0.935793
0.954866
1.226664
1.290441
1.147985
1.357794
1.463890
2.869964
14.665723
40.088892
120.193958
217.069983
352.385640
558.033586
706.122518
848.330855
889.211893
825.414658
710.640550
527.724624
373.070836
204.521418
124.901533
64.483881
49.615502
61.759949
80.423951
106.847882
128.590465
145.969987
152.516961
147.475600
132.644773
103.115439
82.583427
58.533549
41.520000
24.283528
16.728640
11.314750
9.433627
7.796884
7.779598
6.902814
7.343888
7.359982
7.556677
7.937551
7.370710
7.748604
7.292628
7.577538
7.355809
7.856488
7.964969
7.948875
8.078814
8.290410
8.810759
9.500980
9.729862
9.636879
10.126829
10.479689
10.551810
10.363460
10.654926
10.860562
10.379553
10.335445
10.907650
10.642409
10.614991
10.364652
11.403561
11.196733
10.628700
11.305809
11.148453
11.323690
10.764599
11.242628
11.292696
11.371970
##ZVALUE=280
0.660419
0.724792
0.560880
0.560880
0.456572
0.617504
0.443459
0.424981
0.620484
0.506639
0.759959
0.759959
0.844598
0.853539
0.872612
0.949502
1.109838
0.974536
0.938773
1.217723
1.306534
1.738667
7.866621
26.313663
83.451867
157.674551
297.374725
446.589589
650.270581
790.737867
886.982679
900.378823
818.166733
628.392696
460.647941
260.911584
155.874491
72.749853
43.916702
40.834546
52.608848
77.714920
100.186467
125.763416
140.009522
145.561695
140.529871
124.210715
105.871558
77.901483
58.794618
37.089586
26.018620
15.084743
11.128783
7.949471
8.036494
6.829500
7.242560
7.329583
7.761717
7.434487
7.987618
8.347631
8.148551
8.365512
8.015633
8.670688
8.888841
8.913875
9.388924
9.568930
9.422898
10.019541
10.335445
10.138750
10.713935
10.216832
10.125637
10.395646
10.702610
10.499954
11.067986
10.581613
10.449886
10.603666
10.970831
11.028647
10.397434
10.800958
10.544658
10.761619
10.632873
10.621548
10.404587
10.683537
##ZVALUE=285
0.784993
0.519753
0.482798
0.621676
0.622869
0.702739
0.558496
0.657439
0.605583
0.740886
0.785589
0.734925
0.807643
0.740886
0.824928
0.841618
0.733733
0.809431
0.966787
1.090765
1.269579
1.483560
1.257658
1.563430
4.050732
13.190508
45.982599
96.010566
210.488439
343.341827
492.785573
696.237683
817.286968
885.400772
850.648880
694.782734
547.945499
340.370536
213.084817
102.184415
55.225492
29.952526
32.577515
50.922632
70.754886
101.178885
117.396712
134.993792
142.213702
136.496425
125.554800
103.499889
83.712935
58.222413
41.131973
24.160743
16.502738
10.985732
9.149909
8.580685
8.007884
8.093715
8.360744
8.406639
8.733869
9.050965
9.420514
9.215474
10.005832
10.169744
10.628700
10.490417
10.516644
10.524988
10.803938
11.031628
11.401772
11.505485
10.671616
11.001825
10.738969
11.230707
11.112690
11.415482
10.528564
11.010766
11.122823
10.796785
10.585785
11.048913
10.954738
10.780692
10.988712
10.428429
10.642409
10.509491
##ZVALUE=290
0.559688
0.573993
0.471473
0.500679
0.651479
0.624657
0.613928
0.495911
0.678897
0.678897
0.514984
0.653863
0.694990
0.730753
0.682473
0.726581
0.832677
0.906587
0.696778
0.930429
0.921488
0.939965
1.022816
1.011491
1.183748
1.368523
1.724958
5.020499
25.061965
61.417818
120.294690
257.241726
402.816534
608.726740
745.178461
849.825740
845.065713
735.718608
603.664517
411.452651
276.653767
139.375925
74.679852
31.903982
23.782849
32.231808
45.355558
67.701936
87.063909
113.272667
128.686428
135.720968
134.909749
121.899843
103.786588
77.138543
59.795976
39.147735
27.137995
16.966462
12.821555
9.955764
9.105802
9.351969
9.137988
9.791851
9.842515
9.857416
10.788441
10.730624
10.802746
11.012554
11.089444
11.597872
11.928678
11.734962
12.031794
11.584759
11.692643
11.806488
11.479855
11.208653
11.686683
11.840463
11.493564
11.496544
11.394620
10.948777
11.308789
10.975599
10.762811
11.011958
10.683537
10.430813
10.428429
10.743737
##ZVALUE=295
0.551939
0.482798
0.514984
0.468493
0.490546
0.560880
0.543594
0.542998
0.513792
0.552535
0.719428
0.662804
0.774860
0.500679
0.841618
0.771880
0.762939
0.818968
0.903606
0.911951
0.940561
0.868440
0.712872
1.033545
1.077652
1.159906
1.210570
1.225471
1.324415
2.457500
8.698702
35.663843
84.304810
202.115774
330.399871
536.056757
681.389570
821.864009
854.820013
793.844461
682.017803
491.158962
345.499516
184.358954
103.302002
41.032434
22.279620
20.091534
27.283430
44.595599
61.581731
88.593960
104.535818
125.132799
130.866766
128.951669
118.718743
98.619461
79.459548
55.868626
41.755438
25.812984
18.084645
13.338923
11.539459
10.397434
10.178685
10.236502
10.985732
11.293888
11.126995
11.243820
11.661649
11.804700
12.082458
11.855960
12.029409
11.999607
12.161732
12.238622
11.937618
11.672974
11.358857
11.634827
11.415482
11.598468
11.570454
11.565685
10.975599
10.998845
11.187792
10.770559
11.001825
10.345578
10.170937
10.330677
##ZVALUE=300
0.561476
0.484586
0.464916
0.415444
0.673532
0.591874
0.523925
0.424981
0.439882
0.402927
0.362992
0.517964
0.631809
0.518560
0.700951
0.640750
0.559688
0.809431
0.689626
0.645518
0.708699
0.828505
0.767708
0.698566
0.869632
0.953674
1.025796
1.071692
1.191497
1.123548
1.329780
1.458526
3.933907
22.303462
56.401491
147.055984
251.234770
436.052680
585.659742
754.060745
834.214687
829.446912
751.317739
577.911735
427.233577
239.945650
143.755674
63.507557
30.789971
16.455650
17.255545
26.440620
37.334561
59.363842
79.371929
102.579594
117.111802
126.163960
125.305653
114.109516
100.089908
76.377988
58.983564
40.436983
28.873682
18.233657
13.983846
11.976957
11.151433
11.579990
11.565685
11.486411
11.677742
11.933446
12.170672
12.252927
12.198687
12.548566
12.130737
11.983514
11.970997
12.141466
12.365580
11.678934
12.133718
11.876822
11.712909
11.863708
11.180639
11.486411
11.021495
11.067986
10.622740
10.769963
10.754466
10.199547
##ZVALUE=305
0.484586
0.453591
0.581741
0.435710
0.557899
0.503659
0.549555
0.544786
0.493526
0.426769
0.517964
0.512600
0.605583
0.414848
0.457764
0.598431
0.761747
0.500679
0.661612
0.535846
0.573993
0.687838
0.696778
0.851750
0.766516
0.891685
0.776649
0.789762
0.903606
1.149774
1.019835
1.035929
1.260638
1.438856
2.334714
12.794733
36.580563
105.129480
189.856887
356.266499
505.021811
693.633556
794.170499
839.752555
791.269541
632.433891
495.435596
316.931009
199.858546
91.914535
46.641827
18.592477
13.320446
16.969442
23.879409
40.051937
55.046678
77.593923
94.465613
111.590624
119.117498
116.963983
110.765696
93.454719
75.733662
53.856969
40.208697
26.535988
19.569993
14.380813
12.190938
10.920763
11.218786
11.180639
11.469722
11.560917
11.088848
11.825562
11.705756
11.395812
11.710525
12.223721
11.594892
11.892915
11.929870
11.405945
11.696815
11.246800
11.379719
11.220574
11.111498
11.077523
10.672808
10.625720
10.499954
10.076761
##ZVALUE=310
0.420809
0.444651
0.451803
0.465512
0.499487
0.565648
0.531673
0.412464
0.540614
0.444651
0.329614
0.563860
0.507832
0.401735
0.384450
0.452995
0.504851
0.643730
0.504851
0.600815
0.577569
0.703931
0.583529
0.635982
0.791550
0.837445
0.861883
0.817776
0.890493
0.834465
1.011491
0.867844
1.006722
1.077652
1.235604
1.276731
1.533628
5.724430
18.652678
63.212514
126.182437
264.603496
401.387811
595.528483
725.689530
820.841789
818.750858
722.112656
601.151586
407.408476
272.373557
137.507915
74.073672
28.084517
14.136434
11.581779
14.575720
22.445917
33.220649
50.769448
66.347718
88.616610
102.076530
111.245513
113.066435
105.307698
92.243552
73.782802
57.060719
38.611889
28.474927
19.400716
14.756918
12.474656
11.582971
10.981560
11.039972
11.105537
10.920763
11.255741
11.481643
11.291504
11.315942
11.420846
11.538863
11.614561
11.076927
11.305809
11.359453
11.167526
10.885000
10.758638
10.880828
10.585785
10.879636
10.315776
##ZVALUE=315
0.561476
0.481606
0.506639
0.450611
0.449419
0.406504
0.590682
0.409484
0.518560
0.437498
0.522733
0.616908
0.482798
0.582933
0.592470
0.530481
0.598431
0.621676
0.757575
0.659823
0.779629
0.744462
0.733733
0.713468
0.700951
0.560880
0.704527
0.594854
0.718832
0.708699
0.608563
0.756979
0.977516
0.864863
0.837445
1.013875
1.046658
1.450777
1.287460
2.876520
9.752512
39.769411
89.808702
203.278661
326.441526
523.918867
655.199885
784.716010
821.723938
763.616562
667.133927
486.344695
343.006849
184.370875
100.821853
39.309859
18.028617
10.558963
10.248423
14.289618
19.552708
32.185912
44.795871
63.572526
80.877542
97.699761
105.996728
106.683969
99.470615
84.790587
70.461631
52.701831
39.085746
26.441813
19.656420
14.285445
12.327433
10.976791
11.193752
10.644794
11.169910
11.049509
10.957718
11.145473
10.832548
11.423826
11.250973
11.325479
11.191964
11.254549
11.027455
10.734797
10.896921
10.462999
10.273457
10.566711
##ZVALUE=320
0.418425
0.328422
0.251532
0.501871
0.477433
0.392795
0.410676
0.436902
0.388622
0.433922
0.464916
0.473857
0.493526
0.450611
0.333786
0.622869
0.251532
0.424981
0.676513
0.419617
0.486970
0.515580
0.611544
0.572801
0.517964
0.680685
0.704527
0.509620
0.566840
0.705719
0.593662
0.780821
0.741482
0.681877
0.739694
0.914931
0.900626
1.055598
1.101494
0.912547
1.320839
1.445413
4.514456
22.997856
57.202578
146.437883
248.453617
422.694683
562.705994
716.656446
789.615512
786.894560
714.771748
551.260710
407.094955
231.513977
135.331750
58.309436
28.249621
11.093616
8.906722
9.732842
12.099743
18.390417
26.357770
41.911602
56.669712
76.818466
88.854432
98.427534
100.001693
94.849467
84.614754
65.390468
52.030683
35.330653
26.305914
18.160939
14.459491
11.820793
11.085868
10.826588
10.672808
11.037588
10.945797
10.879636
10.826588
10.947585
10.802746
10.562539
10.879636
10.410547
10.870695
10.289550
10.434985
10.473728
##ZVALUE=325
0.329614
0.332594
0.326633
0.265837
0.417829
0.290871
0.492930
0.249743
0.306964
0.374913
0.209808
0.222921
0.289679
0.586510
0.374913
0.486970
0.499487
0.524521
0.495911
0.462532
0.395775
0.214577
0.427961
0.444651
0.635982
0.497699
0.322461
0.612736
0.570416
0.709891
0.697970
0.767708
0.588894
0.601411
0.523925
0.812411
0.814795
0.718832
0.785589
0.673532
0.864863
0.949502
1.171827
1.213551
2.933741
10.698438
42.444468
88.209510
196.346641
320.018530
509.305000
634.108782
755.425692
785.864592
724.439025
616.471767
424.912572
298.966765
161.076784
90.027452
35.638809
16.415715
8.390546
8.018613
9.320974
11.451840
18.119812
25.898814
42.337775
55.925846
73.961616
85.335970
94.376802
95.678568
87.580681
78.604817
61.989427
49.067736
33.977628
25.304556
17.562509
13.959408
11.898875
11.123419
10.234714
10.732412
10.265708
10.365844
10.662675
10.209680
10.342598
10.283589
10.101795
10.232925
10.367632
10.292530
##ZVALUE=330
0.506639
0.309944
0.618696
0.558496
0.399947
0.381470
0.471473
0.168681
0.383854
0.437498
0.492930
0.359416
0.510812
0.490546
0.451803
0.528693
0.421405
0.520945
0.438690
0.434518
0.450611
0.637770
0.451803
0.624657
0.473857
0.646710
0.415444
0.521541
0.680685
0.689626
0.642538
0.519753
0.509620
0.607967
0.563860
0.628829
0.603795
0.577569
0.698566
0.725985
0.838637
0.924468
0.914931
1.011491
1.021624
1.159906
1.886487
4.543662
23.641586
60.028434
148.724914
246.031880
419.821739
556.907654
701.417923
760.389566
738.896728
654.879808
500.416756
365.988612
206.625462
119.398832
50.119758
23.592710
9.458661
7.755756
7.877946
8.405447
12.133718
16.405582
27.565956
37.830472
54.130554
66.905618
81.527829
88.108778
89.173913
84.965825
71.629882
59.697628
44.687986
33.711791
24.033785
18.740892
14.337897
12.154579
10.985732
10.449886
10.221601
10.022521
10.042787
10.006428
9.958744
9.740591
10.088682
9.938478
##ZVALUE=335
0.248551
0.294447
0.196695
0.102520
0.136495
0.222921
-0.120997
0.038743
0.192523
0.069737
0.095963
0.029802
0.117421
0.282526
0.244975
0.254512
0.195503
0.327826
0.242591
0.267625
0.235438
0.232458
0.195503
0.215769
0.422597
0.195503
0.345707
0.301600
0.367761
0.286698
0.279546
0.251532
0.363588
0.501871
0.376701
0.401735
0.311732
0.444651
0.528693
0.562668
0.581741
0.644922
0.676513
0.712872
0.651479
0.675917
0.737906
0.975728
1.013875
2.891421
10.315776
40.951967
87.905526
195.258856
315.843821
500.589609
622.050762
723.732710
741.400719
669.074655
566.115975
390.523672
267.120600
140.142441
75.424910
27.636886
12.894869
7.802844
7.172823
7.658601
8.267760
11.191964
15.540719
25.283694
34.977794
50.946474
62.827468
75.964928
81.677437
82.509518
78.041553
66.714883
57.292581
44.206977
34.162998
24.323463
18.874407
14.431477
11.528730
10.867715
9.878874
9.486675
9.415746
9.189844
9.561777
9.613633
##ZVALUE=340
0.251532
0.430942
0.441670
0.220537
0.224710
0.326633
0.313520
0.365973
0.124574
0.381470
0.550747
0.357628
0.495911
0.248551
0.459552
0.396967
0.251532
0.531673
0.290871
0.366569
0.381470
0.389814
0.347495
0.322461
0.386834
0.360608
0.532866
0.344515
0.426769
0.282526
0.482798
0.470877
0.550747
0.595450
0.483990
0.554919
0.550747
0.470877
0.570416
0.437498
0.431538
0.744462
0.712872
0.553727
0.682473
0.744462
0.701547
0.816584
0.960827
1.033545
1.129508
1.581907
4.804730
24.571419
60.084462
151.289701
254.628658
419.397950
547.305942
678.789020
727.211833
691.247582
604.321957
451.012850
319.649577
169.357657
94.757676
39.673448
17.985702
8.418560
7.520914
7.517934
7.722974
9.069443
11.233687
16.253591
23.501515
35.450459
46.251416
61.874986
71.490407
78.324676
78.277588
73.948503
66.864491
54.710507
44.265985
32.413602
25.126934
17.921925
14.049411
11.132956
10.240674
9.494424
9.474754
9.159446
##ZVALUE=345
0.322461
0.361800
0.249743
0.225902
0.433922
0.386834
0.420809
0.318885
0.192523
0.253916
0.354648
0.269413
0.357628
0.289679
0.331998
0.450611
0.285506
0.238419
0.429749
0.322461
0.406504
0.462532
0.360608
0.414848
0.329614
0.383854
0.373721
0.442863
0.429749
0.574589
0.318885
0.476837
0.253916
0.505447
0.609756
0.404716
0.582933
0.500679
0.526905
0.510812
0.616908
0.666976
0.657439
0.516772
0.719428
0.670552
0.665784
0.729561
0.843406
0.819564
0.871420
0.996590
0.906587
1.173615
2.504587
14.029741
38.405657
102.522969
183.280706
334.174633
460.654497
615.024567
688.402653
703.329444
646.129847
506.423712
375.103951
217.279792
124.738812
53.853989
25.314689
10.143518
7.709861
7.353425
7.147789
7.185936
8.270741
10.972619
14.327765
22.567511
31.268001
44.990778
55.169463
65.711737
70.261955
72.640777
70.380569
61.984658
54.047704
41.905642
32.723546
23.171902
18.226504
13.349652
11.157990
9.721518
##ZVALUE=350
0.280738
0.365973
0.105500
0.306964
0.303984
0.301600
0.247955
0.364780
0.284910
0.173450
0.362992
0.343919
0.437498
0.387430
0.410676
0.407696
0.311732
0.293851
0.459552
0.261664
0.463724
0.413656
0.335574
0.473857
0.448823
0.315905
0.335574
0.310540
0.297427
0.281930
0.413656
0.375509
0.379682
0.417829
0.423789
0.523925
0.402927
0.343919
0.466704
0.465512
0.566840
0.556707
0.330806
0.576973
0.463724
0.550747
0.622869
0.643730
0.771880
0.710487
0.739694
0.978708
0.904799
0.950694
0.961423
0.871420
1.438856
6.936789
21.922588
68.467855
131.642818
262.050629
381.093621
534.677505
630.390644
680.738688
650.604963
542.134643
419.721007
254.650712
156.578422
73.051453
35.653710
12.400746
7.668734
6.992817
6.827712
6.778836
6.933808
8.380413
10.051727
15.105605
19.859672
28.113723
36.937594
48.757792
57.556629
64.207911
66.500902
64.854622
59.812665
49.324632
41.168928
30.095577
23.192763
16.542673
##ZVALUE=355
0.278950
0.320673
0.381470
0.435710
0.500679
0.287890
0.323653
0.421405
0.248551
0.406504
0.289679
0.292659
0.249743
0.192523
0.256896
0.308752
0.145435
0.318885
0.284910
0.361800
0.435710
0.374913
0.506639
0.455976
0.369549
0.381470
0.420809
0.363588
0.435710
0.396967
0.361800
0.329614
0.470877
0.492930
0.354648
0.364780
0.379682
0.303984
0.333786
0.404716
0.466704
0.512600
0.542998
0.513792
0.423789
0.566840
0.527501
0.593662
0.623465
0.485778
0.579953
0.745654
0.697970
0.653863
0.761747
0.820756
0.917912
1.205802
1.376867
3.279448
11.547804
44.568777
91.884732
193.597674
302.588940
465.950966
576.874018
658.446550
656.175017
566.743016
458.915830
302.366614
194.170475
88.115931
43.570995
15.412569
8.395910
6.491542
6.542802
6.799698
6.413460
6.984472
7.647872
9.705424
11.973977
18.043518
24.231672
34.083724
41.878819
51.937699
58.210492
61.166883
59.950948
54.408908
47.667623
38.084984
##ZVALUE=360
0.314713
0.243783
0.318885
0.329614
0.281930
0.193715
0.309944
0.262856
0.484586
0.357628
0.380874
0.279546
0.149608
0.229478
0.297427
0.298619
0.389814
0.274777
0.145435
0.157952
0.384450
0.402927
0.267625
0.527501
0.264645
0.297427
0.339746
0.409484
0.292659
0.445843
0.424981
0.472665
0.372529
0.313520
0.434518
0.482798
0.447631
0.429749
0.392795
0.520945
0.467896
0.308752
0.512600
0.421405
0.400543
0.467896
0.541806
0.521541
0.500679
0.582933
0.636578
0.759959
0.601411
0.665784
0.656843
0.711679
0.852942
0.671744
0.898838
1.000762
1.113415
1.663566
4.849434
23.072958
55.674911
137.981772
228.995681
373.680592
493.663549
610.426664
640.961528
599.181652
512.690544
353.434682
238.783956
116.999745
63.044429
24.271607
11.611581
6.716847
6.286502
6.219745
6.073713
6.141663
6.294847
6.968975
7.955432
10.453463
13.782978
20.065904
26.713610
37.110448
44.091940
51.288605
55.053830
54.904819
##ZVALUE=365
0.275970
0.357628
0.375509
0.331998
0.297427
0.176430
0.283718
0.264645
0.312924
0.304580
0.263453
0.321865
0.171661
0.364780
0.208616
0.247955
0.362992
0.339746
0.463724
0.415444
0.237823
0.474453
0.133514
0.419617
0.279546
0.321865
0.458956
0.382662
0.385642
0.449419
0.500679
0.375509
0.513792
0.355840
0.386834
0.352859
0.339746
0.223517
0.424981
0.427961
0.393987
0.589490
0.495911
0.453591
0.447631
0.637770
0.437498
0.533462
0.438690
0.585914
0.482798
0.596642
0.661612
0.609756
0.715852
0.736713
0.665784
0.528693
0.779629
0.797510
0.803471
1.058578
1.062751
1.253486
2.195835
11.538863
33.487678
93.451738
170.220733
308.296680
423.855782
555.828810
616.006851
606.704950
538.133979
397.125483
283.994675
158.669949
88.247657
34.603477
15.648603
7.034540
6.119609
5.859733
5.724430
5.479455
5.519986
5.714893
6.088614
6.636977
8.650422
12.085438
16.073585
23.234487
30.138493
38.443804
##ZVALUE=370
0.140667
0.276566
0.249743
0.210404
0.235438
0.238419
0.176430
0.289679
0.221729
0.166893
0.304580
0.160933
0.284910
0.184774
0.215769
0.182986
0.245571
0.350475
0.234842
0.353456
0.269413
0.287890
0.118613
0.372529
0.376701
0.377893
0.355840
0.372529
0.400543
0.313520
0.233650
0.363588
0.186563
0.352859
0.331998
0.319481
0.240803
0.428557
0.280738
0.211596
0.435710
0.398755
0.423789
0.359416
0.368953
0.394583
0.600815
0.254512
0.434518
0.464916
0.420809
0.424981
0.497699
0.413656
0.377893
0.517964
0.522733
0.522733
0.491738
0.632405
0.669956
0.833869
0.656843
0.720620
0.824928
0.985861
1.405478
6.204844
20.899773
68.097711
128.487945
245.566964
360.375643
510.525703
586.079955
608.058572
561.925769
445.975661
333.768725
190.414786
109.114647
43.980479
21.210909
9.019971
5.820990
5.104542
5.153418
5.236864
5.224943
5.065799
4.843473
5.305409
6.150603
7.887483
10.259748
14.828444
##ZVALUE=375
0.291467
0.261664
0.247955
0.200868
0.255704
0.429749
0.260472
0.055432
0.184774
0.156760
0.340939
0.273585
0.163913
0.328422
0.242591
0.379682
0.266433
0.275970
0.260472
0.268817
0.290871
0.231862
0.288486
0.330806
0.510812
0.301600
0.462532
0.255704
0.224710
0.375509
0.398755
0.272989
0.498891
0.257492
0.464916
0.414848
0.259876
0.251532
0.195503
0.358820
0.286698
0.518560
0.453591
0.575781
0.390410
0.396967
0.438690
0.473857
0.390410
0.451803
0.391603
0.379682
0.424981
0.356436
0.328422
0.534654
0.612736
0.558496
0.570416
0.555515
0.496507
0.567436
0.516772
0.792742
0.679493
0.860691
0.875592
0.771880
0.967979
3.174543
11.109710
39.993525
86.169839
193.040967
301.235914
451.386571
542.324781
603.972673
589.743853
491.010547
381.780863
236.070752
149.389505
75.829625
39.217472
13.706684
6.919503
5.107522
4.763603
4.646778
4.610419
4.707575
4.762411
4.715919
4.622936
5.348921
##ZVALUE=380
0.364780
0.277758
0.293851
0.301600
0.170469
0.278950
0.231862
0.275970
0.277758
0.287890
0.200868
0.235438
0.252724
0.260472
0.225902
0.206828
0.353456
0.293851
0.405908
0.233650
0.413656
0.327826
0.351667
0.321865
0.246763
0.352859
0.224710
0.320673
0.385642
0.150800
0.257492
0.306964
0.289679
0.296831
0.404716
0.347495
0.366569
0.310540
0.424981
0.329614
0.349879
0.459552
0.461936
0.456572
0.404716
0.365973
0.332594
0.377893
0.339746
0.425577
0.334978
0.425577
0.369549
0.397563
0.358820
0.453591
0.420809
0.404716
0.364780
0.595450
0.384450
0.661612
0.535846
0.459552
0.499487
0.476837
0.507832
0.794530
0.859499
0.966787
1.108646
1.839995
6.091595
28.325915
66.605806
155.400634
250.908732
391.898751
496.323705
586.501956
597.285628
523.476005
432.470441
294.905901
199.696422
100.907683
52.982569
20.146966
8.995533
5.039573
4.534721
4.511476
4.442930
4.289746
4.463792
4.304647
##ZVALUE=385
0.160933
0.272989
0.237823
0.221729
0.128746
0.168681
0.186563
0.241995
0.259876
0.202656
0.304580
0.246763
0.380874
0.288486
0.285506
0.301600
0.280738
0.291467
0.322461
0.310540
0.454783
0.296831
0.439882
0.291467
0.414848
0.266433
0.276566
0.210404
0.369549
0.308752
0.266433
0.287890
0.448823
0.341535
0.249743
0.336766
0.505447
0.205636
0.310540
0.307560
0.407696
0.258684
0.343919
0.472665
0.361800
0.344515
0.367761
0.316501
0.408888
0.334978
0.375509
0.303984
0.379682
0.412464
0.426769
0.366569
0.302792
0.393987
0.469685
0.455976
0.518560
0.387430
0.561476
0.410676
0.438690
0.527501
0.663996
0.546575
0.737906
0.755787
0.881553
1.023412
0.865459
1.265407
2.804399
15.788674
41.161776
104.371905
184.927583
328.403711
440.905690
550.010800
583.449602
557.644963
493.847728
364.147425
259.089470
143.494010
82.199574
34.798980
14.921427
5.669594
4.254580
3.902912
3.972650
4.242659
##ZVALUE=390
0.408888
0.287890
0.448823
0.441670
0.467896
0.497699
0.452995
0.297427
0.475645
0.291467
0.467896
0.220537
0.326633
0.368953
0.319481
0.454783
0.367761
0.395775
0.403523
0.456572
0.267625
0.297427
0.333786
0.433922
0.276566
0.517964
0.516772
0.325441
0.182986
0.447631
0.416636
0.361800
0.474453
0.445843
0.418425
0.551939
0.323653
0.334978
0.467896
0.374913
0.437498
0.423789
0.550747
0.477433
0.387430
0.517964
0.494719
0.476837
0.451803
0.436902
0.575781
0.435710
0.504851
0.518560
0.517964
0.566840
0.456572
0.493526
0.603795
0.456572
0.478625
0.533462
0.440478
0.467896
0.649691
0.531673
0.732541
0.759959
0.755787
0.847578
0.867844
0.834465
0.933409
1.234412
1.011491
1.160502
1.730919
8.126497
24.381876
74.933767
141.192675
268.417597
375.866890
498.361588
561.257601
578.575730
534.290671
425.832868
325.588584
200.476646
117.767453
49.023628
23.412704
8.563995
4.840493
3.931522
##ZVALUE=395
0.309944
0.227690
0.400543
0.195503
0.376701
0.178814
0.211596
0.198483
0.367761
0.244975
0.245571
0.156760
0.159740
0.126958
0.190735
0.229478
0.299811
0.320673
0.280738
0.188947
0.120997
0.405908
0.215769
0.213981
0.312924
0.180602
0.150800
0.225902
0.391603
0.410676
0.271797
0.501871
0.368953
0.345707
0.385642
0.201464
0.296831
0.382662
0.364780
0.191927
0.269413
0.332594
0.254512
0.422597
0.186563
0.328422
0.353456
0.393987
0.321865
0.335574
0.375509
0.417829
0.353456
0.343919
0.372529
0.465512
0.389814
0.365973
0.399947
0.595450
0.521541
0.473857
0.542998
0.412464
0.378489
0.412464
0.464916
0.645518
0.527501
0.668764
0.587702
0.768900
0.794530
0.713468
0.806451
0.638962
0.764728
0.816584
1.044869
4.792809
16.348958
56.577921
107.039809
204.064846
304.802656
446.670651
534.126759
592.765808
580.067635
491.518974
386.375785
241.384506
150.957704
67.341924
32.794476
11.831522
##ZVALUE=400
0.180602
0.251532
0.180602
0.353456
0.228882
0.246763
0.331998
0.189543
0.296831
0.309944
0.341535
0.232458
0.322461
0.303984
0.284910
0.340939
0.321865
0.285506
0.252724
0.242591
0.067949
0.155568
0.226498
0.298619
0.230670
0.391603
0.245571
0.293851
0.312924
0.463724
0.269413
0.432730
0.328422
0.368953
0.462532
0.251532
0.237823
0.232458
0.310540
0.347495
0.411868
0.327826
0.184774
0.511408
0.258684
0.316501
0.359416
0.274777
0.416636
0.325441
0.332594
0.293851
0.300407
0.386834
0.331998
0.202656
0.298619
0.355840
0.322461
0.356436
0.358820
0.478625
0.337958
0.278950
0.546575
0.566840
0.641942
0.632405
0.668764
0.731945
0.642538
0.671744
0.574589
0.684857
0.576973
0.676513
0.618696
0.663996
0.674725
0.850558
0.898838
2.559423
8.450747
31.639934
67.429543
153.669715
246.182680
387.385488
480.309725
560.878515
577.290654
510.055423
419.665575
279.881954
184.048414
93.557835
##END
