##TITLE=FQP00601
##FORMAT=SPECTACLE-ASCII V-1.2
##DATA TYPE=ULTRAVIOLET SPECTRUM
##SECOND TYPE=ULTRAVIOLET SPECTRUM
##DATE=01/30/18
##TIME=15:52:05
##SPECTROMETER/DATA SYSTEM=SPECTACLE
##XUNITS=NM EM
##YUNITS=ENERGY
##YFACTOR=1
##FIRSTX=220
##LASTX=410
##NPOINTS=96
##3DDATA=Equidistant
##ZUNITS=NM EX
##FIRSTZ=210
##LASTZ=400
##ZPOINTS=39
##XYDATA=(Y..Y)
##ZVALUE=210
1.306534
1.544952
1.659989
1.661777
1.890659
2.051592
1.596808
2.322793
2.119541
1.706481
1.295805
1.853704
1.795888
1.961589
1.784563
1.975894
2.501607
2.180934
2.457500
2.526641
2.560616
2.573729
2.679825
3.205538
3.102422
3.147721
3.247857
2.963543
3.811717
3.918409
3.894567
3.396869
3.768802
4.472733
4.509687
3.966689
4.483461
4.069805
4.152656
3.908873
4.219413
3.999472
3.639460
4.051924
4.561543
5.358458
4.964471
4.638433
4.226565
4.215837
5.383492
4.782677
4.634857
4.839897
4.742742
4.098415
4.553795
3.885627
4.239678
4.177690
4.614592
5.029440
4.437566
3.860593
5.461574
5.072951
5.553961
5.823970
5.876422
7.444620
9.306669
8.489490
9.726882
11.532903
11.713505
13.330579
13.443828
13.017654
14.101863
12.175441
11.773705
10.655522
8.111000
6.923676
6.716847
6.506443
5.622506
4.200935
4.635453
4.852414
4.091859
4.292727
4.550815
5.521774
5.542636
5.135536
##ZVALUE=215
4.135966
5.004406
4.140735
4.505515
3.279448
3.883839
4.033446
3.790855
4.409552
3.917813
4.055500
4.055500
3.698468
3.086925
2.511740
2.259612
1.768470
2.970695
2.322793
2.726912
2.354980
2.511740
3.187656
3.276467
2.819896
3.320575
3.606677
3.593564
4.311800
3.875494
4.073977
5.185604
4.719496
5.021691
5.166531
4.961491
4.591942
4.711747
5.208850
5.265474
5.167723
5.090833
4.440546
5.244613
4.864931
5.064607
5.100965
5.297661
5.006790
5.386472
5.550981
5.255938
5.257726
5.151629
5.056858
4.735589
4.945993
5.676746
5.392432
4.920959
5.065799
5.104542
5.015731
4.602671
5.546808
5.092621
5.641580
5.732775
6.510615
6.845593
8.325577
8.583665
9.945631
10.913610
12.366772
12.286901
12.438893
12.551546
13.310909
14.406443
12.372732
11.560917
10.212660
9.494424
8.415580
6.444454
5.884767
5.924702
6.065965
5.478859
5.271435
5.552769
4.702806
4.732609
5.113482
4.911423
##ZVALUE=220
16.375780
15.963912
16.309619
18.412471
14.936924
13.282895
11.755824
9.776950
8.806586
8.537769
9.127855
10.414720
10.985732
8.688569
6.648898
6.947517
4.693866
3.899932
2.924800
3.221631
3.259778
2.712607
3.125668
3.518462
3.575683
4.172921
4.916787
4.844666
4.802942
5.108714
5.376935
6.875992
6.727576
6.529689
7.490516
6.821752
8.245707
7.473826
7.791519
7.213950
6.849766
7.297993
6.911755
6.834865
6.709695
6.568432
6.460547
6.371737
6.110668
6.548762
6.835461
5.993843
6.604791
6.014705
6.275773
5.974770
6.121993
5.414486
5.363822
5.202889
5.716681
6.376505
6.580949
5.153418
6.253719
6.985664
6.889701
6.655455
7.769465
8.112788
7.931590
9.678602
11.861920
11.479855
12.147427
12.314916
12.491941
12.985468
11.980534
13.167858
10.825992
10.602474
11.253953
10.090470
9.177923
8.786917
8.007884
7.734895
5.931854
6.547570
6.710887
6.108880
6.169677
6.835461
5.853772
6.834865
##ZVALUE=225
27.002692
27.613640
41.588545
46.468973
53.311586
54.670572
52.452683
41.118860
33.414960
26.064515
22.824407
21.762848
22.008419
25.684834
24.740696
21.685958
20.772815
15.396476
10.111928
7.747412
5.730987
4.466772
3.442764
3.850460
4.041791
4.052520
4.769564
5.366802
6.271601
6.466508
6.727576
7.613897
8.065701
8.228421
8.347631
9.134412
9.213686
9.458661
9.072423
8.461475
9.320974
8.555651
9.353757
8.079410
7.879734
7.864833
7.481575
7.735491
7.067919
7.032752
7.395744
7.265806
6.101727
7.160902
7.731915
6.866455
6.833673
8.373857
6.878972
7.097721
7.089972
7.322431
7.596612
6.858706
7.712841
7.414818
7.622838
8.519888
9.179711
9.057522
9.896755
11.357665
12.821555
13.153553
14.160872
14.766455
15.542507
15.259981
15.065670
12.791753
12.897849
14.505982
12.219548
10.940433
11.473894
11.145473
11.551976
10.672808
10.377765
9.422898
9.163618
9.254813
8.695722
9.042621
9.032488
9.145737
##ZVALUE=230
28.757453
31.557679
51.118731
90.360641
121.661425
159.150958
173.153877
176.420808
159.211755
131.483674
92.254877
65.466762
46.021938
44.642687
43.810606
44.325590
48.040748
47.132969
42.575598
35.155416
25.878549
18.389821
12.182593
8.072853
6.201863
5.390644
5.286932
6.087422
6.823540
7.236600
7.050633
8.277893
8.160472
8.829832
9.219646
9.346604
10.139942
8.735657
9.099841
9.949803
10.116696
8.059740
8.215904
8.839965
9.385943
8.590817
8.503795
9.117723
7.346869
7.517934
8.552670
9.006858
7.497668
8.163452
7.548928
7.769465
8.083582
8.562803
8.244514
7.869601
8.449554
9.297729
8.828640
10.139942
10.236502
10.375977
10.958910
11.364818
13.082623
12.613535
13.395548
14.922619
15.752912
18.412471
17.985702
18.843412
17.550588
19.728541
19.836426
18.742681
18.292665
19.351840
17.677546
18.072724
17.072558
17.186999
16.309619
14.977455
15.564561
16.158819
14.989972
15.732646
14.289618
15.447736
15.945435
14.943480
##ZVALUE=235
9.205937
9.168983
25.396943
47.943592
90.269446
132.531524
198.425651
244.577527
275.394917
276.803970
246.647000
209.272504
166.273713
109.704733
86.818933
68.004727
64.971447
75.026751
83.065629
85.433722
77.165961
65.259933
51.377416
37.316680
22.457838
16.483665
10.572672
7.390976
8.057952
7.827878
6.738901
8.438826
6.745458
8.604527
8.950830
8.352995
8.051991
7.596612
8.667707
8.083582
8.727908
9.211898
9.190440
8.578897
8.015633
8.678436
7.471442
8.857846
8.337498
7.946491
8.552670
8.760691
7.966757
9.553432
8.345842
9.001493
8.743405
8.739829
8.982420
10.068417
10.787845
11.043549
10.897517
11.245608
12.659431
13.171434
13.117790
15.340447
15.164614
16.188622
16.686916
19.830465
20.198822
21.019578
23.245811
23.147464
24.323463
25.052428
24.376512
24.552941
26.448965
22.771955
24.353862
23.453832
22.852421
23.983717
23.682714
23.438931
22.574663
23.121834
22.222996
23.438931
21.878481
21.729469
21.851659
21.917820
##ZVALUE=240
1.355410
2.041459
4.739761
11.792779
32.668710
61.121583
128.215551
198.495984
304.052830
369.482636
430.376530
431.730747
396.093726
325.586796
260.815620
167.361498
122.745633
95.374584
85.320473
98.743439
108.168721
113.392472
113.064647
101.118684
80.752969
63.647628
45.847893
33.289790
20.861626
15.009642
11.671782
10.127425
9.490848
9.234548
9.400845
9.081960
9.219646
9.188652
8.236766
9.164810
8.099675
8.798838
8.481741
8.134842
8.188486
7.376671
8.568764
8.133650
7.702708
7.839799
8.350611
9.035468
8.160472
8.712411
8.648634
9.880662
9.720922
8.953810
9.582639
10.031462
11.129975
11.614561
11.973977
11.787415
12.665987
14.304519
13.105869
16.542673
16.459823
18.154979
19.923449
20.054579
23.528934
25.828481
25.718808
25.805831
28.676987
28.628707
27.315617
29.000640
28.958917
27.691722
29.581785
28.494596
28.406978
29.942989
27.767420
29.176474
29.745698
28.107762
28.212667
27.230978
27.673841
29.860735
27.575493
28.607845
##ZVALUE=245
1.266599
1.325607
1.232624
1.666546
2.544522
9.672642
25.703907
67.024827
123.958588
196.174979
323.316455
415.634513
501.236916
522.029996
492.214561
431.621671
323.150754
243.379474
175.216794
115.328431
93.022585
95.452666
110.870600
126.025677
127.342939
120.851994
114.165545
91.303587
73.777437
53.649545
40.180683
24.396777
16.796589
12.662411
12.455583
11.096597
10.208488
9.066463
9.569526
8.644462
8.930564
8.098483
8.595586
8.091927
7.820725
7.677674
8.876920
8.456707
7.804632
7.996559
8.196831
7.707477
8.162856
7.625818
7.709861
7.033944
7.834435
8.189678
8.532405
10.591745
9.093881
10.529757
11.242628
11.400580
12.084842
12.627840
14.085770
14.933944
15.252829
17.725825
19.464493
20.913482
20.953417
22.157431
25.057793
25.586486
26.965737
27.312636
28.545856
26.609898
27.891994
27.282834
28.718710
29.323697
27.284622
28.088689
27.849674
28.272867
27.274489
30.452609
29.659867
29.785633
28.552413
29.193759
28.892756
28.005838
##ZVALUE=250
1.150966
1.167655
1.106858
1.053810
1.533628
1.186728
1.883507
4.931688
23.086667
52.097440
125.906467
207.901597
310.584903
442.973971
531.481504
595.262647
595.983863
535.923839
452.494621
316.326618
219.962001
153.326988
97.607970
89.134574
102.525949
121.608973
132.622719
137.058496
135.003924
125.832558
102.620721
80.706477
61.937571
40.375590
27.748942
16.764998
14.261603
10.648966
10.323524
9.524822
9.382963
9.387732
9.259582
9.153485
9.005666
8.101463
9.460449
7.773638
8.135438
8.402467
7.999539
7.499456
8.079410
7.513762
8.237958
8.383989
7.879734
9.022951
8.182526
7.918477
8.873940
9.273887
10.956526
9.997487
11.017919
12.083650
12.731552
13.830662
14.483929
14.211535
16.777515
17.531514
19.834638
20.467639
20.224452
23.955703
22.967458
23.377538
24.732947
24.609566
23.631454
25.725961
26.039481
26.015639
26.922822
25.762916
26.545525
26.788712
26.273727
28.083920
26.696920
26.668906
27.429461
27.039647
27.414560
26.863813
##ZVALUE=255
0.994802
1.101494
0.985861
0.990629
1.037717
1.280904
1.270771
1.244545
1.282692
2.353787
13.616681
35.379529
92.908740
165.846944
289.930701
406.659842
557.749867
634.128451
671.613812
636.034012
554.716587
407.418609
293.211937
171.785951
112.492442
83.659887
86.599588
107.477903
122.504830
141.331553
146.305561
140.083432
127.515793
106.743574
82.708001
56.100488
42.153001
25.871992
17.769933
12.940764
10.679960
10.857582
10.583997
10.095835
9.853840
10.003448
9.415746
8.969903
8.321404
8.519888
9.027719
8.117557
8.858442
8.139610
8.358955
8.270741
8.159876
8.051991
8.034706
8.829832
8.127689
7.857680
8.822680
10.126829
9.974837
11.159778
10.711551
11.246800
12.345910
13.620853
14.575720
16.088486
17.645955
19.090772
18.636584
21.117926
20.304918
21.983981
22.303462
21.945834
21.757483
23.962855
22.925735
23.651719
24.076700
23.749471
23.477674
25.145411
24.572611
24.868846
24.814606
24.798512
25.521517
26.100874
25.714636
25.787950
##ZVALUE=260
0.896454
0.749826
0.912547
1.027584
0.955462
0.980496
1.202822
1.089573
1.340508
1.395941
1.438856
3.695488
13.740659
47.433972
91.743469
187.822580
287.561417
431.034565
545.148849
681.319833
735.320449
732.098818
640.724897
529.164672
355.821848
245.181918
146.349669
99.225640
75.742602
81.417561
98.065734
125.342607
140.709877
151.218772
147.713423
129.834414
113.187432
83.560944
64.051747
41.291714
27.714968
18.598437
14.401674
12.426972
11.075735
11.017919
10.287762
10.419488
9.831786
9.790659
9.710789
8.676648
9.123683
9.003878
7.957816
7.742643
8.060932
8.766651
8.238554
8.001924
8.468628
8.519888
9.146929
9.145737
9.227991
9.816885
10.081530
10.627508
11.406541
12.088418
13.026595
14.850497
15.108585
15.662909
17.642975
17.808676
18.204451
18.609762
18.691421
19.535422
20.325780
20.345449
20.571947
21.418929
20.922422
22.261739
22.032857
22.719502
22.299886
23.226738
22.879839
23.289919
23.687482
23.846626
25.088787
24.162531
##ZVALUE=265
0.825524
0.777841
0.995994
0.924468
0.873804
1.243949
0.818968
0.964999
0.978708
1.071692
1.139641
1.070499
1.214743
2.062917
7.163882
37.873983
81.224442
171.143413
271.039605
439.941883
563.841462
681.762695
793.025494
805.246830
723.789930
625.354648
459.885001
334.119797
191.426873
120.800734
80.873966
67.462921
81.076622
110.401511
128.957629
147.718787
154.881477
145.861506
132.579803
108.771920
84.905624
58.933496
41.750669
26.451945
19.656420
14.110804
11.102557
10.709763
10.616779
10.101795
10.271668
9.545684
9.520650
9.256601
8.980632
8.554459
8.751750
8.258820
8.597970
8.584857
8.692741
9.327531
8.930564
9.481907
9.518862
9.217858
10.563731
10.586977
11.063814
12.073517
12.554526
13.607740
14.600754
15.209913
15.968680
16.299486
16.917586
18.131733
17.862916
18.422604
19.075871
18.906593
19.151568
19.278526
20.570755
20.515919
20.478964
20.530820
20.319819
20.828843
21.912456
21.929741
21.740794
22.543669
23.389459
22.199750
##ZVALUE=270
0.591874
0.527501
0.523925
0.457764
0.644922
0.700951
0.618696
0.536442
0.591874
0.744462
0.733733
0.853539
0.968575
0.831485
1.270771
1.517534
1.958609
13.450980
40.847659
113.828778
200.820565
321.900845
508.602858
649.355650
786.030889
830.323696
802.932978
722.568631
560.660958
420.366526
297.074914
161.398649
96.755624
61.880946
61.928630
86.331964
105.926991
133.001804
147.671700
155.098438
149.453878
133.270621
114.016533
84.915757
63.027740
39.796829
28.298497
18.264651
14.504790
11.092424
10.829568
9.711981
9.748936
8.982420
9.200573
8.817911
8.961558
8.865595
8.446574
8.826852
8.541942
8.752942
8.693933
8.666515
9.550452
9.769797
9.594560
9.820461
10.724664
12.147427
11.814833
12.716651
12.961626
14.402866
15.087724
15.231967
15.859604
16.840696
16.550422
16.497970
17.129779
17.215610
17.638803
19.562840
19.016862
19.455552
19.296408
19.721985
20.015836
20.537972
20.047426
20.689964
20.692945
20.185709
20.657778
21.031499
##ZVALUE=275
0.745654
0.651479
0.612736
0.720620
0.679493
0.668764
0.715852
0.742674
0.767708
0.698566
0.955462
0.988841
1.016855
0.936985
0.973940
1.011491
1.101494
1.393557
1.682639
4.437566
17.325878
46.641827
132.836699
239.342451
424.870849
558.860898
712.158680
806.661844
838.305950
794.932842
665.321946
528.023839
374.227762
203.615427
119.892955
62.173605
49.471855
60.155988
79.509616
107.315779
128.055811
146.723986
153.649449
145.283937
133.513808
105.905533
84.999800
57.823658
42.277575
26.538968
18.728971
12.387633
10.457635
9.798408
9.137988
8.755922
8.866787
8.621812
8.716583
9.225607
9.156466
8.633733
9.231567
9.731650
9.498596
9.991527
10.065436
10.359883
11.175871
11.854768
11.853576
13.195872
13.046861
14.240742
15.484691
15.369654
15.383959
15.942454
16.154647
16.856790
17.783642
17.161965
18.061996
18.344522
18.387437
18.615723
19.481778
19.248724
19.005537
19.650459
19.958615
19.292831
18.908978
19.869804
19.335747
19.795895
##ZVALUE=280
0.635982
0.645518
0.707507
0.577569
0.633597
0.545979
0.580549
0.557899
0.713468
0.743866
0.747442
0.712872
0.950694
0.881553
0.969768
1.072884
1.030564
0.993609
1.232624
1.367927
1.331568
1.547933
8.439422
27.718544
84.106922
155.355930
293.581486
432.711840
621.334910
744.786859
818.373561
827.131867
757.813454
585.311651
430.599451
248.779655
151.671767
72.065592
44.862628
40.649772
54.060817
79.500675
102.820992
126.899481
139.257908
145.246983
139.813423
124.087930
106.161833
79.920888
59.855580
37.380457
26.234984
16.438961
12.226701
9.318590
8.343458
8.614659
8.316636
8.985996
8.453727
9.538531
9.059906
9.015799
10.294914
10.338426
10.712743
10.723472
11.691451
12.040734
12.349486
13.101697
13.488531
14.473796
14.817715
15.007854
15.638471
16.429424
16.471744
16.517639
16.705990
16.889572
17.361641
18.039942
17.761588
17.881989
18.350482
18.469691
18.228889
18.386841
18.630624
18.763542
18.779635
18.915534
19.371510
19.603968
##ZVALUE=285
0.557899
0.505447
0.576973
0.474453
0.666976
0.523925
0.539422
0.579953
0.685453
0.670552
0.551939
0.697970
0.693798
0.702739
0.853539
0.785589
0.761747
0.917912
0.921488
0.972748
0.993609
1.160502
1.263618
1.440644
3.758669
13.427734
45.769811
98.550916
214.123726
335.263014
524.427891
664.979815
787.577033
850.018859
812.020898
668.430924
529.833436
336.306691
210.873485
102.134943
56.217909
32.258630
33.584833
52.982569
69.723725
98.124743
115.601420
134.767890
138.885975
135.998726
124.624968
101.999640
82.447529
57.181716
40.808916
24.462938
16.668439
11.685491
9.539723
9.357929
8.696914
8.851886
9.111762
9.473562
10.393858
10.201931
10.803938
11.398792
11.498928
12.516975
13.335943
13.497472
13.970733
14.440417
14.658570
15.332699
15.510917
16.044974
16.551614
17.287731
17.383695
17.288923
17.400980
18.145442
18.149614
18.712878
18.148422
18.426776
18.509626
18.613935
18.338561
18.318892
18.079877
18.773675
18.429756
18.791556
##ZVALUE=290
0.582933
0.623465
0.500679
0.518560
0.472665
0.557899
0.503659
0.704527
0.752807
0.632405
0.509620
0.597835
0.786781
0.567436
0.583529
0.698566
0.676513
0.845790
0.810623
0.952482
0.835657
0.916719
1.035929
0.948906
1.230836
1.284480
1.683831
5.317926
25.235415
60.915947
121.168494
256.700516
402.556658
613.199472
748.514533
849.975944
849.312544
736.822486
611.013770
414.598584
276.974440
140.653849
74.195862
32.248497
24.140477
32.843947
45.680404
68.219900
87.337494
112.716556
127.070546
134.042501
133.581758
120.003819
103.718638
77.364445
58.402419
38.357973
26.254654
17.043948
12.317896
10.357499
9.515882
9.397864
10.001659
10.360479
10.902882
11.323690
12.038946
12.936592
13.359785
14.104843
14.336705
14.621615
15.035868
15.861988
16.182661
16.610622
16.613603
17.083883
17.269850
17.892718
18.523932
18.238425
17.978549
18.901825
18.247962
18.646717
18.301606
18.776655
19.115806
18.854737
19.030571
18.238425
18.737912
18.463731
##ZVALUE=295
0.571609
0.676513
0.682473
0.592470
0.541806
0.707507
0.572801
0.465512
0.647902
0.637770
0.394583
0.474453
0.663996
0.666976
0.609756
0.587702
0.640750
0.741482
0.762939
0.746846
0.970960
0.872612
0.737906
1.106858
0.927448
0.987649
1.227856
1.120567
1.226664
2.235770
8.228421
38.359761
84.147453
203.862786
332.373977
551.943779
697.140694
847.572684
882.256627
805.060863
692.020655
496.013761
346.152782
185.569525
102.856755
40.114522
22.489429
19.946694
27.369857
43.943524
59.792995
85.689425
102.274418
120.313764
128.354430
126.578808
115.765929
95.040798
77.414513
54.534674
40.186644
25.469661
18.670559
14.147758
11.627674
11.297464
11.005998
11.351705
12.516975
12.974739
13.227463
14.264584
14.302731
15.227795
16.102791
16.252995
16.771555
16.847849
18.044710
17.338991
18.230677
18.230677
18.495917
18.325448
18.863678
19.079447
19.425750
18.714666
18.715858
18.982887
18.936992
18.799901
18.712878
18.978715
18.792748
19.044876
##ZVALUE=300
0.418425
0.578761
0.404716
0.435710
0.436902
0.442863
0.598431
0.580549
0.520945
0.562668
0.568628
0.453591
0.640750
0.559688
0.611544
0.628829
0.712872
0.660419
0.522733
0.704527
0.741482
0.716448
0.588894
0.721812
0.880957
0.896454
0.945926
1.051426
1.108646
1.254678
1.371503
1.842976
4.102588
23.087859
57.787895
146.183968
252.984762
454.195738
625.433922
817.877650
916.437507
910.946727
812.746882
607.333779
441.557765
243.773460
144.743919
64.722896
32.085776
15.780926
15.994906
25.329590
36.606789
56.997538
75.753927
99.851489
113.409758
122.975707
121.303797
110.044479
97.510815
75.236559
57.746768
39.860606
29.075742
19.364953
15.293956
13.310909
12.725592
12.880564
13.480783
14.636517
14.714599
15.540719
16.146898
16.506910
16.790628
17.704964
17.439723
18.348694
18.418431
19.184947
19.364953
18.633604
19.361973
19.350648
20.038486
19.112825
19.014478
19.470453
18.590689
19.116998
18.241405
18.990636
18.474460
19.071698
##ZVALUE=305
0.377893
0.397563
0.354648
0.453591
0.459552
0.479817
0.415444
0.470877
0.630617
0.434518
0.634789
0.505447
0.423789
0.583529
0.486970
0.420809
0.632405
0.642538
0.626445
0.610948
0.656843
0.584722
0.714660
0.724792
0.771880
0.908971
0.866652
0.839829
0.908971
1.125932
0.980496
1.085997
1.158714
1.381636
2.308488
13.383627
38.521886
109.091997
196.271539
372.256637
540.678501
767.980814
896.622539
967.493653
914.713740
713.962913
543.503761
337.317586
204.853415
91.663599
44.868588
18.245578
12.652874
15.935898
23.624897
38.327575
54.053664
76.422691
92.785954
109.991431
116.401911
115.711689
108.502507
92.056990
76.171756
55.086613
41.258931
28.127432
21.365881
16.693473
14.697909
15.009642
15.276670
15.689731
16.050935
17.095804
17.535686
17.168522
17.899871
18.568635
19.156933
18.930435
20.104647
19.696951
19.589663
19.926429
20.629764
20.270944
19.929409
20.056963
19.614697
19.286871
19.117594
19.364953
18.983483
19.223690
##ZVALUE=310
0.385642
0.386834
0.445843
0.566840
0.440478
0.392795
0.474453
0.515580
0.354648
0.496507
0.492930
0.541806
0.455976
0.602603
0.467896
0.527501
0.474453
0.637770
0.532866
0.585914
0.685453
0.626445
0.604987
0.529885
0.656843
0.683665
0.607967
0.772476
0.978708
0.972748
0.970960
0.986457
1.257658
1.314878
1.347661
1.479983
1.672506
5.617738
19.078851
66.708922
132.128596
271.793604
423.668623
656.462908
818.650723
956.571698
971.302986
868.281722
717.172027
471.505523
307.462811
150.547624
77.519417
28.567910
13.701916
10.985732
14.314651
22.167563
32.438636
50.161481
65.336823
87.479949
101.147890
111.582875
113.064647
105.048418
93.154907
75.119734
59.102774
41.772723
32.041669
23.561716
19.524693
17.268658
16.366839
17.182827
17.339587
17.803907
18.260479
19.272566
19.198656
19.544959
19.987822
20.327568
19.785762
20.686984
20.960569
20.346642
20.241737
20.727515
19.918680
19.909739
19.779801
19.780993
19.571781
19.542575
##ZVALUE=315
0.643730
0.597835
0.524521
0.528693
0.563860
0.635982
0.518560
0.463724
0.701547
0.577569
0.522733
0.369549
0.660419
0.699759
0.650883
0.660419
0.619888
0.630617
0.678897
0.478625
0.666976
0.670552
0.624657
0.701547
0.616908
0.680685
0.650883
0.855923
0.666976
0.987649
0.979900
0.986457
1.038909
0.945926
0.932813
1.208782
1.115799
1.371503
1.561642
2.964735
10.618567
45.705438
99.236965
221.313834
357.642770
577.328801
726.263523
867.568851
925.115943
877.472758
765.119791
554.658771
390.606523
202.990770
106.017590
39.887428
18.109679
10.089874
10.597706
14.530420
20.142794
33.071637
45.543909
63.908696
79.811811
98.316669
106.284618
108.381510
101.739764
86.792707
73.424578
57.507753
44.346452
30.905604
24.589896
20.502806
18.942952
18.415451
18.789768
18.953681
19.252896
20.336509
20.521879
20.658970
20.536780
20.757914
20.652413
20.581484
20.846725
20.759702
20.807981
20.784736
20.592809
20.647645
20.169616
19.483566
##ZVALUE=320
0.409484
0.311732
0.301600
0.321865
0.429749
0.278950
0.401735
0.360608
0.330806
0.578761
0.353456
0.387430
0.579953
0.461936
0.450611
0.441670
0.362992
0.331998
0.411868
0.489950
0.499487
0.390410
0.365973
0.481606
0.551939
0.559688
0.619888
0.698566
0.640750
0.544786
0.664592
0.803471
0.664592
0.639558
0.817776
0.823736
0.774860
1.010895
0.974536
1.293421
1.177788
1.639724
4.565716
24.282932
61.076880
161.573887
269.765854
445.215702
592.681766
757.655501
821.259618
808.269978
725.283623
557.224751
409.128666
230.121613
132.938623
58.326721
27.848482
11.504889
9.205937
10.663867
12.788773
20.111799
27.663708
43.698549
58.720708
78.449845
91.267824
102.066994
103.985667
97.261667
88.109970
70.567727
57.589412
42.217970
33.105612
25.520921
22.378564
20.273924
20.016432
19.802451
19.840598
20.099878
20.546913
20.763874
21.042824
20.605922
21.213889
21.034479
20.538568
20.521879
20.449758
20.363927
19.936562
20.143986
##ZVALUE=325
0.382662
0.315905
0.371933
0.497699
0.405908
0.637770
0.369549
0.547767
0.383854
0.518560
0.391603
0.365973
0.447631
0.405908
0.506639
0.256896
0.339746
0.450611
0.239611
0.469685
0.461936
0.534654
0.456572
0.435710
0.598431
0.445843
0.471473
0.461936
0.489950
0.646710
0.590682
0.561476
0.648499
0.755787
0.620484
0.700951
0.583529
0.684857
0.776649
0.816584
0.926852
1.164675
0.930429
1.250505
2.420545
14.374852
38.113594
105.884671
191.149712
357.365608
505.038500
687.100887
782.188773
818.013549
761.721730
604.217649
459.597707
278.226733
170.515776
76.671839
38.808584
14.354587
9.540915
8.955598
10.158420
14.083982
19.241571
29.559731
40.995479
60.852766
74.234605
89.245439
97.268820
99.052787
93.729496
81.059933
69.707632
53.377748
42.939782
31.871796
26.064515
22.450686
20.756721
20.432472
20.429492
20.639896
20.949841
20.438433
20.515919
20.282865
20.291805
20.202994
20.018816
20.071864
20.253658
20.042658
##ZVALUE=330
0.331998
0.334978
0.427961
0.353456
0.299811
0.325441
0.334978
0.577569
0.338554
0.381470
0.395775
0.473857
0.336766
0.335574
0.202656
0.395775
0.515580
0.368953
0.358820
0.340939
0.547767
0.411868
0.588894
0.456572
0.381470
0.331998
0.426769
0.519753
0.552535
0.471473
0.275970
0.646710
0.601411
0.489950
0.795722
0.745654
0.622869
0.616908
0.614524
0.605583
0.740886
0.854731
0.733733
0.975728
1.048446
1.202822
1.503825
6.116629
19.972920
68.405867
132.231712
270.810723
405.462980
595.454574
715.010762
796.404481
777.531862
662.711859
530.658960
345.039964
223.244429
106.055737
56.407452
21.816492
11.674762
9.366870
9.449720
10.921955
13.627410
20.462871
28.889775
41.354895
54.767728
72.355866
83.940625
93.862414
93.589425
88.563561
80.258846
65.661669
53.625703
40.610433
32.559633
26.710629
23.731589
21.502972
20.929575
20.375848
20.064712
20.028949
20.139813
19.969940
19.947886
19.506812
19.931793
19.851923
##ZVALUE=335
0.189543
0.184774
0.109673
-0.127554
0.198483
0.173450
0.157952
0.115633
0.124574
0.091791
0.132918
0.100732
0.149608
0.113845
0.207424
0.115633
0.249743
0.188947
0.291467
0.108480
0.076890
0.052452
0.246763
0.233650
0.072718
0.291467
0.392795
0.318885
0.294447
0.393987
0.328422
0.350475
0.297427
0.301600
0.343919
0.328422
0.413656
0.443459
0.372529
0.448823
0.302792
0.637770
0.638962
0.571609
0.593662
0.681877
0.763535
0.948906
0.943542
2.684593
10.344982
40.994883
88.647604
201.078653
326.954722
521.835685
655.776858
772.833824
789.706707
713.123679
597.991943
407.236814
277.255774
145.155787
77.140927
28.814673
14.454722
9.484887
9.443760
9.852648
11.640787
14.731884
19.147992
29.465556
39.394498
55.451989
68.379641
80.940723
87.714791
90.241432
84.661841
74.090958
64.193606
51.883459
43.264627
32.914877
27.540922
23.210645
21.076798
19.708872
19.354820
19.214749
19.102693
19.194484
19.476414
19.146800
##ZVALUE=340
0.247955
0.339746
0.374913
0.233650
0.332594
0.253916
0.325441
0.304580
0.308752
0.383854
0.274777
0.383854
0.242591
0.342727
0.293851
0.351667
0.352859
0.414848
0.340939
0.328422
0.324845
0.316501
0.508428
0.388622
0.401735
0.407696
0.450611
0.595450
0.339746
0.515580
0.613928
0.543594
0.480413
0.563860
0.430942
0.547767
0.539422
0.629425
0.624657
0.529885
0.577569
0.680685
0.641942
0.526905
0.775456
0.770688
0.839829
0.828505
0.940561
0.902414
1.212955
1.495481
6.998777
21.380782
70.325732
140.313506
286.055803
416.153669
586.116910
692.510605
764.431953
738.641620
625.625849
499.055982
319.185853
200.858712
94.459653
46.563745
16.930699
10.690689
9.830594
10.435581
10.599494
12.145638
15.349984
19.728541
28.616786
38.069487
54.042935
65.019727
78.505874
83.189607
85.087419
82.361698
72.986484
63.071847
50.967932
41.908622
32.647848
26.682615
22.741556
20.583868
18.951893
18.902421
18.560886
18.339753
##ZVALUE=345
0.237823
0.126958
0.240803
0.193715
0.252724
0.264645
0.396967
0.371933
0.382662
0.282526
0.280738
0.374913
0.204444
0.303984
0.242591
0.170469
0.128746
0.427961
0.154972
0.204444
0.361800
0.189543
0.375509
0.379682
0.442863
0.331998
0.297427
0.324845
0.370741
0.407696
0.413656
0.380874
0.351667
0.293851
0.322461
0.499487
0.291467
0.601411
0.526905
0.562668
0.539422
0.540614
0.538826
0.652671
0.601411
0.663996
0.668764
0.694990
0.651479
0.799894
0.725985
1.081824
1.052618
1.195669
3.646612
23.093820
57.765841
140.820742
236.917734
400.788784
526.537895
676.412582
737.170577
739.373565
673.615932
524.549484
395.877957
241.323709
141.066909
57.528615
28.167963
12.359619
10.286570
9.869933
10.765791
11.211634
12.580752
14.922619
19.390583
27.502775
37.058592
51.098466
60.767531
70.423484
76.919794
79.973936
77.097416
69.160461
61.315894
50.019622
41.081905
31.331778
25.717616
21.312833
18.988848
18.418431
##ZVALUE=350
0.197887
0.288486
0.213981
0.163913
0.194907
0.240803
0.281930
0.346899
0.344515
0.471473
0.309944
0.376701
0.269413
0.311732
0.280738
0.311732
0.179410
0.290871
0.445843
0.186563
0.361800
0.341535
0.271797
0.339746
0.405908
0.388622
0.385642
0.336766
0.566840
0.498891
0.279546
0.331998
0.468493
0.406504
0.278950
0.412464
0.518560
0.437498
0.526905
0.400543
0.515580
0.439882
0.489950
0.628829
0.654459
0.418425
0.571609
0.550747
0.676513
0.675917
0.673532
0.790954
0.844598
0.944734
0.764728
1.085997
1.642704
5.814433
26.473403
61.448812
148.036480
246.063471
405.140519
529.773831
656.050444
697.932839
670.015812
589.158535
406.277776
278.557539
145.081878
81.088543
33.845901
16.585588
9.893775
9.654760
9.740591
10.014772
11.061430
12.198687
14.912486
18.555522
25.431514
32.405853
43.953657
53.642988
64.009428
69.380999
73.113441
71.704984
64.857602
57.814717
46.692491
38.606524
30.241609
25.355816
##ZVALUE=355
0.318885
0.319481
0.293851
0.193715
0.247955
0.225902
0.331998
0.268817
0.178814
0.217557
0.315905
0.276566
0.151992
0.288486
0.388622
0.168681
0.348687
0.236630
0.260472
0.333786
0.354648
0.276566
0.313520
0.399947
0.248551
0.132918
0.221729
0.162721
0.409484
0.342727
0.288486
0.439882
0.208616
0.371933
0.394583
0.347495
0.488758
0.503659
0.485778
0.360608
0.421405
0.457764
0.474453
0.458956
0.492930
0.558496
0.566840
0.386834
0.482798
0.472665
0.626445
0.571609
0.735521
0.706911
0.736713
0.887513
0.758767
1.012683
1.071692
3.401637
11.737943
47.219992
96.454620
202.889442
317.819715
488.444567
591.999888
668.357611
667.339563
571.643710
462.512970
301.881433
191.980600
89.010000
46.373606
18.659830
10.850430
9.037852
9.110570
9.389520
9.986758
10.562539
11.808872
13.943911
16.704798
22.375584
29.204488
39.076805
46.960711
56.682825
62.928796
65.982938
65.180659
59.867501
53.563714
43.900609
##ZVALUE=360
0.349879
0.399947
0.322461
0.087619
0.148416
0.211596
0.193715
0.180602
0.306964
0.236630
0.241995
0.419617
0.408888
0.407696
0.448823
0.281930
0.307560
0.248551
0.290871
0.319481
0.116825
0.189543
0.437498
0.301600
0.454783
0.423789
0.393987
0.336766
0.353456
0.405908
0.295639
0.343919
0.377893
0.434518
0.326633
0.500679
0.523925
0.593662
0.395775
0.536442
0.464916
0.325441
0.218749
0.381470
0.545979
0.546575
0.476837
0.469685
0.388622
0.494719
0.633597
0.704527
0.684857
0.603795
0.681877
0.861883
0.854731
0.929832
0.880957
1.061559
0.974536
1.676679
4.945993
25.299788
63.320994
155.509710
245.929956
396.446586
518.122911
633.777976
661.924481
606.926680
510.441661
353.673697
240.962505
128.366947
68.713427
25.897622
13.432503
9.004474
8.633733
9.016991
9.385943
9.366870
10.037422
10.818839
11.685491
15.109777
18.128753
25.112629
31.545758
41.631460
49.111843
56.556463
59.596896
60.045719
##ZVALUE=365
0.271797
0.215769
0.279546
0.251532
0.317693
0.234842
0.441670
0.295639
0.238419
0.360608
0.348687
0.358820
0.234842
0.254512
0.191927
0.443459
0.453591
0.290871
0.450611
0.365973
0.333786
0.474453
0.313520
0.319481
0.321865
0.380874
0.379682
0.381470
0.354648
0.399947
0.502467
0.279546
0.353456
0.485778
0.463724
0.420809
0.365973
0.382662
0.484586
0.375509
0.319481
0.455976
0.315905
0.491738
0.408888
0.416636
0.629425
0.547767
0.434518
0.520945
0.488758
0.468493
0.640750
0.605583
0.645518
0.717640
0.659823
0.658631
0.749826
0.752807
0.836849
0.989437
1.134872
1.145601
2.278686
12.202859
34.092665
93.178749
173.763633
323.215723
440.376997
567.644835
632.037520
624.837875
553.710461
407.084823
292.856693
165.361762
92.045665
36.029816
16.942620
8.751750
7.809997
8.140802
8.217692
8.440614
8.584857
8.960962
9.456873
10.616779
12.825727
16.406775
20.749569
28.543472
35.516620
43.785572
##ZVALUE=370
0.015497
0.234842
0.030994
0.197887
0.171661
0.315905
0.267625
0.290871
0.153780
0.097752
0.366569
0.254512
0.423789
0.167489
0.205636
0.041723
0.077486
0.054836
0.214577
0.137687
0.182986
0.119805
0.274777
0.283718
0.419617
0.458956
0.492930
0.293851
0.293851
0.258684
0.400543
0.285506
0.179410
0.350475
0.313520
0.261664
0.343919
0.397563
0.270605
0.322461
0.169873
0.220537
0.286698
0.260472
0.350475
0.224710
0.458956
0.435710
0.524521
0.432730
0.517964
0.485778
0.516772
0.574589
0.467896
0.455976
0.400543
0.613928
0.643730
0.583529
0.609756
0.809431
0.709891
0.858903
0.955462
1.015663
1.524687
6.251931
20.735860
70.119500
134.208798
259.455442
383.514762
546.191931
629.829764
654.357672
600.463748
470.604897
350.994468
198.949575
113.488436
47.394633
23.210645
10.599494
7.762909
7.626414
7.684827
7.701516
7.738471
8.048415
8.278489
8.716583
9.580851
11.503696
14.053583
18.763542
##ZVALUE=375
0.091791
0.218749
0.259876
0.261664
0.188947
0.168681
0.148416
0.170469
0.345707
0.273585
0.126958
0.084639
0.035763
0.271797
0.474453
0.228882
0.392795
0.378489
0.365973
0.365973
0.381470
0.170469
0.328422
0.308752
0.321865
0.271797
0.355840
0.338554
0.326633
0.436902
0.341535
0.442863
0.380874
0.336766
0.398755
0.369549
0.308752
0.334978
0.387430
0.283718
0.462532
0.371933
0.368953
0.211596
0.471473
0.250936
0.305772
0.414848
0.294447
0.348687
0.379682
0.479817
0.464916
0.460744
0.388622
0.569820
0.530481
0.683665
0.595450
0.572801
0.580549
0.608563
0.637770
0.692606
0.821948
0.842810
0.980496
0.922680
1.158714
3.301501
10.990500
40.240884
88.417530
203.185678
322.417617
493.633747
594.728589
659.208894
647.993684
532.282591
412.181616
250.587463
158.007741
79.770684
41.635633
15.366673
8.459687
6.693602
6.806850
6.779432
6.909966
7.123947
7.257462
7.713437
7.764697
8.763671
##ZVALUE=380
0.308752
0.199676
0.227690
0.176430
0.215769
0.350475
0.268817
0.383854
0.271797
0.093579
0.119805
0.236630
0.165701
0.123978
0.260472
0.378489
0.134706
0.249743
0.327826
0.196695
0.206828
0.199676
0.341535
0.074506
0.319481
0.314713
0.298619
0.182986
0.223517
0.309944
0.281930
0.434518
0.318885
0.393987
0.315905
0.304580
0.216961
0.444651
0.365973
0.241995
0.357628
0.300407
0.342727
0.302792
0.204444
0.236630
0.435710
0.383854
0.374913
0.370741
0.354648
0.511408
0.572801
0.534654
0.577569
0.495911
0.380874
0.531673
0.502467
0.531673
0.400543
0.487566
0.512600
0.571609
0.521541
0.568628
0.476837
0.745654
0.716448
1.010895
1.100898
1.829863
5.968809
28.546453
66.846609
156.912804
255.906582
406.134725
513.834953
606.071949
620.746017
546.363592
449.652672
305.250883
206.727982
103.746653
55.170655
20.931959
10.649562
6.427765
6.291866
6.275773
6.290674
6.547570
6.677508
6.975532
##ZVALUE=385
0.375509
0.293851
0.275970
0.171661
0.228882
0.265837
0.249743
0.232458
0.029802
0.084639
0.279546
0.288486
0.313520
0.160933
0.217557
0.355840
0.208616
0.218749
0.211596
0.284910
0.140667
0.370741
0.431538
0.390410
0.375509
0.157952
0.402927
0.283718
0.333786
0.219941
0.439882
0.295639
0.317693
0.187755
0.256896
0.424981
0.307560
0.272989
0.313520
0.351667
0.278950
0.260472
0.334978
0.407696
0.301600
0.323653
0.322461
0.105500
0.372529
0.154972
0.266433
0.450611
0.430942
0.484586
0.322461
0.359416
0.393987
0.465512
0.418425
0.442863
0.486970
0.579953
0.388622
0.358820
0.515580
0.498891
0.540614
0.536442
0.678897
0.803471
0.814795
0.930429
0.906587
1.245737
2.786517
15.591979
40.529966
104.187727
185.586810
336.620808
456.515551
582.740903
627.290010
609.426498
542.575717
404.317975
290.850997
161.902905
93.138814
39.135814
16.997457
7.294416
5.738735
5.522966
5.702972
5.864501
##ZVALUE=390
0.139475
0.325441
0.250936
0.276566
0.158548
0.262856
0.334978
0.341535
0.195503
0.222921
0.137687
0.232458
0.296831
0.401735
0.256896
0.157952
0.359416
0.096560
0.197887
0.255704
0.209808
0.175834
0.222921
0.288486
0.296831
0.265837
0.490546
0.359416
0.323653
0.205636
0.392795
0.246763
0.145435
0.212789
0.298619
0.340939
0.257492
0.303984
0.357628
0.286698
0.352859
0.357628
0.303984
0.369549
0.354648
0.376701
0.367761
0.268817
0.277758
0.358820
0.373721
0.393987
0.242591
0.356436
0.497699
0.267625
0.322461
0.332594
0.463724
0.425577
0.634789
0.434518
0.451803
0.455976
0.473857
0.338554
0.472665
0.515580
0.665784
0.602603
0.618696
0.897646
0.831485
0.900626
0.915527
0.982881
1.661777
7.918477
24.456978
74.799657
142.084956
272.222757
382.424593
514.219999
580.973625
601.641536
557.878613
444.757938
343.816876
212.772489
125.789642
53.072572
25.989413
9.650588
5.843639
5.204678
##ZVALUE=395
0.152588
0.273585
0.171661
0.180602
0.207424
0.252724
0.204444
0.258684
0.290871
0.226498
0.210404
0.370741
0.215769
0.303984
0.232458
0.155568
0.338554
0.231862
0.110865
0.233650
0.272989
0.260472
0.203848
0.407696
0.342727
0.217557
0.311732
0.322461
0.350475
0.147820
0.258684
0.132918
0.335574
0.295639
0.294447
0.340939
0.316501
0.344515
0.289679
0.243783
0.408888
0.341535
0.211596
0.364780
0.386834
0.154972
0.231862
0.351667
0.493526
0.217557
0.300407
0.386834
0.299811
0.375509
0.369549
0.295639
0.472665
0.451803
0.334978
0.345707
0.385642
0.372529
0.378489
0.489950
0.429749
0.545979
0.553727
0.580549
0.694990
0.766516
0.705719
0.713468
0.745654
0.666976
0.670552
0.691414
0.677705
0.753999
1.095533
4.687905
16.057491
56.300759
106.227994
203.383565
304.374695
448.945761
538.555980
599.485636
587.458014
502.884984
400.906801
255.116820
161.419511
73.356628
36.344528
13.479590
##ZVALUE=400
0.147820
0.162721
0.221729
0.180602
0.057817
0.362992
0.255704
0.214577
0.189543
0.320673
0.279546
0.266433
0.349879
0.157952
0.360608
0.372529
0.372529
0.220537
0.264645
0.286698
0.227690
0.320673
0.241995
0.210404
0.314713
0.155568
0.305772
0.399947
0.191927
0.357628
0.338554
0.236630
0.156760
0.258684
0.266433
0.262856
0.322461
0.281930
0.236630
0.238419
0.294447
0.281930
0.340939
0.242591
0.278950
0.380874
0.347495
0.242591
0.457764
0.309944
0.281930
0.413656
0.351667
0.329614
0.285506
0.265837
0.343919
0.237823
0.296831
0.406504
0.494719
0.362992
0.597835
0.327826
0.412464
0.487566
0.582933
0.431538
0.586510
0.634789
0.476837
0.635982
0.752807
0.572801
0.610948
0.561476
0.630617
0.638962
0.713468
0.836849
0.971556
1.750588
9.338856
27.010441
76.458454
140.489936
262.915492
366.683602
497.441888
561.835766
578.256845
531.523824
414.500833
308.388472
179.307461
109.212995
##END
