##TITLE=FQP00302
##FORMAT=SPECTACLE-ASCII V-1.2
##DATA TYPE=ULTRAVIOLET SPECTRUM
##SECOND TYPE=ULTRAVIOLET SPECTRUM
##DATE=01/30/18
##TIME=16:44:45
##SPECTROMETER/DATA SYSTEM=SPECTACLE
##XUNITS=NM EM
##YUNITS=ENERGY
##YFACTOR=1
##FIRSTX=220
##LASTX=410
##NPOINTS=96
##3DDATA=Equidistant
##ZUNITS=NM EX
##FIRSTZ=210
##LASTZ=400
##ZPOINTS=39
##XYDATA=(Y..Y)
##ZVALUE=210
1.793504
1.822710
2.526641
2.289414
1.753569
2.563596
2.497435
2.490878
2.247691
2.743602
2.189875
2.579689
2.077818
2.526641
3.037453
3.120899
2.670884
3.721714
3.750920
4.174709
4.125834
3.837943
4.564524
5.054474
4.929900
4.752874
5.611777
6.682873
6.501675
6.746650
7.244945
6.966591
8.487701
8.287430
8.298755
8.397698
8.559823
9.174943
9.624958
8.156896
8.173585
9.116530
8.366704
10.372996
8.510947
8.861423
8.460879
8.544922
8.937716
9.567738
8.949637
9.156466
8.892417
7.953644
9.145737
8.950830
9.981990
9.403825
9.536743
9.172559
8.906722
9.369850
9.296536
10.063648
9.769797
10.621548
11.479855
11.137724
10.871887
14.589429
16.653538
22.408962
24.453998
28.209686
31.974912
35.796762
38.936734
38.751960
40.569901
37.166476
36.802888
32.376647
28.355718
21.831989
18.657446
16.401410
12.740493
10.874867
9.578466
10.037422
9.931922
9.395480
9.855628
9.938478
10.023713
9.666681
##ZVALUE=215
7.692575
8.802414
6.874800
6.020665
5.655885
5.175471
4.520416
4.501939
4.651546
4.603863
4.399419
4.139543
4.377961
4.409552
3.172755
3.637671
3.321767
3.500581
3.674626
3.971457
3.863573
4.545450
4.186630
5.056858
5.929470
6.316900
6.809831
7.422566
8.179545
9.766817
10.337830
10.604858
11.481643
12.026429
12.487769
11.851788
11.928678
11.709929
12.174845
11.040568
10.377765
11.004806
10.524988
10.774732
12.695789
11.110902
10.599494
11.091828
10.949969
10.522604
8.972883
9.550452
10.183454
8.987784
9.597540
9.570718
9.538531
9.616613
9.667873
9.120703
9.900928
10.050535
9.839535
8.843541
9.452701
10.857582
10.399818
11.604428
12.216568
13.188720
16.926527
18.358827
22.758842
24.407506
28.785467
30.293465
33.626556
35.281777
34.864545
32.937527
33.578873
30.116439
26.948452
22.084713
19.294620
17.052889
13.132691
12.051463
10.129809
9.752512
8.519888
7.902980
9.316802
8.093715
9.669662
8.735657
##ZVALUE=220
21.518469
22.558570
24.324656
25.311708
25.192499
20.295978
17.970800
12.882948
11.675954
10.786653
10.589957
11.883974
11.123419
11.023879
9.438992
7.944703
6.966591
5.654693
5.487800
4.448891
4.132986
4.846454
5.022883
5.509853
5.749464
6.860495
7.916689
10.119677
10.383725
13.945699
13.479590
14.374852
15.663505
16.409755
17.162561
16.925931
17.531514
17.849803
17.656684
17.489791
17.229915
17.449856
17.291903
15.754700
14.430881
13.760924
13.820529
13.877749
13.172626
12.863874
12.760758
12.077689
11.865497
12.092590
11.747479
10.567904
10.752678
10.919571
10.768771
11.184812
10.186434
9.614825
9.928942
10.051727
10.517836
10.239482
11.327863
11.134744
12.033582
12.957454
15.490651
16.940832
20.036697
21.373630
24.795532
25.192499
25.086999
28.488636
28.009415
27.325749
26.000738
22.633672
21.231771
17.875433
17.780662
14.105439
11.989474
11.390448
9.450912
9.865761
9.456873
9.099841
8.208752
9.196997
8.572936
8.732677
##ZVALUE=225
32.668710
32.816529
53.565502
63.607693
74.286461
72.349906
65.998435
56.302547
40.999651
32.430887
24.544597
22.012591
22.670627
25.042892
24.276972
24.562478
20.786524
15.313625
12.711883
7.600784
6.021857
4.734993
4.075766
4.575849
4.540682
6.845593
7.570982
9.122491
11.193752
13.108850
14.858842
17.043948
18.866658
19.652843
20.156503
21.995902
21.560788
20.580888
20.809770
19.984841
19.426942
19.149780
17.353892
16.546845
16.904473
14.933944
15.307665
14.452934
13.384819
14.210939
13.617873
12.337565
13.092756
12.143850
11.629462
10.448694
11.148453
10.541677
11.161566
10.799766
10.521412
10.578632
10.443926
11.083484
11.444688
9.657741
11.043549
12.184978
11.815429
13.315678
14.835596
15.249848
16.090870
18.777847
20.725727
20.917654
23.918748
22.539496
22.342801
20.691752
21.255612
19.298792
16.880631
16.644597
14.996529
13.518929
12.494922
11.920929
12.472868
12.332797
11.688471
12.888908
10.657907
10.777712
11.375546
11.160970
##ZVALUE=230
29.329658
35.849810
56.303740
90.495944
121.463537
151.623487
165.766478
167.308450
154.255629
126.815438
88.312626
63.130856
47.052503
41.054487
46.059489
49.631000
51.563978
48.134923
42.027831
36.617517
28.199553
18.924475
14.043450
8.260608
7.164478
6.983876
7.335544
7.573962
10.940433
11.372566
14.554858
15.467405
16.840696
17.720461
18.237829
20.519495
19.128919
20.215511
20.762682
17.913580
17.564893
18.647909
17.332435
17.667413
16.021729
16.036630
16.016960
17.278790
14.561415
14.918447
13.367534
12.698770
13.275743
14.135838
12.122989
12.156963
13.562441
12.589693
12.655854
12.647510
12.957454
13.111830
13.272762
14.211535
12.920499
14.023781
15.423894
14.076829
15.428662
15.711784
16.430616
18.842816
20.808578
22.283792
23.910999
25.311708
24.557710
24.539828
25.039911
27.370453
25.969744
23.894906
23.416877
20.777583
20.648837
18.942952
17.650723
19.042492
17.854571
17.661452
18.420815
17.895699
18.608570
16.654730
17.035604
16.695857
##ZVALUE=235
9.247661
12.922883
24.431944
59.678555
100.628734
160.365701
207.708478
282.174945
310.594440
302.343965
280.552506
231.978893
154.891610
111.837983
79.204440
71.200728
69.692731
73.714852
84.108710
82.533956
77.181458
69.232583
47.741532
37.070513
23.059845
17.083883
12.527704
10.748506
10.187626
9.397864
11.168718
11.035800
12.263656
12.607574
13.695955
13.594627
14.367700
14.426708
14.581680
14.370680
13.494492
14.887452
12.641549
13.047457
13.647676
13.524890
12.686849
13.808608
14.240742
13.503432
13.118982
13.170838
14.590621
13.306737
13.877749
13.327599
13.918877
14.516711
13.097525
14.445782
14.741421
14.451742
15.785694
15.983582
16.392469
17.258525
16.107559
17.422438
18.119812
21.043420
20.531416
21.020770
24.685860
25.299788
26.178956
26.464462
26.653409
29.802918
29.802918
29.909611
27.473569
28.440952
26.847720
25.588870
26.422739
27.495623
27.215481
25.075674
25.923848
25.025606
23.745894
25.899410
24.230480
23.462772
23.558736
26.102662
##ZVALUE=240
1.920462
1.894832
4.550815
13.063550
35.702586
67.627430
135.036707
200.832486
314.093828
389.653444
449.483991
459.704995
429.077744
351.938009
270.175934
176.430941
125.561953
97.646713
90.341568
101.493597
112.979412
116.256475
110.182762
102.847815
83.419681
69.348812
48.955679
35.813451
21.720529
17.735958
14.102459
11.961460
12.518764
12.658834
12.013912
11.512637
12.088418
13.369918
12.559891
13.550520
12.260675
13.508797
12.890697
13.667941
12.902617
13.080835
13.313890
12.538433
12.468696
12.682676
11.646748
12.873411
12.749434
13.821721
13.161898
12.224913
14.121532
14.640689
14.245510
13.319850
14.162660
15.611649
16.731620
16.572475
17.672777
18.788576
19.715428
19.136667
20.242929
23.000836
23.356676
24.552941
25.889874
27.985573
30.488968
29.516816
32.031536
32.085776
34.918785
31.761527
34.000874
33.424497
32.265782
33.835769
30.989647
32.065511
32.866001
34.271479
33.313632
32.755733
30.222535
30.518770
32.036901
32.677650
31.162500
30.145645
##ZVALUE=245
1.382828
1.278520
1.503825
1.716614
2.982616
9.370446
30.987859
62.960982
139.776468
218.627453
341.196656
438.091755
507.130623
558.768511
541.513562
469.600558
387.980938
280.784965
206.537843
139.057636
110.443830
103.132725
113.121867
126.537681
131.876469
129.559636
115.762949
99.199414
77.300668
59.616566
44.428706
29.571652
22.955537
17.861724
17.510653
15.920997
15.276670
15.233755
15.241504
14.919639
15.996695
15.499592
14.430881
14.160872
13.160706
14.123917
13.738871
14.142990
12.880564
13.197660
14.137626
13.170838
12.923479
13.200641
13.047457
13.994575
13.052821
12.547970
13.380647
14.524460
13.913512
15.503764
16.715527
15.102625
16.589761
18.081665
17.643571
19.780993
19.462705
20.339489
22.247434
23.961663
25.399923
27.563572
27.216673
28.451681
28.862953
27.690530
30.041933
30.405521
30.227900
31.922460
31.226873
32.468438
30.631423
30.756593
30.589700
32.837987
31.686425
32.248497
33.728480
31.855702
32.306910
31.815767
32.425523
31.718612
##ZVALUE=250
1.065731
0.935793
1.099706
1.343489
1.764894
1.709461
2.215505
7.286668
31.613708
65.102577
144.553781
229.352713
323.437452
455.016494
543.824434
616.357923
618.774891
566.698909
489.038825
356.149673
251.835585
176.699758
116.047859
98.026991
110.804439
124.492645
138.430595
147.084594
139.700770
131.279826
110.057592
91.411471
69.370866
47.139525
35.876632
26.156902
21.952987
20.595789
18.187761
18.089414
19.094944
18.647909
17.199516
17.327666
17.549992
16.907454
15.774965
15.098453
16.557574
14.977455
14.854670
15.703440
14.089942
13.897419
13.442636
14.142990
12.722611
13.707876
14.016628
13.820529
13.747811
14.112592
13.606548
15.307665
15.464425
16.592741
17.243624
17.378926
17.560720
19.399524
21.125674
21.994710
21.887422
24.070740
25.156736
24.315715
26.230812
27.651787
28.086901
27.866960
29.210448
28.532743
28.950572
29.673576
29.845834
29.568672
30.302405
30.544996
29.872656
30.019879
31.940937
28.855801
30.168891
30.954480
30.621886
31.417608
##ZVALUE=255
1.271963
1.113415
1.095533
1.162887
1.221895
1.232624
1.191497
1.199841
1.715422
3.691912
20.260811
48.414469
92.893839
191.505551
294.198990
441.412926
538.349748
642.830729
674.728751
651.966929
574.991703
468.994975
308.082700
201.430917
120.379925
97.332001
94.043612
108.507872
137.051940
151.142478
157.057643
156.427622
143.470764
121.099949
100.852847
72.926879
56.793690
40.224791
31.064749
25.248528
24.296641
23.298860
21.714568
22.312999
21.432638
21.163821
20.073652
20.582676
18.222928
18.396974
18.879771
17.224550
16.070604
15.724897
14.984608
14.708638
14.828444
15.565753
14.231801
14.756918
15.230775
14.859438
14.757514
14.707446
14.535785
14.865994
15.617609
17.402768
17.136931
17.569661
19.408464
20.049810
19.679666
21.923780
21.863580
23.501515
22.632480
25.075674
25.441647
25.572777
26.892424
24.899840
26.227832
26.926994
27.366877
27.941465
26.983619
28.141737
26.609898
28.774738
28.960705
29.062629
27.513504
29.621720
28.304458
28.813481
##ZVALUE=260
0.923872
0.852942
0.807643
1.037717
1.130700
1.108646
1.113415
1.255870
1.515746
1.364946
1.273751
2.707839
6.259680
25.512576
60.831904
118.432641
249.455571
379.994512
567.037463
696.779490
801.343918
797.218680
680.053830
547.256470
424.191952
243.628621
161.217451
98.212957
85.151792
96.553564
117.682815
143.983960
164.230466
173.760653
170.033574
154.012442
134.227872
101.516843
82.316995
59.806705
47.408938
37.636757
32.504797
28.253794
27.327538
26.175976
25.156736
24.508834
22.995472
22.052526
22.079945
19.194484
20.362735
18.597841
17.876625
17.520785
16.825795
16.285777
16.890764
15.557408
15.551448
15.309453
15.440583
15.112758
15.964508
15.486479
15.229583
17.011762
18.276572
17.008781
17.968416
18.090606
18.567443
19.489527
20.966530
21.861792
21.293759
21.865964
22.619963
22.886992
24.060607
23.511648
24.470687
24.439692
25.918484
25.304556
26.154518
25.807619
25.898814
26.252866
27.088523
27.382970
27.154684
27.012825
27.055740
28.739572
##ZVALUE=265
0.723600
0.960827
0.610948
1.006722
0.957847
0.869632
0.890493
1.021624
1.228452
1.003742
1.170635
1.205802
1.333952
1.647472
3.508925
15.454888
38.881898
101.559758
184.514523
355.187654
515.149832
666.399598
820.429921
840.815902
755.071640
641.588569
472.424626
342.130661
197.943449
128.988624
95.815659
85.765719
103.389621
133.696795
155.768991
177.347660
184.757710
179.081559
163.639784
133.656859
112.974644
83.403587
64.337850
46.694875
39.482713
31.703711
30.061603
27.558804
27.412772
24.667978
23.326874
21.943450
22.452474
19.971728
19.561648
20.146966
18.357635
16.958714
16.780496
16.437769
16.257763
15.753508
14.728904
15.165806
15.594959
14.817715
15.544891
15.813708
17.442703
16.573668
17.755628
17.481446
19.116998
18.727779
19.275546
19.565821
20.755529
20.842552
21.694899
22.288561
22.550821
22.295713
22.660494
23.033619
24.707913
24.891496
24.456978
25.706887
25.642514
24.980903
25.044680
25.318861
24.858713
26.090741
25.506616
26.208758
##ZVALUE=270
0.864863
0.725985
0.633597
0.867844
0.717640
0.715852
0.856519
0.998974
0.829697
1.075864
0.972748
1.060963
0.957847
1.190901
0.876784
1.186728
2.177954
6.500483
19.473433
63.689947
129.359961
273.759961
406.938791
598.390698
728.998780
806.486011
793.247819
696.863532
590.037704
411.117673
287.284851
166.282654
112.269521
82.113743
86.200833
110.789537
135.053992
162.366629
177.147985
184.963942
179.489851
160.854459
138.686895
109.253526
86.222887
60.976744
47.616959
36.201477
31.433702
27.537942
25.138855
23.439527
23.547411
21.145940
20.435452
19.004941
19.248724
17.700791
16.742945
16.882420
16.183853
15.696883
16.111732
15.433431
15.268922
15.570521
15.491843
15.804768
16.543865
16.735792
17.091632
17.586946
18.531680
18.733740
19.418597
20.309687
20.411611
20.892620
20.999908
21.272898
22.347569
21.327734
22.543669
23.207664
22.587776
23.245811
23.922920
23.309588
23.180842
23.828745
24.349689
24.377704
24.866462
24.170876
24.312735
24.145842
##ZVALUE=275
0.706911
0.701547
0.770688
0.783801
0.787973
0.724792
0.699759
0.791550
0.634789
0.878572
0.899434
0.811815
0.843406
0.972748
0.965595
1.030564
1.295805
1.243949
1.422763
3.441572
12.879968
36.386847
106.423497
198.463798
372.846723
514.012575
678.713918
781.595707
828.073621
794.465542
665.935874
529.323816
380.468965
215.765834
134.889483
79.246759
68.270564
82.597733
101.428628
130.075812
149.732828
169.739723
177.162886
168.170929
154.075623
128.569603
104.997754
75.460672
59.152842
39.848685
32.008886
24.774671
22.909641
20.975471
18.815994
17.965436
17.990470
17.729998
16.720891
16.254783
16.439557
15.483499
16.018748
15.363693
15.665889
15.595555
16.064644
15.887618
16.061664
16.587973
17.517805
17.711520
18.640757
18.987656
18.988848
18.984675
19.629598
19.863844
20.423532
20.846725
21.575689
21.924973
21.074414
21.198988
21.860600
22.232533
23.070574
23.392439
23.249984
23.056865
23.471713
22.900701
24.514794
22.312999
22.877455
23.901463
##ZVALUE=280
0.677705
0.600815
0.779629
0.655651
0.716448
0.783801
0.557899
0.693798
0.776649
0.736713
0.880957
0.902414
1.006722
0.754595
0.772476
0.834465
0.985861
0.915527
0.957847
1.165867
1.405478
1.659989
7.817745
26.535988
84.831715
155.560970
290.360451
429.520607
622.539520
737.927556
815.602541
825.892687
751.648545
579.324961
434.361696
257.687569
160.682797
82.611442
56.125522
54.023862
66.715479
93.304515
114.665627
139.614940
156.658888
161.813498
155.299902
136.754513
119.986534
90.679526
71.266890
47.690868
35.563707
25.005937
19.713640
17.545819
16.245842
15.051961
14.950633
15.380979
15.549660
15.263557
15.181899
15.392900
16.107559
16.484857
16.225576
16.797781
17.099977
17.313957
17.486811
18.121600
18.628836
18.666983
19.398928
19.362569
20.041466
20.788908
20.313859
20.537972
21.121502
21.641850
22.151470
22.650957
22.295713
22.138953
21.780729
23.283958
23.141503
22.940636
21.996498
22.846460
22.694468
23.035407
22.907853
22.649765
##ZVALUE=285
0.619888
0.567436
0.569820
0.606775
0.537634
0.751615
0.599623
0.588894
0.675917
0.602603
0.737906
0.854731
0.844598
0.670552
0.819564
0.691414
0.861883
0.864863
0.906587
0.925660
0.813603
1.306534
1.266599
1.622438
4.170537
13.055801
44.572949
96.224546
214.478970
332.604051
516.761541
658.392906
798.568726
844.923854
784.413815
687.632561
498.309731
348.761678
189.172626
112.584829
56.004524
37.456751
41.085482
55.028796
81.268549
101.615787
128.007531
142.773986
149.869919
146.946907
132.588744
113.860965
88.588595
67.597628
45.901537
32.587647
21.773577
17.371774
15.237927
14.457703
14.371872
14.301538
14.441609
15.770793
15.923977
15.864968
16.767979
16.261935
17.239451
17.418861
18.401742
18.704534
19.054413
18.876791
20.018816
19.915700
20.047426
20.339489
21.240711
21.310449
22.068620
21.633506
21.569729
21.803975
22.697449
22.559762
22.400618
22.621751
22.401810
22.601485
21.630526
22.074580
22.155643
22.113919
22.261739
22.623539
##ZVALUE=290
0.551939
0.372529
0.606775
0.376701
0.543594
0.616908
0.489950
0.600815
0.673532
0.605583
0.689626
0.549555
0.593662
0.666976
0.612736
0.607967
0.768900
0.803471
0.662804
0.684857
0.874996
0.857711
1.047850
1.176000
1.210570
1.406670
1.600981
5.777478
26.189685
61.470866
145.112872
246.566534
432.163477
584.038496
751.680732
829.108953
822.205544
744.288564
571.021438
430.702567
253.544450
153.666735
69.055557
37.492514
26.752949
33.027530
51.795840
69.715977
95.983744
116.761923
136.566758
143.059492
140.635967
131.453872
107.371807
86.516738
60.651898
44.840574
29.952526
23.023486
17.269850
15.092492
14.364719
14.476776
15.057921
15.318990
16.008615
16.382933
16.459823
17.533898
17.809868
18.859506
18.994808
19.354820
19.773841
20.335913
20.834804
21.001697
20.996928
21.075606
21.967888
21.637678
22.321939
21.858811
22.542477
22.622943
22.960901
22.968650
22.528768
22.650957
22.159815
22.522807
22.343993
22.006631
21.948814
22.439957
##ZVALUE=295
0.451803
0.520945
0.510812
0.394583
0.428557
0.474453
0.602603
0.395775
0.766516
0.625849
0.621676
0.398755
0.639558
0.669956
0.504851
0.470877
0.900626
0.857711
0.873804
0.827909
0.612736
0.598431
0.839829
1.119971
0.952482
1.033545
1.224875
1.220703
1.635551
3.232956
10.872483
43.276548
93.203783
210.586786
338.774920
531.984568
673.142672
807.336569
840.971470
776.294470
665.527582
478.353500
335.072875
177.949667
100.903511
41.801929
23.341775
21.309853
29.675961
47.681928
64.652562
89.837909
110.022426
129.395723
135.547519
132.904649
122.514963
101.264715
83.625913
60.788989
45.507550
29.579997
22.768974
17.916560
16.178489
15.078783
15.918612
15.872717
16.119480
16.977787
17.680526
18.162727
18.949509
19.312501
19.813776
20.420551
21.035671
21.130443
21.131635
21.740794
22.242665
22.686720
22.792816
22.849441
22.728443
23.110509
23.034811
22.914410
22.331476
22.597909
22.552609
22.429824
21.862984
21.889806
21.778941
21.949410
##ZVALUE=300
0.453591
0.443459
0.637770
0.483990
0.451803
0.527501
0.448823
0.499487
0.570416
0.550747
0.503659
0.503659
0.471473
0.582933
0.487566
0.592470
0.518560
0.415444
0.663996
0.741482
0.646710
0.839829
0.996590
0.735521
0.895858
1.057982
0.948906
1.083612
0.971556
1.139641
1.308918
1.543760
5.693436
19.887686
66.252947
131.526589
270.952582
412.308574
607.375503
732.087493
827.623606
821.977854
714.067817
592.577457
396.059752
259.249806
131.023526
72.575808
29.037595
17.812848
19.162893
27.073622
42.664409
58.609843
82.976818
101.746917
121.460557
129.381418
129.022598
119.333863
102.576613
84.621906
60.976744
47.041774
32.127500
24.677515
18.924475
16.373992
16.385913
16.721487
17.339587
18.006563
18.223524
19.117594
19.989610
20.492673
20.381808
21.572709
22.436976
21.848679
21.693707
22.917986
23.082495
23.476481
23.351908
23.345947
23.363829
23.059845
22.841692
22.953749
22.526979
22.842884
22.478700
22.145510
22.550821
22.582412
##ZVALUE=305
0.442863
0.460744
0.541806
0.341535
0.424981
0.534654
0.495911
0.383854
0.465512
0.291467
0.517964
0.520945
0.507832
0.602603
0.513792
0.659823
0.530481
0.590682
0.642538
0.795722
0.621676
0.653863
0.799894
0.861883
0.719428
0.726581
0.831485
0.873804
0.900626
0.972748
1.079440
1.150966
1.287460
1.479983
2.361536
13.330579
37.431717
105.791688
194.101930
356.768966
503.091812
686.147809
784.232020
820.671916
766.918659
613.502860
479.803681
306.066871
192.555785
88.947415
45.530796
18.782616
13.889670
18.011928
25.969744
41.760802
58.251619
80.584884
97.991824
115.787983
121.760964
122.367740
113.564730
97.247958
80.619454
58.140755
44.592619
31.799674
24.688840
19.545555
18.899441
18.555522
18.644929
19.486547
19.495487
20.630956
21.080971
21.127462
21.760464
22.709966
22.631884
23.264885
23.183823
23.709536
24.137497
23.808479
24.054646
24.401546
23.956895
23.639798
24.271607
23.167729
23.347735
23.390651
23.091435
22.777915
##ZVALUE=310
0.341535
0.474453
0.525713
0.359416
0.377893
0.398755
0.545979
0.430942
0.626445
0.351667
0.469685
0.451803
0.579953
0.541806
0.418425
0.417829
0.458956
0.460744
0.555515
0.607967
0.501871
0.605583
0.605583
0.635982
0.815988
0.557899
0.687838
0.782609
0.675917
0.656843
0.961423
0.884533
0.912547
1.237988
1.128912
1.101494
1.472831
5.309582
18.097758
62.351823
124.097466
260.960460
401.701927
594.346523
718.028545
810.082555
802.246928
705.892444
586.167574
393.991470
264.413953
134.337544
72.712898
27.867556
14.622808
12.283921
16.089678
25.015473
34.709573
53.547621
71.051717
92.992783
107.100606
117.544532
119.175911
110.510588
98.058581
79.814792
63.875914
45.466423
35.241842
26.385784
22.656918
20.208955
19.800663
20.420551
20.938516
21.664500
21.892786
22.311807
22.406578
23.610592
23.725629
23.951530
24.074912
24.262667
24.413466
24.182796
24.600625
24.287701
24.691820
24.342537
23.947954
23.086667
23.443699
23.669600
##ZVALUE=315
0.467896
0.319481
0.387430
0.416636
0.360608
0.479817
0.307560
0.453591
0.473857
0.465512
0.346899
0.362992
0.357628
0.416636
0.406504
0.541806
0.633597
0.406504
0.613928
0.523925
0.554919
0.565648
0.539422
0.620484
0.511408
0.333786
0.623465
0.578761
0.609756
0.753999
0.893474
0.998974
0.950694
0.745654
0.841618
1.026988
1.045465
1.201630
1.208782
2.881885
9.162426
39.404631
86.558461
197.088718
322.525501
522.238016
650.129914
767.960548
802.631974
745.375752
642.322898
464.044809
327.666998
177.488923
97.463727
38.661957
18.794537
11.079907
11.307597
16.034842
21.726489
34.339428
47.614574
67.793727
85.455775
103.840828
111.845732
112.878680
108.148456
92.379451
79.138875
60.341954
47.300458
34.855604
28.233528
24.417639
22.332668
22.052526
21.745563
22.547841
22.726655
23.388863
24.183989
24.183989
24.229884
24.791956
24.720430
24.605989
24.689436
25.545955
24.776459
23.809671
24.380684
23.966432
23.854971
23.020506
##ZVALUE=320
0.380874
0.370741
0.519753
0.472665
0.307560
0.278950
0.351667
0.297427
0.505447
0.451803
0.400543
0.412464
0.308752
0.468493
0.409484
0.554919
0.526905
0.443459
0.503659
0.404716
0.418425
0.451803
0.675917
0.493526
0.438690
0.581741
0.664592
0.509620
0.718832
0.644922
0.724792
0.789762
0.710487
0.772476
0.806451
0.871420
0.968575
0.899434
0.942945
0.908971
1.016855
1.465678
4.134774
22.640824
55.710673
143.508911
240.838528
409.045815
546.634793
704.748631
780.105591
775.681734
704.054832
542.008877
400.151610
226.119757
130.391717
55.179596
28.046966
12.153983
10.271668
11.768937
14.022589
21.195412
30.278563
46.865940
61.331987
80.619454
94.711781
107.297897
108.991861
102.612972
93.076825
74.712634
60.633421
47.071576
37.961602
28.735995
26.042461
23.903847
23.032427
23.492575
23.563504
24.007559
24.055839
24.674535
24.487972
24.789572
24.470687
24.499893
24.908781
24.482608
24.334788
23.970604
24.264455
24.175644
##ZVALUE=325
0.339746
0.354648
0.447631
0.272989
0.286698
0.294447
0.428557
0.440478
0.368953
0.335574
0.307560
0.268817
0.256896
0.319481
0.231862
0.397563
0.487566
0.517964
0.454783
0.451803
0.509620
0.497699
0.429749
0.442863
0.244975
0.469685
0.498891
0.546575
0.495911
0.531673
0.535846
0.703931
0.760555
0.557899
0.728965
0.755787
0.621676
0.658631
0.914931
0.942945
1.095533
1.168847
1.044869
1.125932
2.386570
13.895631
37.298799
98.512769
178.586841
336.149931
472.823977
641.898513
736.345649
774.198771
726.530552
581.784844
443.985462
273.398757
168.543458
75.338483
37.363768
14.821887
10.115504
10.094643
11.355877
15.547872
21.007657
31.958818
44.481754
64.297915
79.034567
93.649626
101.884604
103.487968
98.661780
85.514784
73.345900
58.076978
47.453642
35.457611
30.108690
25.698543
24.383664
24.405718
24.172664
24.231672
24.665594
24.225712
24.578571
24.517775
24.115443
23.784637
23.928881
23.598671
24.235845
23.719668
##ZVALUE=330
0.513792
0.408888
0.360608
0.395775
0.442863
0.361800
0.421405
0.423789
0.318885
0.511408
0.415444
0.497699
0.398755
0.439882
0.401735
0.429749
0.546575
0.357628
0.410676
0.477433
0.432730
0.547767
0.397563
0.379682
0.495911
0.507832
0.519753
0.425577
0.731945
0.620484
0.531673
0.557899
0.705719
0.631809
0.507832
0.729561
0.687838
0.670552
0.786781
0.798702
0.834465
0.995994
0.878572
0.856519
1.079440
1.150966
1.653433
4.433990
22.553802
56.880713
141.706467
238.517523
408.057570
541.553497
684.115887
748.909712
725.170970
646.127462
489.446521
359.740853
199.805498
116.563439
50.582886
24.457574
11.211634
10.264516
10.506511
11.431575
15.956759
22.082925
32.866001
43.835640
59.646964
74.019432
90.175867
97.456574
99.629760
95.742941
82.661510
71.439743
55.911541
45.938492
36.718845
31.263828
26.873946
25.686622
24.321675
24.168491
24.144650
23.898482
23.939610
23.416877
23.786426
23.589730
23.791790
23.281574
##ZVALUE=335
0.408888
0.413656
0.309944
0.282526
0.227690
0.415444
0.362992
0.079870
0.132918
0.348687
0.380874
0.453591
0.160933
0.400543
0.242591
0.302792
0.362992
0.336766
0.384450
0.249743
0.381470
0.403523
0.380874
0.448823
0.556707
0.487566
0.512600
0.400543
0.319481
0.530481
0.568628
0.547767
0.545979
0.711679
0.632405
0.534654
0.605583
0.572801
0.644922
0.726581
0.733733
0.553727
0.774860
0.820756
0.805855
1.025796
0.945926
1.065731
1.220703
2.465844
12.742877
34.628510
96.555948
175.161958
324.665904
459.530950
626.635551
705.826879
730.039477
680.761933
542.896986
415.652990
252.708793
153.735876
67.857504
33.986568
14.573932
10.616779
10.752678
11.387467
13.053417
15.804768
22.285581
29.666424
44.055581
55.868626
72.669983
84.385872
94.753504
94.586611
89.600682
81.365705
69.228411
58.519840
45.903921
37.898421
31.098723
27.380586
24.965405
23.363829
23.180842
22.897720
22.508502
23.030639
22.535920
22.665858
##ZVALUE=340
0.377893
0.451803
0.213981
0.322461
0.297427
0.281930
0.346899
0.422597
0.283718
0.311732
0.259876
0.370741
0.422597
0.392795
0.274777
0.305772
0.252724
0.293851
0.426769
0.358820
0.312924
0.458956
0.332594
0.371933
0.345707
0.245571
0.452995
0.359416
0.427961
0.321865
0.466704
0.357628
0.391603
0.622869
0.421405
0.562668
0.277758
0.532866
0.576973
0.537634
0.583529
0.546575
0.596642
0.745654
0.701547
0.726581
0.881553
0.747442
1.010895
0.866652
0.966787
1.552701
4.692674
24.072528
59.491992
147.209764
248.679519
409.830809
534.337759
668.946505
713.075995
681.852698
599.889755
446.049571
315.920711
168.276429
95.359683
40.443540
19.521713
11.075735
10.631680
11.170506
12.057424
13.991594
16.834736
23.547411
30.843616
43.746829
54.425001
70.518851
80.302954
88.783503
90.279579
84.918737
79.087615
65.922737
56.623816
44.011474
36.738515
30.101538
26.200414
23.313761
22.508502
21.735430
21.942854
21.990538
##ZVALUE=345
0.109673
0.396967
0.293851
0.235438
0.223517
0.394583
0.295639
0.325441
0.403523
0.293851
0.421405
0.365973
0.341535
0.306964
0.306964
0.309944
0.350475
0.315905
0.361800
0.240803
0.441670
0.174642
0.389814
0.465512
0.346899
0.402927
0.504851
0.405908
0.414848
0.667572
0.498891
0.343919
0.400543
0.285506
0.513792
0.500679
0.454783
0.380874
0.483990
0.484586
0.441670
0.525713
0.586510
0.681877
0.666976
0.650883
0.707507
0.671744
0.707507
0.725985
0.813603
0.867844
1.023412
1.107454
2.111793
12.905002
37.255883
102.636814
178.538561
322.262645
446.982980
598.776937
672.731996
689.387918
636.642575
493.488908
370.680690
220.872760
129.254460
53.193569
27.016997
12.568831
10.528564
10.928512
11.117458
12.169480
13.331771
17.204881
21.341443
29.920936
39.751530
54.471493
64.184666
74.954629
81.264973
83.955526
81.865788
73.812604
65.784454
53.253770
44.478774
34.451485
29.269457
24.566650
22.388697
21.333694
##ZVALUE=350
0.325441
0.231862
0.175834
0.291467
0.268817
0.217557
0.487566
0.174642
0.410676
0.331998
0.372529
0.411868
0.293851
0.203848
0.384450
0.376701
0.307560
0.152588
0.308752
0.152588
0.295639
0.203848
0.329614
0.306964
0.390410
0.429749
0.427961
0.447631
0.360608
0.447631
0.373721
0.591874
0.355840
0.518560
0.509620
0.501871
0.543594
0.586510
0.558496
0.483990
0.474453
0.454783
0.490546
0.431538
0.414848
0.395775
0.500679
0.678897
0.688434
0.712872
0.689626
0.615716
0.653863
0.784993
1.081824
1.097918
1.313686
6.221533
20.926595
66.671968
126.711726
252.910852
371.660590
524.019599
619.460940
673.296452
644.829869
536.326766
416.594744
251.769423
157.096982
75.069666
37.435889
14.693737
11.013746
10.281801
10.697842
11.297464
12.006760
13.562441
16.086698
21.463633
26.807785
37.059784
46.566725
58.778524
67.104697
75.034499
77.290535
75.152516
69.909692
59.843659
51.498413
40.916800
34.682751
27.680993
##ZVALUE=355
0.263453
0.331998
0.181794
0.090599
0.288486
0.274777
0.340939
0.318885
0.206828
0.308752
0.169873
0.449419
0.316501
0.250936
0.320673
0.424981
0.424981
0.345707
0.412464
0.340939
0.294447
0.453591
0.382662
0.514984
0.300407
0.226498
0.322461
0.465512
0.440478
0.450611
0.054836
0.511408
0.354648
0.388622
0.476837
0.484586
0.413656
0.596642
0.457764
0.392795
0.390410
0.485778
0.504851
0.466704
0.528693
0.504851
0.751615
0.604987
0.592470
0.588894
0.539422
0.419617
0.659823
0.594854
0.737906
0.975728
0.890493
0.953674
0.996590
2.925992
11.174679
42.943954
88.923573
186.922550
293.297768
457.300544
558.545589
640.739799
642.733574
558.192730
452.865958
304.943919
195.916891
90.127587
45.633912
17.878413
11.120439
9.945631
10.157824
10.244846
11.054873
11.250973
12.824535
15.413761
18.276572
24.646521
31.586885
42.426586
50.049424
60.017705
65.831542
70.289969
69.436431
63.777566
56.905746
47.406554
##ZVALUE=360
0.329614
0.396967
0.234842
0.310540
0.438690
0.348687
0.316501
0.380874
0.107884
0.244975
0.436902
0.174642
0.136495
0.259876
0.321865
0.376701
0.432730
0.336766
0.297427
0.399947
0.536442
0.407696
0.367761
0.262856
0.272989
0.356436
0.244975
0.452995
0.426769
0.335574
0.369549
0.297427
0.273585
0.568628
0.521541
0.416636
0.349879
0.514984
0.390410
0.456572
0.486970
0.471473
0.400543
0.505447
0.557899
0.577569
0.473857
0.589490
0.512600
0.555515
0.524521
0.586510
0.671744
0.795722
0.760555
0.653863
0.752807
0.727773
0.825524
0.887513
1.029968
1.576543
4.641414
22.424459
55.147409
136.110783
225.296617
370.386839
487.824678
604.014993
632.346869
590.954423
503.647923
349.529982
233.807564
116.842985
63.313842
26.022792
13.695955
9.704828
9.168983
9.527802
9.913445
10.528564
10.913610
11.763573
13.028979
16.157627
19.934773
26.295781
33.777952
44.830441
51.791668
59.536695
63.450933
63.522458
##ZVALUE=365
0.290871
0.296831
0.148416
0.278950
0.356436
0.177622
0.292659
0.353456
0.319481
0.257492
0.240803
0.224710
0.273585
0.365973
0.243783
0.291467
0.302792
0.371933
0.304580
0.302792
0.311732
0.214577
0.258684
0.377893
0.357628
0.375509
0.402927
0.286698
0.386834
0.347495
0.072718
0.320673
0.452995
0.263453
0.381470
0.399947
0.546575
0.450611
0.345707
0.449419
0.247955
0.401735
0.476837
0.373721
0.326633
0.430942
0.422597
0.604987
0.553727
0.508428
0.546575
0.563860
0.519753
0.678897
0.616908
0.602603
0.639558
0.817776
0.798702
0.637770
0.709891
1.043677
1.041889
1.295805
2.334714
12.128949
33.379793
88.504553
163.876414
307.488441
418.801904
544.091463
607.416630
604.205728
530.158877
392.076969
280.491710
157.407522
87.785721
34.879446
16.471744
9.160638
8.508563
8.713603
8.938909
9.221435
9.617805
10.037422
10.461807
11.802912
13.617873
17.626882
22.383928
30.561686
37.318468
46.508908
##ZVALUE=370
0.280738
0.340939
0.170469
0.183582
0.149608
0.285506
0.234842
0.337958
0.268817
0.272989
0.294447
0.401735
0.302792
0.326633
0.290871
0.278950
0.276566
0.188947
0.201464
0.212789
0.295639
0.246763
0.342727
0.334978
0.248551
0.238419
0.436902
0.216961
0.353456
0.278950
0.285506
0.248551
0.290871
0.376701
0.367761
0.389814
0.359416
0.387430
0.504851
0.409484
0.230670
0.387430
0.305772
0.379682
0.440478
0.430942
0.427961
0.443459
0.349879
0.390410
0.429749
0.488758
0.510812
0.492930
0.423789
0.494719
0.616908
0.616908
0.610948
0.576973
0.804663
0.814795
0.700951
0.722408
0.884533
0.930429
1.465678
6.165504
20.438433
66.708922
125.490427
237.674713
350.663662
498.286486
572.550893
596.938729
554.354787
438.930988
326.595902
185.813904
105.916858
44.303536
22.292733
10.589957
8.320808
7.647872
8.058548
8.568764
8.499622
8.843541
9.035468
9.536743
10.613799
12.650490
16.053915
19.883513
##ZVALUE=375
0.347495
0.230670
0.176430
0.420809
0.235438
0.178814
0.125766
0.329614
0.223517
0.246763
0.176430
0.257492
0.265837
0.398755
0.423789
0.288486
0.346899
0.285506
0.229478
0.219941
0.371933
0.420809
0.298619
0.351667
0.203848
0.375509
0.397563
0.233650
0.391603
0.364780
0.304580
0.415444
0.464916
0.238419
0.374913
0.351667
0.273585
0.316501
0.453591
0.329614
0.353456
0.382662
0.357628
0.400543
0.317693
0.463724
0.498891
0.325441
0.420809
0.509620
0.350475
0.404716
0.389814
0.478625
0.388622
0.421405
0.574589
0.645518
0.395775
0.448823
0.601411
0.556707
0.697970
0.676513
0.721812
0.791550
0.939965
0.929832
1.027584
2.891421
11.080503
39.389729
84.991455
190.027952
296.838880
443.467498
530.840755
592.017770
578.532815
482.556820
375.821590
231.758952
149.189830
76.183677
39.797425
15.152693
8.790493
7.304549
7.150769
7.240772
7.522702
7.835627
8.108616
8.546710
8.786917
9.654760
##ZVALUE=380
0.210404
0.191927
0.328422
0.139475
0.085831
0.250936
0.234842
0.120997
0.270605
0.143647
0.088811
0.264645
0.211596
0.282526
0.346899
0.284910
0.270605
0.393987
0.238419
0.385642
0.233650
0.335574
0.328422
0.281930
0.280738
0.235438
0.348687
0.491738
0.336766
0.312924
0.177622
0.195503
0.397563
0.288486
0.186563
0.265837
0.255704
0.311732
0.520945
0.252724
0.253916
0.231862
0.339746
0.187755
0.365973
0.440478
0.358820
0.319481
0.354648
0.302792
0.430942
0.268817
0.496507
0.287890
0.400543
0.399947
0.369549
0.403523
0.446439
0.414848
0.373721
0.486970
0.515580
0.547767
0.667572
0.527501
0.684857
0.788569
0.904799
0.980496
1.026988
1.748800
6.160736
28.545856
65.468550
152.766705
246.377587
385.749936
487.391949
576.102734
587.056875
516.569614
424.297452
288.751721
194.969773
97.674727
53.511858
23.123622
11.450648
6.828904
6.569624
6.736517
6.995797
7.339716
7.232428
7.517934
##ZVALUE=385
0.225902
0.223517
0.329614
0.263453
0.304580
0.272989
0.199676
0.364780
0.248551
0.153780
0.144839
0.213981
0.141859
0.229478
0.336766
0.418425
0.298619
0.219941
0.208616
0.264645
0.289679
0.296831
0.372529
0.156760
0.212789
0.154972
0.215769
0.292659
0.206828
0.443459
0.290871
0.284910
0.339746
0.372529
0.426769
0.394583
0.319481
0.321865
0.250936
0.253916
0.362992
0.315905
0.421405
0.404716
0.346899
0.565648
0.357628
0.225902
0.358820
0.286698
0.467896
0.327826
0.464916
0.196695
0.374913
0.382662
0.498891
0.430942
0.559688
0.356436
0.527501
0.507832
0.334978
0.446439
0.458956
0.473857
0.649691
0.567436
0.691414
0.706911
0.761747
0.780821
0.904799
1.193881
3.179908
11.790991
45.962930
97.452998
205.610991
307.531953
440.356731
524.964929
573.168993
558.620691
473.501682
380.035639
244.310498
157.201886
73.240995
37.053823
13.341904
7.451773
6.010532
6.195903
6.470680
6.288886
##ZVALUE=390
0.334978
0.323653
0.321865
0.180602
0.512600
0.258684
0.133514
0.158548
0.229478
0.322461
0.311732
0.351667
0.212789
0.256896
0.241995
0.290871
0.263453
0.354648
0.272989
0.296831
0.249743
0.301600
0.323653
0.147820
0.210404
0.212789
0.245571
0.293851
0.219941
0.320673
0.286698
0.355840
0.453591
0.480413
0.360608
0.449419
0.430942
0.341535
0.429749
0.461936
0.373721
0.361800
0.447631
0.352859
0.283718
0.413656
0.474453
0.537634
0.428557
0.388622
0.337958
0.282526
0.374913
0.399947
0.448823
0.363588
0.221729
0.515580
0.413656
0.488758
0.503659
0.422597
0.495911
0.590682
0.657439
0.540614
0.479817
0.583529
0.734925
0.787973
0.704527
0.849962
0.822544
0.831485
0.841618
0.942945
1.433492
8.438826
25.565624
76.969862
145.594478
272.269845
373.255014
489.290953
555.558801
576.508641
535.908937
425.577760
326.441526
199.862719
118.593574
49.636960
23.809671
9.056926
5.945563
5.649924
##ZVALUE=395
0.188947
0.105500
0.171661
0.200868
0.007749
0.125766
0.132918
0.077486
0.189543
0.022650
0.059605
0.261664
0.253916
0.092983
0.226498
0.084639
0.272989
0.122786
0.032783
0.219941
0.268817
0.163913
0.173450
0.170469
0.183582
0.234842
0.224710
0.134706
0.130534
0.136495
0.113845
0.237823
0.314713
0.165701
0.144839
0.256896
0.269413
0.508428
0.252724
0.177622
0.138879
0.344515
0.174642
0.302792
0.237823
0.156760
0.355840
0.266433
0.410676
0.372529
0.347495
0.284910
0.201464
0.254512
0.273585
0.254512
0.401735
0.336766
0.362992
0.406504
0.326633
0.134706
0.290871
0.451803
0.308752
0.457764
0.283718
0.436902
0.412464
0.584722
0.675917
0.473857
0.513792
0.550747
0.666976
0.617504
0.693798
0.839829
1.059771
4.583597
16.331673
56.339502
106.992722
203.090906
302.205682
440.132618
528.543591
580.118895
565.827489
482.395887
381.861925
241.279006
154.614449
73.899627
36.489964
13.610721
##ZVALUE=400
0.214577
0.274777
0.127554
0.163913
0.230670
0.090599
0.243783
0.270605
0.342727
0.177622
0.159740
0.264645
0.370741
0.226498
0.215769
0.158548
0.194907
0.143647
0.107884
0.210404
0.244975
0.308752
0.206828
0.285506
0.336766
0.134706
0.278950
0.254512
0.256896
0.372529
0.258684
0.285506
0.322461
0.387430
0.541806
0.478625
0.349879
0.232458
0.398755
0.357628
0.386834
0.382662
0.276566
0.199676
0.362992
0.279546
0.314713
0.427961
0.385642
0.504851
0.420809
0.321865
0.353456
0.346899
0.395775
0.402927
0.340939
0.297427
0.365973
0.387430
0.246763
0.401735
0.353456
0.321865
0.536442
0.513792
0.502467
0.475645
0.626445
0.731945
0.736713
0.657439
0.700951
0.574589
0.661612
0.661612
0.684857
0.677705
0.673532
0.876784
0.829697
1.942515
9.491444
27.113557
76.641440
139.698982
260.835886
364.547968
494.215488
558.285713
567.725897
518.410802
405.216813
299.853683
173.166990
104.214549
##END
