##TITLE=FQP00352
##FORMAT=SPECTACLE-ASCII V-1.2
##DATA TYPE=ULTRAVIOLET SPECTRUM
##SECOND TYPE=ULTRAVIOLET SPECTRUM
##DATE=01/30/18
##TIME=16:27:50
##SPECTROMETER/DATA SYSTEM=SPECTACLE
##XUNITS=NM EM
##YUNITS=ENERGY
##YFACTOR=1
##FIRSTX=220
##LASTX=410
##NPOINTS=96
##3DDATA=Equidistant
##ZUNITS=NM EX
##FIRSTZ=210
##LASTZ=400
##ZPOINTS=39
##XYDATA=(Y..Y)
##ZVALUE=210
1.743436
1.899600
1.884699
1.887679
1.978874
1.698732
2.319813
1.983643
2.351999
2.786517
1.878738
2.332926
2.474785
2.221465
2.265573
2.825856
2.751946
2.940893
2.994537
3.433824
2.942681
3.214478
3.794432
3.614426
4.018545
4.022717
4.302859
4.550815
5.245805
5.658865
6.465912
6.241798
6.857514
6.969571
6.852746
6.820560
7.457733
7.111430
6.717443
6.233454
7.100701
6.923676
6.859899
6.571412
6.465912
5.628467
6.107688
6.290674
6.288886
6.232858
6.963611
5.303621
6.041527
5.539656
6.596446
5.740523
6.201863
5.413890
6.201863
5.219579
7.019639
5.317926
6.141663
5.729795
5.964637
6.109476
6.905794
7.095933
7.299781
8.747578
9.842515
11.610985
13.773441
16.106963
17.715693
19.619465
17.747879
18.578768
19.469857
17.785430
15.858412
12.861490
11.144876
8.631945
7.475615
7.407665
6.540418
5.719662
6.183982
5.632639
4.913807
4.859567
5.222559
6.202459
5.176663
5.935431
##ZVALUE=215
4.875660
5.172491
5.348921
4.651546
3.404617
4.486442
3.919601
4.140735
4.468560
4.705787
4.269481
4.622936
3.027916
2.846718
2.852678
2.489686
2.389550
3.367662
3.262758
2.547503
2.806783
3.220439
3.504753
3.486872
3.725886
4.527569
4.520416
5.926490
7.741451
6.711483
7.741451
7.615685
9.613633
9.720922
9.574890
10.272861
9.842515
9.161830
9.048581
9.442568
9.321570
9.177923
8.823872
8.894801
7.570982
6.981492
8.484721
8.624792
6.731749
6.752610
7.742643
7.176995
7.118583
7.179976
7.789731
7.078648
6.593466
6.312728
6.674528
6.676912
6.518960
6.955862
6.942749
5.780458
6.315708
6.623864
6.314516
6.307960
6.982684
7.555485
10.169744
11.372566
11.779666
12.665987
14.733672
16.300678
15.825629
16.133785
16.310811
16.017556
15.157461
13.789535
13.929605
11.909604
9.276867
7.575750
7.742643
6.493926
6.152987
5.510449
5.148649
5.043745
5.206466
5.098581
5.971789
5.660653
##ZVALUE=220
14.298558
16.638637
18.302798
20.565987
18.614531
14.484525
13.209581
11.095405
9.860992
9.552836
9.918809
11.371970
10.442734
9.427667
8.694530
7.343888
4.947782
4.194975
3.638864
3.244877
3.482699
3.114939
3.350973
3.873706
4.750490
5.642772
6.791949
8.613467
9.518862
10.429621
13.189912
13.668537
14.484525
15.612841
14.882684
16.655922
15.509725
15.032887
15.153885
14.059544
14.504790
13.062954
12.761950
12.079477
11.268854
11.904836
11.136532
10.480881
10.273457
8.516908
8.412600
9.896755
8.181930
8.043647
9.492636
8.371472
8.113980
7.673502
7.849932
7.295609
8.611679
7.462502
7.432699
7.445812
7.368922
7.491708
8.531809
8.235574
8.415580
8.698702
9.663701
11.702776
12.148619
13.576746
14.779568
14.794469
14.624596
15.240908
15.500784
14.611483
14.929771
12.427568
13.254881
13.639927
11.559725
9.384751
8.098483
7.312894
6.545782
5.652905
6.246567
5.738735
6.057620
6.711483
5.481839
5.820990
##ZVALUE=225
28.395653
27.046800
36.297441
48.936605
58.286786
57.670474
55.521727
43.942928
36.156774
25.629997
21.791458
20.111799
21.388531
25.691986
24.097562
22.030473
19.933581
15.917420
11.108518
8.869767
5.607605
3.986955
3.738999
3.769994
5.157590
6.094575
7.587671
8.536577
9.771585
12.226701
14.789701
17.020702
17.472506
18.500686
19.554496
19.395947
19.882917
19.438863
18.295646
18.070936
17.998815
16.791821
16.062856
15.355945
14.467835
13.406873
12.674928
10.808706
11.688471
11.104941
10.417700
9.351969
9.478927
9.481907
9.698868
9.650588
8.300543
8.520484
8.022785
8.023977
8.146763
7.245541
8.032918
8.229613
8.053780
7.784963
7.999539
8.682609
8.529425
9.638667
10.346770
9.950995
12.038946
12.434721
12.169480
12.905598
11.696815
12.489557
13.042688
12.561679
11.758804
11.572838
9.680986
9.945631
8.846521
7.058978
8.073449
6.704926
7.076859
6.445646
6.011724
6.299615
6.442666
6.111860
5.877614
6.739497
##ZVALUE=230
23.076534
25.789738
45.223832
71.372986
99.587440
129.650831
141.115785
147.870779
133.232474
109.840631
80.312490
60.142875
45.250654
39.519668
44.424534
47.788620
46.719909
45.800805
43.104887
34.400821
26.483536
17.102957
11.732578
7.619858
6.379485
6.078482
8.013844
9.104609
10.598898
12.483597
13.027787
15.161633
16.614795
16.427636
17.213821
18.746853
18.078685
17.264485
16.611814
17.755628
18.473864
15.726686
16.579628
14.944673
14.187694
12.309551
12.612939
11.817813
11.708736
10.787845
10.750890
11.209846
10.886788
10.220408
10.399818
10.062456
10.565519
9.249449
10.229945
10.340810
10.842681
10.352731
10.054708
11.062622
10.161996
10.087490
10.757446
9.633899
11.097789
12.083650
12.834668
13.307929
13.756752
14.384985
14.066696
14.617443
16.077757
15.212893
14.652610
15.503764
14.733672
13.081431
12.781620
10.852814
12.244582
9.857416
11.458993
8.745790
10.716915
10.300875
9.170771
8.984804
8.472800
8.790493
8.137822
8.339882
##ZVALUE=235
9.265542
11.853576
26.551485
49.477816
94.319582
141.792893
202.900767
250.483751
281.506777
285.418630
246.549845
207.318664
164.774656
108.087659
80.547929
68.622828
69.236755
72.994828
80.956817
81.515908
74.602962
64.550638
51.185489
36.218762
24.313927
16.218424
11.924505
11.219978
10.642409
10.316968
11.897683
12.267828
13.334751
13.808608
13.186932
13.584495
13.203621
14.443994
14.757514
15.288591
16.124845
13.567805
14.388561
14.363527
14.982820
13.362765
12.289882
11.479855
12.285709
12.102723
12.570620
10.957718
11.668801
11.318922
11.749864
11.896491
12.328625
12.327433
11.063814
10.820627
11.126995
10.203719
12.312531
11.912584
12.784600
12.383461
11.381507
12.618899
12.691617
13.570786
15.466809
16.790628
15.103817
17.278790
17.546415
19.363761
19.561648
18.551946
18.160939
16.990900
16.297698
17.209649
15.238523
14.497638
13.911724
14.076829
13.685822
14.851689
13.510585
12.396574
12.221932
12.601614
12.818575
13.192892
12.440681
12.441874
##ZVALUE=240
1.882911
1.885891
3.822446
14.311671
31.325817
72.121620
123.709440
218.068957
297.925472
372.269750
438.957810
440.374613
396.342874
335.042477
246.777534
174.178481
113.895535
96.523762
90.837479
98.157525
109.556913
116.447806
112.378001
97.585917
87.758899
62.860847
49.444437
30.994415
22.825599
16.092658
12.845993
12.301803
12.647510
12.336969
13.148785
13.572574
14.777780
13.857484
14.785528
14.318824
14.599562
14.512539
14.332533
13.456941
13.760924
13.524890
13.644695
13.164878
12.500882
12.389421
12.172461
13.763905
12.156963
12.352467
10.799766
10.917783
10.519624
12.625456
11.309981
11.106730
11.226535
11.348724
11.033416
12.160540
12.554526
12.594461
13.935566
13.691783
13.960600
14.401674
14.927983
15.627742
18.382668
17.868876
19.186735
17.850995
18.152595
19.467473
19.020438
17.617941
17.752647
16.814470
18.577576
16.770959
15.992522
16.209483
15.620589
16.121864
15.838742
16.292930
16.262531
15.216470
15.851855
16.490817
14.740825
15.816689
##ZVALUE=245
1.611710
1.429915
1.439452
1.492500
3.717542
7.864833
28.705597
60.685873
132.229924
212.896466
328.924656
419.769883
488.559008
515.774488
497.176647
422.085524
342.639685
231.742859
169.718862
109.361410
95.631480
97.876787
114.075541
125.986934
132.728815
125.912428
112.277865
99.225640
75.710416
58.915615
44.781566
29.295683
23.019910
17.670989
15.953779
15.111566
17.062426
15.815496
15.886426
15.730858
16.589761
16.258955
16.368628
16.559958
14.351606
14.674664
14.449954
15.130639
14.127493
13.598800
12.586713
12.479424
13.081431
11.739731
12.372732
10.755658
11.089444
9.979606
10.632873
10.551810
9.131432
11.365414
11.496544
10.594726
10.861754
10.212660
11.227727
11.810660
12.735724
12.914538
13.685822
14.873743
15.591979
16.742945
17.819405
16.889572
16.893744
16.943812
16.930699
15.338659
16.819835
18.016696
15.641451
16.596913
15.629530
16.769767
16.747713
17.602444
16.461611
15.664697
16.623735
16.483665
15.892982
15.205741
15.499592
16.974807
##ZVALUE=250
1.129508
1.245737
1.395941
1.126528
1.631975
1.573563
2.120733
5.876422
23.560524
50.378442
122.456551
202.382803
297.106504
437.651873
522.401929
584.743619
587.552786
528.158545
442.710519
309.937000
213.086009
148.927569
99.215508
93.855858
107.690692
123.579502
136.054754
139.757991
139.003992
128.099918
114.065409
85.745454
69.591999
46.516657
36.386847
26.671886
21.518469
20.696521
19.820929
20.801425
20.036697
20.085573
19.889474
18.504858
17.825961
16.837716
15.716553
15.882850
15.077591
15.073419
14.355779
13.131499
12.344718
11.788607
12.606978
11.901855
11.628866
10.256767
10.395646
10.026693
9.884834
10.444522
10.041595
10.738969
9.910464
9.604692
10.043979
11.128783
11.208653
11.481643
11.948943
13.226867
13.485551
13.856888
14.854670
14.286637
14.047623
15.218854
16.164780
15.329719
14.676452
15.959740
15.696883
15.767813
15.458465
15.529990
15.108585
15.867949
15.559793
15.024543
15.253425
14.786720
14.967918
14.815927
15.813708
15.140772
##ZVALUE=255
1.066923
1.064539
1.098514
1.328588
1.221895
1.116991
1.525879
1.674891
1.456738
3.340840
15.398860
38.281679
80.072880
173.440576
267.279744
421.005487
528.090000
626.640916
666.590929
619.757771
551.272631
436.073542
280.322433
180.512667
110.440850
88.451505
92.031956
105.799437
132.454634
148.051977
156.929493
152.779818
144.269466
118.598938
98.157525
71.979761
54.977536
39.488673
31.292439
25.370717
23.955703
24.214983
23.215413
21.859407
20.698905
19.981861
19.880533
18.212795
17.673969
16.749501
15.836954
14.508963
12.986660
13.345480
12.492537
11.925697
10.354519
10.854602
10.928512
10.508895
9.782910
10.035634
9.926558
9.569526
9.218454
9.953976
10.102987
10.264516
10.691881
10.583997
11.413693
11.373758
12.625456
12.054443
13.376474
13.478994
13.207793
13.356805
13.019443
14.241934
13.415813
13.264418
13.612509
13.577938
14.282465
14.221668
14.511943
14.060736
13.950467
14.682412
13.887882
14.966726
13.677478
14.900565
14.284849
14.536977
##ZVALUE=260
0.940561
1.018643
0.899434
0.968575
1.097918
1.012683
1.239777
1.136661
1.507998
1.148582
1.306534
1.950860
5.954504
24.762750
56.397915
135.748982
224.702954
366.809964
493.552685
653.417706
714.333653
720.523000
638.473630
535.059571
350.384712
247.902870
151.125789
102.839470
82.125664
92.963576
112.363696
141.338706
161.365867
171.240568
169.532895
153.137445
134.385824
102.831721
81.731677
57.360530
44.631958
34.272671
28.551817
25.419593
24.657845
22.468567
21.197796
20.804405
19.817948
18.078685
16.802549
15.871525
14.746785
13.885498
13.823509
12.582541
11.646748
11.184812
11.546612
10.273457
9.814501
9.978414
9.559989
9.867549
8.760691
8.942485
9.397864
9.475946
9.369850
9.236932
9.756684
11.087656
11.099577
11.127591
11.723638
10.789633
11.905432
12.350678
12.362599
11.769533
12.388825
12.509823
12.233853
12.540817
12.940764
12.718439
13.011694
12.763739
13.052821
13.006926
13.132691
12.806654
13.291836
13.244748
13.239980
13.142824
##ZVALUE=265
0.652671
0.912547
0.716448
0.974536
0.982881
0.980496
1.082420
1.033545
1.253486
1.066923
1.164675
1.534820
1.325607
1.464486
2.918839
15.102625
39.648414
99.723935
178.889632
338.906646
477.399826
615.836978
749.042034
777.501464
712.446570
620.656610
467.272997
334.916711
195.974708
130.143762
96.296668
85.583925
100.577474
131.100416
154.427886
175.053477
179.629922
171.036720
158.559680
130.083561
107.664466
77.971816
59.591532
42.274594
33.871531
27.061701
23.427606
21.932721
21.130443
18.590689
18.619895
16.198754
15.084743
15.422702
14.192462
13.182759
12.804866
11.788607
10.885596
10.873675
10.706782
10.156631
9.854436
9.523630
8.767843
9.018779
8.711815
9.298921
9.520650
9.581447
10.163784
9.802580
10.661483
10.793805
11.054873
11.739731
11.403561
11.729598
12.245774
11.552572
11.374950
11.093616
11.833906
11.693835
11.592507
12.000799
11.943579
11.960864
12.046695
12.423992
11.917949
12.428761
12.600422
12.656450
12.399554
12.373924
##ZVALUE=270
0.926852
0.723600
0.749826
0.735521
0.763535
0.765920
0.827909
0.871420
0.998974
1.057982
1.017451
1.095533
1.189709
1.110435
1.412630
1.394749
1.766682
7.521510
21.787882
71.054697
140.928626
247.354507
437.806845
588.638783
756.628513
815.341473
805.358887
737.269521
584.807992
441.085696
314.611793
176.341534
116.142631
82.834959
84.703565
107.778907
131.368637
157.094598
169.573426
175.852776
171.307921
151.088834
132.898688
99.554658
75.594783
51.621795
38.819909
27.622581
22.209883
19.689798
17.957687
16.245842
14.909506
14.129877
13.961792
12.746453
12.658834
11.529922
11.801720
10.965466
10.535717
10.267496
10.105968
9.746552
9.790659
9.790659
9.554625
9.493828
9.801984
10.202527
10.231733
10.456443
10.679960
10.926723
11.005998
11.423826
10.666847
11.258721
11.132956
10.764599
11.443496
10.930896
11.252761
11.520982
11.093616
11.771917
11.470914
11.658669
10.722876
10.691881
11.635423
11.381507
11.133552
11.350513
11.533499
11.107922
##ZVALUE=275
0.830889
0.766516
0.782609
0.589490
0.738502
0.678897
0.764728
0.689626
0.864863
0.922680
0.842810
0.868440
0.874996
0.879765
0.834465
1.063943
1.456738
1.304746
1.286864
3.432631
12.515783
37.302971
108.629465
203.655958
384.745002
529.246926
694.664717
798.772573
849.139690
812.407732
718.662739
543.175936
392.295718
221.599936
138.792992
77.211857
64.474940
75.512528
94.309449
122.540593
141.200423
161.327720
164.781809
157.897472
144.542456
114.142895
95.565915
66.314936
49.644709
31.470656
22.909641
17.052889
14.731884
12.789965
12.579560
11.902452
11.575818
11.162758
11.187792
10.412931
10.817647
10.253787
10.123849
10.260940
10.485649
10.635853
10.428429
10.690689
10.557771
10.105968
10.100603
10.261536
10.768771
11.083484
11.157990
11.308789
11.063814
10.711551
10.863543
10.993481
11.398792
10.529757
11.088848
10.415912
10.693669
10.622740
11.245608
10.225773
10.901690
11.009574
10.776520
10.955930
11.153817
10.916591
10.932684
10.972619
##ZVALUE=280
0.627637
0.804663
0.708699
0.638962
0.732541
0.947714
0.716448
0.606775
0.743866
0.824928
0.806451
0.705719
0.845790
0.890493
0.831485
1.121759
1.026988
1.167655
1.414418
1.449585
1.499653
1.593828
7.989407
26.501417
84.729791
155.893564
301.160812
444.733500
640.866756
763.341784
856.231451
851.751566
744.926929
610.217452
418.705940
279.805660
144.613981
84.871650
47.555566
46.451688
63.327551
83.405972
110.153556
130.026937
150.630474
152.738690
148.399472
135.044456
108.709931
86.401701
58.909655
41.546822
27.565956
19.079447
13.297796
10.948777
10.312796
9.787679
10.708570
9.898543
10.404587
10.699630
10.376573
10.660887
11.013746
11.008978
10.040998
11.336803
11.156797
11.699796
11.403561
11.415482
11.085868
11.900663
12.026429
11.713505
11.641979
11.726618
11.600852
11.558533
11.322498
11.076927
10.922551
11.639595
11.444688
10.726452
11.083484
11.081696
10.921955
11.035800
10.534525
10.190606
10.021925
10.056496
10.375977
10.129809
##ZVALUE=285
0.490546
0.522733
0.466704
0.566840
0.719428
0.522733
0.653863
0.771880
0.767708
0.738502
0.703931
0.563860
0.742674
0.757575
0.867844
0.777841
0.979900
0.924468
0.981688
1.059771
1.212955
1.128912
1.176596
1.459718
4.076958
14.120936
48.120618
99.751949
220.457911
343.897939
471.158624
682.963729
802.225471
870.269537
827.521682
684.971809
537.676811
337.593555
214.797854
103.405714
56.455731
32.424927
34.751892
54.639578
72.311759
102.403760
119.903684
140.461922
144.034624
140.148997
128.095746
107.841492
86.305737
59.804916
43.352842
26.381612
17.776489
13.273954
11.429787
10.878444
10.699630
10.779500
11.148453
11.361837
11.585951
11.367798
12.246966
11.996627
12.162924
12.353659
11.987686
12.391806
13.200641
12.803674
12.394786
12.591481
12.713671
12.331605
12.214780
11.960864
11.777878
11.792779
11.769533
11.982918
11.437535
11.462569
11.340976
10.935664
11.419654
10.702610
10.519624
10.734797
10.664463
9.851456
10.442734
9.719729
##ZVALUE=290
0.539422
0.536442
0.547767
0.499487
0.643730
0.543594
0.330806
0.605583
0.722408
0.616908
0.627637
0.516772
0.541806
0.569820
0.782609
0.672936
0.807643
0.847578
0.745654
0.943542
0.830889
0.957847
0.912547
1.176596
1.377463
1.394749
1.826882
5.788803
26.689768
61.679482
120.783448
259.036422
403.946638
619.898438
753.175616
858.902931
856.791735
748.084784
617.383718
419.173837
279.081464
140.788555
76.375604
33.242702
24.900436
33.780932
46.654940
70.399642
89.984536
116.213560
130.085945
140.100718
138.296485
123.899579
107.723475
79.142451
60.401559
41.142702
28.886795
19.157529
14.858842
12.654662
11.713505
11.768937
11.585951
12.160540
12.001991
12.633801
12.796521
12.748837
13.262630
13.101697
13.595819
13.170838
13.232827
12.827516
12.624860
12.485981
12.422800
12.929440
12.555718
12.086630
12.451410
11.808872
11.442900
11.958480
11.756420
11.597872
11.286736
11.049509
10.372996
10.485649
10.318756
10.076761
10.192990
10.443926
##ZVALUE=295
0.595450
0.478625
0.697970
0.610948
0.502467
0.380874
0.546575
0.627637
0.622869
0.677705
0.591874
0.588894
0.635982
0.600815
0.622869
0.616908
0.750422
0.619888
0.689626
0.675917
0.856519
0.955462
1.132488
1.133680
0.899434
1.285672
1.164675
1.381636
1.638532
2.755523
8.692741
38.164854
87.528825
206.995606
337.736607
543.805957
686.975718
823.920965
862.243772
799.137950
685.268641
494.252443
344.078541
184.789896
101.831555
40.864944
23.596883
20.243526
28.392673
46.170950
62.756538
89.699626
107.269883
126.601458
134.757757
131.710768
120.251775
100.334883
82.181692
57.977438
43.744445
28.271675
20.787716
15.554428
13.798475
12.484789
12.471676
12.597442
12.884736
12.983680
13.043880
13.428926
13.496876
13.460517
13.476610
13.056993
13.150573
12.802482
12.846589
12.631416
12.801886
12.460947
11.705756
12.276769
11.460781
11.794567
12.221932
11.214614
11.238456
10.838509
11.039972
10.580420
10.525584
10.263920
9.887815
9.929538
##ZVALUE=300
0.426769
0.501871
0.512600
0.605583
0.397563
0.451803
0.511408
0.455976
0.501871
0.544786
0.711679
0.620484
0.492930
0.671744
0.636578
0.582933
0.573993
0.506639
0.534654
0.796914
0.779629
0.788569
0.756979
0.979900
1.053810
0.940561
0.918508
0.927448
0.940561
1.221895
1.375675
1.619458
5.314946
18.348694
65.811872
130.805969
270.643830
419.816971
623.740554
749.875903
850.437880
838.230848
731.107593
600.607395
404.388905
264.596939
134.249926
73.823929
28.550625
16.969442
18.818974
26.170611
41.841865
57.618618
81.601739
100.215673
119.922757
127.694607
127.285719
119.040608
99.914670
82.113743
58.300495
44.356585
29.291511
21.853447
15.832782
14.211535
12.373924
12.345910
12.172461
12.218952
12.374520
12.617707
12.347698
12.299418
12.352467
12.804866
12.421608
12.129545
12.206435
11.977553
12.004972
11.912584
11.484623
11.678934
11.236668
11.271834
10.651946
10.553598
10.692477
10.304451
9.687543
9.956956
9.708405
9.675622
##ZVALUE=305
0.373721
0.486970
0.365973
0.611544
0.499487
0.416636
0.391603
0.597835
0.536442
0.526905
0.433922
0.606775
0.705719
0.675917
0.681877
0.497699
0.553727
0.604987
0.575781
0.593662
0.612736
0.582933
0.615716
0.811815
0.848770
0.687838
0.821948
0.805855
0.937581
1.051426
1.103878
1.199841
1.437664
1.288652
2.895594
10.271668
43.259859
96.169710
215.882659
338.989496
532.627702
671.789646
802.701712
840.120912
774.073601
658.137798
473.060608
335.993767
183.523893
101.729631
40.474534
20.118952
13.096929
15.965700
25.889874
37.487745
59.823990
75.376630
99.099874
110.761523
120.756626
121.112466
110.410452
97.055435
75.686574
59.138536
40.234923
28.727651
18.765926
14.482737
11.999607
11.616945
11.428595
11.279583
11.733770
11.127591
11.460781
11.368990
11.476874
11.180639
11.270642
11.162758
11.301637
11.289716
10.854602
10.614991
10.832548
10.329485
10.354519
10.563731
9.931922
10.105968
10.227561
9.740591
9.537935
9.755492
##ZVALUE=310
0.510812
0.376701
0.481606
0.227690
0.432730
0.388622
0.406504
0.497699
0.556707
0.439882
0.566840
0.347495
0.516772
0.559688
0.513792
0.542998
0.485778
0.554919
0.622869
0.511408
0.591874
0.646710
0.663996
0.710487
0.640750
0.842810
0.747442
0.774860
0.785589
0.711679
0.954866
1.209974
1.061559
1.071692
1.309514
1.166463
3.626943
4.865527
43.434501
60.237646
204.278827
259.353518
397.541523
728.709698
738.734603
827.819705
823.239684
724.588037
596.022606
397.855639
265.711546
92.228651
64.692497
32.679439
10.931492
11.558533
19.395947
22.340417
34.632683
48.167706
80.642700
87.936521
112.783909
112.331510
106.832981
105.714798
90.781450
74.812770
44.652820
39.838552
24.412870
18.914938
15.106797
11.973977
11.010766
10.638833
10.210872
10.401607
10.343790
10.272861
10.207891
10.642409
10.349751
10.653734
10.312796
10.183454
10.488629
10.134578
10.451674
10.176897
9.991527
9.674430
9.605885
9.430647
9.596944
9.243488
##ZVALUE=315
0.301600
0.438690
0.376701
0.486970
0.507832
0.529885
0.566840
0.351667
0.399947
0.637770
0.649691
0.595450
0.304580
0.361800
0.473857
0.498891
0.453591
0.590682
0.616908
0.568628
0.533462
0.685453
0.643730
0.611544
0.671744
0.676513
0.755787
0.662804
0.537634
0.771880
0.657439
0.928640
0.864863
0.944734
1.017451
1.118779
1.030564
1.249909
1.374483
4.924536
18.328428
42.189956
91.394782
200.399756
425.167680
531.187654
656.335950
786.332488
791.723728
770.264864
508.653522
492.408872
315.479636
199.651718
59.980750
37.482977
12.131929
9.778738
11.671782
13.594627
29.594898
32.410622
54.292679
64.921975
94.505548
99.379420
107.359886
108.646750
99.907517
71.968436
70.283413
53.155422
27.105808
25.781989
18.624663
13.610721
11.244416
9.707808
9.618998
9.867549
9.844899
9.766817
9.991527
9.871721
10.305643
10.033846
9.950995
9.845495
9.886622
9.594560
9.392500
9.591579
9.572506
9.151697
9.558797
9.232759
##ZVALUE=320
0.242591
0.248551
0.402927
0.526905
0.440478
0.516772
0.405908
0.489950
0.406504
0.455976
0.514984
0.415444
0.458956
0.359416
0.429749
0.380874
0.534654
0.520945
0.457764
0.434518
0.419617
0.654459
0.634789
0.546575
0.531673
0.699759
0.660419
0.711679
0.765920
0.586510
0.572801
0.773668
0.673532
0.833869
0.892878
0.757575
0.676513
0.831485
1.156926
1.165867
1.277924
1.454949
5.327463
17.519593
63.429475
129.184723
262.654424
392.065644
580.461025
709.365606
804.872513
799.611807
701.478720
575.242639
391.695499
257.237554
120.991468
64.244866
25.317669
12.569427
8.107424
9.332895
12.246966
16.953945
28.199553
39.377809
58.103800
72.961450
90.754628
98.576546
100.971460
95.400810
82.373619
68.954825
50.204992
37.566423
24.874806
18.416643
12.760758
10.908842
9.993911
9.646416
9.330511
9.678602
9.269714
9.470582
9.330511
9.222627
9.327531
9.302497
9.715557
9.039640
8.922815
9.304881
9.127855
9.085536
##ZVALUE=325
0.438690
0.341535
0.480413
0.395775
0.381470
0.317693
0.330806
0.383854
0.356436
0.337958
0.340939
0.346899
0.391603
0.368953
0.364780
0.520945
0.461936
0.358820
0.526905
0.439882
0.504851
0.595450
0.287890
0.511408
0.631809
0.605583
0.458956
0.585914
0.724792
0.609756
0.479817
0.594854
0.705719
0.725985
0.629425
0.738502
0.818968
0.858903
0.844598
0.941753
1.070499
1.098514
1.273751
1.353621
2.563596
10.748506
41.720867
87.517500
197.336674
321.144462
512.999892
642.102957
764.678717
792.594552
726.436973
617.535710
426.572561
293.922424
160.048008
88.470578
34.105778
15.821457
8.360744
7.692575
8.594990
11.036992
17.648935
25.666952
41.740537
56.656599
75.573921
85.720420
94.717741
95.332861
88.438988
78.567863
62.532425
47.996640
32.659769
24.087429
16.396642
12.939572
10.770559
10.050535
9.608865
9.519458
9.176731
9.327531
9.130836
9.221435
8.803606
8.832812
8.849502
8.904934
8.734465
8.911490
##ZVALUE=330
0.389814
0.389814
0.331998
0.279546
0.315905
0.452995
0.487566
0.388622
0.457764
0.459552
0.416636
0.406504
0.365973
0.365973
0.317693
0.393987
0.338554
0.319481
0.467896
0.359416
0.435710
0.433922
0.503659
0.471473
0.505447
0.498891
0.673532
0.493526
0.545979
0.443459
0.476837
0.567436
0.597835
0.602603
0.624657
0.608563
0.708699
0.761747
0.574589
0.851750
0.854731
0.845790
0.910759
0.880957
1.012683
1.040697
1.745820
4.364848
23.011565
58.156848
145.009756
243.832469
416.364670
554.495454
697.996616
763.079524
742.614865
659.329891
499.403477
367.730856
205.241442
119.028687
49.127936
22.602677
9.420514
7.282495
7.464886
8.404851
11.518598
17.056465
27.566552
37.916899
53.782463
67.015886
81.385970
87.738633
89.718699
85.179806
71.631670
60.878992
43.683648
33.227801
23.356676
17.990470
13.033748
11.070967
9.976625
9.405613
8.967519
8.973479
8.905530
8.585453
8.759499
8.629560
8.462667
8.525848
##ZVALUE=335
0.321865
0.412464
0.365973
0.312924
0.350475
0.355840
0.356436
0.349879
0.209808
0.386834
0.315905
0.481606
0.509620
0.281930
0.400543
0.551939
0.389814
0.354648
0.456572
0.357628
0.366569
0.515580
0.310540
0.457764
0.441670
0.441670
0.424981
0.478625
0.424981
0.583529
0.493526
0.577569
0.662804
0.586510
0.504851
0.586510
0.622869
0.678897
0.558496
0.665784
0.629425
0.809431
0.604987
0.809431
0.791550
0.940561
1.003742
1.166463
1.264811
2.772808
9.946823
40.613413
86.162686
194.296837
314.877629
499.884486
623.211861
729.025006
747.795701
676.463842
568.665862
393.390656
268.494487
141.461492
75.947642
27.235746
13.203621
7.582903
7.022619
7.567406
8.583665
11.258721
15.184879
25.440454
35.225749
51.241517
63.159466
76.377988
82.882643
84.044933
79.272985
67.487955
57.236552
43.836832
34.109950
23.586750
17.833710
13.044477
10.998845
9.564757
8.921623
8.583665
8.329749
8.228421
8.613467
8.226633
##ZVALUE=340
0.342727
0.267625
0.332594
0.523925
0.395775
0.384450
0.275970
0.245571
0.292659
0.261664
0.544786
0.463724
0.313520
0.440478
0.444651
0.459552
0.240803
0.317693
0.388622
0.324845
0.450611
0.459552
0.221729
0.450611
0.377893
0.381470
0.402927
0.443459
0.412464
0.322461
0.421405
0.565648
0.499487
0.607967
0.351667
0.543594
0.555515
0.446439
0.631809
0.669956
0.513792
0.609756
0.629425
0.612736
0.812411
0.791550
0.806451
0.810623
1.009703
1.039505
1.149774
1.574755
6.250739
20.991564
68.443418
135.153532
276.298523
401.061773
562.816858
660.810471
727.227926
700.988770
593.202710
471.333861
299.455523
188.499689
88.786483
43.900609
15.061498
8.477569
7.358789
7.093549
7.696748
8.442998
11.011958
15.276670
24.216771
33.980608
48.978925
60.594678
72.526932
77.844858
79.135895
75.187683
65.320730
56.411624
42.322874
33.009648
23.033619
17.120838
12.509823
10.718703
8.930564
8.567572
8.066893
8.125901
##ZVALUE=345
0.347495
0.303984
0.344515
0.250936
0.349879
0.442863
0.488758
0.315905
0.297427
0.350475
0.303984
0.354648
0.335574
0.407696
0.363588
0.348687
0.455976
0.312924
0.359416
0.327826
0.543594
0.349879
0.393987
0.540614
0.392795
0.461936
0.343919
0.528693
0.447631
0.473857
0.435710
0.448823
0.359416
0.369549
0.642538
0.535846
0.388622
0.603795
0.590682
0.404716
0.599623
0.549555
0.540614
0.575781
0.592470
0.641942
0.539422
0.827909
0.978708
0.842810
0.787973
0.944734
0.986457
1.142621
2.236962
13.463497
38.301945
99.536777
180.122852
330.561996
455.638766
606.879592
681.692958
698.243976
644.318461
496.207476
371.849537
222.020745
127.518773
51.349998
24.824739
10.479689
7.508993
7.077456
7.110834
7.401705
8.124709
10.386705
14.264584
22.358894
31.600595
45.173764
54.663420
64.803958
70.943832
72.988868
70.498586
61.847568
53.956509
41.944981
32.351613
22.092462
16.777515
12.119412
10.036826
8.904934
##ZVALUE=350
0.333786
0.233650
0.299811
0.368953
0.284910
0.089407
0.214577
0.199676
0.465512
0.485778
0.332594
0.295639
0.391603
0.318885
0.441670
0.455976
0.502467
0.420809
0.351667
0.388622
0.385642
0.253916
0.513792
0.367761
0.391603
0.372529
0.220537
0.404716
0.454783
0.488758
0.579953
0.443459
0.341535
0.514984
0.495911
0.354648
0.424981
0.511408
0.508428
0.486970
0.476837
0.420809
0.692606
0.438690
0.455976
0.573993
0.642538
0.701547
0.573993
0.595450
0.726581
0.783801
0.707507
0.958443
0.949502
1.178980
1.481771
6.989837
21.693707
67.574978
129.345655
260.170698
379.968882
532.429814
630.577803
684.338808
656.191707
547.356606
423.442721
254.269838
155.535936
68.678856
32.188892
11.430979
7.687807
6.593466
6.547570
6.389618
6.726980
7.889867
9.676814
14.473796
19.406676
28.444529
36.935806
49.472451
57.941675
64.804554
67.220926
65.347552
59.605837
48.902631
40.387511
29.558539
22.729635
16.145706
##ZVALUE=355
0.199676
0.308752
0.376701
0.317693
0.373721
0.381470
0.367761
0.283718
0.350475
0.484586
0.286698
0.249743
0.167489
0.289679
0.222921
0.458956
0.264645
0.485778
0.290871
0.416636
0.387430
0.393987
0.323653
0.534654
0.402927
0.334978
0.520945
0.463724
0.373721
0.507832
0.628829
0.395775
0.501871
0.530481
0.381470
0.242591
0.300407
0.401735
0.375509
0.395775
0.503659
0.581741
0.578761
0.517964
0.513792
0.547767
0.615716
0.581741
0.575781
0.540614
0.638962
0.544786
0.696778
0.561476
0.828505
0.859499
1.005530
0.986457
1.008511
3.430843
11.204481
44.049621
91.331601
191.497803
304.473639
469.725728
575.983524
655.798912
654.776692
562.373996
456.520915
306.607485
195.895433
88.704824
43.981671
15.383959
8.206964
6.496906
6.344914
5.971789
6.185770
6.445646
7.082820
8.775592
11.681914
17.251968
23.645759
34.352541
41.926503
51.438808
57.810545
60.787797
59.708953
53.923726
47.326684
37.567616
##ZVALUE=360
0.350475
0.300407
0.463724
0.240803
0.318885
0.384450
0.415444
0.451803
0.309944
0.268817
0.340939
0.432730
0.409484
0.438690
0.514984
0.205636
0.294447
0.497699
0.316501
0.422597
0.508428
0.472665
0.532866
0.309944
0.490546
0.370741
0.491738
0.270605
0.485778
0.478625
0.381470
0.383854
0.361800
0.166893
0.432730
0.502467
0.384450
0.316501
0.412464
0.473857
0.405908
0.385642
0.517964
0.661612
0.633597
0.633597
0.642538
0.564456
0.615716
0.488758
0.720620
0.605583
0.638962
0.722408
0.780821
0.733733
0.753999
0.885725
0.914931
0.962615
1.092553
1.815557
4.994869
22.431612
55.112839
137.763619
229.874849
376.212001
498.406887
615.967512
646.816492
600.821972
511.264801
353.776813
237.394571
117.943883
62.080622
24.202466
11.311769
6.320477
5.923510
5.795956
5.954504
5.923510
5.751848
6.153584
7.190704
10.083914
13.613701
20.078421
26.712418
37.178993
44.285655
51.583648
54.752827
55.065751
##ZVALUE=365
0.303984
0.361800
0.218749
0.314713
0.281930
0.331998
0.280738
0.319481
0.286698
0.389814
0.487566
0.206828
0.214577
0.345707
0.298619
0.188947
0.368953
0.287890
0.280738
0.351667
0.369549
0.420809
0.485778
0.383854
0.322461
0.300407
0.337958
0.413656
0.346899
0.346899
0.424981
0.381470
0.469685
0.397563
0.484586
0.436902
0.434518
0.386834
0.325441
0.528693
0.492930
0.566840
0.584722
0.419617
0.415444
0.531673
0.457764
0.433922
0.441670
0.634789
0.635982
0.494719
0.765920
0.524521
0.627637
0.755787
0.723600
0.545979
0.776649
0.796914
0.757575
0.988841
0.963807
1.182556
2.326965
12.308955
33.854842
89.166760
166.077614
309.853554
424.281955
553.053617
613.487959
608.008504
539.304614
396.368504
283.845663
159.775615
88.433623
33.103824
14.642477
6.653666
5.826950
5.491972
5.525947
5.284548
5.193949
5.431771
5.551577
6.667972
8.116961
11.671782
16.349554
24.045706
30.484796
38.981438
##ZVALUE=370
0.420809
0.289679
0.332594
0.392795
0.210404
0.338554
0.362992
0.389814
0.163913
0.295639
0.176430
0.326633
0.308752
0.380874
0.374913
0.290871
0.343919
0.297427
0.230670
0.315905
0.199676
0.410676
0.289679
0.409484
0.265837
0.380874
0.504851
0.480413
0.298619
0.259876
0.338554
0.231862
0.268817
0.398755
0.413656
0.456572
0.439882
0.237823
0.435710
0.399947
0.474453
0.382662
0.328422
0.382662
0.450611
0.518560
0.379682
0.535846
0.293851
0.588894
0.556707
0.577569
0.435710
0.547767
0.581741
0.464916
0.589490
0.613928
0.730753
0.636578
0.636578
0.824928
0.805855
0.917912
1.014471
1.176596
1.418591
6.499887
21.441579
66.451430
126.634836
245.255828
357.616544
507.081747
581.182837
605.135560
558.689833
443.215966
332.743526
190.799832
110.846758
45.689940
21.171570
8.299947
5.700588
5.098581
5.094409
5.015731
4.800558
4.791617
4.780889
5.268455
5.774498
7.312894
9.767413
14.339685
##ZVALUE=375
0.248551
0.327826
0.286698
0.167489
0.252724
0.502467
0.300407
0.326633
0.291467
0.390410
0.397563
0.369549
0.446439
0.334978
0.232458
0.312924
0.244975
0.193715
0.244975
0.268817
0.246763
0.260472
0.316501
0.299811
0.264645
0.415444
0.222921
0.186563
0.352859
0.309944
0.394583
0.294447
0.370741
0.276566
0.396967
0.510812
0.403523
0.344515
0.328422
0.429749
0.425577
0.323653
0.494719
0.497699
0.365973
0.513792
0.443459
0.468493
0.381470
0.358820
0.417829
0.230670
0.526905
0.580549
0.418425
0.588894
0.610948
0.470877
0.528693
0.624657
0.605583
0.548959
0.686646
0.649691
0.731945
0.877976
0.887513
0.877976
1.111627
3.170967
10.893941
39.474964
86.075664
190.833807
298.663974
448.405743
539.508462
597.454906
586.880445
488.047004
381.754637
234.187841
149.800777
76.159835
39.383769
14.033914
6.774664
4.761815
4.564524
4.416704
4.497766
4.431605
4.388690
4.536510
4.561543
5.065799
##ZVALUE=380
0.186563
0.145435
0.297427
0.213981
0.172853
0.227690
0.260472
0.283718
0.290871
0.357628
0.354648
0.331998
0.316501
0.460744
0.287890
0.209808
0.239611
0.343919
0.275970
0.292659
0.295639
0.339746
0.354648
0.266433
0.260472
0.280738
0.329614
0.232458
0.452995
0.348687
0.318885
0.416636
0.492930
0.334978
0.204444
0.284910
0.431538
0.366569
0.297427
0.354648
0.259876
0.483990
0.263453
0.465512
0.474453
0.421405
0.327826
0.302792
0.439882
0.470877
0.400543
0.344515
0.363588
0.356436
0.452995
0.483990
0.337958
0.468493
0.482798
0.478625
0.355840
0.656843
0.602603
0.519753
0.608563
0.695586
0.626445
0.495911
0.800490
0.953674
1.111627
1.701713
5.793571
27.910471
65.431595
153.187513
248.910785
389.506817
497.174859
588.183999
596.767664
520.831943
431.185961
304.046869
206.299424
103.455782
54.148436
19.807816
8.887649
4.920959
4.333854
4.226565
4.189610
4.073977
4.056692
4.111528
##ZVALUE=385
0.138879
0.209808
0.227690
0.115633
0.269413
0.164509
0.197887
0.076890
0.134706
0.239611
-0.024438
0.209808
0.181794
0.037551
0.210404
0.086427
0.203848
0.154972
0.210404
0.154972
0.256896
0.278950
0.307560
-0.002980
0.161529
0.333786
0.133514
0.338554
0.015497
0.175834
0.247955
0.207424
0.212789
0.232458
0.311732
0.227690
0.305772
0.185966
0.175834
0.251532
0.271797
0.448823
0.423789
0.318885
0.336766
0.163913
0.271797
0.260472
0.062585
0.424981
0.142455
0.085831
0.237823
0.298619
0.228882
0.332594
0.330806
0.393987
0.345707
0.296831
0.231862
0.268817
0.481606
0.549555
0.369549
0.672936
0.474453
0.623465
0.567436
0.657439
0.668764
0.913739
0.887513
1.014471
2.613664
15.612841
40.168762
102.948546
184.388757
330.749750
444.312692
559.206009
593.441725
567.622781
502.921939
369.684696
263.760686
144.098997
81.607699
34.928918
14.795661
5.229712
4.048944
3.818870
3.601909
3.577471
##ZVALUE=390
0.184774
0.318885
0.204444
0.210404
0.133514
0.301600
0.138879
0.274777
0.217557
0.200868
0.260472
0.232458
0.185966
0.330806
0.095963
0.136495
0.365973
0.373721
0.373721
0.209808
0.118613
0.230670
0.318885
0.377893
0.385642
0.236630
0.215769
0.368953
0.278950
0.372529
0.353456
0.330806
0.364780
0.341535
0.398755
0.201464
0.253916
0.340939
0.445843
0.526905
0.438690
0.304580
0.219941
0.382662
0.339746
0.282526
0.340939
0.406504
0.355840
0.314713
0.420809
0.365973
0.393987
0.460744
0.460744
0.349879
0.351667
0.432730
0.461936
0.415444
0.404716
0.383854
0.436902
0.621676
0.334978
0.492930
0.547767
0.555515
0.527501
0.763535
0.722408
0.737906
0.792742
0.834465
0.871420
1.040697
1.638532
8.123517
24.912953
77.678561
146.135688
276.173949
378.345847
496.397018
561.658740
585.155487
542.144775
429.300666
327.415466
200.108886
117.773414
49.142838
23.625493
8.438826
4.777908
3.915429
##ZVALUE=395
0.126958
0.222921
0.254512
0.311732
0.192523
0.135899
0.129938
0.188947
0.316501
0.129938
0.077486
0.070930
0.072718
0.300407
0.210404
0.222921
0.144839
0.176430
0.276566
0.327826
0.278950
0.336766
0.128746
0.277758
0.341535
0.168681
0.348687
0.218749
0.126958
0.226498
0.284910
0.312924
0.481606
0.367761
0.365973
0.343919
0.247955
0.176430
0.279546
0.298619
0.209808
0.393987
0.309944
0.392795
0.349879
0.282526
0.372529
0.310540
0.295639
0.445843
0.336766
0.385642
0.375509
0.237823
0.372529
0.345707
0.416636
0.305772
0.299811
0.387430
0.419617
0.462532
0.329614
0.451803
0.423789
0.545979
0.518560
0.659823
0.628829
0.554919
0.803471
0.641942
0.650883
0.686646
0.566840
0.814795
0.872612
0.747442
1.024604
4.333854
16.412735
56.604743
106.408000
205.060840
305.681825
447.793603
537.187457
595.280528
583.001971
494.525433
390.202999
245.546699
152.405500
67.632794
32.499433
11.657476
##ZVALUE=400
0.258684
0.387430
0.332594
0.193715
0.259876
0.325441
0.315905
0.199676
0.293851
0.319481
0.402927
0.148416
0.227690
0.342727
0.217557
0.155568
0.240803
0.250936
0.345707
0.374913
0.201464
0.302792
0.139475
0.350475
0.265837
0.331998
0.252724
0.248551
0.182986
0.336766
0.325441
0.300407
0.273585
0.365973
0.423789
0.419617
0.278950
0.253916
0.340939
0.387430
0.340939
0.440478
0.497699
0.289679
0.497699
0.403523
0.413656
0.343919
0.437498
0.359416
0.374913
0.264645
0.338554
0.419617
0.498891
0.310540
0.374913
0.314713
0.375509
0.329614
0.294447
0.341535
0.401735
0.492930
0.467896
0.499487
0.304580
0.625849
0.562668
0.509620
0.626445
0.513792
0.714660
0.588894
0.727773
0.629425
0.695586
0.724792
0.764728
0.853539
1.030564
2.427697
8.485913
31.389594
68.244934
152.943730
247.119665
389.758945
487.473011
571.597815
584.691763
519.273877
427.946448
283.247828
186.947584
94.450712
##END
