##TITLE=FQP00351
##FORMAT=SPECTACLE-ASCII V-1.2
##DATA TYPE=ULTRAVIOLET SPECTRUM
##SECOND TYPE=ULTRAVIOLET SPECTRUM
##DATE=01/30/18
##TIME=16:24:30
##SPECTROMETER/DATA SYSTEM=SPECTACLE
##XUNITS=NM EM
##YUNITS=ENERGY
##YFACTOR=1
##FIRSTX=220
##LASTX=410
##NPOINTS=96
##3DDATA=Equidistant
##ZUNITS=NM EX
##FIRSTZ=210
##LASTZ=400
##ZPOINTS=39
##XYDATA=(Y..Y)
##ZVALUE=210
2.353787
2.211928
1.924634
1.788735
1.767874
1.975894
2.901554
2.135634
2.518892
2.506971
2.296567
2.553463
2.093911
2.897978
2.395511
2.461672
2.684593
2.573729
3.181696
3.475547
3.313422
3.351569
3.190637
3.965497
3.510714
3.481507
3.661513
4.349947
4.184842
4.977584
4.965663
5.291700
4.899502
5.454421
4.819632
4.858971
5.361438
5.525947
5.365610
5.368590
5.652905
4.777908
5.591512
5.145669
6.000996
5.278587
5.801916
5.372763
5.350709
5.512834
5.668998
5.216599
5.954504
5.159974
4.995465
5.333424
5.297661
5.483627
5.405545
5.126595
5.936623
5.047917
5.534887
5.250573
5.441904
5.684495
6.202459
6.439686
7.580519
8.363724
9.447932
11.169910
11.584759
15.106797
15.275478
18.068552
18.128753
17.533898
16.725659
15.464425
14.849901
11.855960
10.983944
10.248423
7.949471
7.129908
5.688667
5.507469
5.067587
5.238652
4.992485
5.191565
5.314946
6.271601
5.520582
5.558729
##ZVALUE=215
6.073713
6.636977
4.769564
4.666448
4.786849
3.770590
3.975630
4.049540
4.233718
5.424619
4.739761
4.102588
2.973676
3.138781
2.719760
2.528429
2.978444
2.832413
3.444552
3.149509
3.388524
3.618598
2.892613
3.721714
4.040599
4.573464
4.058480
4.461408
5.246997
5.244613
6.459951
5.910993
6.588697
7.124543
7.005930
7.505417
6.985664
7.422566
6.811619
6.866455
6.659627
6.639957
6.075501
6.174445
5.296469
6.312728
6.594658
5.308986
5.248785
5.116463
5.982518
6.315708
5.699992
6.530881
5.790591
5.977750
5.718470
6.389618
5.029440
6.100535
5.219579
5.999804
5.681515
5.650520
6.205440
6.030798
5.242825
6.105900
7.243752
7.675886
9.216666
10.056496
12.361407
13.425946
15.556812
16.704798
17.155409
16.417503
16.008615
15.115738
14.133453
11.922717
11.054873
8.507967
7.965565
5.751848
6.359816
5.674958
4.928708
5.423427
4.822612
4.487634
5.674958
4.954934
5.153418
4.947782
##ZVALUE=220
20.809770
19.381642
21.964908
22.699833
19.728541
16.997457
14.411807
11.784434
9.888411
10.667443
9.746552
10.885596
12.264848
10.066628
9.373426
6.672740
5.348921
4.178882
3.299713
3.402829
3.811717
3.706813
4.223585
4.278421
4.557967
5.040765
5.159974
6.426573
7.251501
8.422732
8.924603
9.248853
8.980632
10.105968
11.195540
10.426641
10.598898
10.150671
9.411573
10.614991
9.264946
9.724498
9.365678
7.628798
7.754564
7.745624
7.799864
8.092523
8.051991
7.807612
6.909966
7.084608
8.105636
7.844567
7.704496
6.798506
7.141829
6.560683
6.924868
6.833673
7.725954
7.358789
6.607771
7.098913
7.226467
6.917715
7.821918
8.371472
8.316636
9.553432
9.595752
11.775494
13.293624
15.370846
15.456676
15.395880
16.679764
17.117858
17.654896
16.790628
15.653968
14.110804
12.732744
10.516644
8.634925
9.068847
7.646680
6.898642
7.175803
6.146431
6.923676
6.016493
6.355643
7.063746
5.470514
6.074905
##ZVALUE=225
35.207868
34.782887
49.692988
57.752728
59.898496
67.146420
61.134696
55.429935
41.349530
32.112598
25.979877
20.504594
23.025870
23.933649
23.354888
23.611784
19.699931
15.598536
12.544990
9.037852
6.517768
4.910827
4.408956
5.590916
5.656481
5.230904
6.958842
7.453561
8.186698
10.304451
10.092854
10.479689
12.352467
13.121963
14.080405
13.576746
12.889504
13.072491
12.292862
13.362765
12.094975
10.979772
11.377931
10.232925
10.233521
10.515451
8.839965
10.843873
9.245872
8.882880
8.611679
8.429885
8.462667
8.941889
8.792877
8.257627
8.569956
8.540750
8.520484
9.220839
8.993745
9.331703
7.948875
8.348823
7.969737
9.218454
9.148717
10.974407
10.509491
9.481907
12.134910
13.669729
13.756752
14.681816
16.828775
18.675923
18.458962
18.354654
18.554926
18.120408
19.570589
16.461611
16.982555
14.247894
13.806820
11.660457
11.323690
10.062456
7.909536
8.450747
9.065866
7.570982
7.319450
7.646680
7.194877
8.743405
##ZVALUE=230
33.933520
38.974881
63.651800
104.996562
132.630467
165.233612
177.883506
183.168650
168.288946
134.870410
95.310807
68.051815
51.084757
45.566559
45.679808
47.574639
47.704577
47.827959
41.677952
34.889579
26.393533
18.020868
12.762547
8.162856
6.935596
6.631613
6.870627
8.371472
8.975863
9.987950
11.487603
12.698770
12.900829
12.728572
12.864470
13.639927
13.910532
13.031960
13.480783
12.566447
12.451410
12.029409
12.405515
12.011528
11.157990
10.266900
11.040568
9.743571
9.846687
11.197925
10.262728
9.926558
10.892749
10.988712
10.134578
9.346604
10.841489
9.966493
10.107756
10.172725
9.927750
9.412766
9.634495
10.465980
10.316968
10.541677
11.811852
10.770559
11.583567
13.041496
14.501810
16.406775
17.356873
19.719601
19.431710
19.610524
19.426942
18.901825
19.194484
19.033551
18.544793
18.804669
16.714931
14.221668
14.671683
13.784766
12.358427
10.180473
9.785891
11.513829
10.120869
9.222627
9.819865
8.442998
9.779930
10.254979
##ZVALUE=235
10.909438
10.692477
28.400421
52.912831
102.443695
157.828927
228.360891
284.130573
338.777900
349.312425
316.290855
264.838934
201.310515
135.557652
98.625422
75.648427
68.495870
72.670579
81.177950
83.339810
76.775551
68.900585
54.014921
38.197637
24.298429
17.100573
11.743903
9.606481
9.196997
9.611845
10.454655
10.832548
11.552572
11.539459
13.387799
12.377501
12.049675
11.852980
12.694597
11.691451
12.357831
11.957884
11.708736
11.165738
12.065768
10.806918
10.283589
10.834932
10.437965
10.588765
10.080934
11.504889
9.978414
11.335611
11.599660
11.766553
10.621548
10.971427
11.938810
11.052489
10.297894
11.003613
11.187792
11.515617
12.247562
13.122559
11.042953
13.421774
14.001727
14.850497
14.446974
16.358495
16.632676
17.886758
18.005967
19.234419
18.691421
20.126700
18.547773
17.426610
16.766787
15.495420
15.393496
15.533566
14.467835
14.056563
14.151931
13.949871
13.355613
13.431907
12.808442
12.665987
12.697577
11.192560
12.834668
13.133883
##ZVALUE=240
1.653433
2.087951
5.846620
14.425516
40.263534
70.730448
147.875547
219.919682
334.433913
413.181782
479.065776
482.540727
447.346568
363.020897
287.681818
177.423954
131.567717
97.281933
94.358921
98.286867
107.259750
115.565658
113.759637
100.500584
84.031820
66.354871
46.136975
34.796000
21.270514
15.988946
12.595654
12.086630
10.407567
10.433793
11.586547
11.217594
12.269616
11.124611
11.050701
11.489987
10.253787
9.984970
10.496974
10.505915
9.811521
10.421872
10.805726
9.962916
10.705590
9.493828
8.993745
9.643435
8.231997
9.788871
9.249449
10.605454
9.676814
9.023547
10.581613
11.210442
11.531711
11.220574
10.447502
10.722876
11.367798
11.005998
13.291836
14.053583
13.632774
14.859438
14.629960
17.543435
17.406940
17.464757
18.847585
20.860434
19.351840
19.799471
18.751621
18.991828
19.053817
17.530918
17.145872
17.407537
16.807914
17.031431
16.630888
14.772415
15.731454
16.315579
16.655922
16.128421
14.924407
14.762878
14.385581
15.754700
##ZVALUE=245
1.583695
1.715422
1.683831
1.906753
2.973676
11.091828
29.701591
76.247454
141.761899
255.275965
357.520580
494.725704
579.019785
634.273887
610.022545
511.888862
424.093604
282.782912
200.308561
120.573640
99.772811
99.041462
110.098720
125.935674
129.200816
126.140714
118.393898
97.361803
75.693727
56.799650
36.599636
28.627515
18.760562
14.276505
12.281537
12.757778
11.378527
12.082458
11.568666
11.442900
12.325644
12.009740
11.646748
12.330413
11.054873
10.746717
10.068417
10.040998
10.266900
10.270476
9.826422
10.179877
9.612441
9.378791
9.629726
10.096431
9.602904
9.038448
9.532571
8.834600
9.057522
9.731650
10.240674
9.582639
11.097789
11.399984
10.899901
12.160540
11.715889
12.152791
15.073419
15.448928
16.274452
16.636848
16.902685
18.621683
17.509460
19.449592
18.939972
18.277764
18.421412
17.148852
17.566681
17.447472
16.690493
16.140938
17.028451
17.196536
16.144514
16.275644
16.494989
15.639663
15.449524
15.694499
14.933944
15.385747
##ZVALUE=250
1.325607
1.555681
1.427531
1.404881
1.339912
1.761913
1.991987
7.354617
20.158887
58.671832
117.715597
240.879655
368.059874
531.633496
635.314584
710.453987
698.315501
617.289543
512.131453
346.727967
241.979957
165.332556
104.215741
94.019771
104.497671
123.296976
135.942698
143.407583
135.470629
124.245882
105.511546
84.828734
63.086748
41.135550
29.795766
19.289851
16.373992
12.859702
12.794733
12.931824
13.172626
12.452602
12.506843
12.344718
11.901855
11.468530
10.768771
10.253787
10.397434
9.629726
9.591579
9.329915
9.625554
9.529591
8.709431
7.797480
7.856488
8.566976
8.334517
8.111596
8.145571
8.435845
8.265972
9.172559
8.620620
9.689927
9.784698
10.197759
10.096431
11.223555
12.544990
13.304949
14.045835
14.380813
15.389919
15.513897
16.979575
17.057657
16.628504
16.875863
16.707778
16.182661
16.631484
16.674995
15.722513
14.622808
14.576912
16.045570
14.622808
15.971661
15.375614
15.349984
15.985966
14.758706
14.776587
14.754534
##ZVALUE=255
1.417994
1.309514
1.008511
1.369715
0.931621
1.325607
1.185536
1.599789
1.834631
3.623962
17.722845
42.433739
86.616874
194.182992
303.767920
490.825772
616.245866
744.277835
780.838728
730.056763
633.929968
500.436425
314.177871
201.177597
117.125511
89.588761
90.820789
106.754899
126.558542
142.126679
147.422552
148.414969
135.205984
110.358596
89.368820
60.508847
45.245886
28.892756
21.468997
15.538931
14.609694
13.307929
13.067722
12.551546
12.125969
12.020469
11.187792
11.506677
10.773540
9.921789
10.221601
10.037422
9.301901
9.441972
8.250475
8.407831
8.600950
8.279681
7.683635
8.174777
7.822514
8.336902
7.199645
7.582903
8.038878
8.298755
9.248853
9.004474
9.084940
10.052919
9.857416
10.522604
12.782812
13.093948
12.905598
12.934804
13.463497
14.685988
14.661551
13.787746
13.741851
14.177561
14.035702
14.939904
13.544559
13.986826
13.813972
13.411641
14.636517
14.742613
13.832450
15.113950
14.063716
13.422966
13.940930
13.178587
##ZVALUE=260
1.080632
0.950694
1.170635
1.084805
1.066923
1.241565
1.065731
1.316667
1.192689
1.042485
1.486540
2.515912
7.645488
29.198527
63.664913
122.834444
256.607533
387.580991
579.169393
712.238550
819.548965
825.950503
716.746449
585.379004
397.405624
263.333917
167.935491
98.505616
79.524517
86.542964
105.648637
133.298635
147.804618
157.467723
154.419541
137.842894
120.353699
87.519884
66.865683
44.210553
31.896830
21.856427
16.605854
13.991594
13.520718
12.313724
11.510849
11.207461
11.262894
10.390878
10.444522
9.787679
9.478927
8.737445
8.557439
7.811785
8.510947
7.729530
8.112788
7.269979
7.434487
7.548928
7.231832
7.790923
6.838441
7.968545
7.302761
7.669926
8.113980
7.996559
8.653998
10.271668
10.648966
10.599494
11.382699
12.437701
12.562871
11.755824
12.512803
11.919737
12.576580
12.234449
12.169480
12.182593
12.410879
12.691617
12.247562
12.532473
11.725426
12.031794
11.538863
13.259649
13.002753
12.232661
13.566613
11.904836
##ZVALUE=265
0.986457
0.764728
0.904799
0.953674
1.076460
0.759959
0.947714
1.098514
1.098514
1.206994
1.524687
1.403689
1.397729
1.629591
3.850460
19.079447
44.309497
111.400485
199.918747
385.890603
553.713441
727.178454
909.006596
949.692726
871.867537
761.353970
565.268993
407.497883
230.891705
141.128898
95.667839
75.517893
88.369846
115.950704
136.617422
157.260895
162.245631
152.975917
142.265558
112.197995
92.261434
63.005686
46.351552
29.175878
21.188855
15.048981
12.612939
12.041926
11.903644
11.246800
10.724664
9.936690
9.710789
9.114742
8.966923
8.863807
8.836985
8.305907
7.784963
7.609725
6.949902
7.470846
7.410645
7.658601
6.870627
7.781982
7.920861
8.071661
8.596778
8.722544
9.019971
9.931922
10.105968
10.885596
11.346936
10.842681
10.943413
11.565685
11.603832
11.272430
11.804700
11.203885
11.530519
10.950565
11.126995
12.212992
11.981726
11.963844
11.684895
11.722445
11.993647
12.483597
11.463761
12.181997
11.640787
11.607409
##ZVALUE=270
0.949502
0.926852
0.782609
0.955462
0.877976
1.084805
0.951886
1.158714
1.189709
1.047850
1.115799
1.345873
1.414418
1.376867
1.808405
1.684427
2.009869
6.573796
28.825998
68.342686
158.991814
283.543468
513.684750
699.116588
924.406648
1015.871763
1015.871763
989.257693
856.457949
614.817739
428.159833
223.002434
132.292509
76.013803
69.907904
92.026591
112.303495
141.470432
153.676867
160.171986
157.573819
137.498975
118.214488
87.715983
64.058900
40.692687
28.985739
18.799901
13.852715
11.610985
10.230541
9.612441
9.054542
9.399652
8.534789
9.007454
8.876920
8.469820
8.064508
8.084774
7.938743
7.651448
7.428527
7.522702
7.233620
7.950664
7.741451
7.791519
7.860661
8.369684
8.843541
9.227991
9.839535
10.399818
10.361671
10.930896
10.545850
10.532737
10.089874
10.757446
11.368990
10.590553
10.685921
10.004640
11.151433
11.003613
11.025667
10.380745
10.553598
10.149479
10.570884
10.350943
10.750890
11.048913
11.058450
11.684895
##ZVALUE=275
0.767708
0.755787
0.675917
0.830889
0.895858
0.616908
1.006722
0.895858
1.093745
1.032948
0.964999
0.987649
1.166463
0.999570
1.145601
1.508594
1.770854
1.522899
1.720786
4.000664
15.226603
44.161677
127.533674
232.430696
428.868532
592.672825
788.678527
912.999511
1005.540490
977.405906
892.493725
686.381459
508.812666
288.309455
173.008442
84.585547
59.064627
64.179897
82.749724
110.376477
131.439567
149.191618
154.560804
147.461891
132.893920
107.041001
86.312890
60.500503
42.677522
27.038455
18.170476
12.289882
9.530783
8.306503
8.233786
7.657409
7.885695
7.757545
7.858872
8.146763
7.770658
7.803440
7.513762
7.695556
7.302761
7.652640
7.444620
7.496476
7.636547
8.358955
8.296967
9.251833
9.860992
9.812713
9.476542
9.996891
9.762645
10.676980
10.296702
9.818673
9.857416
9.968877
9.920597
10.018945
9.940863
10.209680
9.959936
9.780526
10.478497
9.930730
9.962916
10.104775
9.670854
10.196567
10.458827
10.394454
##ZVALUE=280
0.691414
0.684857
0.716448
0.838637
0.580549
0.815988
0.831485
0.704527
0.847578
0.774860
0.754595
0.857711
0.819564
0.943542
0.885725
0.947714
1.082420
1.041889
1.254678
1.501441
1.435876
2.201796
13.230443
40.423870
123.322606
217.701793
390.945673
550.948977
767.576694
897.053480
968.694687
956.427455
864.552855
660.620928
486.297607
281.316638
173.316598
81.924796
49.886703
43.595433
55.014491
80.162883
100.746751
129.270554
142.946839
148.418546
141.589642
124.199986
106.724501
78.282952
57.633519
37.497878
24.792552
15.220642
11.017919
8.228421
7.516742
7.532835
7.152557
7.734895
7.014871
7.522702
7.628798
7.708669
7.880926
7.868409
8.045435
7.651448
8.401871
8.191466
7.952452
8.917451
8.456707
9.477735
9.429455
9.582639
9.708405
9.878874
9.791851
9.792447
9.863973
9.827614
9.515882
9.147525
9.720922
9.340644
9.809732
9.500980
9.825826
9.755492
9.562969
9.472966
9.103417
9.446740
9.476542
9.918809
##ZVALUE=285
0.709891
0.660419
0.492930
0.570416
0.565648
0.724792
0.704527
0.668764
0.707507
0.689626
0.864863
0.809431
0.818968
0.931621
0.916719
0.893474
0.668764
0.908971
0.917912
1.032948
1.262426
1.126528
1.508594
1.812577
5.773902
19.802451
63.892603
131.510496
284.159780
451.431870
631.541610
860.669017
977.000594
1010.031700
936.121941
746.243000
574.321747
352.971554
220.257640
104.054809
56.095719
31.444430
34.297705
52.340627
70.388913
100.681782
118.682981
136.828423
142.917633
139.039755
127.232671
102.512836
82.692504
57.128668
40.730834
23.999810
16.115904
10.035634
8.328557
7.360578
7.291436
7.478595
7.380843
7.597804
7.417798
8.177757
7.933974
7.696748
8.352995
8.888841
8.677840
9.342432
9.216666
9.293556
9.385943
9.637475
9.536743
9.743571
9.498596
9.989738
9.551644
9.337664
9.436607
9.832978
9.687543
9.261966
9.732842
9.753704
9.280443
9.345412
8.980632
9.134412
9.384751
9.310842
9.316802
9.131432
##ZVALUE=290
0.712872
0.698566
0.616908
0.665784
0.708699
0.693798
0.584722
0.701547
0.799894
0.586510
0.819564
0.719428
0.815988
0.741482
0.720620
0.739694
0.836849
1.041889
0.879765
1.087785
1.185536
0.920892
1.106858
1.447797
1.465678
1.872778
2.352595
7.762909
35.330653
79.095960
187.701583
336.148739
527.366996
801.349878
966.174603
1015.871763
1015.871763
870.032907
697.523952
459.033847
301.295519
148.053765
78.306794
32.730699
24.088621
33.643842
46.107769
69.875717
88.463426
112.823844
128.459930
138.080716
135.663748
120.397806
105.105639
78.617930
58.540702
38.639903
26.044846
16.223788
11.658669
8.876920
8.106828
7.396936
7.433891
7.745624
8.131862
8.529425
8.577704
8.801818
9.023547
9.479523
9.717941
10.398626
9.807944
9.749532
9.941459
9.740591
9.943843
9.529591
9.786487
9.660721
9.153485
9.660721
9.336472
9.801984
9.437799
9.342432
9.354949
9.647608
9.439588
9.398460
9.067655
9.028912
9.170771
9.031892
##ZVALUE=295
0.802875
0.612736
0.681877
0.754595
0.655651
0.776649
0.863671
0.837445
0.943542
0.768900
0.787973
0.986457
0.947714
0.857711
0.862479
0.868440
1.113415
0.943542
0.999570
1.121759
1.156926
1.232624
1.265407
1.213551
1.225471
1.490712
1.534820
1.779795
1.936555
3.253818
10.047555
43.137670
97.764730
241.626501
413.285494
706.099868
910.445452
1016.044021
1016.044021
1016.044021
886.963010
613.231659
416.048765
215.052962
114.575624
43.998957
24.334788
20.321608
28.119683
46.005845
60.863495
87.678432
106.361508
123.724937
130.963922
127.424598
117.769837
97.193718
79.061985
54.591894
40.905476
24.883747
16.678572
11.678934
9.437799
8.403659
8.448958
7.813573
8.330941
8.966923
9.001493
9.435415
9.604692
9.628534
9.947419
10.041595
9.985566
9.854436
9.857416
9.946823
10.098815
10.149479
9.839535
10.156631
10.428429
9.683967
10.032654
9.374619
9.507537
9.151697
9.480715
8.922815
9.058714
9.302497
9.541512
9.141564
##ZVALUE=300
0.470877
0.567436
0.424981
0.612736
0.496507
0.504851
0.465512
0.682473
0.667572
0.574589
0.652671
0.598431
0.574589
0.660419
0.752807
0.694990
0.539422
0.638962
0.850558
0.808835
0.805855
0.816584
0.875592
0.843406
0.940561
1.111627
1.074672
1.207590
1.355410
1.374483
1.761913
2.072453
6.425977
22.350550
75.952411
150.237679
323.301554
512.484908
787.837505
972.668529
1015.871763
1015.871763
984.242558
802.201629
517.765880
330.466628
160.172582
84.076524
32.817721
17.653704
18.109679
24.934411
40.876865
56.735873
79.973936
99.098682
117.474794
124.323964
124.482512
114.487410
94.696879
78.232884
55.246949
40.403605
25.345683
17.690659
12.101531
9.720922
8.486509
8.155704
8.738637
8.768439
9.043813
9.039640
9.363890
9.693503
9.320974
9.425879
9.307861
9.582639
9.449720
10.085702
9.749532
9.786487
9.974837
9.751916
9.626746
9.415746
9.230971
9.542704
8.975863
9.680986
8.666515
8.649826
9.331703
8.998513
##ZVALUE=305
0.597835
0.774860
0.751615
0.780821
0.745654
0.805855
0.601411
0.568628
0.793934
0.734925
0.785589
0.626445
0.909567
0.787973
0.763535
0.891685
0.951886
1.084805
0.987649
0.928640
1.061559
0.952482
1.077652
1.108646
1.124740
1.135468
1.172423
1.216531
1.199841
1.355410
1.234412
1.444817
1.653433
1.742840
2.694726
15.298724
43.460727
119.778514
216.951966
404.070020
565.078855
775.895715
898.512602
952.363014
902.761817
734.168887
572.865009
368.521810
233.774781
104.926825
52.599907
19.088984
13.106465
16.572475
23.435950
39.060712
54.491758
76.999664
93.394518
111.067891
118.186474
116.547942
109.246969
91.825724
74.979663
52.546859
38.738847
24.920702
17.387867
11.455417
10.075569
8.904934
9.000897
8.610487
8.822680
9.146929
9.154677
9.494424
9.723902
9.669662
9.639859
9.754896
9.791851
9.783506
9.842515
10.049939
9.665489
9.292960
9.333491
9.635687
9.394884
9.191632
9.198785
9.263754
8.950830
8.741617
##ZVALUE=310
0.622869
0.525713
0.524521
0.540614
0.561476
0.556707
0.568628
0.568628
0.642538
0.576973
0.506639
0.464916
0.551939
0.527501
0.628829
0.449419
0.659823
0.502467
0.576973
0.573993
0.690818
0.663996
0.780821
0.731945
0.896454
0.764728
0.668764
0.786781
0.783801
0.971556
0.886917
1.013875
1.157522
1.281500
1.333952
1.557469
1.852512
6.256700
21.205544
72.308779
144.032836
302.207470
458.238721
672.248006
808.895826
913.524032
907.698870
793.856978
659.624934
450.801849
302.238464
153.554678
82.982779
31.109452
14.016628
10.739565
13.734698
21.827817
31.344891
50.276518
65.521002
88.027716
100.665689
111.849904
111.950636
103.008747
91.067553
71.810484
55.533648
36.513805
26.653409
17.520785
13.394952
10.077953
9.144545
8.967519
8.872747
8.633733
8.714795
8.799434
9.146929
8.957982
9.332895
9.427667
9.511709
9.411573
9.126663
9.768605
9.125471
9.124875
9.080768
8.930564
9.149909
8.728504
8.804798
8.511543
##ZVALUE=315
0.746846
0.759959
0.770688
0.674725
0.784993
0.636578
0.648499
0.678897
0.766516
0.824928
0.707507
0.670552
0.588894
0.762939
0.741482
0.591874
0.946522
0.756979
0.689626
0.747442
0.967979
0.947714
0.871420
0.847578
1.133680
0.957847
1.025796
0.907779
0.893474
0.963807
1.109838
1.036525
1.171827
1.303554
1.356602
1.388788
1.346469
1.469851
1.631975
3.302693
11.986494
49.036741
107.172728
237.606764
379.077792
591.060519
734.586716
864.439607
894.185901
823.305845
705.899000
506.552458
356.777906
190.853477
103.967786
40.451884
18.692613
9.791851
9.882450
13.592839
19.112825
31.358600
44.210553
63.677430
78.321695
96.659660
105.022788
105.923414
99.281669
84.638596
70.430636
52.215457
38.723946
25.005937
17.811656
12.707710
10.568500
9.010434
9.456873
8.929968
9.312630
9.056926
9.669662
9.290576
9.490848
9.482503
9.559989
9.308457
8.927584
9.079576
9.380579
9.364486
8.949637
9.095669
8.986592
8.921623
##ZVALUE=320
0.413656
0.463724
0.330806
0.436902
0.528693
0.365973
0.226498
0.445843
0.504851
0.410676
0.620484
0.526905
0.392795
0.594854
0.640750
0.538826
0.444651
0.560880
0.501871
0.481606
0.597835
0.519753
0.489950
0.693798
0.579953
0.694990
0.622869
0.839829
0.761747
0.748634
0.734925
0.901818
0.853539
0.759959
0.763535
0.842810
1.063943
0.981688
1.138449
1.199841
1.221895
1.803637
5.422831
28.302670
69.162846
171.809793
281.801820
466.459990
621.940494
795.746446
870.049000
859.124660
777.640939
595.255494
434.637666
242.492557
139.515996
59.890747
28.129816
11.010766
8.264780
8.995533
11.534691
18.208623
25.798678
41.512847
56.286454
75.402856
89.355707
98.629594
100.269914
93.939900
83.966851
65.663457
51.123500
34.445524
25.242567
17.309785
13.212562
10.145903
9.148717
8.846521
9.063482
9.007454
9.173751
9.173751
9.377599
9.189844
9.138584
9.156466
8.579493
8.877516
8.725524
8.905530
8.355975
8.717775
##ZVALUE=325
0.292659
0.421405
0.310540
0.421405
0.298619
0.369549
0.418425
0.583529
0.385642
0.329614
0.499487
0.538826
0.607967
0.419617
0.404716
0.481606
0.442863
0.463724
0.653863
0.616908
0.501871
0.735521
0.623465
0.464916
0.577569
0.638962
0.633597
0.555515
0.531673
0.479817
0.780821
0.683665
0.558496
0.739694
0.776649
0.925660
0.915527
0.927448
0.943542
1.053810
0.988841
0.946522
1.491904
1.536608
3.493428
25.364757
62.636733
148.837566
245.623589
421.531796
566.902757
747.431517
845.143795
867.775679
805.354714
633.638501
477.070808
285.223722
175.096989
80.087781
39.778948
14.049411
8.600950
7.912517
8.603930
11.701584
16.919971
27.424693
38.848519
57.591796
71.075559
86.197853
92.991590
94.351768
89.427829
75.084567
62.635541
46.480894
34.459829
22.446513
16.529560
11.987686
10.272861
9.616613
9.217858
8.773804
8.908510
8.854866
8.636713
8.870959
8.880496
8.982420
8.434653
8.718967
8.569956
8.656979
##ZVALUE=330
0.405908
0.199676
0.324845
0.354648
0.303984
0.320673
0.474453
0.494719
0.476837
0.379682
0.487566
0.314713
0.413656
0.393987
0.470877
0.398755
0.407696
0.472665
0.219941
0.476837
0.639558
0.555515
0.532866
0.551939
0.634789
0.610948
0.512600
0.455976
0.709891
0.641942
0.614524
0.492930
0.787973
0.630617
0.686646
0.665784
0.584722
0.732541
0.851750
0.995994
1.020432
1.004934
1.084805
1.174808
1.159906
1.502633
1.805425
10.372996
36.964417
117.560625
208.873749
378.859639
521.981716
707.674026
806.218982
860.303640
826.140642
693.998933
557.014942
361.808538
234.451890
110.399723
56.675673
21.287799
10.351539
7.460713
7.448792
8.498430
10.960698
17.308593
24.963617
38.571954
51.584840
69.202781
80.626607
88.575482
89.174509
82.533956
73.734522
57.268739
45.132637
31.221509
23.646951
17.015934
13.055801
10.587573
9.211898
8.730888
8.694530
8.816719
8.441806
8.265972
8.527637
8.894801
8.378625
8.443594
##ZVALUE=335
0.408888
0.509620
0.288486
0.349879
0.330806
0.418425
0.258684
0.442863
0.524521
0.489950
0.544786
0.410676
0.432730
0.365973
0.425577
0.516772
0.389814
0.419617
0.325441
0.326633
0.302792
0.483990
0.360608
0.341535
0.380874
0.479817
0.520945
0.439882
0.590682
0.597835
0.669956
0.663996
0.516772
0.736713
0.696778
0.613928
0.534654
0.855923
0.571609
0.730753
0.647902
0.959635
0.808835
0.904799
0.982881
1.130700
1.025796
1.234412
1.404881
3.808737
15.277863
67.602992
141.182542
294.112563
447.430611
651.330948
776.284933
855.273008
842.759013
740.153790
619.464517
419.791937
286.521912
149.834752
79.825521
28.795600
13.767481
7.647872
7.175803
7.871985
8.556843
11.167526
15.977621
25.365949
35.264492
50.926805
62.920451
75.404644
82.143545
83.216429
78.048706
67.341924
56.702495
43.381453
33.538938
23.341775
17.447472
12.539625
10.672808
9.285808
8.769631
8.531809
8.122921
8.225441
8.122921
8.163452
##ZVALUE=340
0.476837
0.482798
0.434518
0.454783
0.440478
0.422597
0.453591
0.446439
0.429749
0.462532
0.361800
0.544786
0.475645
0.550747
0.591874
0.509620
0.435710
0.558496
0.499487
0.525713
0.566840
0.573993
0.594854
0.507832
0.494719
0.541806
0.511408
0.739694
0.595450
0.600815
0.610948
0.645518
0.723600
0.741482
0.540614
0.673532
0.729561
0.680685
0.848770
0.769496
0.684857
0.834465
0.866652
0.786781
0.980496
0.919700
0.948906
1.096725
1.149774
1.186728
1.341701
1.958609
10.313988
34.689903
110.725760
209.855437
398.845673
547.255874
720.126629
804.107785
841.912627
796.915889
648.622513
510.464907
318.560004
201.539993
94.029903
47.071576
15.415549
8.932948
7.304549
7.132888
7.609725
8.717775
11.346936
15.384555
24.028420
33.346415
48.500896
59.304833
72.616935
77.797771
78.035593
74.754953
64.707994
55.476427
42.201877
33.327937
22.837520
16.819835
12.413859
10.378957
9.106994
8.269548
8.031726
7.754564
##ZVALUE=345
0.329614
0.358820
0.247955
0.232458
0.288486
0.282526
0.340939
0.284910
0.413656
0.364780
0.415444
0.484586
0.364780
0.320673
0.382662
0.350475
0.377893
0.345707
0.317693
0.308752
0.396967
0.302792
0.288486
0.467896
0.437498
0.461936
0.300407
0.462532
0.386834
0.497699
0.500679
0.469685
0.485778
0.655651
0.632405
0.612736
0.601411
0.625849
0.586510
0.575781
0.732541
0.496507
0.649691
0.602603
0.577569
0.753999
0.758767
0.868440
0.886917
0.993609
1.013875
1.026988
1.130700
1.563430
3.307462
23.124814
64.410567
163.773894
277.335644
468.348861
609.551668
763.515830
820.211768
805.332661
725.646615
553.554893
406.306982
229.025483
130.364895
56.130886
26.119947
10.591745
7.739663
7.131696
6.863475
7.119775
8.034706
10.529757
14.304519
21.972656
30.644536
44.067502
54.155588
64.995885
71.114898
72.362423
69.508553
61.424971
53.117871
41.243434
32.410622
21.970868
16.853809
12.450814
10.051727
8.321404
##ZVALUE=350
0.390410
0.429749
0.319481
0.423789
0.354648
0.337958
0.205636
0.315905
0.406504
0.444651
0.338554
0.326633
0.401735
0.250936
0.374913
0.481606
0.400543
0.353456
0.346899
0.404716
0.418425
0.389814
0.497699
0.402927
0.343919
0.325441
0.563860
0.379682
0.348687
0.571609
0.561476
0.516772
0.566840
0.459552
0.383854
0.425577
0.504851
0.402927
0.379682
0.630617
0.608563
0.551939
0.556707
0.650883
0.680685
0.651479
0.681877
0.799894
0.829697
0.764728
0.758767
0.846982
0.722408
0.996590
1.012683
0.978708
1.691580
9.459853
30.672550
91.832876
171.648860
330.601931
462.956429
628.857613
730.312467
768.231750
731.458664
596.537590
458.219647
274.358988
168.313980
77.873468
37.130713
12.499690
7.723570
6.684661
6.311536
6.462932
6.716847
7.698536
9.431839
14.408827
19.419789
28.064847
36.702752
49.049854
57.470798
64.293742
67.065954
64.386725
58.867931
48.666596
39.674640
28.887987
22.194982
15.684962
##ZVALUE=355
0.306964
0.294447
0.118613
0.293851
0.360608
0.470877
0.293851
0.422597
0.354648
0.410676
0.541806
0.466704
0.417829
0.436902
0.468493
0.369549
0.295639
0.335574
0.498891
0.352859
0.379682
0.412464
0.511408
0.387430
0.511408
0.494719
0.349879
0.402927
0.394583
0.464916
0.556707
0.630617
0.512600
0.593662
0.570416
0.470877
0.449419
0.393987
0.471473
0.501871
0.492930
0.606775
0.620484
0.630617
0.614524
0.611544
0.509620
0.535846
0.754595
0.683665
0.756979
0.701547
0.889897
0.827909
1.081824
1.050830
1.035929
1.066923
1.279712
4.021525
15.602708
61.185956
123.031735
254.004002
389.413834
577.929616
688.067675
758.806467
742.774606
627.411604
504.113436
333.863497
212.514997
94.755888
46.151876
15.771985
8.432865
6.361604
6.522536
6.133914
6.129742
6.680489
7.339716
9.052753
11.328459
17.485619
23.521781
33.272505
41.853786
50.994754
57.166815
60.579777
59.824586
53.388476
46.623945
37.115812
##ZVALUE=360
0.401735
0.426769
0.418425
0.345707
0.528693
0.424981
0.353456
0.355840
0.346899
0.365973
0.316501
0.324845
0.541806
0.375509
0.323653
0.359416
0.275970
0.489950
0.367761
0.368953
0.441670
0.483990
0.442863
0.425577
0.471473
0.412464
0.298619
0.290871
0.620484
0.544786
0.531673
0.524521
0.510812
0.480413
0.493526
0.632405
0.552535
0.511408
0.463724
0.625849
0.551939
0.624657
0.576973
0.556707
0.542998
0.560880
0.801682
0.589490
0.710487
0.747442
0.601411
0.691414
0.595450
0.912547
0.749826
0.783801
0.705719
0.944734
0.952482
1.205802
1.258850
2.124906
6.988645
32.333732
78.584552
190.479755
310.356617
496.667624
634.844899
750.227571
764.817595
686.453581
575.371981
388.904810
260.221958
128.418803
66.793561
25.545955
11.759996
6.536841
6.067753
6.002784
5.725622
5.625486
5.839467
6.502867
7.307529
10.192990
13.344884
19.774437
26.347637
36.683679
43.568611
51.077604
54.812431
54.491758
##ZVALUE=365
0.416636
0.352859
0.216961
0.219941
0.333786
0.379682
0.206828
0.297427
0.267625
0.353456
0.272989
0.279546
0.399947
0.370741
0.359416
0.516772
0.424981
0.456572
0.271797
0.449419
0.352859
0.465512
0.490546
0.437498
0.528693
0.428557
0.449419
0.552535
0.382662
0.399947
0.543594
0.428557
0.383854
0.541806
0.447631
0.436902
0.375509
0.388622
0.601411
0.642538
0.518560
0.512600
0.599623
0.527501
0.673532
0.541806
0.587702
0.643730
0.603795
0.513792
0.570416
0.675917
0.656843
0.668764
0.751615
0.705719
0.737906
0.979900
0.747442
0.759959
0.974536
1.211762
1.265407
1.327991
3.058910
18.167496
48.339963
125.342607
226.826668
410.711765
544.782877
676.538944
730.857849
711.295009
614.985824
439.343452
312.138796
172.487497
95.436573
36.370754
16.248822
6.701946
5.701780
5.481839
5.632639
5.285740
5.196929
5.375743
5.631447
6.634593
7.946491
12.273788
16.026497
23.042560
29.769540
38.679838
##ZVALUE=370
0.370741
0.308752
0.432730
0.409484
0.323653
0.194907
0.375509
0.297427
0.389814
0.219941
0.317693
0.372529
0.467896
0.425577
0.436902
0.388622
0.337958
0.299811
0.249743
0.379682
0.403523
0.467896
0.432730
0.430942
0.441670
0.442863
0.425577
0.304580
0.143647
0.348687
0.735521
0.330806
0.358820
0.373721
0.378489
0.249743
0.389814
0.352859
0.551939
0.494719
0.505447
0.488758
0.458956
0.416636
0.412464
0.576973
0.441670
0.539422
0.555515
0.664592
0.610948
0.419617
0.581741
0.503659
0.601411
0.578761
0.551939
0.695586
0.771880
0.535846
0.750422
0.882745
0.899434
1.108646
1.013875
1.281500
1.536608
7.971525
28.073788
90.229511
166.380405
307.689905
443.324447
608.153939
684.145689
693.664551
630.578995
493.270755
361.699462
202.715993
115.223527
46.026707
22.257566
8.882880
5.793571
5.197525
5.065799
4.860759
4.755855
4.802942
4.727840
5.111694
5.599856
7.281899
9.825826
14.177561
##ZVALUE=375
0.359416
0.326633
0.322461
0.280738
0.274777
0.109673
0.324845
0.386834
0.329614
0.392795
0.443459
0.409484
0.359416
0.297427
0.259876
0.280738
0.245571
0.341535
0.279546
0.338554
0.326633
0.344515
0.157952
0.377893
0.435710
0.324845
0.314713
0.333786
0.293851
0.250936
0.482798
0.313520
0.403523
0.457764
0.466704
0.380874
0.422597
0.224710
0.451803
0.374913
0.399947
0.401735
0.360608
0.458956
0.430942
0.525713
0.488758
0.459552
0.521541
0.584722
0.433922
0.467896
0.491738
0.538826
0.521541
0.574589
0.482798
0.619888
0.552535
0.632405
0.720620
0.653863
0.749826
0.777841
0.788569
0.920892
1.066923
1.114607
1.307726
3.787875
13.930798
52.756667
113.011599
248.906612
382.560492
565.191507
674.712658
738.419890
712.538958
581.572652
446.036458
269.394517
169.610977
83.464980
42.151809
14.608502
6.978512
4.989505
4.898906
4.451871
4.502535
4.382730
4.300475
4.455447
4.546642
4.899502
##ZVALUE=380
0.216961
0.413656
0.328422
0.306964
0.294447
0.195503
0.285506
0.380874
0.343919
0.306964
0.346899
0.340939
0.238419
0.353456
0.307560
0.251532
0.209808
0.349879
0.364780
0.476837
0.356436
0.400543
0.327826
0.353456
0.235438
0.359416
0.347495
0.370741
0.504851
0.286698
0.698566
0.327826
0.376701
0.302792
0.365973
0.430942
0.495911
0.470877
0.487566
0.445843
0.401735
0.341535
0.434518
0.377893
0.289679
0.414848
0.467896
0.508428
0.373721
0.428557
0.374913
0.371933
0.613928
0.505447
0.490546
0.454783
0.381470
0.387430
0.569820
0.479817
0.575781
0.423789
0.557899
0.577569
0.565648
0.759959
0.742674
0.930429
1.024604
1.124740
1.219511
2.090931
6.340742
31.796694
74.316859
175.576806
281.815529
438.311696
554.867983
651.840568
651.900768
565.625429
465.222001
327.500701
220.001936
109.652877
57.030916
21.012425
9.621978
4.919767
4.439950
4.094839
4.202724
4.016757
3.984571
4.133582
##ZVALUE=385
0.221729
0.298619
0.289679
0.300407
0.242591
0.305772
0.237823
0.205636
0.214577
0.353456
0.308752
0.292659
0.301600
0.243783
0.271797
0.429749
0.295639
0.298619
0.322461
0.314713
0.380874
0.309944
0.430942
0.208616
0.307560
0.359416
0.337958
0.396967
0.300407
0.357628
0.452995
0.137687
0.433922
0.467896
0.424981
0.416636
0.372529
0.270605
0.246763
0.319481
0.317693
0.494719
0.444651
0.358820
0.420809
0.321865
0.358820
0.338554
0.392795
0.327826
0.346899
0.494719
0.415444
0.539422
0.352859
0.409484
0.455976
0.604987
0.497699
0.461936
0.489950
0.459552
0.435710
0.552535
0.477433
0.642538
0.699759
0.556707
0.714660
0.817776
0.905991
0.894666
1.014471
1.401901
3.093481
17.638803
45.786500
117.008686
207.358599
370.380878
495.219827
621.310472
651.556849
623.683929
545.091629
399.532914
282.313824
155.214667
88.765621
37.004948
15.676618
5.602837
4.003644
3.797412
3.782511
3.799796
##ZVALUE=390
0.256896
0.260472
0.288486
0.188947
0.314713
0.339746
0.205636
0.238419
0.253916
0.340939
0.216961
0.267625
0.429749
0.199676
0.196695
0.141859
0.215769
0.315905
0.330806
0.214577
0.394583
0.299811
0.362992
0.357628
0.380874
0.487566
0.336766
0.373721
0.410676
0.310540
0.330806
0.462532
0.376701
0.326633
0.418425
0.226498
0.304580
0.340939
0.357628
0.337958
0.364780
0.421405
0.539422
0.400543
0.327826
0.260472
0.417829
0.369549
0.301600
0.410676
0.347495
0.479817
0.339746
0.491738
0.480413
0.328422
0.423789
0.373721
0.387430
0.425577
0.310540
0.376701
0.596642
0.541806
0.507832
0.641942
0.442863
0.775456
0.741482
0.814795
0.748634
0.870824
0.681877
0.864863
0.898838
0.951886
1.866817
8.813739
27.943850
87.278485
164.947510
315.981507
435.195565
568.319559
641.433597
666.831732
617.254972
484.370589
368.064642
222.216845
130.182505
53.516626
24.786592
7.919669
4.606843
3.899932
##ZVALUE=395
0.305772
0.373721
0.251532
0.287890
0.249743
0.333786
0.242591
0.345707
0.411868
0.204444
0.225902
0.112653
0.200868
0.172853
0.275970
0.282526
0.274777
0.295639
0.247955
0.359416
0.280738
0.181794
0.349879
0.307560
0.235438
0.268817
0.413656
0.323653
0.391603
0.484586
0.328422
0.392795
0.322461
0.359416
0.259876
0.207424
0.194907
0.346899
0.444651
0.280738
0.305772
0.176430
0.445843
0.310540
0.406504
0.318885
0.334978
0.490546
0.290871
0.448823
0.290871
0.377893
0.309944
0.364780
0.467896
0.359416
0.262856
0.343919
0.313520
0.368953
0.412464
0.421405
0.315905
0.563860
0.551939
0.542998
0.564456
0.617504
0.569820
0.791550
0.807643
0.795722
0.902414
0.716448
0.910759
0.830889
0.732541
0.782609
1.331568
5.066991
18.673539
65.014958
122.569799
231.856704
344.702005
507.594943
608.978868
676.572919
662.541986
562.335849
439.061522
271.621943
167.877674
72.563887
35.022497
12.752414
##ZVALUE=400
0.176430
0.250936
0.363588
0.302792
0.271797
0.212789
0.268817
0.191927
0.158548
0.224710
0.284910
0.363588
0.227690
0.159740
0.383854
0.397563
0.248551
0.278950
0.300407
0.327826
0.324845
0.256896
0.356436
0.282526
0.191927
0.370741
0.379682
0.395775
0.331998
0.299811
0.456572
0.378489
0.318885
0.253916
0.316501
0.414848
0.278950
0.265837
0.576973
0.393987
0.466704
0.496507
0.332594
0.322461
0.284910
0.431538
0.345707
0.335574
0.459552
0.248551
0.335574
0.436902
0.370741
0.393987
0.364780
0.444651
0.556707
0.393987
0.505447
0.493526
0.548959
0.488758
0.433922
0.558496
0.611544
0.595450
0.625849
0.584722
0.627637
0.721812
0.736713
0.853539
0.870824
0.861883
0.667572
0.680685
0.726581
0.875592
0.887513
0.887513
1.131892
2.748966
9.857416
37.357807
81.652999
186.291933
299.024582
471.075773
586.849451
680.664778
691.280961
611.549616
511.377454
352.650881
232.587457
117.080808
##END
