##TITLE=QP00301
##FORMAT=SPECTACLE-ASCII V-1.2
##DATA TYPE=ULTRAVIOLET SPECTRUM
##SECOND TYPE=ULTRAVIOLET SPECTRUM
##DATE=01/30/18
##TIME=16:32:20
##SPECTROMETER/DATA SYSTEM=SPECTACLE
##XUNITS=NM EM
##YUNITS=ENERGY
##YFACTOR=1
##FIRSTX=220
##LASTX=410
##NPOINTS=96
##3DDATA=Equidistant
##ZUNITS=NM EX
##FIRSTZ=210
##LASTZ=400
##ZPOINTS=39
##XYDATA=(Y..Y)
##ZVALUE=210
1.711845
1.526475
1.620650
1.763701
2.295971
2.168417
2.073646
2.299547
1.902580
2.347827
1.972914
1.961589
2.161860
2.578497
2.242923
2.156496
2.508759
2.917647
3.023744
2.694726
2.561808
2.992749
2.916455
3.272891
3.221631
3.411770
3.980994
3.368855
3.891587
4.243851
4.055500
4.236698
4.535913
4.141927
4.121661
5.106926
4.679561
3.957748
4.628897
4.592538
4.730821
5.604625
5.756617
5.097985
5.078912
4.718900
4.606843
4.898906
5.239844
5.467534
5.467534
5.264878
5.505681
5.395412
6.358624
5.253553
5.907416
5.999804
5.358458
6.157756
6.255507
5.914569
6.229877
6.361604
6.996989
7.786751
7.047653
7.136464
8.160472
10.954738
11.391640
14.071465
14.283657
17.528534
19.281507
21.173954
18.522739
18.535852
18.319488
17.715693
17.077923
14.487505
11.373758
10.067821
9.510517
8.626580
7.625818
7.332563
5.779862
6.604791
6.951690
6.164908
5.489588
6.691813
6.993413
6.967783
##ZVALUE=215
4.592538
5.536675
4.263520
4.100800
3.438592
3.491640
4.015565
4.544854
5.144477
4.754663
4.372597
3.750920
3.955960
3.778934
2.648830
2.588630
2.753735
2.501607
2.766848
3.050566
2.740622
3.373623
3.700852
3.100634
4.017949
3.242493
3.570914
4.085898
3.768802
4.258752
3.933907
4.247427
4.024506
5.110502
5.136728
4.293919
4.352927
4.394650
4.890561
5.095601
5.350709
4.499555
5.229712
4.958510
5.097985
5.435944
5.492568
6.017685
5.510449
4.964471
5.154610
5.793571
5.923510
5.618930
6.124973
5.853772
6.613731
5.632639
5.857944
6.536841
6.349683
6.128550
5.827546
6.526709
5.826950
6.379485
6.639957
7.735491
9.054542
9.758472
11.233687
13.346672
14.040470
16.370416
17.482638
18.832684
17.039776
16.774535
16.468763
15.087724
15.231967
13.132691
12.992620
11.229515
9.276867
8.549690
8.330941
7.688999
7.515550
6.784797
7.025599
5.592704
7.014871
6.382465
5.998611
6.558895
##ZVALUE=220
17.065406
17.037988
18.566847
17.644763
17.848611
14.995933
13.417602
10.962486
10.733604
9.393692
10.500550
11.427999
11.269450
10.036826
8.518696
6.151795
6.096959
4.576445
3.836751
4.039407
3.364682
3.664494
3.068447
3.524423
3.654957
3.941655
3.787875
4.173517
3.914833
4.869699
4.386902
4.360676
5.251765
4.624724
4.579425
5.015731
5.724430
5.089641
5.101562
5.958676
5.506873
5.538464
5.711913
6.419420
6.477833
5.917549
6.207824
5.834699
5.711913
6.236434
6.299615
6.007552
6.841421
6.717443
6.315708
6.292462
6.416440
6.647706
6.441474
6.839633
6.683469
7.098913
7.646680
7.613897
6.503463
8.227825
7.650852
8.333921
9.262562
10.922551
11.320710
12.908578
15.487671
15.718937
18.237829
18.668771
19.079447
17.992854
18.014908
16.410947
15.214682
13.859868
12.765527
11.895895
9.669662
10.011792
8.955598
9.041429
8.371472
8.701682
7.466674
9.002686
7.891655
7.499456
7.805824
7.501841
##ZVALUE=225
30.824542
30.301809
42.593479
52.239895
58.848858
63.648820
56.610703
46.263933
38.086772
25.332570
23.181438
21.385550
23.922920
25.248528
25.844574
23.595691
18.713474
16.228557
11.002421
8.344650
5.839467
5.272627
4.347563
4.196763
4.009604
4.076958
4.726648
4.405975
4.747510
4.644990
5.263686
5.958676
5.754828
5.628467
5.733967
6.008744
5.971789
5.908608
5.602837
6.387830
5.982518
7.018447
7.100701
5.481839
6.031990
6.834865
7.259846
6.486773
6.637573
6.400943
6.779432
6.460547
7.988811
7.786751
7.149577
8.610487
7.708669
8.238554
7.756948
7.970929
8.213520
8.632541
9.385943
9.409785
9.339452
9.380579
10.436773
10.826588
10.428429
12.185574
14.066696
16.201735
17.120838
18.530488
19.064546
20.070672
20.323992
19.684434
19.016862
17.931461
17.058849
15.564561
14.646649
13.937950
12.757778
12.784600
13.179779
11.204481
10.960698
11.268854
12.202859
11.353493
11.680722
10.588765
10.616779
11.311769
##ZVALUE=230
28.013587
29.394627
49.710870
80.931783
109.272599
137.703419
153.402686
159.714818
148.617625
124.290586
93.026757
66.337585
49.869418
43.548942
45.210719
45.833588
46.723485
48.141479
43.183565
36.786795
28.096437
16.978979
13.218522
6.842613
6.309748
5.703568
5.697608
5.544424
5.450845
6.052852
6.531477
5.851984
6.362796
6.396770
6.156564
6.026626
6.851554
6.696582
6.684661
6.662607
5.908608
6.316900
6.814599
6.891489
7.656813
7.512569
7.635951
7.024407
7.197857
7.176995
6.771684
7.911921
9.404421
8.986592
9.281635
9.035468
8.283854
8.768439
9.322762
9.760857
11.134744
10.529757
10.544658
11.207461
11.674762
12.160540
13.358593
13.502836
15.809536
16.372800
17.194748
21.014810
21.491647
23.880601
23.000836
23.223758
23.410916
23.590922
22.461414
22.617579
20.497441
20.573735
19.227862
18.489957
18.516779
17.486811
18.247962
17.967820
18.059611
17.348528
16.396642
17.697811
16.929507
17.340779
16.453862
16.707778
##ZVALUE=235
10.077953
10.311604
29.477477
55.124760
106.486678
152.236819
227.400661
285.050869
327.624679
329.014659
289.254785
240.414739
182.878971
120.458603
92.679858
72.157979
70.395470
79.666972
81.663728
82.119703
77.105761
67.271590
50.937533
39.443970
22.939444
17.113686
10.506511
8.013844
7.000566
7.667542
6.764531
6.875992
7.521510
7.150769
6.721616
7.314682
8.120537
7.297993
7.789731
8.162856
7.234812
7.105470
7.409453
7.957816
6.431937
7.377863
7.824898
7.407665
8.318424
7.955432
9.730458
8.999705
8.659959
9.641647
9.097457
9.859800
9.528995
11.853576
11.753440
12.366772
12.768507
13.673902
13.940930
13.948679
15.682578
15.169978
16.751885
17.562509
18.319488
20.136833
21.367669
25.487542
25.732517
26.810765
27.048588
30.773878
29.183626
29.965639
31.627417
31.048656
29.786825
27.983785
26.103854
26.719570
25.683641
26.746988
25.925636
27.430654
26.223660
24.586916
25.228858
25.025606
24.333596
27.098656
23.443699
25.065541
##ZVALUE=240
1.856685
2.008677
4.665852
16.613603
35.950541
79.149604
141.718984
257.278681
346.577764
423.544645
519.132018
515.968800
477.374792
402.214527
306.470990
220.189691
141.764879
113.639832
96.418858
99.194646
106.231570
114.751458
115.227699
102.261901
87.857842
65.600872
47.641993
32.830834
23.069978
16.657710
11.307597
10.132790
9.638667
9.091496
9.187460
8.892417
8.188486
8.096695
8.950830
8.178949
6.912947
7.785559
7.755756
8.394718
7.862449
8.138418
7.683635
8.125901
8.940697
9.154677
8.292794
8.618832
9.715557
9.490848
10.637641
9.783506
10.035634
12.203455
12.152791
13.079643
13.885498
12.962818
14.265776
14.483929
15.322566
16.186833
18.126965
20.589828
21.965504
23.376942
24.073720
27.358532
28.038621
32.618642
32.682419
34.093857
34.609437
33.551455
34.156442
34.742951
33.320785
34.212470
33.354759
33.247471
31.877756
32.368898
31.331778
30.638576
29.993653
31.400919
31.212568
32.977462
29.910803
29.689670
29.837489
31.404495
##ZVALUE=245
1.522899
1.537800
1.279712
1.754761
3.677607
9.875894
33.954978
72.389841
163.667798
259.373784
403.769016
515.024662
600.582957
651.785731
626.913905
541.396737
453.941822
320.544839
237.122774
149.869919
121.577978
105.956793
119.026899
124.543905
133.488774
129.978657
113.626719
99.398494
75.881481
57.961941
40.926933
25.379658
18.631816
13.681650
11.071563
10.244846
8.729696
9.232759
9.198785
9.550452
8.418560
8.852482
7.108450
7.166862
6.711483
7.098913
6.890893
7.694960
7.838607
7.995963
8.180737
7.557869
8.502603
8.365512
9.401441
8.992553
9.836555
9.909868
10.927916
10.430813
10.887980
12.818575
13.065934
13.423562
13.693571
14.669895
15.897751
18.069744
19.753575
21.406412
22.319555
23.981929
23.452640
28.488636
31.535625
31.753778
29.900670
32.281876
31.019449
31.413436
33.501983
32.444596
31.796694
31.758547
32.081604
30.953884
31.332970
32.739639
31.754971
30.735731
30.948520
31.997561
31.998754
31.970739
30.624866
31.550527
##ZVALUE=250
1.284480
1.125932
1.264811
1.669526
1.580715
1.361966
2.224445
8.194447
23.469925
66.764951
129.647851
261.909962
385.720730
561.292768
662.238598
748.625994
744.716525
681.946874
584.281683
420.220494
297.490954
208.969712
130.044818
107.223988
111.442804
122.527480
138.623714
142.307878
138.081908
128.142834
103.448629
82.412958
62.140822
39.652586
27.412772
16.277432
12.937784
9.806752
8.839965
8.101463
8.555651
7.196665
7.259846
7.690787
7.516742
7.416606
7.209778
6.524920
7.240772
6.684661
6.463528
7.561445
7.240772
7.375479
7.765889
7.774830
8.675456
8.839965
8.496642
8.987784
9.768605
10.696650
11.302829
11.811852
11.914968
13.418794
14.988780
14.770627
16.141534
18.104911
19.516945
20.850897
22.353530
25.087595
26.461482
27.771592
27.723908
27.351975
26.999712
27.363896
28.196573
28.920770
27.866960
28.597713
28.228760
28.056502
28.508902
29.542446
29.598475
29.651523
29.543638
30.132532
31.221509
28.072000
28.728843
28.558969
##ZVALUE=255
1.359582
1.094937
1.204610
1.260638
1.384616
1.274943
1.657605
1.655817
1.816750
4.290938
18.201470
47.862530
100.218654
227.996707
363.554955
596.987605
760.727525
944.215655
1002.348661
942.787528
819.298625
647.673011
409.784913
266.574621
145.770907
107.718706
93.568563
104.433894
129.655600
140.826702
149.653554
142.665505
131.452680
105.303526
83.951950
58.711767
39.086938
23.114681
15.273690
10.322928
8.297563
7.227659
7.181764
7.247925
6.866455
6.553531
6.283522
6.030798
6.164908
6.518960
6.818771
7.021427
7.086992
6.798506
7.403493
7.399917
7.335544
8.006692
8.199811
8.383989
9.144545
8.949637
9.700656
10.843873
10.699630
11.472702
12.612939
13.613701
14.202595
15.545487
17.061830
18.355846
19.852519
20.642877
21.523833
24.105906
24.895668
24.616718
24.063587
25.474429
24.433732
25.548935
26.072860
25.471449
24.535656
26.129484
26.686788
25.837421
25.919676
26.416779
27.902722
26.986599
27.170777
26.731491
28.796792
26.427507
##ZVALUE=260
0.914931
0.955462
0.964999
1.154542
1.155734
1.303554
1.192689
1.390576
1.523495
1.418591
1.681447
2.247691
7.349849
32.015443
73.554516
177.918673
295.875669
496.852398
655.354857
862.049460
966.252685
981.179476
884.624720
737.977028
504.531860
353.747010
210.248828
137.069821
89.036822
86.247921
101.505518
126.857758
141.631961
153.814554
149.701834
130.658746
109.930634
81.228614
58.616996
36.640763
23.577809
13.825893
9.770989
6.713867
6.633997
6.435513
6.451607
6.653666
7.012486
6.581545
6.689429
6.937981
6.787777
7.209778
6.848574
7.333755
7.472634
6.996989
7.188916
7.634759
7.696748
8.905530
9.130836
9.022951
9.574890
9.535551
11.409521
11.586547
12.552738
14.172792
14.690757
15.669465
16.796589
19.353628
19.745827
21.156669
20.524859
21.997690
21.891594
21.037459
21.889806
22.358894
22.163987
22.673607
22.322536
23.806691
24.339557
23.421645
23.660660
24.807453
25.339723
25.904775
26.494861
26.168823
25.628805
25.238991
##ZVALUE=265
0.957847
1.023412
1.003742
0.976920
1.115799
1.027584
1.001954
1.281500
1.288652
1.138449
1.221895
1.633763
1.400709
1.751781
4.419684
20.524859
53.865910
138.814449
250.756741
466.513634
668.130517
847.736597
1011.809707
1015.871763
961.038470
831.526518
625.935793
442.910790
249.965787
150.963664
95.093846
69.875717
79.967976
109.133720
129.831433
149.452686
155.272484
145.693421
130.513906
103.554726
82.622766
54.636598
37.759542
21.547675
14.183521
8.011460
6.912947
6.060600
6.330609
6.606579
6.237626
6.296635
6.843805
6.510615
7.104874
7.315874
7.460713
7.635951
7.803440
8.170605
7.890463
8.724928
8.602738
9.498000
9.114742
10.190606
10.771751
10.655522
12.020469
13.289452
14.151931
15.719533
15.471578
16.981959
17.589927
18.862486
19.294620
19.344687
19.995570
19.926429
20.617843
20.030737
21.041632
21.375418
21.963716
22.018552
22.335649
22.187829
22.067428
22.681952
22.939444
23.185611
24.084449
23.926497
22.939444
23.820996
##ZVALUE=270
0.877976
1.022816
0.968575
0.764728
0.996590
0.914931
0.902414
1.203418
1.091957
1.203418
1.107454
1.057982
1.484752
1.506805
1.521707
1.702905
2.264977
9.783506
29.522777
99.828839
199.305415
357.908010
641.200542
854.647756
1015.881896
1015.881896
1015.881896
1013.392806
804.014802
598.817468
415.960550
218.646526
128.501654
67.074895
61.784983
83.560944
105.109811
132.936835
146.173835
154.211521
148.004889
130.806565
112.692714
80.369711
58.861971
36.750436
23.895502
13.964772
10.085702
7.619858
6.897449
7.122755
6.965995
6.836653
7.503629
7.615685
7.863641
7.894635
7.964969
8.795857
8.591413
8.576512
9.282827
9.105802
10.101795
10.501742
10.646582
10.985732
12.029409
13.466477
13.058782
15.136600
15.657544
16.476512
18.177629
17.810464
18.260479
18.399954
19.475818
20.000935
19.161701
18.886924
19.815564
21.108985
21.744967
20.688772
20.513535
20.654798
21.551847
21.630526
21.865964
22.444725
22.457838
22.615790
21.929741
23.400784
##ZVALUE=275
0.932813
0.836849
0.915527
0.854731
0.926852
0.801682
0.952482
1.045465
1.170635
0.850558
1.114607
1.121759
1.110435
1.180768
1.354814
1.666546
1.469851
1.679659
1.953840
4.398823
16.544461
51.465631
154.811740
294.830799
565.899611
779.196620
1012.271643
1015.871763
1015.871763
1015.871763
1015.871763
765.689015
537.362695
283.758640
164.155960
73.711872
51.011443
58.414936
78.944564
106.074810
125.832558
143.874884
149.704814
145.169497
130.510926
104.527473
84.050894
57.234764
40.824413
24.234653
16.952753
10.607839
8.365512
8.428693
7.744431
7.778406
8.590817
8.532405
8.475780
8.482933
8.844733
9.357929
9.339452
10.002851
10.201931
10.679960
11.117458
11.462569
12.281537
13.294816
13.937950
14.999509
15.880466
17.579794
16.739964
17.530918
18.866658
18.101931
18.700957
19.153953
19.437671
19.150972
19.348860
18.668771
20.021796
19.438863
19.805431
19.873977
20.334721
20.646453
20.506978
21.193624
20.969510
20.554662
20.483732
21.361709
##ZVALUE=280
0.815988
0.785589
0.668764
0.771880
0.787973
0.872612
0.939965
0.839829
0.838637
0.916719
1.006722
0.833869
0.933409
1.110435
1.115799
1.094937
1.266599
1.319647
1.616478
1.709461
1.886487
2.168417
10.998845
37.646890
126.835704
239.785910
458.533764
668.939948
955.509543
1015.873551
1015.873551
1015.873551
1015.873551
856.051445
640.879869
367.157459
216.875672
97.520947
53.041577
41.784644
53.619742
79.021454
102.129579
128.477812
142.298937
150.454640
143.464804
128.240585
109.101534
79.237819
58.898926
37.397742
26.021600
15.767813
11.468530
8.891821
8.969903
8.747578
9.335876
9.458661
10.029674
10.259748
11.064410
10.757446
10.553598
11.599660
11.865497
12.628436
13.248920
13.992786
14.747977
15.635490
16.248822
17.678738
17.903447
17.423630
17.823577
17.770529
19.338727
18.653870
18.597841
19.056797
18.771887
18.978715
19.602776
19.458532
19.536614
19.309521
20.275712
19.507408
20.102859
19.409657
19.529462
19.841790
19.886494
19.821525
##ZVALUE=285
0.758767
0.698566
0.946522
0.996590
0.680685
0.693798
0.742674
0.769496
0.782609
0.798702
0.805855
0.729561
0.895858
0.922680
1.049638
1.154542
1.031756
1.047850
1.237988
1.250505
1.425743
1.529455
1.612902
1.982450
5.824566
21.031499
75.958967
157.918930
346.878767
554.229617
777.253509
1015.865803
1015.865803
1015.865803
1015.865803
980.908871
768.145919
476.985574
297.897458
139.627457
71.909428
35.951734
34.678578
52.320957
71.754456
100.346804
120.178461
137.600899
144.026875
140.921474
127.699971
105.422735
85.639954
59.006810
42.613745
25.935769
17.821789
12.868643
11.264682
10.352731
10.272861
10.731816
11.296868
11.190772
11.581779
12.723804
12.769699
13.438463
13.803840
14.252663
14.847517
15.481710
17.045736
17.928481
17.590523
18.032789
18.238425
18.117428
18.683672
19.180775
18.916726
19.295812
19.862652
20.085573
19.517541
18.915534
19.799471
20.146966
19.558668
19.398928
19.147992
20.115972
19.852519
19.876957
20.181537
19.896626
##ZVALUE=290
0.737906
0.763535
0.585914
0.709891
0.572801
0.706911
0.854731
0.704527
0.791550
0.764728
0.835657
0.870824
0.969768
0.928640
1.084805
0.947714
0.802875
1.105666
1.063943
1.193881
1.305938
1.253486
1.536608
1.508594
1.594424
1.841784
2.713799
8.266568
40.783882
98.961592
200.756788
437.613726
679.475665
1005.742550
1015.899777
1015.899777
1015.899777
1015.899777
966.625810
639.450550
416.861773
206.583738
108.255744
41.888952
26.854873
34.734607
47.866702
71.261525
90.634823
116.697550
131.213665
140.558481
140.104890
125.910640
109.022856
81.616640
62.477589
41.065812
29.138923
18.441677
14.792681
11.955500
11.627674
12.055635
12.480617
12.339950
13.027787
13.797879
14.144778
15.091896
16.101599
16.690493
17.316937
17.977953
17.454624
18.450618
17.897487
19.175410
18.979907
18.782616
19.046664
19.030571
19.407868
19.423962
19.777417
19.652843
20.363927
19.152761
19.743443
19.102693
19.805431
19.673705
20.003915
19.583702
19.067526
19.269586
##ZVALUE=295
0.689626
0.765920
0.593662
0.721812
0.607967
0.698566
0.609756
0.724792
0.676513
0.761747
0.673532
0.771880
0.898838
0.758767
0.857711
0.821948
0.797510
0.940561
0.968575
0.878572
1.141429
1.098514
1.244545
1.308918
1.370907
1.313686
1.415610
1.943707
1.928806
3.490448
12.744665
60.066581
139.491558
344.173908
570.146441
934.582949
1015.871763
1015.871763
1015.871763
1015.871763
1015.871763
811.302662
559.747815
298.805833
160.880685
58.679581
28.975606
22.187829
29.796958
46.681762
63.855648
88.921785
109.012723
128.095746
133.868456
131.042600
121.579766
100.468993
82.109571
58.304667
43.095946
28.728843
21.334887
15.609860
13.997555
13.429523
13.941526
13.997555
14.726520
15.146732
15.446544
17.125607
17.464757
17.925501
17.749667
18.306971
18.871427
19.208789
19.364953
19.174814
19.430518
19.334555
20.761490
20.018816
20.524859
20.222664
20.519495
20.217896
19.542575
19.908547
20.039678
20.081997
19.574761
19.863844
19.049644
19.662976
##ZVALUE=300
0.505447
0.557899
0.643730
0.690818
0.599623
0.729561
0.657439
0.556707
0.681877
0.628829
0.686646
0.648499
0.752807
0.715852
0.676513
0.764728
0.743866
0.953674
1.023412
0.896454
0.955462
1.019835
1.039505
1.135468
1.106858
1.336932
1.140833
1.422763
1.448989
1.623631
2.044439
2.369881
8.529425
30.304790
106.405616
212.412477
458.228588
709.531903
1015.872955
1015.872955
1015.872955
1015.872955
1015.872955
1006.293893
680.589676
445.935726
227.261782
122.028589
42.962432
20.657778
19.204617
26.542544
42.369962
58.234930
82.340837
101.662874
122.271776
129.094720
126.580596
119.451880
99.871755
82.427859
62.366724
45.861602
30.041933
23.483634
18.173456
15.865564
15.272498
15.680790
16.147494
16.631484
17.164946
18.225908
18.430948
18.844604
19.561648
19.439459
19.734502
19.562840
20.238757
20.517707
20.525455
20.881891
20.625591
21.020770
21.363497
20.349622
20.962954
20.112991
19.948483
20.463467
20.475984
19.785762
19.835830
19.710660
##ZVALUE=305
0.333786
0.481606
0.424981
0.274777
0.256896
0.496507
0.473857
0.424981
0.373721
0.412464
0.500679
0.416636
0.452995
0.382662
0.574589
0.525713
0.532866
0.526905
0.506639
0.512600
0.667572
0.627637
0.455976
0.741482
0.781417
0.765920
0.820756
0.984669
0.905991
1.137853
1.288652
1.503825
1.702905
1.868606
4.378557
16.757846
72.101951
156.597495
361.063480
580.306649
922.717452
1015.665531
1015.665531
1015.665531
1015.665531
1015.665531
854.767561
607.800484
332.790017
182.122588
67.631602
29.168725
15.211701
17.821789
26.848912
39.123893
60.058832
76.877475
99.145770
113.266706
122.225881
121.508837
112.212896
99.044442
78.140497
60.442686
42.992830
31.720996
22.853613
19.522905
17.455816
17.250776
17.539859
18.025637
17.901659
19.053817
19.184947
19.280910
19.736886
20.322800
20.648837
20.509958
21.102428
20.701885
21.428466
20.780563
21.002889
20.990968
21.059513
20.236969
20.919442
20.684600
20.046830
19.895434
20.013452
19.579530
##ZVALUE=310
0.192523
0.399947
0.281930
0.408888
0.470877
0.490546
0.429749
0.380874
0.365973
0.472665
0.538826
0.466704
0.571609
0.616908
0.554919
0.498891
0.444651
0.521541
0.672936
0.492930
0.631809
0.531673
0.553727
0.656843
0.749826
0.871420
0.741482
0.953674
0.969768
1.080632
1.388788
1.280904
1.080632
1.261830
1.458526
1.879930
2.083778
8.762479
30.548573
105.760694
215.869546
467.560887
733.553767
1015.712023
1015.712023
1015.712023
1015.712023
1015.712023
1015.711427
754.742622
506.342649
253.637433
135.456920
47.569871
19.744635
13.582706
16.428828
25.064945
34.224987
53.255558
70.085526
92.089772
105.873942
115.154982
117.173791
108.350515
97.201467
78.567863
62.973499
43.598413
33.831000
25.956631
22.071600
19.430518
18.697977
19.175410
19.606948
19.676685
19.830465
20.220876
20.950437
20.912886
20.787716
21.276474
21.432638
22.168756
21.564960
21.339655
21.548867
21.069646
21.335483
21.128654
20.736456
20.406842
20.519495
19.996762
##ZVALUE=315
0.638962
0.415444
0.494719
0.682473
0.483990
0.627637
0.587702
0.576973
0.546575
0.581741
0.485778
0.651479
0.705719
0.522733
0.540614
0.601411
0.692606
0.588894
0.626445
0.635982
0.802875
0.845790
0.870824
0.815988
0.625849
0.870824
0.889897
0.931621
0.937581
1.020432
0.977516
1.162887
1.179576
1.114607
1.284480
1.449585
1.703501
1.785755
1.928806
3.499985
21.475554
61.121583
183.227658
340.676904
666.626692
957.047939
1015.872955
1015.872955
1015.872955
1015.872955
1015.872955
905.534029
563.079715
350.276828
164.819956
79.987645
24.504662
13.051629
12.513995
15.730858
23.286939
32.588840
50.087571
65.264702
87.135434
99.952817
111.023784
113.513470
105.139613
93.558431
74.462891
60.007572
45.107603
35.421848
26.545525
23.141503
20.684600
19.909739
19.944906
20.456910
20.816922
20.660758
21.595955
21.580458
22.240877
21.818876
22.013783
22.039413
21.912456
22.148490
21.581650
21.723509
21.689534
21.230578
21.241903
21.201968
##ZVALUE=320
0.452995
0.452995
0.602603
0.512600
0.563860
0.517964
0.423789
0.493526
0.569820
0.540614
0.611544
0.531673
0.646710
0.509620
0.608563
0.677705
0.657439
0.484586
0.643730
0.589490
0.779629
0.746846
0.585914
0.916719
0.752807
0.702739
0.977516
0.823736
0.839829
0.852942
0.802875
1.017451
1.134872
1.212955
1.133680
1.402497
1.315475
1.441836
1.528859
1.618862
1.924634
2.675653
9.042621
53.072572
131.805539
330.667496
556.122661
926.887989
1015.871763
1015.871763
1015.871763
1015.871763
1015.871763
1014.943719
762.130022
414.282680
235.301852
100.202560
46.861768
16.616583
11.694431
12.574792
15.214682
21.409988
30.151606
46.326518
61.921477
81.413984
95.634460
105.642676
108.202696
101.782680
92.313886
74.942708
60.965419
44.536591
35.684705
27.484894
24.485588
21.745563
21.271706
20.776987
21.457672
21.589994
21.724701
21.913648
21.684766
22.034645
21.816492
22.170544
22.009611
21.825433
21.813512
21.342635
21.403432
21.271706
##ZVALUE=325
0.560880
0.509620
0.462532
0.277758
0.630617
0.566840
0.525713
0.559688
0.747442
0.670552
0.681877
0.537634
0.452995
0.675917
0.562668
0.753999
0.614524
0.649691
0.782609
0.616908
0.594854
0.735521
0.693798
0.875592
0.644922
0.846982
0.867844
0.813603
1.009703
0.936985
0.928640
0.925660
0.976920
1.020432
0.941753
1.193881
1.034737
1.321435
1.171827
1.467466
1.576543
1.858473
1.955628
2.412796
4.842877
36.508441
97.994804
264.781713
471.176505
869.658589
1015.872955
1015.872955
1015.872955
1015.872955
1015.872955
1015.872955
962.844491
547.849536
322.019458
138.182640
64.076781
21.126866
12.070537
11.132956
12.429953
15.943646
21.253824
32.465458
44.461489
63.671470
78.179836
93.798637
102.830529
104.050636
97.795725
84.330440
72.342753
56.957603
45.542717
34.149885
28.180480
23.947954
22.362471
21.501780
21.790862
21.919608
22.145510
22.322536
21.711588
21.915436
21.762848
21.758676
21.669865
21.557808
21.215677
21.248460
##ZVALUE=330
0.376701
0.486970
0.537634
0.471473
0.549555
0.514984
0.524521
0.490546
0.459552
0.607967
0.489950
0.404716
0.534654
0.647902
0.633597
0.647902
0.655651
0.541806
0.772476
0.735521
0.605583
0.572801
0.746846
0.839829
0.744462
0.818968
0.704527
0.743866
0.793934
0.660419
0.937581
0.772476
0.906587
0.836849
0.734925
0.920892
1.187921
0.964999
1.029968
1.227856
1.267791
1.554489
1.564622
1.725554
2.064705
2.209544
2.723932
13.068914
45.034885
159.160495
316.125751
648.410916
968.196988
1015.871763
1015.871763
1015.871763
1015.871763
1015.871763
1015.871763
783.087611
496.332645
219.028592
106.039643
35.952926
16.270876
11.125803
11.552572
12.918711
15.788674
23.226738
30.629635
45.582652
58.733821
77.246428
88.520646
97.619891
97.739697
92.965961
82.425475
68.225861
56.444407
42.345524
35.172701
28.394461
25.429726
22.552609
21.817684
21.779537
21.912456
21.441579
21.214485
20.919442
21.170974
20.994544
20.766854
20.661950
##ZVALUE=335
0.390410
0.459552
0.532866
0.596642
0.521541
0.577569
0.666976
0.516772
0.528693
0.446439
0.469685
0.465512
0.399947
0.512600
0.714660
0.401735
0.457764
0.572801
0.618696
0.634789
0.659823
0.565648
0.662804
0.638962
0.646710
0.700951
0.574589
0.617504
0.673532
0.652671
0.622869
0.672936
0.624657
0.793934
0.721812
0.727773
0.988841
1.038909
1.151562
1.069903
1.199841
1.185536
1.185536
1.303554
1.482964
1.580715
1.738667
2.012849
2.342463
4.800558
29.132962
81.429482
232.051015
426.839590
809.606910
1015.871763
1015.871763
1015.871763
1015.871763
1015.871763
1015.871763
1015.639901
624.547601
365.712047
145.200491
62.357783
20.836592
12.861490
11.689663
12.414455
14.311671
16.901493
22.906661
30.499697
43.803453
56.636930
72.575808
83.810687
92.118979
93.594790
88.115931
79.244971
67.316890
56.342483
44.358969
36.066771
28.590560
25.729537
22.794604
21.430850
21.251440
20.969510
20.787716
20.377636
20.469427
20.412803
##ZVALUE=340
0.371933
0.500679
0.404716
0.450611
0.412464
0.475645
0.370741
0.493526
0.541806
0.480413
0.286698
0.323653
0.548959
0.494719
0.447631
0.469685
0.516772
0.653863
0.580549
0.588894
0.484586
0.530481
0.505447
0.532866
0.545979
0.635982
0.655651
0.682473
0.683665
0.677705
0.679493
0.786781
0.708699
0.893474
0.732541
0.931621
0.897646
0.889897
0.932813
1.056790
1.011491
1.042485
1.187921
1.208782
1.176000
1.295805
1.295805
1.497865
1.678467
1.811981
2.017617
3.244877
11.424422
56.985617
142.068863
353.235602
601.416826
979.935527
1015.871763
1015.871763
1015.871763
1015.871763
1015.871763
1015.871763
843.880773
438.550711
236.087441
87.814927
32.253861
13.788939
12.278557
12.444854
13.157725
14.497638
17.363429
23.292899
30.407906
42.388439
53.957701
69.996715
79.822540
88.422894
88.198781
84.345937
77.158809
64.644814
54.942966
41.953921
35.584569
29.051900
24.673939
21.535754
20.533800
20.361543
19.717813
19.755960
##ZVALUE=345
0.482798
0.436902
0.565648
0.538826
0.487566
0.438690
0.450611
0.411868
0.444651
0.400543
0.510812
0.433922
0.335574
0.424981
0.410676
0.524521
0.507832
0.462532
0.545979
0.460744
0.551939
0.450611
0.622869
0.463724
0.698566
0.503659
0.628829
0.758767
0.563860
0.636578
0.527501
0.707507
0.856519
0.819564
0.711679
0.827909
0.698566
0.748634
0.879765
0.621676
0.841618
1.018643
0.969768
1.036525
1.066923
1.256466
1.123548
1.057982
1.291633
1.395941
1.519918
1.794696
1.794696
2.291799
4.731417
32.720566
91.094971
239.968896
425.946712
782.433748
1015.871763
1015.871763
1015.871763
1015.871763
1015.871763
1015.871763
984.915495
605.015755
345.563889
132.310987
55.707693
18.228889
13.122559
12.601614
12.553930
13.442636
14.076829
17.195940
21.192431
30.056834
39.392710
53.755641
63.146949
74.451566
79.889894
83.264709
80.260634
72.213411
63.576698
52.613616
42.966604
32.902956
27.598739
22.788644
20.999908
19.481778
##ZVALUE=350
0.429749
0.434518
0.389814
0.528693
0.334978
0.512600
0.451803
0.537634
0.435710
0.503659
0.507832
0.493526
0.557899
0.488758
0.430942
0.531673
0.518560
0.537634
0.593662
0.486970
0.493526
0.562668
0.461936
0.594854
0.568628
0.552535
0.735521
0.505447
0.520945
0.671744
0.618696
0.585914
0.605583
0.684857
0.661612
0.699759
0.711679
0.618696
0.712872
0.877976
0.913739
0.899434
0.879765
0.849962
0.856519
0.969768
0.920892
1.070499
1.141429
1.166463
1.111627
1.288652
1.376867
1.715422
1.789927
2.074838
3.025532
15.904903
52.764416
168.993473
322.083831
639.752746
922.431946
1015.871763
1015.871763
1015.871763
1015.871763
1015.871763
1015.871763
741.477609
474.808812
231.554508
110.075474
29.240847
13.743639
11.851788
11.845827
12.110472
12.708902
14.297962
16.197562
21.526814
26.576519
36.224723
45.055747
56.982636
66.053867
73.779821
75.872540
73.974729
68.856478
58.426857
49.931407
39.166808
32.419562
25.819540
##ZVALUE=355
0.442863
0.466704
0.368953
0.548959
0.435710
0.386834
0.546575
0.410676
0.573993
0.480413
0.414848
0.626445
0.565648
0.543594
0.456572
0.497699
0.492930
0.517964
0.487566
0.497699
0.650883
0.631809
0.467896
0.545979
0.472665
0.659823
0.434518
0.664592
0.586510
0.662804
0.462532
0.645518
0.693798
0.821948
0.548959
0.655651
0.875592
0.703931
0.617504
0.751615
0.887513
0.745654
0.785589
0.860691
0.872612
0.905991
0.850558
1.015663
0.852942
1.160502
1.361966
1.196861
1.286864
1.580715
1.468658
1.643896
1.903772
1.885891
2.401471
8.734465
32.428503
118.246675
239.191651
494.592786
765.268803
1015.871763
1015.871763
1015.871763
1015.871763
1015.871763
1015.871763
861.550570
575.714707
276.440978
140.374899
45.078993
17.913580
11.577606
11.188984
11.556745
11.887550
12.139678
13.366938
15.515685
18.527508
24.604797
31.237602
41.775703
49.280524
59.858561
65.686703
69.554448
68.028569
63.538551
56.687593
47.106743
##ZVALUE=360
0.529885
0.576973
0.421405
0.459552
0.532866
0.418425
0.714660
0.434518
0.358820
0.465512
0.422597
0.465512
0.546575
0.532866
0.555515
0.701547
0.650883
0.490546
0.454783
0.748634
0.564456
0.666976
0.590682
0.671744
0.588894
0.617504
0.564456
0.554919
0.533462
0.641942
0.599623
0.659823
0.725985
0.514984
0.614524
0.696778
0.699759
0.744462
0.753999
0.801682
0.947714
0.797510
0.797510
0.835657
0.882745
0.978708
1.011491
1.087785
0.971556
0.966787
0.884533
1.176596
1.062751
1.287460
1.451969
1.451969
1.509786
1.517534
1.913905
2.059937
2.160668
3.907681
13.757944
64.051747
154.915452
366.580486
594.794750
963.072777
1015.871763
1015.871763
1015.871763
1015.871763
1015.871763
914.051533
628.289580
328.649879
169.511437
57.121515
24.151802
11.223555
10.542870
10.731816
11.090636
11.152625
11.310577
12.166500
13.539791
16.200542
19.447803
26.122928
33.612847
43.878555
51.467419
58.988929
61.908960
62.222481
##ZVALUE=365
0.404716
0.352859
0.511408
0.443459
0.490546
0.584722
0.392795
0.398755
0.368953
0.421405
0.472665
0.340939
0.450611
0.536442
0.454783
0.545979
0.377893
0.529885
0.558496
0.642538
0.442863
0.494719
0.539422
0.629425
0.520945
0.540614
0.553727
0.464916
0.707507
0.530481
0.535846
0.557899
0.664592
0.615716
0.652671
0.698566
0.652671
0.718832
0.645518
0.749826
0.751615
0.763535
0.757575
0.721812
0.782609
0.886917
0.881553
0.891685
0.891685
1.017451
0.992417
1.069903
1.101494
1.207590
1.307726
1.254678
1.211762
1.291633
1.347661
1.475811
1.646876
1.983643
2.095699
2.429485
4.721880
28.320551
88.085532
254.660845
464.863777
826.742649
1015.871763
1015.871763
1015.871763
1015.871763
1015.871763
1004.906893
746.458769
412.862897
220.093727
74.611902
28.752685
11.269450
9.522438
9.851456
9.811521
9.829998
10.269880
10.496974
10.980964
11.863708
13.738871
17.731786
22.152662
29.293895
35.929680
45.042634
##ZVALUE=370
0.419617
0.416636
0.510812
0.378489
0.276566
0.374913
0.319481
0.454783
0.383854
0.571609
0.472665
0.537634
0.533462
0.511408
0.534654
0.434518
0.551939
0.603795
0.596642
0.493526
0.599623
0.552535
0.386834
0.432730
0.681877
0.508428
0.501871
0.564456
0.487566
0.469685
0.584722
0.598431
0.578761
0.647902
0.757575
0.602603
0.550747
0.658631
0.636578
0.718832
0.764728
0.626445
0.502467
0.803471
0.676513
0.685453
0.850558
0.657439
0.578761
0.733733
0.874996
0.763535
0.840425
0.919700
0.951886
0.953674
1.013875
1.105666
1.137853
1.262426
1.273751
1.486540
1.520514
1.745820
1.855493
2.245903
3.035665
14.296770
49.600601
174.579620
336.799026
661.004782
966.981649
1015.872955
1015.872955
1015.872955
1015.872955
1015.872955
864.617825
493.661761
279.135704
108.780861
47.914982
16.283989
9.928942
9.136796
9.040833
8.928776
9.326935
9.029508
9.338856
9.932518
10.807514
12.530684
15.327930
20.366907
##ZVALUE=375
0.419617
0.369549
0.263453
0.376701
0.325441
0.265837
0.474453
0.411868
0.401735
0.477433
0.325441
0.436902
0.367761
0.445843
0.445843
0.425577
0.348687
0.430942
0.447631
0.489950
0.479817
0.363588
0.570416
0.458956
0.411868
0.605583
0.651479
0.554919
0.453591
0.410676
0.402927
0.643730
0.577569
0.490546
0.480413
0.555515
0.508428
0.674725
0.591874
0.538826
0.591874
0.498891
0.535846
0.605583
0.643730
0.487566
0.708699
0.669956
0.640750
0.795722
0.627637
0.725985
0.703931
0.787973
0.664592
0.781417
0.875592
0.865459
1.069903
0.888705
1.157522
1.061559
1.009703
1.210570
1.262426
1.335740
1.559854
1.882911
2.292991
7.000566
25.216937
96.155405
215.266943
505.433679
796.818733
1015.870571
1015.870571
1015.870571
1015.870571
1015.870571
963.441730
599.958897
387.972593
198.796988
98.455548
30.585527
12.555718
8.062720
8.184910
8.117557
8.198619
8.378625
8.437634
8.462667
8.861423
9.677410
##ZVALUE=380
0.311732
0.313520
0.357628
0.384450
0.264645
0.296831
0.306964
0.313520
0.334978
0.492930
0.321865
0.421405
0.339746
0.305772
0.310540
0.242591
0.422597
0.415444
0.443459
0.388622
0.351667
0.527501
0.425577
0.513792
0.367761
0.383854
0.467896
0.416636
0.384450
0.371933
0.435710
0.440478
0.471473
0.486970
0.416636
0.428557
0.423789
0.548959
0.442863
0.460744
0.388622
0.415444
0.485778
0.439882
0.499487
0.505447
0.433922
0.636578
0.521541
0.499487
0.530481
0.650883
0.563860
0.550747
0.729561
0.742674
0.582933
0.788569
0.824928
0.752807
0.852942
0.896454
0.969768
1.015663
1.057982
1.150966
1.282692
1.419783
1.656413
1.910925
2.103448
3.576875
12.448430
62.825680
153.867602
383.639932
639.099479
995.615721
1015.834808
1015.834808
1015.834808
1015.834808
1015.834808
762.767792
518.171787
261.021852
135.270953
46.414733
18.404722
8.454919
7.282495
7.191896
7.393956
7.452965
7.432699
7.767677
##ZVALUE=385
0.146627
0.199676
0.181794
-0.032783
0.301600
0.220537
0.317693
0.196695
0.050664
0.177622
0.139475
0.170469
0.182986
0.303984
0.232458
0.153780
0.169873
0.192523
0.121593
0.157952
0.307560
0.151992
0.207424
0.237823
0.329614
0.223517
0.309944
0.277758
0.248551
0.156760
0.083447
0.361800
0.213981
0.269413
0.273585
0.122786
0.196695
0.173450
0.271797
0.301600
0.343919
0.441670
0.316501
0.198483
0.227690
0.332594
0.345707
0.379682
0.376701
0.286698
0.278950
0.345707
0.554919
0.518560
0.489950
0.340939
0.441670
0.389814
0.487566
0.553727
0.587702
0.631809
0.748634
0.698566
0.705719
0.727773
0.904799
0.999570
1.170635
1.186728
1.398921
1.613498
1.803637
2.279878
5.870461
35.462976
95.958710
254.814625
470.818877
864.357948
1015.673876
1015.673876
1015.673876
1015.673876
1015.673876
896.096826
620.795488
339.221954
193.355680
81.961751
33.466816
9.626746
6.740689
6.635785
6.534457
6.738901
##ZVALUE=390
0.330806
0.257492
0.363588
0.351667
0.212789
0.298619
0.345707
0.131726
0.215769
0.385642
0.420809
0.282526
0.307560
0.357628
0.329614
0.247955
0.296831
0.423789
0.257492
0.285506
0.322461
0.400543
0.402927
0.365973
0.487566
0.329614
0.385642
0.352859
0.394583
0.577569
0.277758
0.447631
0.465512
0.599623
0.377893
0.406504
0.407696
0.343919
0.421405
0.416636
0.366569
0.474453
0.403523
0.481606
0.529885
0.500679
0.431538
0.425577
0.433922
0.602603
0.613928
0.578761
0.516772
0.487566
0.470877
0.496507
0.596642
0.687838
0.567436
0.638962
0.769496
0.667572
0.775456
0.750422
0.803471
0.782609
1.006722
0.977516
1.224875
1.354814
1.509786
1.472831
1.719594
1.710653
1.631975
1.956820
3.315806
18.510818
59.368610
191.961527
375.280976
734.954476
996.847749
1015.871763
1015.871763
1015.871763
1015.871763
1015.871763
785.425901
449.151993
249.620676
98.209977
44.192672
13.463497
7.111430
6.243587
##ZVALUE=395
0.423789
0.306964
0.244975
0.372529
0.266433
0.418425
0.299811
0.264645
0.229478
0.273585
0.374913
0.360608
0.315905
0.296831
0.251532
0.374913
0.385642
0.281930
0.402927
0.304580
0.380874
0.443459
0.302792
0.420809
0.387430
0.398755
0.256896
0.158548
0.296831
0.523925
0.467896
0.349879
0.248551
0.456572
0.455976
0.417829
0.318885
0.384450
0.346899
0.391603
0.424981
0.501871
0.515580
0.440478
0.383854
0.509620
0.432730
0.449419
0.441670
0.316501
0.490546
0.537634
0.656843
0.576973
0.591874
0.500679
0.604987
0.600815
0.540614
0.630617
0.700951
0.671744
0.671744
0.716448
0.632405
0.813603
0.940561
1.038909
1.219511
1.380444
1.181960
1.343489
1.516938
1.506805
1.530647
1.456738
1.601577
1.695752
2.365708
10.092854
37.034750
130.801797
253.745914
501.689911
763.306022
1015.871763
1015.871763
1015.871763
1015.871763
1015.871763
956.009626
568.886995
340.914726
140.892863
65.740943
20.850897
##ZVALUE=400
0.296831
0.285506
0.406504
0.234842
0.316501
0.242591
0.311732
0.388622
0.237823
0.203848
0.302792
0.473857
0.222921
0.391603
0.351667
0.342727
0.319481
0.354648
0.361800
0.459552
0.417829
0.368953
0.400543
0.164509
0.337958
0.356436
0.273585
0.369549
0.166893
0.272989
0.377893
0.385642
0.309944
0.349879
0.516772
0.431538
0.561476
0.422597
0.398755
0.415444
0.422597
0.406504
0.368953
0.494719
0.410676
0.486970
0.490546
0.450611
0.526905
0.586510
0.555515
0.535846
0.524521
0.551939
0.647902
0.526905
0.591874
0.684857
0.632405
0.676513
0.689626
0.653863
0.701547
0.565648
0.560880
0.823736
0.977516
0.900626
1.055598
1.005530
1.177788
1.293421
1.191497
1.320839
1.269579
1.302958
1.420975
1.405478
1.637936
1.641512
1.906753
5.301833
19.378662
72.195530
156.926513
357.430577
584.812760
922.926664
1015.873551
1015.873551
1015.873551
1015.873551
999.302864
694.610476
456.482768
225.016475
##END
