##TITLE=QP00651
##FORMAT=SPECTACLE-ASCII V-1.2
##DATA TYPE=ULTRAVIOLET SPECTRUM
##SECOND TYPE=ULTRAVIOLET SPECTRUM
##DATE=01/30/18
##TIME=15:59:25
##SPECTROMETER/DATA SYSTEM=SPECTACLE
##XUNITS=NM EM
##YUNITS=ENERGY
##YFACTOR=1
##FIRSTX=220
##LASTX=410
##NPOINTS=96
##3DDATA=Equidistant
##ZUNITS=NM EX
##FIRSTZ=210
##LASTZ=400
##ZPOINTS=39
##XYDATA=(Y..Y)
##ZVALUE=210
1.584888
1.981854
2.137423
2.167821
2.268553
2.508759
2.395511
2.110600
2.026558
2.138615
2.042651
1.913905
1.759529
1.867414
2.189875
2.399683
1.846552
2.579689
2.249479
2.395511
3.104806
2.576709
3.241897
3.215671
3.587604
3.539920
4.066825
3.981590
3.871918
3.159642
4.049540
3.512502
3.365874
3.710985
4.057884
4.653931
4.939437
5.063415
4.891753
4.567504
5.622506
5.006790
4.634857
5.197525
5.343556
5.308986
5.881786
5.314946
5.674958
5.065799
4.601479
5.889535
6.700754
6.126761
6.149411
5.773902
6.195903
6.559491
6.958842
6.299615
5.403757
7.337928
7.226467
5.882978
7.079840
6.923676
6.998777
8.707643
9.409785
10.980964
13.185740
14.579892
16.011596
19.415617
21.005869
21.276474
22.518635
21.735430
20.164847
19.273758
18.267632
15.297532
15.532970
12.715459
9.764433
8.177757
7.975698
7.541776
6.852746
6.638765
5.979538
7.052422
6.502867
6.924868
6.409883
7.273555
##ZVALUE=215
5.070567
5.617738
5.068779
3.863573
4.001856
4.051924
4.050732
3.783703
4.065633
4.169941
4.511476
4.207492
3.451705
2.682805
2.704859
2.354980
2.295971
2.512932
2.708435
3.005862
2.808571
2.568960
2.552867
3.564954
3.301501
3.760457
3.768802
4.196763
4.561543
4.384518
4.170537
4.113913
3.927946
4.172921
4.501939
5.148649
4.565716
3.889799
5.125999
4.862547
4.651546
4.644990
5.138516
5.251765
5.076528
5.671978
5.835891
5.662441
5.525947
5.576611
5.598664
6.841421
6.233454
6.743670
6.899834
5.798936
6.713867
7.353425
6.922483
7.126927
6.552935
7.347465
7.289648
7.688999
7.228851
7.607937
8.283854
10.522604
11.000633
12.372732
13.304949
16.902685
19.776821
21.880865
22.926927
24.096966
24.946928
25.199652
24.344921
20.193458
18.175840
14.914870
14.870763
13.002753
10.696650
9.197593
9.308457
8.065701
7.925630
7.062554
6.785989
7.554889
7.166862
7.429719
6.923676
6.898642
##ZVALUE=220
17.981529
17.330647
18.312931
18.567443
17.939806
14.762878
11.971593
10.730624
9.309649
10.092854
10.500550
10.604858
9.756684
10.542870
7.220507
6.548762
5.547404
4.012585
3.988743
2.743602
3.781915
3.695488
3.791451
3.875494
3.607869
4.244447
4.466772
4.178882
3.868937
4.275441
4.439950
3.730655
4.713535
4.575849
4.754663
5.431771
5.842447
5.296469
4.997849
4.761815
5.461574
5.826950
6.207824
5.773902
5.581975
5.497932
6.393790
6.570816
6.434917
7.256866
6.145835
7.394552
6.063581
7.017851
6.992817
6.542802
6.001592
7.098913
7.397532
5.941987
6.642938
7.671714
7.706881
7.209778
6.843805
9.065866
7.861853
8.585453
9.073615
11.671782
13.031960
13.608932
16.933680
19.870996
18.717647
19.654632
19.328594
19.749999
18.793941
18.709898
17.111897
14.347434
13.837814
12.367964
10.549426
8.385777
8.931756
8.489490
7.761717
6.801486
6.346703
6.805658
6.599426
5.666614
6.626844
7.163882
##ZVALUE=225
29.888749
33.353567
42.955875
53.470731
58.077574
62.912703
57.161450
47.372580
37.651658
28.716922
22.185445
21.634698
22.186637
25.476813
23.974776
22.949576
19.154549
15.503764
12.085438
7.832646
6.626844
4.525781
3.788471
4.209876
3.748536
3.682971
4.049540
4.525781
4.674792
4.928708
4.834533
4.816651
5.328655
4.865527
5.375743
5.532503
5.909801
5.356669
5.909801
5.787611
5.487800
5.525947
5.712509
6.693602
5.982518
5.667806
6.182790
6.399751
6.532669
7.464886
6.146431
5.887747
6.290674
7.235408
7.161498
6.804466
7.648468
7.399917
7.535815
7.459521
7.807612
7.284880
8.692741
8.112788
8.520484
8.214712
8.627772
8.730888
11.700988
11.555552
13.109446
15.055537
17.151833
18.418431
20.654798
19.730926
19.114614
20.701885
20.020604
16.797781
16.161799
15.526414
13.691783
12.509823
11.148453
11.285543
9.641647
8.682609
9.126663
9.689927
9.210706
9.137988
7.675886
8.095503
8.603930
9.129643
##ZVALUE=230
26.730895
30.087829
50.128698
85.538626
111.246705
138.778687
154.543519
153.780580
144.619942
124.087930
85.186958
65.193772
48.233867
41.808486
41.782856
45.413971
50.616860
47.790408
44.667721
34.119487
26.687980
18.096566
13.520718
7.555485
6.339550
5.455613
5.666614
5.670786
5.610585
5.839467
5.221963
5.637407
6.666780
5.730987
6.275773
6.226897
6.674528
6.690621
6.232858
5.930662
6.818771
7.102489
7.288456
6.886721
7.014871
7.095933
6.968975
7.412434
7.523894
7.824898
7.174611
7.289648
7.591844
8.661747
8.742809
8.501410
8.794665
8.885860
8.614659
8.810759
8.970499
10.014772
9.068847
10.196567
9.409785
10.565519
10.570884
11.565685
12.807846
14.054775
17.047524
18.587708
19.362569
21.196604
21.421909
22.330880
21.656752
20.887852
21.093488
19.759536
19.037724
16.746521
17.766953
15.410781
14.046431
12.552738
14.280677
12.735724
12.485981
12.299418
12.848973
11.797547
11.281967
12.374520
11.453629
11.357665
##ZVALUE=235
10.212660
13.451576
25.677681
63.909888
107.505918
167.913437
229.005814
293.241739
322.886705
325.753689
300.261974
237.313509
180.682540
119.918585
88.761449
76.537728
69.586635
71.094632
81.280470
80.776811
75.582862
69.176555
47.987700
37.455559
23.218989
16.150475
10.557771
9.173751
6.982684
7.163882
7.529855
8.152723
7.823706
7.712841
7.887483
7.194877
7.688999
6.594658
7.041693
7.341504
7.400513
7.931590
7.324815
7.892847
7.340908
7.340908
7.714629
7.454753
7.817745
9.097457
7.713437
8.689761
8.188486
8.919835
7.518530
8.590817
8.493662
9.160638
9.922981
9.918809
10.165572
9.675622
11.439919
11.742711
10.819435
12.476444
11.990666
12.620687
15.869737
17.349720
18.736720
20.824671
21.942854
23.164749
25.151968
25.492907
25.909543
25.108457
22.458434
22.293925
21.964908
20.868778
19.495487
19.120574
16.912818
17.260909
16.590953
15.891790
16.252995
15.396476
14.961958
15.775561
14.329553
14.759898
16.088486
14.872551
##ZVALUE=240
1.553893
1.883507
4.275441
16.439557
37.086606
86.762905
144.821405
251.933932
345.496535
431.219935
507.533550
520.595908
462.813973
396.555662
292.341709
210.542679
134.101510
104.615688
91.765523
97.297430
105.280876
117.699504
114.995837
98.995566
84.933639
61.417818
46.828985
32.151937
20.390749
15.787482
10.953546
9.821653
9.664893
8.604527
9.567738
8.148551
8.478761
8.136630
7.850528
8.476973
7.880926
6.883740
8.243918
8.509755
8.440614
7.738471
8.022785
8.946657
8.857846
8.096695
8.239746
8.795857
8.771420
9.224415
10.058880
8.881688
9.766817
9.921789
10.129809
10.568500
10.940433
10.896921
11.879802
11.555552
12.938976
13.450980
13.944507
15.872717
15.817881
18.566847
19.469857
21.630526
23.789406
27.882457
27.458668
27.373433
25.908947
25.192499
27.422905
25.922656
23.293495
22.910833
20.995736
22.544861
19.364953
19.171834
20.148754
20.204782
18.528700
19.327998
18.774867
19.702911
18.900633
19.234419
16.937852
17.502904
##ZVALUE=245
1.506805
1.130700
1.559854
1.946688
3.235936
12.549758
31.507611
87.701678
156.051517
274.987817
387.776494
535.853505
617.251992
653.179884
624.947548
516.127944
419.315696
285.051465
200.867653
128.893852
103.474855
99.090934
114.241838
125.611424
129.919648
127.590895
111.344457
96.186996
72.824955
57.204962
37.915707
24.405718
19.923449
12.526512
10.622740
10.276437
9.335876
8.839965
9.112954
8.542538
7.932782
8.520484
7.508993
6.504655
7.154942
7.078648
6.132722
7.160902
6.852746
6.891489
7.411838
7.818937
8.178949
7.534623
7.795691
8.497834
8.655787
8.709431
9.350777
9.175539
9.776950
10.098815
10.102987
10.471940
12.117624
12.070537
12.346506
13.278723
14.517903
14.876723
17.687678
21.269917
21.852851
22.697449
22.006631
24.873614
25.574565
22.891760
22.595525
23.158789
21.968484
20.540953
20.360947
20.268559
20.087957
19.539595
17.899871
18.684864
18.835664
18.147826
18.625855
17.794967
19.120574
19.602776
19.178987
17.651916
##ZVALUE=250
1.430511
1.188517
1.243949
1.376867
1.131892
1.132488
2.216697
7.340908
29.932857
62.214732
158.626437
264.021754
383.072495
556.730628
670.210719
769.777894
756.120682
682.153702
585.647821
402.413011
278.874636
182.930827
113.750696
96.002817
107.294917
122.801661
137.514472
144.848824
137.346983
121.713877
110.132694
81.676841
59.728622
38.168430
26.435852
16.520619
11.219978
9.538531
8.959770
8.208752
7.986426
6.994605
6.875992
7.237792
7.243752
6.317496
6.392598
6.304979
6.592870
6.843805
6.925464
6.400943
7.061958
6.826520
6.992817
6.930828
7.408857
6.676912
7.023811
7.956624
7.674694
8.242726
8.506775
9.127855
9.743571
9.702444
10.189414
11.533499
12.635589
13.365746
15.747547
16.442537
17.818809
20.083785
20.793676
21.111965
21.614432
21.661520
20.814538
20.363927
19.691586
19.940734
18.039942
18.230677
18.078685
18.690825
17.611980
16.836524
18.156767
17.361641
18.145442
18.102527
16.963482
17.989874
17.467737
17.642975
##ZVALUE=255
1.197457
1.103878
1.061559
0.811815
1.307726
1.264811
1.308918
1.638532
1.914501
4.009604
19.829869
49.898624
102.248788
223.711729
349.150896
548.679829
692.936778
832.116604
900.101662
857.622623
750.253797
606.161952
388.720632
249.858499
135.871768
99.266768
90.894699
102.986693
124.436617
139.348507
142.025948
142.710805
127.959847
103.378892
84.440708
56.689978
38.241744
22.799969
14.505982
9.712577
8.201599
6.115437
6.581545
6.081462
6.928444
6.176829
5.588531
6.248951
6.167889
6.073713
6.040931
6.436706
6.244779
5.905628
6.486773
6.099939
6.677508
6.735921
6.135702
7.038713
7.743835
7.510781
7.835627
7.852912
7.925630
8.995533
9.454489
9.016991
10.321736
11.793971
12.000799
14.187694
15.895963
16.498566
16.090870
17.562509
17.605424
17.486811
16.519427
16.830564
16.929507
16.670823
15.249848
15.428662
16.282797
15.138984
16.807914
15.990734
16.051531
16.105771
15.595555
15.628934
16.215444
15.807748
15.325546
16.059875
##ZVALUE=260
1.028776
0.925660
1.236796
1.073480
1.186728
1.207590
1.216531
1.344681
1.329780
1.662970
1.731515
2.165437
6.937981
31.286478
71.801543
172.562003
287.573934
484.326482
651.715994
869.177580
982.791781
1014.634967
925.005674
786.139965
540.356636
370.903015
218.113661
138.179660
86.806417
83.186626
104.734898
124.079585
141.084790
146.627426
143.793821
125.681758
107.205510
77.293515
59.738755
36.448836
22.613406
12.620687
8.401871
6.248951
5.550981
6.205440
6.281734
6.016493
5.889535
6.062984
5.672574
5.875826
6.112456
6.452799
6.047487
6.160736
5.797744
5.780458
6.081462
6.008744
6.483793
6.819963
7.224679
6.570816
6.804466
7.541776
8.458495
8.799434
8.921623
10.181665
10.994673
11.962652
11.918545
13.720989
15.245676
14.359951
14.850497
14.563799
14.991760
15.072823
14.214516
14.184713
13.920665
14.212728
13.662577
14.112592
14.134645
14.367700
14.159679
13.785958
14.417768
14.806986
14.594793
15.197992
15.085936
15.370846
##ZVALUE=265
1.111627
0.829697
0.690818
0.883937
0.884533
0.967979
1.102686
1.106858
1.070499
1.211762
1.251698
1.653433
1.404881
1.683831
3.799796
21.069646
51.449537
131.903887
235.239863
447.236896
635.624528
823.932886
1010.816693
1015.865803
1014.229655
909.491777
694.206953
508.146882
284.629464
177.468657
110.566616
73.324442
80.668926
106.331706
127.004981
145.776868
150.206685
140.408874
127.891898
101.536512
81.206560
51.296949
35.475492
20.027757
12.414455
8.084774
6.116629
5.515814
5.076528
5.347729
5.516410
5.808473
5.133748
6.045699
5.704761
5.692840
5.401969
5.388856
5.895495
5.455613
5.581975
6.256700
6.555915
6.671548
6.759763
7.301569
7.064939
8.193851
8.898973
9.371638
9.853840
10.782480
11.103749
12.596846
13.254881
13.064742
13.202429
13.234615
11.963844
12.441874
12.027621
12.009740
12.577772
12.605786
12.158751
12.980700
12.496710
11.916757
13.247728
13.402700
13.624430
12.793541
13.149977
13.154745
13.182759
13.676882
##ZVALUE=270
0.723600
1.094937
1.070499
0.860691
0.919700
1.000762
0.764728
0.998974
1.115799
1.225471
1.265407
1.254678
1.308918
1.230836
1.406670
1.540780
2.195835
9.865761
29.495955
96.668005
192.518830
336.437821
595.643520
804.472566
1015.871763
1015.871763
1015.871763
1015.871763
833.613873
637.728572
442.699790
237.306952
137.352943
70.129633
61.042905
80.205798
102.006793
129.418969
142.106414
150.191784
144.416690
125.818849
106.509924
76.182485
56.417584
32.784939
21.906495
13.000965
8.450747
6.171465
5.971789
5.420446
5.059838
5.123615
5.732775
5.390644
5.831718
5.698800
5.888939
5.830526
5.984902
6.404519
6.132722
6.166697
6.267428
6.585717
7.342696
7.505417
7.926822
8.885860
9.032488
10.197759
11.059642
11.415482
11.487603
11.830926
12.042522
11.761785
11.495948
11.991858
11.757612
11.608601
12.220740
12.209415
12.392998
11.923909
11.954904
11.965632
11.643767
12.584925
11.474490
11.842847
12.609959
13.225675
12.544990
12.810826
##ZVALUE=275
0.774860
0.744462
0.717640
0.853539
0.846982
0.916719
1.118779
0.995994
0.949502
1.008511
0.944734
1.071692
1.110435
1.241565
1.415610
1.629591
1.384616
1.663566
1.483560
4.341602
18.176436
54.939985
161.136985
296.287537
546.098948
748.002529
977.630615
1015.920639
1015.920639
1015.920639
1004.858613
760.763884
548.624992
293.828845
168.516636
78.962445
52.762628
56.728721
75.609684
101.949573
121.471882
142.241716
147.760510
141.170621
127.396584
99.716783
81.666708
54.148436
38.753748
21.236539
13.617873
8.837581
6.602407
5.662441
5.493760
5.360842
5.709529
6.104708
6.096959
6.032586
6.297827
5.822778
6.781816
6.953478
6.987453
6.407499
7.642508
7.327795
7.933974
8.311868
9.439588
9.543896
11.111498
11.560917
11.750460
11.734962
11.898875
11.579990
11.719465
11.418462
11.161566
11.322498
11.295676
11.210442
10.918975
10.973811
11.147857
11.520982
11.291504
11.339784
10.893941
11.985898
11.256933
12.113452
11.877418
11.364818
##ZVALUE=280
0.684857
0.731945
0.737906
0.787973
0.808835
0.851750
0.831485
0.735521
0.866652
1.122952
1.092553
0.956655
1.051426
1.060963
1.037717
1.099706
1.211762
1.331568
1.530647
1.666546
1.831651
2.461672
13.592839
43.203831
69.408417
256.356001
420.042872
699.828863
898.458958
1015.879512
1015.879512
1015.879512
1015.879512
851.419568
641.751885
374.816656
220.122933
95.862746
52.975416
40.723681
51.599741
77.506900
97.196698
122.933984
137.441754
142.115951
137.369633
121.753812
104.851723
74.788928
55.922866
35.210848
23.667812
13.662577
9.502769
6.441474
5.752444
5.364418
5.535483
5.872846
6.247759
6.266832
6.556511
6.815791
6.587505
6.921887
7.449985
7.263422
7.674694
8.664727
8.752942
9.465814
9.577870
10.654926
11.107922
11.284947
11.188984
10.826588
10.891557
10.456443
10.949969
10.656714
10.782480
10.416508
10.542870
11.008978
10.946989
11.293888
11.077523
10.717511
10.975599
10.872483
11.243820
11.411905
10.696650
10.436773
##ZVALUE=285
0.671744
0.720620
0.904799
0.890493
0.591874
0.680685
0.706911
0.604987
0.939965
0.905991
0.820756
0.739694
0.656843
0.832677
0.852942
0.889897
1.070499
1.010895
1.048446
1.226664
1.312494
1.382828
1.567602
1.935959
5.846620
20.138621
72.995424
151.050687
332.744718
531.644821
748.496652
1015.300751
1015.871763
1015.871763
1015.871763
1003.579497
810.832977
497.417450
315.172672
144.556761
73.034763
34.623742
32.755733
50.666928
69.586635
97.393990
114.929676
132.354498
138.603449
135.337710
124.119520
101.447701
82.250834
56.287646
38.342476
22.833943
14.745593
9.471774
7.410645
6.776452
6.242990
6.553531
6.428957
6.679893
6.785989
7.053614
7.879734
8.284450
8.668900
8.659959
8.781552
9.331703
9.922981
10.306835
10.290742
10.301471
11.010766
10.471940
10.146499
10.581613
10.399818
10.263920
10.500550
10.355711
10.941625
9.869933
10.557771
10.341406
10.143518
10.703802
10.716915
10.948777
10.266900
10.622740
10.340810
10.256767
##ZVALUE=290
0.737906
0.747442
0.798702
0.697970
0.680685
0.758767
0.857711
0.866652
0.757575
0.886917
0.951886
0.819564
0.899434
0.895858
1.016855
0.927448
0.942945
1.064539
1.067519
1.318455
1.229644
1.072884
1.278520
1.371503
1.654625
1.864433
2.985597
8.848906
44.010878
104.671717
251.156688
426.757932
739.861727
988.122821
1015.899777
1015.899777
1015.899777
1015.899777
929.285884
696.640015
408.311486
243.377686
101.617575
47.769547
25.985837
30.576587
47.674775
64.977407
90.105534
109.454989
128.840804
135.003924
131.037831
120.952725
98.639727
79.802871
53.523779
38.668513
22.938848
16.113520
10.322928
7.933974
7.039905
7.147789
7.366538
7.437468
7.898808
7.836819
8.526444
8.716583
9.178519
9.919405
10.017753
10.236502
10.730624
10.702610
10.722876
10.611415
10.504723
10.648966
10.448694
10.852814
10.468960
10.395646
10.170937
10.395646
10.542870
10.444522
10.666847
10.542870
10.403991
10.327697
10.696650
10.348558
10.141730
10.468960
##ZVALUE=295
0.504851
0.556707
0.670552
0.647902
0.488758
0.618696
0.658631
0.728965
0.802875
0.667572
0.596642
0.668764
0.568628
0.765920
0.839829
1.050830
0.738502
0.813603
0.853539
0.982881
0.942945
1.119971
1.174808
1.140833
1.281500
1.389980
1.552701
1.766682
1.847744
3.738403
13.718605
64.602494
155.221820
377.354622
614.178777
975.610018
1015.774608
1015.774608
1015.774608
1015.774608
1015.774608
846.843719
592.243671
314.221978
169.790983
61.361790
30.130744
21.075606
27.568936
44.332743
61.489940
86.871982
103.653669
120.865703
128.487945
125.260949
115.462542
96.169710
76.343417
54.078698
38.521886
23.852587
16.579628
11.122823
8.709431
7.971525
7.742643
8.302927
8.619428
9.079576
9.119511
10.075569
10.524988
10.438561
10.818839
10.615587
10.628700
10.728836
10.793805
10.762811
10.764599
10.457635
10.358691
10.879636
10.677576
11.272430
10.608435
10.700822
10.439754
10.287762
10.023713
10.432601
10.370612
9.889603
10.074973
10.229945
##ZVALUE=300
0.650883
0.666976
0.587702
0.629425
0.510812
0.627637
0.708699
0.609756
0.641942
0.684857
0.703931
0.639558
0.603795
0.806451
0.788569
0.834465
0.890493
0.861883
0.828505
0.974536
1.063943
1.133680
1.005530
1.357794
1.102686
1.195669
1.203418
1.313686
1.578927
1.750588
1.847744
2.228618
9.673834
35.131574
120.468736
242.709517
518.270731
791.983604
1015.872955
1015.872955
1015.872955
1015.872955
1015.872955
1010.471582
682.480931
438.756943
214.014649
114.697814
41.087866
20.101666
18.928647
25.514960
40.434599
56.853890
79.596639
97.638965
117.229819
123.826861
121.802688
113.990903
94.793439
78.378916
54.841638
40.356517
24.801493
17.987490
12.326837
10.269880
9.375811
9.799600
10.223985
10.895729
10.371804
11.084676
11.668801
11.316538
11.511445
11.225939
11.238456
11.205673
11.334419
11.230707
10.889769
11.047721
11.488795
10.790825
11.165738
10.605454
11.037588
10.953546
10.627508
10.732412
10.318756
10.033846
10.180473
10.085702
##ZVALUE=305
0.540614
0.563860
0.714660
0.720620
0.462532
0.493526
0.697970
0.718832
0.616908
0.559688
0.627637
0.480413
0.640750
0.577569
0.652671
0.683665
0.889897
0.954866
0.791550
0.792742
0.885725
0.915527
0.945926
0.972748
1.058578
0.994802
1.256466
1.173615
1.426935
1.638532
1.548529
1.706481
1.914501
2.267957
4.236698
25.586486
72.828531
209.174752
387.453437
735.023022
1001.614928
1015.871763
1015.871763
1015.871763
1015.871763
1015.871763
897.527933
554.067492
337.587595
147.376657
70.947409
24.259686
14.887452
17.791986
24.218559
39.250851
54.570436
77.408552
93.124509
109.783411
117.224455
117.276907
107.871890
90.464950
74.818730
52.649975
39.445758
24.926662
18.260479
13.567805
11.460781
11.019707
11.170506
10.677576
11.108518
11.634827
11.107922
11.303425
11.306405
11.021495
11.240840
11.213422
11.265874
11.251569
11.660457
11.410713
11.562705
11.044741
10.999441
11.293888
10.557771
10.811687
10.790825
10.363460
10.271668
10.224581
##ZVALUE=310
0.641942
0.525713
0.568628
0.807643
0.655651
0.524521
0.632405
0.537634
0.440478
0.628829
0.672936
0.795722
0.641942
0.587702
0.610948
0.636578
0.570416
0.831485
0.747442
0.734925
0.773668
0.841618
0.982881
0.872612
0.916719
1.023412
1.136661
1.009703
1.019835
1.123548
1.311898
1.437664
1.659989
1.620650
1.603961
2.138615
2.486706
11.303425
41.487813
137.491822
274.885893
558.682680
856.868625
1015.871763
1015.871763
1015.871763
1015.871763
1015.871763
1015.871763
757.360458
489.059687
238.958597
123.025775
43.195486
18.278956
12.499690
15.133619
32.996535
33.039451
49.284697
65.596700
87.618828
100.430846
111.296773
111.099482
103.048682
91.964602
71.776509
55.666566
38.045645
27.257800
18.654466
14.891624
12.424588
11.208653
10.771751
11.005998
10.973811
10.849833
10.752678
11.129975
10.849833
11.202693
11.156797
10.973811
10.951757
11.158586
11.196733
11.260509
11.016726
11.198521
10.869503
10.736585
10.140538
10.481477
9.951591
##ZVALUE=315
0.537634
0.425577
0.555515
0.423789
0.508428
0.483990
0.748634
0.548959
0.679493
0.559688
0.640750
0.758767
0.795722
0.665784
0.862479
0.803471
0.583529
0.690818
0.715852
0.588894
0.700951
0.621676
0.816584
0.928640
1.010895
0.918508
0.921488
1.052618
0.927448
1.083612
1.112819
1.153946
1.360774
1.281500
1.461506
1.663566
1.739860
1.894832
2.299547
5.784631
24.498701
103.050470
225.800872
496.121645
783.186555
1015.872955
1015.872955
1015.872955
1015.872955
1015.872955
1015.872955
993.869901
694.688559
355.508924
184.551477
64.909458
26.743412
11.473894
11.192560
15.192628
20.523667
32.644868
44.543743
63.955784
79.605579
97.023845
103.985667
105.395913
98.931789
84.688663
71.148872
52.084923
39.148927
25.632977
19.922853
14.730692
12.529492
11.792779
11.335611
10.784864
10.873675
10.539889
11.024475
10.685921
10.852814
11.200905
11.154413
11.061430
10.873675
10.343790
10.809898
10.579824
10.606647
10.641813
10.391474
10.002851
##ZVALUE=320
0.430942
0.601411
0.617504
0.495911
0.357628
0.521541
0.500679
0.567436
0.744462
0.529885
0.523925
0.641942
0.558496
0.577569
0.573993
0.539422
0.633597
0.640750
0.700951
0.743866
0.676513
0.549555
0.758767
0.706911
0.823736
0.835657
0.953674
0.876784
1.090765
0.927448
1.076460
1.096725
0.941753
1.246929
1.206994
1.272559
1.386404
1.496673
1.662970
2.039671
2.199411
3.082752
9.826422
64.839721
172.898769
444.932580
723.835826
1015.871763
1015.871763
1015.871763
1015.871763
1015.871763
1015.871763
1015.871763
900.533795
485.406518
268.534422
108.760595
46.294928
15.057921
10.856986
11.065602
13.390779
19.334555
27.923584
43.223500
56.477785
75.246692
89.066625
99.219680
101.724863
94.613433
85.433722
67.132711
52.350760
36.565661
27.260780
19.018650
14.938712
12.158751
11.446476
10.928512
10.750890
10.978580
10.808706
10.899901
10.969639
10.815859
10.742545
10.742545
10.613799
10.274649
10.557771
10.511875
10.222793
10.486841
##ZVALUE=325
0.409484
0.408888
0.604987
0.582933
0.643730
0.656843
0.640750
0.606775
0.520945
0.654459
0.582933
0.591874
0.585914
0.585914
0.628829
0.548959
0.614524
0.557899
0.491738
0.509620
0.562668
0.585914
0.799894
0.758767
0.652671
0.774860
0.982881
0.868440
0.906587
0.919700
0.977516
0.812411
0.981688
1.121759
1.205802
1.176000
1.249909
1.404881
1.302958
1.606941
1.747608
1.898408
2.191663
2.552867
6.019473
24.822950
107.150674
240.255594
553.792715
880.996585
1015.872955
1015.872955
1015.872955
1015.872955
1015.872955
1015.872955
986.375809
704.510808
378.553867
206.835866
72.891712
27.366877
10.546446
9.721518
10.514855
12.766719
19.015670
27.175546
42.285919
57.032704
74.774623
85.544586
94.653964
95.381737
89.334846
78.583956
62.914491
48.949718
34.523606
25.507808
17.292500
14.383793
11.917949
11.256933
10.880828
10.654926
10.658503
10.583997
10.791421
10.496974
10.194778
10.525584
10.029674
10.270476
10.277629
10.093451
##ZVALUE=330
0.630617
0.528693
0.380874
0.542998
0.423789
0.413656
0.486970
0.443459
0.581741
0.558496
0.496507
0.552535
0.682473
0.496507
0.659823
0.552535
0.584722
0.669956
0.656843
0.706911
0.701547
0.590682
0.626445
0.652671
0.619888
0.908971
0.987649
0.736713
0.998974
0.808835
0.902414
0.984669
0.992417
1.062751
1.080632
1.134872
1.053810
1.154542
1.254678
1.283884
1.307726
1.391768
1.761913
1.784563
1.990795
2.094507
3.290772
10.079741
55.675507
141.106844
374.128819
646.487474
1015.871763
1015.871763
1015.871763
1015.871763
1015.871763
1015.871763
1015.871763
890.846848
484.560728
269.815922
106.860995
45.185685
13.737679
9.524822
9.421706
10.012984
13.505816
18.602610
29.169917
39.273500
55.381656
67.918897
81.769824
87.864995
88.984966
83.795786
72.077513
59.803724
43.442845
34.033656
24.712682
19.000769
14.502406
12.276769
10.638833
10.446906
10.382533
10.215640
9.896755
9.826422
10.230541
9.774566
9.679794
9.641647
##ZVALUE=335
0.529885
0.678897
0.460744
0.586510
0.376701
0.508428
0.571609
0.541806
0.485778
0.572801
0.483990
0.590682
0.437498
0.371933
0.539422
0.401735
0.581741
0.517964
0.562668
0.628829
0.625849
0.671744
0.503659
0.491738
0.457764
0.637770
0.787973
0.761747
0.679493
0.776649
0.755787
0.574589
0.635982
0.714660
0.829697
0.798702
0.940561
0.811815
1.111627
1.066923
1.117587
1.271963
1.306534
1.286864
1.563430
1.801848
1.818538
2.126694
2.432466
6.602407
26.337504
109.261870
234.941840
535.262823
871.886015
1015.875936
1015.875936
1015.875936
1015.875936
1015.875936
1015.875936
963.793993
637.636781
322.490931
162.730813
55.584908
22.249818
9.858608
9.179711
9.670854
10.344982
13.205409
17.680526
27.119517
36.911964
51.946640
63.467622
75.520873
81.958771
82.487464
78.460574
66.565871
56.286454
43.981671
34.139752
24.168491
19.078851
13.909936
12.165904
10.662675
10.154843
9.768605
9.576678
9.247661
9.336472
9.189844
##ZVALUE=340
0.466704
0.251532
0.589490
0.444651
0.539422
0.446439
0.444651
0.550747
0.440478
0.343919
0.538826
0.445843
0.603795
0.408888
0.580549
0.476837
0.460744
0.443459
0.436902
0.533462
0.688434
0.565648
0.515580
0.420809
0.583529
0.595450
0.432730
0.659823
0.678897
0.628829
0.752807
0.811815
0.672936
0.752807
0.739694
0.858903
0.838637
0.842810
0.896454
1.024604
0.921488
1.051426
0.942945
0.957847
1.072884
1.460910
1.368523
1.694560
1.681447
1.980662
2.116561
3.604889
11.294484
60.576797
154.566765
395.065546
683.315992
1015.872955
1015.872955
1015.872955
1015.872955
1015.872955
1015.872955
1015.872955
808.734894
405.462980
216.126442
82.438588
32.537580
11.423826
9.813905
9.253621
9.453893
10.599494
12.487769
17.894506
24.378896
35.425425
46.747923
62.549710
71.333647
77.681541
78.742504
72.845817
65.956712
53.947568
43.821931
31.669736
24.686456
17.270446
13.915896
11.056662
10.308623
9.542704
9.304881
8.815527
##ZVALUE=345
0.399947
0.535846
0.372529
0.493526
0.417829
0.381470
0.665784
0.430942
0.512600
0.444651
0.447631
0.529885
0.488758
0.528693
0.564456
0.687838
0.546575
0.549555
0.450611
0.671744
0.519753
0.526905
0.485778
0.549555
0.520945
0.656843
0.499487
0.630617
0.575781
0.550747
0.612736
0.698566
0.593662
0.873804
0.787973
0.717640
0.632405
0.715852
0.705719
0.790954
1.028776
0.955462
0.904799
0.951886
1.069903
1.100898
1.231432
1.220703
1.365542
1.585484
1.522899
1.955628
2.036691
2.340674
5.090833
31.871796
93.930960
256.472826
459.582806
854.292512
1015.909910
1015.909910
1015.909910
1015.909910
1015.909910
1015.909910
978.021622
574.498773
317.456722
114.663839
47.774911
15.854836
10.303855
9.313822
9.232759
8.971691
9.505749
12.070537
15.028715
23.133755
31.598806
44.702888
54.527521
66.001415
70.817471
72.286725
68.904757
62.024593
53.013563
41.816831
32.506585
22.970438
17.676950
13.614893
11.174679
9.623766
##ZVALUE=350
0.410676
0.461936
0.379682
0.326633
0.551939
0.537634
0.481606
0.521541
0.594854
0.548959
0.424981
0.381470
0.221729
0.424981
0.369549
0.483990
0.388622
0.597835
0.565648
0.465512
0.505447
0.467896
0.543594
0.471473
0.570416
0.603795
0.454783
0.494719
0.725985
0.653863
0.759959
0.550747
0.463724
0.623465
0.699759
0.692606
0.578761
0.858903
0.786781
0.843406
0.786781
0.766516
0.792742
0.820756
0.923872
0.979900
0.911951
0.976920
1.196861
1.098514
1.254678
1.347661
1.575947
1.955628
1.907945
2.162457
3.052950
15.921593
52.836537
171.464682
327.481031
659.396648
959.350467
1015.872955
1015.872955
1015.872955
1015.872955
1015.872955
1015.872955
662.187934
407.088995
183.179975
79.145432
20.689964
10.567904
8.546710
8.577704
8.063912
8.140802
9.065866
10.828972
15.230775
20.349622
28.622746
37.156940
49.109459
56.819916
64.387918
66.440701
64.146519
58.914423
49.048662
40.744543
29.254556
22.638440
16.495585
##ZVALUE=355
0.403523
0.296831
0.390410
0.553727
0.403523
0.539422
0.370741
0.467896
0.374913
0.521541
0.504851
0.371933
0.475645
0.456572
0.514984
0.403523
0.503659
0.654459
0.584722
0.585914
0.650883
0.416636
0.704527
0.569820
0.568628
0.471473
0.679493
0.694990
0.709891
0.666976
0.555515
0.657439
0.603795
0.680685
0.771880
0.700951
0.651479
0.663996
0.807643
0.669956
0.776649
0.843406
0.674725
0.825524
0.902414
0.919700
1.063943
0.897646
1.065731
1.183748
1.099706
1.287460
1.515746
1.376867
1.637936
1.767874
1.777411
1.993775
2.254844
7.448792
29.375553
120.151639
249.011517
531.398654
832.331777
1015.871763
1015.871763
1015.871763
1015.871763
1015.871763
1015.871763
788.358450
510.144830
232.722759
112.195611
31.643510
12.631416
8.409619
7.821918
7.431507
7.449985
7.656813
8.326769
10.193586
12.231469
18.138885
24.348497
34.368634
42.182803
51.564574
56.594610
60.053468
59.245825
53.159595
47.243834
37.741661
##ZVALUE=360
0.558496
0.444651
0.498891
0.476837
0.417829
0.412464
0.352859
0.423789
0.497699
0.432730
0.642538
0.627637
0.644922
0.516772
0.584722
0.604987
0.579953
0.651479
0.522733
0.501871
0.515580
0.662804
0.561476
0.491738
0.722408
0.485778
0.459552
0.640750
0.594854
0.662804
0.688434
0.760555
0.753999
0.654459
0.493526
0.531673
0.516772
0.674725
0.791550
0.858903
0.710487
0.859499
0.800490
1.019835
0.992417
1.027584
0.949502
1.088977
0.874996
1.036525
1.119971
1.285672
1.214743
1.182556
1.367927
1.488924
1.507998
1.729727
1.868606
2.116561
2.399683
3.753901
12.441874
63.200593
157.606602
388.133526
663.476586
1015.876532
1015.876532
1015.876532
1015.876532
1015.876532
1015.876532
903.697610
596.693754
288.979411
149.915814
53.012967
19.745827
8.530617
7.724762
7.400513
7.230639
7.194877
7.389784
7.708669
8.672476
11.139512
14.554858
20.395517
27.236938
37.059784
44.063926
50.928593
53.279996
54.371953
##ZVALUE=365
0.481606
0.443459
0.683665
0.414848
0.513792
0.519753
0.443459
0.590682
0.392795
0.426769
0.588894
0.391603
0.481606
0.519753
0.622869
0.548959
0.503659
0.360608
0.533462
0.507832
0.617504
0.593662
0.685453
0.573993
0.395775
0.525713
0.643730
0.571609
0.673532
0.747442
0.622869
0.723600
0.650883
0.645518
0.547767
0.662804
0.753999
0.665784
0.821948
0.743866
0.764728
0.740886
0.777841
0.920892
0.887513
0.813603
0.929832
0.878572
1.138449
1.076460
1.036525
0.949502
1.116991
1.079440
1.160502
1.244545
1.338720
1.343489
1.618862
1.576543
1.974702
2.145767
2.243519
2.751946
5.917549
34.070015
94.087720
257.987976
494.294763
949.368477
1015.875936
1015.875936
1015.875936
1015.875936
1015.875936
1015.875936
780.649781
423.242450
224.346519
80.265999
30.000806
9.819865
7.428527
7.245541
6.704926
6.570816
6.496906
6.504655
6.873608
7.466674
9.311438
12.822747
16.500950
23.804903
29.713511
38.552880
##ZVALUE=370
0.528693
0.617504
0.599623
0.597835
0.469685
0.485778
0.674725
0.608563
0.696778
0.610948
0.574589
0.708699
0.516772
0.653863
0.513792
0.545979
0.453591
0.548959
0.643730
0.661612
0.621676
0.694990
0.682473
0.633597
0.647902
0.622869
0.737906
0.675917
0.792742
0.600815
0.648499
0.687838
0.697970
0.841618
0.853539
0.888705
0.813603
0.850558
0.871420
0.733733
0.862479
0.737906
0.844598
0.974536
0.829697
0.922680
0.958443
1.031756
1.018643
0.966787
0.763535
0.902414
1.012683
0.938773
1.098514
1.282692
1.193881
1.328588
1.558661
1.499653
1.616478
1.735687
1.976490
2.131462
2.464652
2.744794
3.755689
21.078587
70.059896
217.351913
414.806008
800.018907
1015.961766
1015.961766
1015.961766
1015.961766
1015.961766
1015.961766
996.742845
576.507449
315.927863
118.499994
49.276948
13.833642
7.615685
6.823540
6.727576
6.449819
6.187558
6.045699
5.937815
6.018877
6.825924
8.264780
10.488629
14.927983
##ZVALUE=375
0.441670
0.462532
0.650883
0.498891
0.548959
0.527501
0.416636
0.487566
0.536442
0.609756
0.562668
0.572801
0.622869
0.628829
0.611544
0.587702
0.597835
0.652671
0.611544
0.490546
0.539422
0.673532
0.710487
0.682473
0.542998
0.562668
0.632405
0.564456
0.502467
0.680685
0.602603
0.666976
0.746846
0.738502
0.642538
0.736713
0.846982
0.724792
0.708699
0.859499
0.823736
0.796914
0.733733
0.806451
0.854731
0.863671
1.002550
0.832677
0.904799
0.998974
0.932813
0.873804
0.903606
1.026988
1.032948
0.982881
1.199841
1.076460
1.185536
1.366735
1.363754
1.346469
1.362562
1.757741
1.916885
1.883507
2.423525
2.754927
3.196001
10.153651
37.038922
141.111612
308.851600
714.453459
1015.950441
1015.950441
1015.950441
1015.950441
1015.950441
1015.950441
1015.950441
846.721530
533.410907
250.823498
116.333961
31.943917
11.599660
6.761551
6.183982
5.911589
5.942583
5.940795
5.629659
5.233884
5.552769
6.121993
##ZVALUE=380
0.386834
0.347495
0.427961
0.380874
0.287890
0.551939
0.487566
0.501871
0.350475
0.214577
0.472665
0.303984
0.327826
0.368953
0.488758
0.358820
0.413656
0.515580
0.514984
0.416636
0.368953
0.538826
0.572801
0.388622
0.441670
0.376701
0.172853
0.450611
0.334978
0.476837
0.501871
0.509620
0.494719
0.489950
0.564456
0.529885
0.516772
0.511408
0.548959
0.763535
0.509620
0.549555
0.627637
0.458956
0.547767
0.499487
0.670552
0.729561
0.694990
0.661612
0.727773
0.698566
0.737906
0.716448
0.868440
0.736713
0.923872
0.902414
0.916719
0.974536
1.211762
1.289845
0.992417
1.161695
1.266599
1.432896
1.392961
1.746416
2.149940
2.522469
2.667904
4.659891
18.230677
94.495416
230.732560
549.593568
893.306732
1015.851498
1015.851498
1015.851498
1015.851498
1015.851498
1015.851498
966.039896
633.204579
296.136737
141.911507
44.409633
16.659498
7.142425
5.846620
5.438924
5.237460
5.106926
5.135536
4.896522
##ZVALUE=385
0.407696
0.337958
0.283718
0.309944
0.311732
0.306964
0.472665
0.249743
0.490546
0.443459
0.276566
0.318885
0.303984
0.393987
0.303984
0.315905
0.409484
0.481606
0.389814
0.492930
0.457764
0.438690
0.321865
0.314713
0.388622
0.395775
0.496507
0.396967
0.369549
0.368953
0.447631
0.448823
0.381470
0.394583
0.495911
0.577569
0.443459
0.682473
0.510812
0.720620
0.553727
0.489950
0.672936
0.602603
0.731945
0.703931
0.709891
0.727773
0.675917
0.619888
0.593662
0.605583
0.670552
0.724792
0.756979
0.809431
0.693798
0.756979
0.825524
0.849962
0.735521
0.870824
1.096725
1.079440
1.011491
1.185536
1.402497
1.395941
1.917481
2.013445
2.110600
2.488494
2.627969
3.129840
10.498762
61.290860
160.774589
414.413810
714.930892
1015.871763
1015.871763
1015.871763
1015.871763
1015.871763
1015.871763
1015.871763
783.735514
405.173898
223.549604
85.613728
32.223463
8.755922
5.834699
5.283952
4.988909
4.725456
##ZVALUE=390
0.281930
0.180602
0.186563
0.281930
0.283718
0.408888
0.357628
0.226498
0.302792
0.358820
0.451803
0.497699
0.256896
0.510812
0.270605
0.285506
0.402927
0.300407
0.416636
0.293851
0.369549
0.347495
0.476837
0.302792
0.508428
0.384450
0.358820
0.357628
0.685453
0.403523
0.487566
0.535846
0.460744
0.362992
0.408888
0.490546
0.542998
0.487566
0.638962
0.432730
0.525713
0.449419
0.571609
0.487566
0.470877
0.497699
0.616908
0.684857
0.466704
0.526905
0.514984
0.685453
0.647902
0.544786
0.635982
0.738502
0.573993
0.678897
0.643730
0.690818
0.710487
0.902414
0.811815
0.915527
0.901818
1.031756
1.151562
1.347661
1.483560
1.614690
1.898408
1.798868
1.980662
2.161860
2.258420
2.467632
4.666448
31.475425
102.449656
302.815437
546.447635
972.997546
1015.872955
1015.872955
1015.872955
1015.872955
1015.872955
1015.872955
982.298851
586.821437
331.421494
131.389499
56.450963
14.300942
6.627440
4.895926
##ZVALUE=395
0.317693
0.306964
0.353456
0.449419
0.319481
0.301600
0.242591
0.316501
0.260472
0.397563
0.304580
0.356436
0.458956
0.512600
0.404716
0.391603
0.279546
0.344515
0.362992
0.409484
0.349879
0.396967
0.441670
0.482798
0.557899
0.358820
0.459552
0.395775
0.502467
0.458956
0.474453
0.437498
0.365973
0.447631
0.529885
0.352859
0.523925
0.544786
0.460744
0.593662
0.527501
0.548959
0.539422
0.628829
0.572801
0.615716
0.519753
0.572801
0.646710
0.638962
0.712872
0.685453
0.716448
0.603795
0.677705
0.736713
0.698566
0.712872
0.788569
0.833869
0.748634
0.663996
0.803471
0.760555
0.915527
1.043677
1.087785
1.330972
1.503825
1.677871
1.579523
1.705885
1.716614
1.805425
1.950860
1.909733
2.042651
2.382994
2.968907
15.234947
61.580539
224.864483
426.809788
797.941685
1015.882492
1015.882492
1015.882492
1015.882492
1015.882492
1015.882492
1015.883088
757.032633
453.805923
185.916424
83.271861
24.467707
##ZVALUE=400
0.332594
0.403523
0.428557
0.317693
0.326633
0.358820
0.309944
0.304580
0.370741
0.367761
0.391603
0.245571
0.324845
0.264645
0.451803
0.266433
0.373721
0.484586
0.308752
0.305772
0.438690
0.404716
0.465512
0.535846
0.393987
0.317693
0.345707
0.367761
0.456572
0.451803
0.375509
0.432730
0.438690
0.414848
0.349879
0.360608
0.464916
0.535846
0.551939
0.450611
0.461936
0.439882
0.485778
0.459552
0.550747
0.636578
0.527501
0.687838
0.469685
0.589490
0.590682
0.498891
0.698566
0.640750
0.677705
0.732541
0.821948
0.642538
0.790954
0.745654
0.768900
0.807643
0.684857
0.873804
0.800490
0.922680
1.017451
1.139641
1.274943
1.510978
1.667738
1.453757
1.586676
1.629591
1.532435
1.826882
1.753569
1.972914
2.081990
2.437830
2.441406
7.323623
27.686954
108.254552
245.893002
573.744774
931.597948
1015.878916
1015.878916
1015.878916
1015.878916
1015.878916
1015.878916
944.512486
607.051849
294.049978
##END
