##TITLE=QP00302
##FORMAT=SPECTACLE-ASCII V-1.2
##DATA TYPE=ULTRAVIOLET SPECTRUM
##SECOND TYPE=ULTRAVIOLET SPECTRUM
##DATE=01/30/18
##TIME=16:36:12
##SPECTROMETER/DATA SYSTEM=SPECTACLE
##XUNITS=NM EM
##YUNITS=ENERGY
##YFACTOR=1
##FIRSTX=220
##LASTX=410
##NPOINTS=96
##3DDATA=Equidistant
##ZUNITS=NM EX
##FIRSTZ=210
##LASTZ=400
##ZPOINTS=39
##XYDATA=(Y..Y)
##ZVALUE=210
1.940727
2.345443
1.929998
2.022982
2.206564
2.244711
2.299547
2.606511
2.064705
2.627969
2.091527
2.401471
2.124906
2.662539
2.406836
2.784729
2.817512
2.702475
2.694726
2.679825
3.026724
2.944469
3.608465
3.647804
3.832579
4.111528
3.803968
4.043579
3.891587
4.179478
4.319549
4.975796
5.399585
4.656911
4.962683
4.506707
5.677938
5.536675
5.224943
5.510449
5.717874
5.371571
5.808473
5.810857
6.965995
5.897880
6.425977
6.324649
6.822944
6.372929
7.668734
7.133484
6.379485
7.110834
6.319880
7.161498
6.118417
8.041859
7.580519
7.612705
7.472634
6.684661
6.764531
7.377863
7.751584
8.283854
9.769797
9.029508
10.691881
13.792515
15.201569
16.826987
20.775795
23.973584
24.772882
27.026534
29.256940
26.251674
25.134683
23.943782
20.582676
20.852685
17.222762
15.726686
12.293458
11.048913
10.335445
9.399652
8.853674
7.313490
9.021759
8.453727
8.100867
7.489920
7.496476
8.100867
##ZVALUE=215
6.177425
4.869699
4.976988
4.245639
4.297495
3.878474
4.016757
4.316568
4.222989
4.468560
4.223585
4.122853
3.919601
3.229976
2.752542
2.198815
2.767444
2.691746
2.925992
2.766848
2.962947
3.157854
3.303885
2.990961
3.692508
4.246831
3.518462
4.240870
3.950596
4.340410
4.573464
4.491806
4.835725
5.008578
6.095767
5.035996
6.064773
4.548430
4.854798
5.081892
5.257726
5.392432
5.713701
6.081462
6.309748
6.012917
6.012917
6.175637
6.220937
6.056428
6.463528
5.746484
6.024837
6.646514
6.217957
7.080436
6.804466
8.028746
8.431673
7.648468
7.440448
8.643866
8.004904
7.278919
8.683801
7.578731
7.839799
9.561777
10.814667
12.771487
13.932586
16.545653
19.941926
21.297932
24.838448
25.401711
24.824739
25.004745
25.928617
22.925735
23.914576
20.448565
17.346740
15.181899
12.529492
11.588931
8.987784
8.667707
7.902980
8.773804
8.274913
8.233786
9.185672
8.543730
8.004904
8.171797
##ZVALUE=220
19.129515
19.027591
21.484494
20.896792
18.365979
16.293526
14.971495
12.827516
10.530949
9.420514
10.311604
11.002421
11.340976
10.508895
8.967519
7.565618
4.726648
4.266500
3.555417
3.517866
3.459454
4.231930
4.271865
3.717542
3.706813
4.435778
4.147887
4.445910
3.899932
4.414916
4.830956
5.736947
5.296469
5.400777
6.490946
5.963445
5.921721
6.264448
5.381703
5.744696
5.596876
6.095767
6.516576
6.352663
6.115437
6.601810
6.354451
6.797910
6.712675
7.348657
6.996989
6.897449
7.743835
8.072853
8.287430
7.609725
7.688999
8.680820
7.779598
8.740425
8.932948
7.270575
8.652806
7.201433
8.410811
8.421540
8.393526
10.028481
11.813641
12.308955
15.452504
17.418861
19.018650
22.335649
23.169518
24.487972
23.751855
23.759604
22.827983
22.324920
21.137595
19.442439
16.586781
15.505552
14.112592
12.316704
10.433793
9.558797
10.500550
9.120703
9.503961
8.810759
9.162426
8.977652
9.848475
8.701682
##ZVALUE=225
32.972693
35.064816
49.211979
59.247613
63.063502
65.388680
59.198737
52.453876
39.363503
29.680729
22.753477
21.645427
23.169518
23.962855
25.292635
23.473501
21.497607
13.979673
11.456609
7.076859
6.225705
5.062819
4.542470
4.389882
4.424453
4.476905
4.714727
5.690455
5.469918
5.194545
5.828738
5.498528
5.105734
6.747842
5.987883
6.227493
6.752610
6.596446
6.948709
6.368756
6.764531
6.719828
6.614923
6.475449
7.730722
6.129742
7.450581
7.664561
7.675886
7.188916
8.278489
7.610917
8.066893
7.544756
8.346438
8.129478
8.627772
9.025931
8.440614
9.248853
9.432435
8.943677
9.143949
10.336637
10.578632
10.393858
10.592937
11.411905
13.566613
14.294982
15.353560
17.569661
21.112561
20.563602
23.452640
23.058653
22.513866
22.748709
22.218823
21.815896
21.023750
19.510984
17.963648
15.237927
14.758706
14.227629
14.880896
12.538433
12.897849
12.487769
11.758804
12.230873
12.112856
13.066530
12.351871
12.771487
##ZVALUE=230
28.205514
32.569766
56.589842
89.861751
118.674636
155.386925
166.158676
174.690485
160.923600
130.167007
93.398690
70.988536
49.603581
44.634938
42.516589
47.408938
52.307844
47.373772
43.155551
33.963919
27.543902
19.253492
12.053847
7.562637
6.471872
5.640984
5.680919
6.002784
6.187558
6.821752
6.321669
6.654859
6.523728
6.753802
6.605983
6.770492
7.510781
7.833838
8.023977
7.642508
7.306933
7.502437
8.068681
8.324981
8.223653
8.088946
8.545518
8.941889
8.537769
8.681417
8.961558
8.091927
9.557605
9.405613
9.498596
11.062622
11.634827
10.677576
10.727644
11.034608
11.623502
12.230873
13.591647
13.009906
13.576746
14.198422
15.707612
16.918778
15.598536
19.060969
20.874739
24.180412
25.002956
27.715564
29.954910
29.908419
28.865933
29.490590
28.594732
27.763844
26.772618
24.750829
22.360682
22.190809
21.141768
18.599629
17.908812
19.627810
20.188689
19.357800
19.832850
17.773509
18.025637
17.520785
18.318892
17.371774
##ZVALUE=235
12.534857
12.314916
32.006502
64.287782
115.843415
168.788433
252.698660
316.913724
358.496904
366.050005
319.140553
267.868638
207.523704
133.360624
102.458596
75.084567
74.883699
78.531504
81.258416
80.353618
77.784657
68.659782
50.501823
38.161874
26.409626
15.931726
11.249781
9.298921
8.118749
7.665753
7.697940
7.924438
7.220507
8.421540
9.025931
9.157658
8.760691
8.369684
8.762479
9.102821
8.259416
8.982420
9.084940
9.611845
8.616447
9.165406
9.600520
8.965731
10.536909
10.019541
9.960532
10.752678
11.073947
10.996461
12.238622
11.962652
12.272596
12.631416
14.076829
13.370514
13.657808
15.134811
16.240478
15.756488
17.286539
16.346574
16.544461
19.067526
20.872951
25.056601
25.043488
30.080676
29.259920
32.497644
36.151409
34.813881
34.259558
35.250783
34.481883
34.863949
33.707619
31.845570
30.639768
30.004978
29.435754
25.509000
27.189851
27.483702
26.243925
27.982593
28.283596
26.013851
25.233626
24.405718
25.779605
25.289655
##ZVALUE=240
2.149940
2.019405
4.564524
19.692779
41.210651
91.942549
159.022808
275.704861
378.202796
472.731590
559.163690
569.701791
519.766808
441.730618
327.542424
230.450630
148.979425
114.476681
98.653436
100.948811
106.902719
116.425753
114.726424
101.671815
86.995959
63.934922
49.572587
32.472610
23.885965
16.731620
12.990832
10.908842
10.187626
10.174513
9.905696
10.736585
9.864569
9.102821
9.978414
8.127689
9.424686
10.397434
9.732842
10.408759
9.810925
8.677840
8.837581
9.942651
8.971691
10.491610
11.017919
10.504723
9.447932
10.643601
12.573600
12.067556
12.474656
13.031960
14.151931
14.835000
14.592409
16.439557
18.297434
16.011596
17.698407
19.189715
19.660592
22.113919
24.235845
25.796890
29.541850
32.590628
36.619902
37.265420
38.815737
42.461753
40.459633
39.159656
38.226843
38.439631
37.634969
35.196543
34.539700
35.645962
36.653876
35.965443
33.687949
34.345984
33.563972
32.149553
33.020973
31.665564
31.932592
32.040477
31.965971
32.899976
##ZVALUE=245
1.358986
1.554489
1.796484
1.739860
4.120469
11.713505
38.059950
82.041621
184.562802
286.424756
459.801555
579.172969
674.448013
725.343823
692.139864
586.292744
474.042892
317.562819
225.573778
135.931969
105.482936
102.721453
117.154717
125.371814
133.414865
130.053759
118.711591
97.435713
74.097514
55.188537
45.395494
26.593804
19.896626
14.388561
13.314486
10.493994
10.238886
10.565519
9.518862
9.737611
9.355545
8.424520
8.485913
8.842945
9.421706
8.708835
9.077787
8.269548
8.882880
8.910894
8.714795
8.892417
9.799600
10.967851
10.339618
11.574626
11.030436
12.057424
11.418462
13.374686
12.514591
13.748407
13.641715
15.515685
15.372634
16.516447
16.902685
19.943714
21.472573
24.248958
25.468469
28.172731
30.825734
34.626722
36.598444
35.688877
36.656857
36.114454
35.149455
35.101771
36.386847
34.521818
33.566952
33.774972
32.585859
30.487776
30.533671
32.135844
33.166409
31.962991
31.913519
32.072663
30.956864
31.912923
31.107664
31.842589
##ZVALUE=250
1.476407
1.565814
1.621842
1.516938
1.457930
1.838803
2.597570
10.115504
28.201938
75.840950
148.094893
299.191475
439.381599
620.714426
734.008551
828.012824
814.511776
746.547580
595.536828
466.890931
288.563967
188.768506
116.731524
97.924471
108.740926
126.922727
135.905743
143.864751
137.040615
126.406550
104.360580
83.057880
62.235594
38.953424
25.952458
16.978979
12.568831
10.625720
9.771585
9.232759
8.263588
8.547902
9.000897
8.577704
7.978678
7.670522
7.973909
8.112788
8.168817
8.067489
7.804632
9.021759
8.492470
8.972883
9.285808
10.051727
10.973811
9.930730
10.257959
11.483431
12.370944
12.212992
12.383461
13.004541
14.935732
14.913678
15.590787
17.299652
19.617677
19.729733
22.535920
26.152730
28.234720
27.854443
31.084418
31.739473
32.557845
31.020641
32.076836
30.719638
31.108856
30.564666
31.473637
31.904578
31.462908
31.477809
29.698610
29.641986
31.023622
31.278729
29.355884
30.514598
30.488968
31.028986
29.446483
30.852556
##ZVALUE=255
1.186728
1.320839
1.288652
1.097918
1.256466
1.324415
1.488924
1.560450
2.186894
2.915859
17.902851
49.371719
133.254528
233.268738
405.630469
573.673844
770.560503
887.783766
945.385695
894.353986
778.539777
581.446886
413.194895
236.366987
149.121881
100.836754
94.322562
109.587908
123.320818
141.909719
148.893595
139.774680
128.801465
106.624961
84.437728
56.112409
40.131807
23.764968
16.719699
10.355711
8.276701
8.179545
7.625818
8.065701
7.329583
8.197427
8.368492
7.261634
7.743835
7.597804
7.876754
8.034706
8.010864
8.777976
8.704662
8.573532
8.285642
9.811521
9.252429
9.404421
9.324551
11.566877
10.426641
10.284781
11.317730
12.747645
12.991428
15.952587
15.965700
17.107725
18.677711
21.619797
22.883415
24.451613
26.089549
26.142001
25.942922
26.514530
27.322769
26.136637
27.012825
27.800798
27.523637
26.728511
27.546883
26.518703
27.189851
26.589632
26.737452
26.774406
26.844740
28.163791
26.973486
27.482510
28.749704
27.002692
##ZVALUE=260
1.117587
1.348853
1.257658
1.301765
1.454949
1.511574
1.481771
1.351833
1.470447
1.459718
1.630783
3.100634
8.817911
38.019419
84.456801
200.970769
338.102579
554.705858
748.281479
969.269872
1015.872955
1015.872955
947.541595
781.757832
524.078608
358.812809
205.935836
129.646659
86.548924
84.956884
106.525421
125.948787
144.959688
154.044628
147.674680
130.089521
109.972954
82.441568
59.462786
37.661791
25.712848
14.734864
10.375977
8.836985
7.863641
7.401705
7.628798
7.758737
7.283688
7.835627
7.779598
8.482933
8.276701
8.864999
8.385777
8.457899
8.664727
9.018779
8.950830
9.216666
8.686781
10.427833
10.558963
10.481477
11.889935
12.492537
12.198687
13.025999
14.282465
16.429424
16.823411
19.375682
20.093918
21.865964
23.785830
23.568869
25.015473
23.729801
25.191903
24.556518
23.528934
23.543835
24.804473
25.118589
23.914576
24.166703
25.132895
25.086999
24.647713
25.075674
26.086569
26.800632
25.898814
26.145577
26.759505
25.938749
##ZVALUE=265
1.297593
1.078844
1.165867
1.171827
1.136661
1.104474
1.291633
1.197457
0.915527
1.369715
1.361966
1.448989
1.617670
1.977682
4.739761
22.891760
59.173703
160.370469
287.242532
546.313524
775.410533
987.969637
1015.871763
1015.871763
1015.871763
975.641012
726.465583
504.555702
273.784399
167.244673
105.922818
74.977875
83.067417
110.091567
132.435560
149.141550
154.960752
148.414969
133.405924
106.346607
84.419847
56.957603
39.215684
23.154616
15.510917
10.797977
8.430481
7.956624
8.442998
8.684993
8.103848
8.451939
8.340478
8.522868
9.050965
9.142756
9.364486
9.526610
9.565949
10.153651
9.134412
10.290742
10.000467
11.031628
11.456609
11.962652
12.327433
14.239550
15.099645
16.011596
16.861558
18.724799
19.484758
21.422505
21.584630
21.615624
22.741556
22.111535
22.441745
22.357702
22.472739
23.639798
22.445917
23.344755
23.469925
23.176670
23.665428
23.584962
24.618506
24.663806
23.245811
23.869872
24.042726
24.264455
25.551915
25.235415
##ZVALUE=270
1.071692
1.161695
1.043677
1.240969
0.969768
1.076460
1.036525
1.166463
1.303554
1.322627
1.004934
1.316667
1.459718
1.667738
1.908541
2.041459
3.050566
8.782744
39.805770
96.707940
243.655443
428.320765
770.658851
1006.155610
1015.871763
1015.871763
1015.871763
1015.871763
994.520783
692.558885
470.225811
231.532454
133.615732
70.777535
63.059926
84.358454
105.924606
132.834911
148.393512
155.658722
152.282715
132.928491
112.337470
81.481934
60.682893
37.390590
25.215745
16.793609
12.106895
9.779930
9.926558
9.687543
9.161830
9.773970
9.777546
9.740591
10.674000
10.308623
10.437965
10.700822
11.252761
10.840893
11.396408
11.875629
12.687445
12.476444
13.196468
14.032722
14.564991
16.850829
17.121434
18.214583
18.727779
20.710826
20.891428
21.311641
21.777749
21.976829
21.890998
21.462440
21.737814
21.419525
22.221804
22.024512
22.828579
21.715760
22.807717
23.128986
22.673607
22.626519
22.779703
23.537874
22.753477
22.879839
23.795962
23.783445
##ZVALUE=275
0.879765
0.973940
0.838637
0.937581
1.025796
1.067519
1.114607
1.043677
0.922680
1.284480
1.250505
1.298785
1.331568
1.354814
1.451969
1.507998
1.678467
1.912713
2.310872
5.170703
19.150972
57.778955
179.908872
348.992944
691.863894
963.390470
1015.871763
1015.871763
1015.871763
1015.871763
1015.871763
973.963737
683.922768
356.195569
198.952556
86.112618
56.269765
61.810613
78.271627
109.215975
129.857659
150.125623
152.407885
150.808692
136.323571
109.555721
86.315870
60.630441
43.618679
27.490854
18.823743
13.336539
11.783838
10.243654
10.135770
10.162592
10.618567
11.359453
10.897517
11.453629
11.705756
11.856556
12.105703
12.972951
12.658834
12.770891
13.545752
14.344454
15.143752
16.187429
18.003583
18.706918
19.374490
21.194816
20.816922
21.819472
21.370649
21.450520
21.128654
21.969676
21.634698
21.658540
20.821691
21.334887
21.802783
21.801591
21.368861
21.945834
22.523999
22.074580
21.887422
22.333860
22.627711
22.997856
22.588968
22.380948
##ZVALUE=280
0.846982
0.765920
0.904799
0.762939
0.986457
0.754595
1.104474
0.868440
1.183748
0.980496
1.150966
1.045465
1.094937
1.080632
1.242757
1.370907
1.325607
1.664758
1.729727
1.930594
1.945496
2.746582
12.751818
43.244958
144.195557
277.897716
542.729497
809.695721
1015.871763
1015.871763
1015.871763
1015.871763
1015.871763
1015.871763
850.297809
477.188826
278.218985
119.690895
63.633919
44.200420
57.097673
83.328485
104.788542
130.781531
144.522786
151.451826
145.003796
130.389929
110.887885
82.773566
61.997771
42.229891
29.146671
18.820763
14.263988
11.323690
11.176467
10.787845
11.421442
11.782646
12.292862
12.612939
12.938976
13.461709
13.118982
14.451742
14.540553
14.654994
15.572906
15.958548
17.782450
19.105673
18.770695
20.576715
20.920634
20.448565
20.472407
21.038651
20.925999
20.903945
20.546913
21.143556
20.348430
20.816922
21.276474
20.495653
21.171570
21.150708
21.240711
21.251440
20.915866
21.180511
21.363497
21.110773
21.757483
21.011829
##ZVALUE=285
0.660419
0.954866
0.907779
0.862479
0.965595
0.745654
0.793934
0.955462
1.057982
0.943542
1.131892
1.080632
0.958443
1.054406
1.120567
0.938773
1.156926
1.387596
1.264811
1.697540
1.588464
1.938939
2.059937
2.435446
7.106662
24.183989
81.839561
170.744658
386.421680
626.429915
860.476494
1015.876532
1015.876532
1015.876532
1015.876532
1015.876532
1015.876532
721.826553
444.212556
199.660659
99.951625
43.401718
38.069487
55.750608
73.061585
101.834536
119.635463
139.402747
144.201517
140.688419
130.971670
108.715892
88.347793
60.983896
43.875575
28.175712
19.777417
14.302731
12.593865
12.420416
12.172461
12.455583
13.012886
13.869405
13.782978
13.891459
14.112592
15.541911
15.496612
16.598701
17.225742
18.552542
19.449592
19.889474
19.922853
20.271540
19.976497
20.997524
20.969510
20.750761
21.510720
21.185875
21.156669
20.701885
19.965768
21.042824
21.008849
21.279454
21.603703
20.445585
21.296740
20.623803
21.262765
21.112561
21.664500
20.998716
##ZVALUE=290
0.671744
0.643730
0.561476
0.767708
0.751615
0.916719
0.752807
0.896454
0.885725
0.844598
0.921488
0.924468
0.793934
0.896454
1.080632
0.816584
0.964999
0.930429
1.120567
1.171827
1.305938
1.465678
1.673698
1.681447
1.798868
1.961589
2.998710
9.348989
45.926571
109.057426
216.525793
474.243760
767.107606
1015.811563
1015.811563
1015.811563
1015.811563
1015.811563
1015.811563
931.434631
619.208813
306.125879
158.464909
56.855679
31.283498
35.567880
49.632788
72.356462
91.939569
118.104815
132.726431
143.113732
143.264532
126.518607
107.696652
82.315803
62.984824
41.824579
30.368567
20.557642
16.138554
13.166666
13.476610
13.464689
13.537407
13.875961
13.842583
15.593767
15.660524
16.893744
17.998815
18.185973
18.459558
19.886494
20.266771
20.735860
20.257831
20.426512
20.344853
20.304918
20.570755
20.857453
21.104813
20.980835
21.387935
21.095872
20.537972
21.035671
20.913482
20.519495
20.691752
21.219850
20.673871
20.030737
20.716786
20.195842
##ZVALUE=295
0.808835
0.746846
0.771880
0.530481
0.624657
0.695586
0.743866
0.858903
0.821948
0.885725
0.744462
0.717640
0.909567
0.976920
0.911951
1.009703
0.999570
0.942945
1.005530
1.067519
1.229644
1.126528
1.300573
1.257658
1.663566
1.639724
1.802444
1.862645
2.744794
4.258752
15.507936
70.113540
161.626935
390.928388
653.141737
1015.871763
1015.871763
1015.871763
1015.871763
1015.871763
1015.871763
1015.871763
813.899636
436.172485
238.574743
84.180832
37.580729
24.289489
30.624866
48.497915
66.012740
90.954900
109.200478
128.203630
136.258602
133.496523
123.003721
102.663636
83.887577
58.825612
44.142604
29.301643
21.953583
17.025471
14.763474
14.324784
14.481544
15.303493
15.826821
16.966462
16.853809
18.392801
19.561648
20.350814
20.400882
20.822883
20.567775
20.383596
20.445585
20.912886
20.712614
21.351576
20.744801
21.097660
21.118522
21.358728
21.303892
20.991564
21.799803
20.771623
20.889640
20.742416
20.395517
20.770431
21.098852
20.241737
##ZVALUE=300
0.726581
0.580549
0.690818
0.735521
0.647902
0.687838
0.694990
0.681877
0.844598
0.763535
0.747442
0.840425
0.810623
0.780821
1.005530
0.935793
1.038909
1.027584
1.031756
1.007915
0.974536
0.986457
1.406670
1.293421
1.215935
1.570582
1.424551
1.638532
1.967549
2.251863
2.254844
2.794862
6.930828
40.606856
104.960799
278.625488
501.450896
918.370485
1015.871763
1015.871763
1015.871763
1015.871763
1015.871763
1015.871763
1005.124450
593.269467
352.457762
155.956745
69.373846
23.676753
20.526648
30.088425
41.498542
62.542558
81.932545
106.252432
119.795799
130.289793
129.607916
117.556453
102.792978
81.016421
63.401461
45.083761
33.404827
22.670627
18.732548
17.088652
16.608834
16.971827
17.601848
18.365979
19.548535
19.869804
20.235777
21.149516
20.678639
20.575523
21.453500
21.459460
21.227598
22.183657
22.074580
21.727681
21.737814
21.664500
21.982789
21.873713
21.148920
21.201968
20.691752
21.173954
20.923615
20.669699
20.569563
20.479560
##ZVALUE=305
0.769496
0.625849
0.633597
0.507832
0.519753
0.645518
0.594854
0.697970
0.611544
0.599623
0.779629
0.756979
0.806451
0.716448
0.855923
0.751615
0.971556
0.807643
0.841618
0.904799
0.908971
0.919700
1.061559
1.083612
1.251698
1.125932
1.147985
1.315475
1.267791
1.458526
1.618862
1.760721
2.175570
2.363920
3.986955
23.918748
69.602728
201.495886
372.144580
725.185871
1009.792686
1015.868783
1015.868783
1015.868783
1015.868783
1015.868783
1015.868783
784.962773
487.325788
215.110779
100.856423
31.700730
17.550588
19.358993
27.139783
42.845607
58.922768
81.864595
97.638965
115.681887
123.005509
123.344660
115.242600
97.835660
81.297755
59.590936
46.231747
32.142997
24.896860
20.263791
18.974543
18.641949
19.131899
19.432902
20.343661
20.386577
20.418763
20.541549
21.302700
20.736456
22.202730
22.088885
22.073984
22.206903
22.110939
22.099614
22.650957
22.371411
22.363663
21.893978
21.896958
21.753907
21.695495
21.301508
21.504760
21.281838
##ZVALUE=310
0.592470
0.571609
0.632405
0.567436
0.593662
0.796914
0.680685
0.659823
0.625849
0.582933
0.426769
0.635982
0.549555
0.686646
0.585914
0.797510
0.687838
0.861883
0.682473
0.859499
0.843406
0.923872
0.903606
1.163483
0.857711
0.972748
1.001954
1.111627
1.344681
1.231432
1.406670
1.239777
1.462698
1.549721
1.898408
2.174973
2.672672
10.663867
35.042763
126.054883
256.750584
548.518896
845.925808
1015.861034
1015.861034
1015.861034
1015.861034
1015.861034
1015.861034
990.829468
697.949529
353.653431
184.470415
60.859919
23.303628
14.403462
18.184781
25.626421
35.836697
55.124760
69.984794
93.105435
107.668638
117.459893
119.497776
110.211968
99.233985
79.471469
63.716769
44.552684
35.743713
27.055740
23.565888
21.113753
20.404458
20.649433
20.318627
20.979643
21.039844
21.052957
21.246672
21.599531
22.378564
21.986961
22.771955
22.307634
22.690892
22.459626
22.042990
22.337437
22.386909
22.143722
21.738410
21.768808
21.059513
21.379590
##ZVALUE=315
0.534654
0.553727
0.545979
0.583529
0.657439
0.650883
0.486970
0.601411
0.622869
0.689626
0.703931
0.574589
0.536442
0.771880
0.625849
0.603795
0.663996
0.717640
0.714660
0.691414
0.806451
0.768900
0.808835
0.930429
0.896454
0.858903
0.941753
0.945926
0.953674
1.042485
1.181960
1.237988
1.317859
1.501441
1.515746
1.757741
1.892447
2.219677
2.227426
4.887581
18.282533
78.895688
174.868703
403.904915
670.323968
1015.846729
1015.846729
1015.846729
1015.846729
1015.846729
1015.846729
1015.846729
866.299868
472.996831
260.168910
93.141794
35.769939
14.528632
13.726950
17.343760
23.562908
36.653876
49.156547
68.665743
84.539652
103.237629
111.145973
113.877654
107.694864
92.957616
79.068542
60.922503
48.566461
34.877658
28.921962
23.369789
21.552444
21.083951
21.114945
21.735430
21.587610
22.208691
21.862984
22.882819
22.471547
22.944808
23.075938
23.026466
22.476912
22.731423
22.316575
22.050738
21.921992
22.342801
22.409558
21.847486
##ZVALUE=320
0.545979
0.558496
0.421405
0.601411
0.525713
0.530481
0.662804
0.697970
0.427961
0.426769
0.685453
0.574589
0.621676
0.545979
0.552535
0.518560
0.671744
0.546575
0.526905
0.715852
0.815988
0.739694
0.632405
0.816584
0.835657
0.881553
0.887513
0.891685
0.975728
1.017451
1.090765
1.212955
1.144409
1.211762
1.334548
1.377463
1.403689
1.683831
1.590848
2.077818
2.124906
2.761483
8.190870
45.908689
119.443536
316.944718
534.345508
909.211636
1015.871763
1015.871763
1015.871763
1015.871763
1015.871763
1015.871763
963.676572
645.892024
323.062539
165.438652
54.310560
22.813678
12.197495
13.179779
16.247630
21.075606
32.401681
44.228435
64.955950
79.629421
97.771883
107.267499
109.724998
105.396509
90.772510
78.071952
60.706735
48.252940
36.370754
29.932857
24.928451
22.628903
21.867752
21.749735
21.605492
22.162795
22.859573
21.591783
22.698641
22.815466
22.977591
22.486448
22.972822
22.313595
22.740960
22.459626
21.963716
21.813512
##ZVALUE=325
0.607967
0.510812
0.561476
0.502467
0.570416
0.395775
0.517964
0.546575
0.393987
0.513792
0.380874
0.411868
0.638962
0.634789
0.609756
0.528693
0.550747
0.612736
0.526905
0.692606
0.655651
0.642538
0.590682
0.731945
0.630617
0.912547
0.875592
0.750422
0.715852
0.817776
0.949502
0.825524
0.889897
1.025796
1.069903
1.030564
1.203418
1.260638
1.354814
1.588464
1.630783
1.858473
1.913905
2.456903
5.743504
23.532510
92.580914
196.209550
438.046455
715.003610
1015.871763
1015.871763
1015.871763
1015.871763
1015.871763
1015.871763
1015.871763
773.632526
420.093536
234.037638
84.686875
33.856630
13.074875
11.834502
13.309717
15.909672
22.316575
31.332970
47.792792
63.191652
82.929730
93.438625
102.995634
104.615688
97.952485
88.655949
72.835684
59.817433
44.036508
35.379529
28.127432
24.914742
23.108721
22.654533
22.391677
22.209883
22.264719
22.784472
22.912621
22.609830
22.637844
22.171736
22.221804
22.180676
22.221804
22.106767
##ZVALUE=330
0.414848
0.500679
0.415444
0.431538
0.509620
0.526905
0.522733
0.718832
0.534654
0.639558
0.602603
0.635982
0.508428
0.419617
0.448823
0.713468
0.548959
0.646710
0.612736
0.447631
0.535846
0.560880
0.710487
0.705719
0.757575
0.759959
0.784993
0.895858
0.780821
0.720620
0.624657
0.749826
0.879765
1.048446
0.815988
1.008511
1.122952
1.040697
1.240969
1.411438
1.284480
1.389980
1.618862
1.755953
1.904964
2.340674
2.959967
14.545918
48.612952
163.557529
318.844914
645.470023
959.675908
1015.871763
1015.871763
1015.871763
1015.871763
1015.871763
1015.871763
901.867747
587.630868
274.910927
137.304664
47.286749
19.312501
11.788607
11.822581
14.135838
16.361475
23.324490
31.676888
45.404434
59.933662
78.209639
89.535713
98.501444
99.355578
93.947649
85.038543
69.284439
56.825876
43.489933
35.154819
28.620958
26.153922
23.196936
22.616982
22.022724
22.213459
22.381544
21.692514
22.642612
21.711588
21.981597
21.588802
21.155477
##ZVALUE=335
0.439882
0.527501
0.409484
0.488758
0.469685
0.460744
0.508428
0.348687
0.472665
0.410676
0.370741
0.510812
0.473857
0.501871
0.647902
0.709891
0.645518
0.716448
0.500679
0.654459
0.613928
0.638962
0.630617
0.620484
0.517964
0.664592
0.803471
0.808835
0.790954
0.793934
0.716448
0.812411
0.870824
0.860691
0.976920
0.981688
1.076460
1.047850
1.072884
1.053810
1.271963
1.257658
1.201630
1.563430
1.469851
1.714826
1.706481
1.939535
2.354980
5.132556
32.785535
91.623664
258.996487
468.996763
877.832770
1015.872955
1015.872955
1015.872955
1015.872955
1015.872955
1015.872955
1015.872955
667.132735
410.384536
176.385641
80.663562
24.894476
13.322830
12.018681
13.137460
14.446974
17.390847
23.514628
31.068921
45.395494
56.869984
72.960854
83.238482
92.797875
94.535947
88.487864
80.466866
68.089962
57.350993
44.826865
36.923885
29.179454
25.854707
22.677779
22.089481
21.421909
20.643473
20.810962
21.246672
20.956993
20.881891
##ZVALUE=340
0.567436
0.435710
0.400543
0.694990
0.527501
0.495911
0.502467
0.407696
0.420809
0.499487
0.558496
0.518560
0.513792
0.467896
0.690818
0.546575
0.649691
0.669956
0.548959
0.438690
0.676513
0.566840
0.650883
0.630617
0.703931
0.495911
0.613928
0.610948
0.661612
0.533462
0.594854
0.767708
0.783801
0.790954
0.760555
0.694990
0.860691
1.016855
0.982881
0.838637
0.969768
1.271963
1.135468
1.102686
1.382828
1.319647
1.611710
1.477599
1.826882
2.095699
2.346635
3.441572
11.257529
64.481497
166.830420
422.724485
713.218451
1015.871763
1015.871763
1015.871763
1015.871763
1015.871763
1015.871763
1015.871763
859.286785
458.732843
261.082649
104.122758
40.384531
14.446974
12.743473
12.573600
13.515949
15.092492
17.480850
23.893714
31.330585
43.814778
55.459738
70.448518
80.332756
87.953806
89.254975
83.934665
77.265501
64.783692
54.342747
43.201447
35.846829
28.296709
24.380684
22.138953
21.005869
20.695925
20.472407
20.253658
##ZVALUE=345
0.542998
0.459552
0.362992
0.381470
0.638962
0.404716
0.416636
0.283718
0.423789
0.511408
0.316501
0.449419
0.428557
0.557899
0.414848
0.447631
0.558496
0.481606
0.482798
0.463724
0.570416
0.618696
0.505447
0.410676
0.478625
0.642538
0.650883
0.563860
0.566840
0.595450
0.684857
0.534654
0.823736
0.792742
0.710487
0.700951
0.816584
0.820756
0.708699
0.885725
0.919700
0.883937
0.924468
0.982881
1.057982
1.176596
1.311898
1.302958
1.290441
1.441836
1.648664
1.836419
2.150536
2.400875
4.984736
33.805966
104.805827
294.003487
518.721938
928.751826
1015.871763
1015.871763
1015.871763
1015.871763
1015.871763
1015.871763
997.815728
624.619722
361.315012
141.793489
59.593916
18.849969
13.295412
12.774467
12.903810
13.430715
14.393926
17.072558
21.498799
30.260682
39.848685
53.413510
63.522458
74.171424
80.646873
83.792806
80.942512
72.003603
64.359903
52.530766
43.810606
33.481717
28.160810
22.767782
21.077991
19.918680
##ZVALUE=350
0.424981
0.464916
0.241995
0.400543
0.317693
0.467896
0.352859
0.547767
0.446439
0.552535
0.406504
0.473857
0.605583
0.392795
0.457764
0.544786
0.626445
0.683665
0.496507
0.562668
0.562668
0.589490
0.665784
0.686646
0.576973
0.658631
0.570416
0.718832
0.661612
0.560880
0.603795
0.767708
0.711679
0.816584
0.643730
0.774860
0.607967
0.572801
0.786781
0.665784
0.883937
0.918508
0.917912
0.926852
0.924468
0.981688
1.174808
1.247525
1.167655
1.310706
1.313686
1.376867
1.585484
1.959801
2.039671
2.255440
3.828406
12.888908
66.408515
160.309672
404.808521
687.219501
1015.872955
1015.872955
1015.872955
1015.872955
1015.872955
1015.872955
1015.872955
863.418579
449.732542
247.435570
89.285970
32.088757
13.890862
12.450814
12.430549
12.480617
13.089776
13.915896
16.849637
20.598769
27.814507
35.107732
46.649575
56.035519
67.083836
73.122978
76.498985
74.284673
67.805648
60.418844
49.576759
41.374564
31.854510
27.531981
##ZVALUE=355
0.482798
0.537634
0.498891
0.481606
0.545979
0.581741
0.444651
0.527501
0.608563
0.576973
0.507832
0.559688
0.352859
0.502467
0.742674
0.523925
0.491738
0.716448
0.676513
0.610948
0.359416
0.587702
0.513792
0.615716
0.524521
0.725985
0.810623
0.666976
0.669956
0.717640
0.686646
0.685453
0.597835
0.588894
0.821948
0.861883
0.740886
0.762939
0.965595
0.743866
0.869632
0.806451
0.808835
0.900626
1.014471
1.177788
1.099706
1.155734
1.318455
1.322627
1.300573
1.443624
1.624823
1.663566
1.602769
2.133846
2.039671
2.349615
2.765656
7.916689
30.919909
130.064487
276.382565
608.418584
955.773592
1015.871763
1015.871763
1015.871763
1015.871763
1015.871763
1015.871763
1015.871763
739.591718
330.185890
153.269768
40.443540
16.541481
12.166500
12.108684
11.905432
12.011528
13.007522
13.496876
16.273856
18.865466
24.940968
31.873584
41.989684
50.152540
60.804486
66.474676
70.081949
68.752766
63.581467
57.486892
47.589540
##ZVALUE=360
0.451803
0.350475
0.360608
0.523925
0.543594
0.624657
0.515580
0.612736
0.674725
0.541806
0.529885
0.434518
0.502467
0.553727
0.511408
0.642538
0.587702
0.590682
0.412464
0.557899
0.602603
0.674725
0.544786
0.617504
0.636578
0.584722
0.653863
0.577569
0.746846
0.644922
0.703931
0.692606
0.627637
0.885725
0.716448
0.753999
0.655651
0.738502
0.686646
0.763535
0.744462
0.874996
0.786781
0.940561
0.874996
0.957847
0.939965
1.119971
1.272559
1.150966
1.015663
1.190901
1.347661
1.479983
1.558661
1.490712
1.584888
1.828671
2.005696
2.272725
2.559423
3.999472
12.181997
57.843924
149.354339
392.433405
676.973462
1015.872955
1015.872955
1015.872955
1015.872955
1015.872955
1015.872955
1015.872955
736.619830
366.688967
190.782547
66.662431
24.404526
11.632442
11.003613
10.925531
11.481643
11.389852
11.652708
12.595654
13.959408
16.712546
19.962788
26.723742
33.389926
44.249892
51.633716
59.577823
62.701702
63.122511
##ZVALUE=365
0.557899
0.522733
0.422597
0.311732
0.329614
0.480413
0.466704
0.303984
0.482798
0.440478
0.502467
0.469685
0.590682
0.613928
0.675917
0.690818
0.524521
0.537634
0.671744
0.558496
0.632405
0.619888
0.529885
0.565648
0.513792
0.562668
0.634789
0.602603
0.658631
0.672936
0.710487
0.640750
0.670552
0.697970
0.710487
0.688434
0.824928
0.717640
0.788569
0.779629
0.878572
0.851750
0.931621
0.740886
0.726581
0.781417
0.938773
0.979900
0.915527
0.945926
0.952482
1.223683
1.349449
1.234412
1.312494
1.236796
1.527667
1.344681
1.703501
1.789927
2.062917
2.048612
2.556443
2.884865
5.408525
30.321479
92.531443
275.533795
510.361791
928.926468
1015.871763
1015.871763
1015.871763
1015.871763
1015.871763
1015.871763
856.576562
479.465723
266.811848
96.764565
37.934780
12.447834
10.218620
9.917617
10.025501
10.156631
10.540485
10.639429
11.128783
12.287498
13.846755
18.160939
22.261739
29.401779
36.691427
45.695901
##ZVALUE=370
0.517964
0.483990
0.406504
0.459552
0.433922
0.333786
0.388622
0.482798
0.386834
0.460744
0.478625
0.448823
0.480413
0.420809
0.604987
0.502467
0.514984
0.454783
0.544786
0.531673
0.535846
0.470877
0.568628
0.465512
0.490546
0.522733
0.426769
0.621676
0.683665
0.675917
0.993609
0.529885
0.527501
0.580549
0.600815
0.708699
0.659823
0.726581
0.686646
0.659823
0.838637
0.722408
0.599623
0.624657
0.678897
0.822544
0.748634
0.934601
0.632405
0.907779
0.898838
0.881553
0.965595
0.875592
0.927448
1.056790
1.037717
1.262426
1.222491
1.254678
1.315475
1.602769
1.824498
1.905560
2.115965
2.412796
3.129840
15.998483
54.228902
186.602473
362.018943
710.528493
1008.509994
1015.871763
1015.871763
1015.871763
1015.871763
1015.871763
994.157791
597.864985
345.000625
136.932731
61.144829
19.358993
10.649562
9.305477
9.324551
9.335876
9.246469
9.373426
9.661913
10.241866
10.786653
12.803674
15.600920
20.170808
##ZVALUE=375
0.350475
0.414848
0.412464
0.506639
0.332594
0.344515
0.506639
0.429749
0.491738
0.426769
0.440478
0.429749
0.553727
0.431538
0.438690
0.422597
0.573993
0.377893
0.381470
0.357628
0.362992
0.425577
0.488758
0.516772
0.447631
0.572801
0.555515
0.566840
0.500679
0.425577
0.546575
0.398755
0.593662
0.563860
0.523925
0.524521
0.700951
0.570416
0.517964
0.568628
0.594854
0.683665
0.722408
0.689626
0.633597
0.703931
0.744462
0.819564
0.754595
0.744462
0.908971
0.977516
0.962615
0.952482
0.864863
0.915527
1.042485
1.017451
1.147985
1.049638
1.299977
1.167655
1.369715
1.448989
1.591444
1.827478
1.844764
2.337694
2.705455
8.822680
31.898618
119.073391
261.124969
598.737597
948.396921
1015.867591
1015.867591
1015.867591
1015.867591
1015.867591
1015.867591
778.125525
493.106842
240.662694
121.109486
37.305951
14.085770
8.916855
8.648634
8.444786
8.626580
8.600950
8.789897
8.671880
9.230971
9.851456
##ZVALUE=380
0.563860
0.509620
0.612736
0.499487
0.461936
0.537634
0.621676
0.602603
0.364780
0.466704
0.520945
0.595450
0.719428
0.692606
0.574589
0.665784
0.557899
0.616908
0.568628
0.512600
0.555515
0.506639
0.662804
0.599623
0.638962
0.627637
0.645518
0.707507
0.659823
0.842810
0.771880
0.946522
0.711679
0.858903
0.844598
0.778437
0.809431
0.720620
0.702739
0.636578
0.680685
0.770688
0.853539
0.901818
0.720620
0.919700
0.881553
0.870824
0.918508
0.768900
0.980496
0.998974
0.949502
0.961423
0.988841
1.056790
0.995994
1.213551
1.176000
1.056790
1.145601
1.226664
1.274943
1.333952
1.470447
1.638532
1.786947
2.190471
2.256632
2.681613
3.153682
4.605651
16.296506
86.127520
206.455588
503.643751
837.584734
1016.073823
1016.073823
1016.073823
1016.073823
1016.073823
1016.073823
996.256471
688.030720
335.171819
169.092417
56.760907
22.123456
9.507537
8.433461
8.311868
8.275509
8.136630
8.026958
8.478761
##ZVALUE=385
0.357628
0.310540
0.252724
0.145435
0.341535
0.284910
0.307560
0.194907
0.214577
0.514984
0.460744
0.258684
0.286698
0.180602
0.249743
0.339746
0.285506
0.317693
0.274777
0.274777
0.183582
0.222921
0.335574
0.292659
0.204444
0.364780
0.386834
0.303984
0.337958
0.446439
0.406504
0.339746
0.404716
0.346899
0.411868
0.421405
0.454783
0.609756
0.358820
0.508428
0.456572
0.474453
0.167489
0.501871
0.562668
0.488758
0.604987
0.505447
0.540614
0.563860
0.596642
0.597835
0.656843
0.607967
0.687838
0.768900
0.667572
0.610948
0.842810
0.726581
0.816584
0.810623
0.901818
0.916719
1.075864
1.169443
1.298785
1.472831
1.816750
1.846552
2.104640
2.333522
2.587438
2.950430
7.826686
44.007897
119.084716
319.404006
590.179563
1015.795469
1015.795469
1015.795469
1015.795469
1015.795469
1015.795469
1015.795469
952.340961
520.866513
288.718939
112.808943
43.075681
11.347532
7.808805
7.345676
7.338524
7.327795
##ZVALUE=390
0.365973
0.435710
0.394583
0.360608
0.369549
0.369549
0.304580
0.349879
0.313520
0.466704
0.341535
0.475645
0.423789
0.379682
0.445843
0.432730
0.543594
0.625849
0.360608
0.378489
0.423789
0.414848
0.490546
0.442863
0.418425
0.439882
0.545979
0.493526
0.512600
0.502467
0.357628
0.525713
0.563860
0.576973
0.601411
0.302792
0.457764
0.566840
0.515580
0.606775
0.536442
0.529885
0.552535
0.475645
0.666976
0.524521
0.523925
0.765920
0.514984
0.601411
0.751615
0.688434
0.783801
0.858903
0.800490
0.693798
0.731945
0.669956
0.725985
0.859499
0.899434
0.901818
0.860691
0.986457
0.971556
1.086593
1.210570
1.475811
1.507998
1.812577
1.973510
2.167821
2.262592
2.435446
2.624989
2.633929
4.282594
23.976564
76.839924
250.824690
497.348905
972.357988
1015.909910
1015.909910
1015.909910
1015.909910
1015.909910
1015.909910
1015.909910
744.165778
428.937674
171.061754
74.582696
18.913746
8.814931
7.062554
##ZVALUE=395
0.300407
0.413656
0.355840
0.439882
0.286698
0.271797
0.459552
0.307560
0.421405
0.242591
0.400543
0.362992
0.420809
0.483990
0.388622
0.210404
0.413656
0.473857
0.452995
0.454783
0.319481
0.505447
0.532866
0.445843
0.518560
0.447631
0.373721
0.473857
0.333786
0.343919
0.381470
0.338554
0.470877
0.366569
0.482798
0.599623
0.411868
0.476837
0.570416
0.685453
0.564456
0.477433
0.591874
0.483990
0.442863
0.401735
0.648499
0.531673
0.624657
0.576973
0.786781
0.590682
0.672936
0.786781
0.703931
0.660419
0.776649
0.959635
0.706911
0.808835
0.754595
0.916719
0.846982
1.055598
0.893474
1.069903
1.109838
1.313686
1.448989
1.655817
1.758933
1.729727
1.983643
2.097487
1.987815
2.182722
2.214909
2.473593
3.000498
13.395548
50.390959
182.003379
357.852578
707.265735
1014.970541
1015.871763
1015.871763
1015.871763
1015.871763
1015.871763
1015.871763
910.126567
556.539893
237.480402
110.682845
34.062862
##ZVALUE=400
0.377893
0.364780
0.327826
0.398755
0.315905
0.282526
0.258684
0.303984
0.259876
0.334978
0.339746
0.307560
0.377893
0.305772
0.370741
0.320673
0.442863
0.310540
0.369549
0.383854
0.440478
0.392795
0.319481
0.247955
0.412464
0.456572
0.447631
0.394583
0.431538
0.346899
0.490546
0.371933
0.361800
0.476837
0.418425
0.453591
0.496507
0.554919
0.507832
0.558496
0.510812
0.497699
0.536442
0.578761
0.624657
0.707507
0.514984
0.603795
0.588894
0.546575
0.619888
0.652671
0.559688
0.687838
0.667572
0.811815
0.601411
0.742674
0.599623
0.793934
0.677705
0.841618
1.014471
0.985861
0.948906
1.125932
1.195669
1.361966
1.374483
1.519918
1.764894
1.588464
1.610518
1.753569
1.855493
1.811981
1.900792
2.038479
2.311468
2.409816
2.819896
7.744431
27.981997
101.840496
227.845907
542.112589
915.485024
1015.871763
1015.871763
1015.871763
1015.871763
1015.871763
1015.871763
1015.871763
766.360760
378.300548
##END
