##TITLE=QP00601
##FORMAT=SPECTACLE-ASCII V-1.2
##DATA TYPE=ULTRAVIOLET SPECTRUM
##SECOND TYPE=ULTRAVIOLET SPECTRUM
##DATE=01/30/18
##TIME=15:45:22
##SPECTROMETER/DATA SYSTEM=SPECTACLE
##XUNITS=NM EM
##YUNITS=ENERGY
##YFACTOR=1
##FIRSTX=220
##LASTX=410
##NPOINTS=96
##3DDATA=Equidistant
##ZUNITS=NM EX
##FIRSTZ=210
##LASTZ=400
##ZPOINTS=39
##XYDATA=(Y..Y)
##ZVALUE=210
1.912713
1.503825
2.090931
1.932979
1.971722
1.982450
1.835823
2.363920
1.646876
2.138615
1.918674
2.272725
1.940727
2.052784
2.180934
2.684593
2.386570
2.508759
2.233982
3.155470
2.988577
3.538728
2.819896
3.489852
3.862977
3.163815
3.821850
4.175901
4.012585
4.020929
3.832579
4.899502
3.704429
4.633665
4.453659
4.668832
4.965663
4.011989
5.407929
4.816651
5.122423
5.192757
5.046725
5.033612
6.199479
5.807877
5.923510
5.472898
6.769896
6.442666
6.347895
6.829500
7.057786
7.186532
6.545782
6.605983
6.364584
6.819963
7.295609
6.745458
7.141829
7.928610
7.452965
7.555485
6.747842
7.067919
8.351803
9.858608
11.035800
11.677742
14.376640
16.658902
19.569993
22.029877
23.206472
23.772717
23.556948
23.098588
23.834705
21.479726
19.451976
17.948747
16.273856
13.632774
11.940598
10.040998
8.613467
9.042621
8.149743
7.234812
7.281899
7.704496
8.001924
8.214712
8.109808
8.653998
##ZVALUE=215
5.729795
4.525781
4.681945
4.433990
3.460646
3.780723
3.608465
3.976822
5.028844
4.665852
3.864765
4.037619
3.829598
3.368855
2.748966
2.925992
3.105998
2.641678
2.687573
3.033876
3.188848
3.407598
3.341436
3.498793
4.029870
3.723502
3.558993
4.383922
3.966689
4.096627
4.712939
4.419684
4.972816
4.789829
4.527569
5.135536
5.463958
5.305409
6.667972
5.460978
5.488992
6.149411
6.339550
6.267428
6.822944
5.660653
7.013679
6.187558
6.254911
6.598830
7.312894
7.522702
6.740689
7.310510
6.693602
7.645488
7.698536
6.331801
7.857680
7.867813
7.502437
7.564425
6.925464
7.129908
8.747578
8.221865
8.728504
9.245872
10.993481
12.954473
13.505816
16.785860
18.678904
18.767715
23.527741
23.350716
24.047494
23.563504
21.208525
21.592975
18.050671
16.541481
15.124679
12.817979
13.108850
10.113716
8.936524
7.765889
9.095669
8.690953
8.382797
7.660985
7.873774
7.434487
8.145571
8.564591
##ZVALUE=220
16.474724
17.832518
20.246506
20.896792
19.808412
17.459989
13.156533
9.763837
8.838773
8.929968
9.883642
10.953546
10.358691
9.490848
8.734465
6.260872
5.245805
4.919767
3.322959
3.565550
4.301667
3.832579
3.055930
3.686547
3.779531
3.628731
4.617572
4.825592
4.901886
4.810691
4.623532
5.214810
5.582571
4.954934
6.281734
5.495548
5.717874
6.179810
5.525947
5.898476
6.970763
6.640553
6.160736
7.143617
6.931424
6.914735
7.253885
6.527901
6.774664
7.575750
6.658435
6.941557
6.678700
7.796884
7.255673
8.270741
7.984638
8.534789
7.930994
7.576942
8.065701
8.690953
8.391738
9.199977
8.682609
8.610487
9.709597
10.555983
11.167526
13.168454
15.031695
16.787648
18.561482
19.983649
23.083687
23.179650
23.251772
24.752617
21.748543
21.754503
21.397471
17.466545
15.503764
14.117956
13.828874
10.608435
10.214448
10.629892
10.069609
10.341406
8.918643
9.817481
9.663701
8.996725
9.982586
9.869933
##ZVALUE=225
31.229854
33.058524
41.761994
55.963993
61.524510
60.187578
60.021877
48.103929
37.186742
29.067993
23.482442
21.634698
22.873878
23.979545
24.307966
23.444891
21.379590
17.210841
12.334585
9.271502
7.061958
4.900694
4.407763
4.024506
4.817843
4.781485
4.803538
4.379749
5.277991
5.165935
5.423427
5.263686
5.844831
6.443858
6.810427
6.309748
6.877780
7.032752
6.154776
6.617904
7.302761
6.716847
6.602407
7.032752
7.168651
7.299781
8.254647
7.372499
8.307695
8.529425
8.671880
8.796453
7.485747
7.301569
8.096695
7.101893
7.956624
7.780790
7.948875
8.416772
8.269548
9.294748
9.180903
9.274483
9.707808
9.338856
9.542704
10.770559
11.736751
13.058782
13.572574
16.607642
18.211603
20.321608
20.218492
19.527674
21.062493
21.941662
20.315647
17.532706
17.455816
18.030405
16.009808
14.644861
13.271570
13.786554
11.432767
12.934804
12.935996
11.596680
10.709763
10.357499
11.533499
10.707974
11.013746
11.018515
##ZVALUE=230
26.367903
28.646588
49.408674
84.251761
112.594962
142.420530
158.595443
163.922906
149.749517
121.636987
91.415644
66.435933
47.996640
42.633414
44.776797
48.802495
51.785707
47.967434
41.587949
36.439896
25.292635
18.059611
11.226535
7.819533
6.210804
5.521774
5.048513
5.284548
5.209446
6.557703
5.839467
6.557703
6.310940
6.386638
6.646514
7.103682
6.805658
6.799698
6.871819
7.317662
8.665919
7.937551
7.210970
7.280707
8.135438
7.917881
8.146763
7.746816
8.796453
7.802844
8.267760
8.006692
8.490682
9.522438
8.985996
8.605719
8.970499
10.247827
10.293722
10.947585
9.677410
10.304451
11.156797
10.781884
11.238456
12.675524
12.223721
14.432669
14.164448
16.005635
15.928745
18.728971
22.125840
22.810698
25.484562
25.417805
25.949478
24.374723
23.910999
22.475719
24.298429
21.424890
21.835566
21.304488
19.939542
19.350648
18.025637
18.730760
17.676950
19.070506
16.156435
15.631914
17.214417
17.766953
18.284917
17.524958
##ZVALUE=235
10.090470
10.844469
30.163527
53.316951
107.093453
158.790946
234.630704
286.516547
330.505967
333.079696
296.965837
254.892707
196.374655
129.528642
95.921755
73.161721
72.092414
76.973438
82.440972
83.417892
78.235865
69.187880
52.088499
39.737821
24.530888
18.817782
10.132790
8.074641
7.223487
7.386804
7.532835
7.529855
7.599592
7.748604
6.457567
7.927418
8.817911
7.983446
7.001758
8.684993
7.902980
7.431507
7.174611
8.244514
8.416772
8.486509
8.767843
7.749796
8.445978
8.743405
8.695722
9.283423
9.153485
9.135604
9.520650
10.025501
9.945631
10.299683
11.579990
10.737777
11.184812
11.372566
13.261437
13.887882
15.841722
15.709996
15.538931
17.591715
19.280910
21.081567
21.761656
24.676919
25.760531
29.725432
28.182864
31.273961
31.880736
29.957891
31.163692
28.330684
29.955506
27.559996
27.736425
25.366545
26.200414
25.763512
26.494861
23.863912
24.578571
26.265979
23.679733
26.725531
25.462508
23.637414
24.418831
24.528503
##ZVALUE=240
1.709461
2.155900
4.889965
12.253523
37.344694
67.393780
149.751902
235.262513
356.373787
443.131924
511.075854
515.833497
482.609868
389.168859
309.006572
199.786425
142.539740
99.733472
92.185736
97.804666
107.610822
111.101866
108.890533
99.657774
79.537630
65.177679
46.343803
34.673810
21.123886
15.345812
11.407733
10.072589
8.973479
8.989573
8.539557
8.757710
9.232759
8.890629
8.012652
7.860661
7.685423
8.081794
7.489920
7.190704
8.154511
7.562637
8.262992
9.040833
8.168817
7.391572
7.796884
8.441806
8.808970
8.500814
9.829998
9.720922
9.989738
10.612607
10.733604
11.344552
11.206865
11.838675
12.780428
12.349486
13.089776
14.247894
16.418695
17.925501
19.778609
21.773577
23.480654
23.726821
25.982857
28.136969
32.329559
31.466484
32.095909
32.822490
32.333732
33.004880
31.836629
31.418800
31.237602
31.011701
30.901432
30.693412
30.651689
28.960705
30.771494
28.027892
30.133724
30.078888
28.430820
29.145479
30.205846
28.190613
##ZVALUE=245
1.246929
1.472831
1.178980
1.445413
3.500581
10.842681
30.731559
66.509843
159.712434
253.837705
406.227708
512.318611
593.691468
641.409755
614.990592
515.624881
417.239666
283.879638
201.650858
123.374462
100.342631
96.694827
111.671686
121.741891
129.908919
124.301910
111.491680
94.592571
73.207617
52.873492
39.983988
24.938583
17.033815
12.220740
9.774566
9.999871
9.810925
9.130836
8.118749
8.104444
7.325411
7.388592
7.189512
7.497668
7.569790
6.208420
6.537437
7.207990
6.532669
7.161498
7.291436
7.307529
7.571578
8.063912
7.533431
8.023977
8.486509
9.375811
9.622574
9.277463
10.530949
12.154579
11.600852
12.000799
12.679696
13.638735
15.015602
16.454458
16.484857
20.444989
21.679997
21.989942
24.488568
26.477575
27.710795
30.347705
29.425621
31.018853
29.932857
29.351711
30.387640
29.585958
31.253695
28.496981
29.940605
30.404925
30.120611
29.055476
30.255914
29.667616
29.213428
29.772520
30.406713
29.696822
27.974844
29.261708
##ZVALUE=250
1.248717
1.272559
1.342893
1.652837
1.464486
1.340508
1.835823
9.026527
23.487806
53.664446
136.279464
235.743523
391.801596
520.895720
654.950738
716.909766
718.737841
656.634569
565.246940
405.727625
281.252861
159.601569
112.145543
91.768503
103.065968
121.672750
131.118894
135.300756
134.090781
118.635893
102.085471
72.987676
57.213902
37.773848
25.407672
15.222430
12.822747
8.694530
8.431673
8.484721
8.007884
6.727576
7.830858
6.892681
6.990433
6.819963
6.780624
6.831884
6.743670
6.342530
6.714463
7.221699
7.211566
6.749630
7.165670
7.401705
7.008910
8.391738
8.297563
8.392930
9.156466
9.850860
10.810494
10.474920
11.092424
12.237430
13.011694
14.975667
15.544891
17.113686
19.174814
20.365715
20.753741
22.524595
24.518967
25.659800
25.601983
26.726723
25.228858
27.035475
26.196837
26.133657
27.426481
27.728677
28.548837
26.635528
27.090907
28.346777
28.823614
29.154420
27.145743
29.502511
27.799606
27.988553
27.449727
27.339458
##ZVALUE=255
1.041889
0.990629
0.920892
1.050830
1.061559
1.120567
1.405478
1.362562
1.791716
4.065633
19.114614
47.050714
99.561810
211.777687
336.947441
521.758795
656.977892
795.914531
840.686560
799.063444
696.348548
555.541515
361.368656
235.246420
128.730536
96.020699
88.741779
101.079941
125.148892
137.255788
143.992901
137.159824
127.743483
103.470683
82.163811
54.988861
39.240718
22.642612
14.966726
9.401441
8.758903
7.824898
7.286668
7.041693
7.165670
6.893873
6.311536
6.825924
6.277561
6.683469
6.381869
6.614923
6.831884
6.667972
7.002950
6.618500
6.911755
7.256866
7.853508
7.486939
7.933974
8.971691
8.979440
9.262562
9.414554
11.152625
11.387467
12.161732
13.333559
14.151931
15.948415
17.980933
18.820763
20.264983
21.603703
22.713542
22.513866
22.345781
22.865534
23.087859
23.801923
24.964809
23.871660
26.540756
25.230646
26.780963
26.046634
26.405454
27.157664
25.248528
25.947690
26.999712
26.115775
25.964975
26.775599
26.918650
##ZVALUE=260
0.900626
0.916719
0.936985
1.123548
1.118779
1.055598
1.105666
1.192689
1.336932
1.553893
1.592636
2.245903
7.715821
30.851960
72.167516
174.207687
286.297798
482.856631
642.229915
851.366520
948.289633
970.636010
875.700712
725.042820
485.901833
331.389904
192.097425
121.443868
80.926418
82.559586
97.585917
120.327473
137.577653
146.332979
143.572688
125.118494
108.949542
79.321861
58.229566
36.374927
23.460984
13.947487
9.949803
7.362962
7.273555
6.485581
6.717443
6.647706
6.470680
6.951690
7.034540
6.956458
6.966591
6.636977
7.287860
7.355809
6.301999
7.604957
7.851720
7.516742
8.168817
8.406639
9.062886
8.547902
9.441972
10.818839
11.422634
11.425614
12.457967
13.738871
15.524626
15.984774
17.964840
18.590689
19.832850
21.205544
20.872951
20.840764
21.907687
22.733808
22.269487
22.203922
22.315979
22.921562
24.380684
23.568869
23.104548
23.346543
23.985505
23.530722
23.211837
25.227666
25.835633
25.352836
25.340915
25.659800
##ZVALUE=265
1.117587
0.958443
0.901818
0.906587
0.895858
0.988841
1.003742
1.016855
1.385808
1.227856
1.137853
1.338720
1.620650
1.908541
4.126430
22.062659
54.883957
142.781734
255.564451
479.518771
678.854585
854.314566
1015.872955
1015.872955
1015.872955
909.761786
690.717697
489.865541
277.357697
171.891451
91.204643
72.121620
79.105496
104.208589
125.194788
142.349601
145.314932
144.018531
131.096840
102.662444
81.639886
54.476857
36.901832
21.290779
14.853477
9.334683
8.183718
7.082820
6.967783
7.046461
7.397532
7.914901
7.570982
7.301569
7.788539
7.617474
7.917881
8.102655
7.540584
8.191466
8.103848
8.642673
8.953810
9.347796
9.738803
9.383559
10.037422
10.627508
11.969805
13.443828
13.763905
15.593767
15.484691
17.294884
17.894506
18.989444
19.162893
19.665956
19.768476
20.657778
20.341873
21.588802
20.629764
21.403432
21.484494
22.086501
22.604465
22.516847
22.961497
23.271441
23.181438
22.134781
22.385716
23.646951
22.937655
23.525953
##ZVALUE=270
0.938773
1.072884
0.996590
1.065731
0.869632
1.024604
1.096725
1.050830
0.970960
1.064539
1.352429
1.183748
1.311898
1.476407
1.533628
1.765490
2.445579
9.349585
29.551983
96.935630
198.714733
350.283980
632.306933
852.022767
1015.871763
1015.871763
1015.871763
1015.871763
887.886882
679.189563
473.013520
256.734490
146.323442
71.064830
61.943531
81.168413
101.304650
128.049850
142.332911
148.226619
146.028996
126.227736
107.366443
77.561736
58.068633
34.831762
24.404526
15.010834
11.400580
8.749962
8.636713
8.113980
8.409619
7.904768
8.064508
7.710457
7.936954
8.268952
8.685589
8.387566
8.423924
9.184480
9.498596
9.342432
10.100603
10.046959
11.023879
11.291504
12.652874
13.676882
14.867783
15.484691
15.877485
17.421842
18.227696
18.269420
18.118620
19.254684
19.427538
18.831491
19.165874
19.089580
19.168854
19.732714
20.121932
20.652413
20.270944
20.973682
21.192431
20.112991
20.468831
21.975636
21.425486
21.772981
22.002459
22.267699
##ZVALUE=275
0.846982
0.818968
0.834465
0.851750
0.886917
0.940561
0.927448
0.934601
0.883937
0.946522
1.164675
1.102686
1.100898
1.106858
1.192689
1.325607
1.470447
1.505613
1.533628
5.280972
19.695759
55.042505
157.673955
300.944448
567.752719
780.498981
1010.731459
1015.871763
1015.871763
1015.871763
1015.871763
800.070763
568.756461
304.903984
179.574490
81.465840
53.866506
57.452917
76.422691
102.597475
122.054815
142.179728
146.806836
143.109560
126.551986
101.335645
80.730915
58.009624
40.682554
24.632812
16.450882
11.307597
8.962750
8.262992
7.647872
8.072853
7.994771
8.672476
8.497834
8.840561
9.146929
9.976625
9.773970
9.596944
10.230541
10.719895
11.371970
12.045503
12.163520
13.132691
13.761520
15.039444
15.870929
17.074943
16.801953
17.462969
18.161535
18.170476
18.345714
18.386841
18.677711
19.012690
19.405484
19.156933
19.322634
19.914508
20.223856
19.854903
20.337701
20.299554
20.347834
20.372868
20.615458
20.176768
20.218492
20.643473
##ZVALUE=280
0.955462
0.861883
0.891685
0.810623
0.819564
1.003742
1.078844
0.950694
0.968575
0.819564
1.133680
1.161695
0.981688
1.086593
1.276731
1.330972
1.410842
1.530647
1.765490
1.727939
2.003908
2.352595
15.384555
48.582554
139.381886
252.384543
472.831726
699.058771
998.390913
1015.951633
1015.951633
1015.951633
1015.951633
934.215784
681.223869
381.442904
224.262476
100.285411
56.115985
43.745637
54.448843
79.989433
99.375844
123.183727
138.502717
142.069459
139.365792
122.906566
105.728507
77.002645
58.629513
36.723614
26.226640
16.104579
12.149811
9.252429
9.159446
8.769631
9.085536
9.196997
9.291768
10.305643
10.001659
10.133982
11.280775
11.058450
11.605620
11.620522
12.693405
13.356805
14.361739
15.540719
15.914440
16.328692
17.625690
18.064976
18.142462
17.499924
18.595457
18.253922
18.722415
19.028783
18.284917
19.478798
19.834638
19.291639
19.048452
19.480586
19.369721
20.061731
19.361973
19.995570
19.598603
19.866824
20.392537
19.229650
##ZVALUE=285
0.861883
0.716448
0.733733
0.877976
0.831485
0.927448
0.635982
0.678897
0.988841
0.723600
0.859499
0.871420
0.900626
1.297593
0.927448
1.010895
1.117587
1.203418
1.360774
1.328588
1.449585
1.570582
1.775622
2.149940
8.054972
28.307438
97.315907
190.501809
390.924811
595.399737
818.786025
1015.867591
1015.867591
1015.867591
1015.867591
1015.867591
900.411010
554.351807
344.097018
154.547691
78.403950
36.975741
33.608675
50.423741
69.400668
97.901821
114.203691
132.515430
137.845874
134.005547
122.850537
102.025867
82.505941
57.534575
40.451884
24.434924
16.930699
11.543632
9.613633
9.283423
9.338856
9.134412
9.661913
10.386705
10.222793
10.950565
10.848641
11.988878
12.522936
13.247728
13.924837
14.990568
15.459657
16.345978
16.901493
16.766787
16.897917
18.080473
17.635822
18.289685
18.108487
18.506646
18.529892
18.747449
19.266605
18.761754
19.091964
18.677711
19.301772
19.004941
18.682480
19.202828
19.311905
19.009709
18.958449
19.153953
##ZVALUE=290
0.570416
0.605583
0.536442
0.726581
0.783801
0.448823
0.664592
0.749826
0.743866
0.768900
0.869632
0.855923
0.949502
0.937581
0.863671
1.050830
1.091957
1.222491
1.319647
1.226664
1.382828
1.388788
1.503825
1.649857
1.893640
1.961589
2.830625
9.438992
50.152540
117.173791
270.048976
459.147692
695.692897
1008.320451
1015.871763
1015.871763
1015.871763
1015.871763
1015.871763
713.357925
469.465852
232.126713
117.829442
42.806864
26.778579
32.255650
44.841766
68.260431
87.269545
111.230612
125.419497
135.522485
133.269429
118.631721
102.780461
76.389909
57.451725
37.206411
26.100874
17.207861
13.185740
10.447502
10.335445
10.618567
10.365844
10.533929
11.694431
12.007952
12.887716
13.471842
14.336705
15.034676
15.942454
16.224980
16.666651
16.914606
17.669797
17.219782
18.066764
18.543601
17.734766
18.346906
18.254519
18.493533
18.903613
19.236803
18.872619
19.222498
18.698573
19.339919
19.393563
18.725991
19.173622
19.151568
18.513799
19.290447
##ZVALUE=295
0.773668
0.715852
0.786781
0.703931
0.612736
0.739694
0.789762
0.766516
0.774860
0.812411
0.892878
0.857711
0.841618
0.954866
0.772476
0.773668
0.966787
0.933409
0.925660
0.952482
0.987649
1.049638
1.369715
1.372695
1.460910
1.373887
1.654625
1.922846
2.248883
3.572702
13.608932
67.525506
159.576535
386.547446
621.683002
975.300670
1015.871763
1015.871763
1015.871763
1015.871763
1015.871763
869.673491
609.604716
330.132842
182.383657
67.838430
32.818913
21.355748
28.302670
44.495463
61.413646
85.259676
101.640821
120.480657
127.167702
125.778913
114.520788
96.025467
77.668428
55.106878
40.128827
26.103854
18.480420
14.186502
11.984706
11.363626
12.031794
12.498498
13.229847
13.824701
15.175939
15.319586
15.712976
16.430616
17.241836
17.093420
17.582774
17.511845
18.278956
18.252730
18.792748
18.475652
18.292665
18.878579
19.142628
19.228458
18.927455
19.273758
19.286871
18.747449
18.904805
18.617511
18.912554
18.702745
18.877983
18.574595
##ZVALUE=300
0.657439
0.680685
0.768900
0.792742
0.667572
0.737906
0.724792
0.776649
0.944734
0.650883
0.787973
0.723600
0.805855
0.785589
0.792742
0.839829
0.778437
0.828505
0.949502
0.838637
1.116991
0.896454
1.031756
1.186728
1.144409
1.394749
1.244545
1.380444
1.875758
1.719594
2.023578
2.534986
6.165504
37.955642
103.855729
289.521813
515.215993
906.668901
1015.871763
1015.871763
1015.871763
1015.871763
1015.871763
1015.871763
782.778859
440.557003
260.288715
110.133886
50.258636
19.562840
17.954707
26.767850
37.888885
58.498979
77.265501
99.670887
114.158988
122.751594
122.961998
110.713840
97.093582
74.617863
58.419704
39.563775
29.215813
19.919872
15.763640
13.918877
13.684630
14.002919
14.719963
15.342832
16.258955
16.917586
17.095804
18.094778
17.942786
18.411875
18.460751
18.368959
18.762946
19.812584
19.021630
19.486547
19.838810
19.302964
19.323826
19.144416
19.190907
19.582510
18.754601
18.987656
19.195676
18.939972
19.048452
18.401742
##ZVALUE=305
0.520945
0.622869
0.488758
0.447631
0.567436
0.589490
0.679493
0.590682
0.625849
0.578761
0.615716
0.657439
0.722408
0.985861
0.858903
0.809431
0.872612
0.957847
0.772476
0.725985
0.864863
1.020432
0.916719
0.988841
1.027584
0.983477
1.286864
1.210570
1.372695
1.309514
1.466870
1.815557
1.838803
2.302527
3.765821
23.266673
69.549680
210.275650
400.391817
779.693723
1015.869975
1015.869975
1015.869975
1015.869975
1015.869975
1015.869975
949.338675
592.978001
369.269848
166.734457
80.347657
26.594996
14.767647
17.431974
24.938583
39.678812
54.722428
75.819492
91.587901
111.112595
116.210580
114.118457
107.420683
91.171861
75.655580
54.097772
41.337609
28.886795
22.483468
17.315745
16.007423
16.066432
16.467571
16.854405
17.147660
17.644763
17.951727
18.415451
18.527508
18.769503
18.624663
19.481778
19.681454
19.785762
20.127892
19.832850
19.831657
19.530654
20.362735
20.581484
19.686818
19.516945
18.935800
19.189715
18.718839
18.916726
##ZVALUE=310
0.491738
0.723600
0.700951
0.539422
0.703931
0.584722
0.642538
0.546575
0.527501
0.485778
0.641942
0.542998
0.583529
0.706911
0.644922
0.684857
0.734925
0.710487
0.785589
0.530481
0.867844
0.858903
0.912547
0.704527
0.900626
0.866652
0.965595
1.118779
1.112819
1.167655
1.341701
1.406670
1.479983
1.581907
1.933575
2.102852
2.639890
7.412434
42.347908
103.532672
272.219777
480.364561
878.749490
1015.807986
1015.807986
1015.807986
1015.807986
1015.807986
1015.807986
848.875642
479.076505
284.032822
119.964480
53.949952
18.165708
12.479424
16.141534
21.826625
34.371614
46.907663
67.936778
83.296895
102.066994
110.242963
110.661983
105.224848
90.976954
76.629519
55.981874
42.254925
30.310750
24.175644
19.994974
18.390417
17.537475
17.847419
17.899871
18.090606
18.207431
18.802881
19.115806
19.475818
19.714832
20.591617
20.079613
20.659566
20.659566
20.308495
20.600557
20.060539
20.037889
19.815564
19.645691
19.288659
18.950701
19.605756
##ZVALUE=315
0.579953
0.572801
0.641942
0.459552
0.674725
0.544786
0.562668
0.619888
0.681877
0.603795
0.657439
0.506639
0.556707
0.647902
0.697970
0.672936
0.667572
0.702739
0.677705
0.695586
0.652671
0.870824
0.821948
0.697970
0.724792
0.800490
0.854731
1.024604
0.856519
1.122952
1.197457
1.126528
1.406670
1.417994
1.465678
1.514554
1.837611
1.965761
2.312660
4.545450
16.908646
74.349642
173.002481
414.559841
680.812597
1015.867591
1015.867591
1015.867591
1015.867591
1015.867591
1015.867591
989.317894
699.980855
362.587571
194.971561
70.909858
28.476715
11.720657
11.764765
15.433431
20.803809
33.236742
45.857430
64.624548
80.007911
97.783804
105.462670
106.885433
101.739764
87.904930
73.879957
55.962801
44.271946
31.712651
25.815964
22.086501
19.769669
18.809438
18.650889
18.876791
19.378662
19.575953
19.895434
19.979477
20.346642
20.725727
20.794868
20.988584
21.129847
20.427704
20.021796
20.297766
19.802451
19.709468
19.692779
19.549727
##ZVALUE=320
0.556707
0.501871
0.331998
0.473857
0.561476
0.684857
0.601411
0.554919
0.451803
0.431538
0.600815
0.549555
0.740886
0.660419
0.682473
0.539422
0.598431
0.737906
0.746846
0.798702
0.775456
0.684857
0.616908
0.795722
0.767708
0.745654
0.704527
0.764728
0.849962
1.046658
0.984669
0.998974
1.013875
1.164675
1.313686
1.161695
1.443624
1.529455
1.562834
1.863837
2.029538
2.608895
7.334948
41.887760
110.688806
300.973654
504.119992
869.607925
1015.871763
1015.871763
1015.871763
1015.871763
1015.871763
1015.871763
883.461833
501.183867
285.529494
116.217732
49.284697
15.882850
11.081696
11.774898
14.507771
20.611882
29.584765
45.251846
59.053898
77.919960
89.927912
101.217628
104.012489
99.116564
89.440942
71.970820
58.223605
42.571425
33.033490
25.861859
22.366643
20.090938
19.839406
19.376874
19.955635
19.602776
20.178556
20.530820
20.470619
20.709634
20.395517
20.823479
20.514727
20.338893
20.173788
20.206571
19.742846
19.654632
##ZVALUE=325
0.579953
0.452995
0.600815
0.482798
0.472665
0.541806
0.434518
0.485778
0.565648
0.442863
0.445843
0.443459
0.555515
0.522733
0.747442
0.777841
0.587702
0.793934
0.557899
0.730753
0.857711
0.619888
0.514984
0.628829
0.815988
0.709891
0.848770
0.872612
0.679493
0.893474
0.921488
0.916719
1.055598
0.906587
1.024604
1.090765
1.264811
1.224875
1.421571
1.560450
1.718998
1.725554
1.984835
2.205968
4.474521
29.762983
82.803965
223.768950
407.453775
777.443647
1015.865803
1015.865803
1015.865803
1015.865803
1015.865803
1015.865803
1012.926102
646.638870
389.856696
162.469745
72.481632
21.434426
12.102723
10.771751
11.634827
15.144944
20.106435
30.214787
42.523742
60.528517
74.187517
89.100599
96.613765
98.631978
93.907714
80.587864
68.873763
53.733587
42.761564
31.477809
26.338696
22.666454
21.088719
20.089746
20.298958
20.176768
19.971728
19.942522
20.169616
20.383000
19.970536
20.254850
20.170808
19.678473
19.678473
19.465685
##ZVALUE=330
0.476837
0.576973
0.479817
0.515580
0.528693
0.517964
0.518560
0.550747
0.417829
0.483990
0.514984
0.618696
0.498891
0.535846
0.606775
0.426769
0.424981
0.589490
0.474453
0.575781
0.557899
0.588894
0.693798
0.652671
0.729561
0.712872
0.714660
0.794530
0.639558
0.841618
0.853539
0.825524
0.682473
0.870824
0.841618
1.141429
1.021624
1.093745
1.116991
1.110435
1.254678
1.344681
1.387596
1.585484
1.826882
2.164841
2.569556
12.250543
41.687489
146.041512
288.171768
590.775609
889.102817
1015.845537
1015.845537
1015.845537
1015.845537
1015.845537
1015.845537
824.453831
545.679927
263.898969
136.337876
45.353770
17.260909
10.877848
11.053681
12.301803
14.972687
21.948814
29.843450
42.740703
56.047440
73.715448
84.486604
92.950463
94.639659
89.280605
79.529881
64.605474
53.049922
39.789677
32.944679
27.139783
23.615956
20.761490
20.283461
20.345449
19.832850
19.884706
20.035505
19.721985
19.565821
19.529462
19.287467
19.094944
##ZVALUE=335
0.526905
0.456572
0.385642
0.586510
0.262856
0.325441
0.470877
0.457764
0.521541
0.571609
0.504851
0.341535
0.583529
0.555515
0.644922
0.590682
0.664592
0.690818
0.704527
0.638962
0.672936
0.404716
0.612736
0.697970
0.717640
0.761747
0.684857
0.735521
0.663996
0.686646
0.678897
0.666976
0.789762
0.987649
0.979900
0.793934
1.035929
1.022816
0.992417
1.013875
1.060963
1.311898
1.340508
1.317859
1.648664
1.732707
1.864433
2.063513
2.392530
8.111000
29.510856
114.899874
234.511495
512.367487
806.352496
1015.874743
1015.874743
1015.874743
1015.874743
1015.874743
1015.874743
889.919996
605.109930
323.626995
169.453621
56.919456
23.444891
11.734962
11.042953
11.873841
13.161898
16.411543
20.706654
30.739903
41.164756
55.994987
68.306923
80.824494
87.175965
89.646578
83.871484
72.791576
64.520836
51.278472
43.203831
32.504797
27.164817
22.650957
21.134615
19.629598
19.433498
19.600987
18.789768
19.102693
18.787980
18.919706
##ZVALUE=340
0.569820
0.373721
0.439882
0.444651
0.517964
0.632405
0.626445
0.500679
0.550747
0.476837
0.582933
0.395775
0.550747
0.585914
0.504851
0.511408
0.492930
0.545979
0.619888
0.635982
0.565648
0.508428
0.716448
0.541806
0.685453
0.735521
0.697970
0.638962
0.808835
0.815988
0.616908
0.690818
0.741482
0.851750
0.898838
0.915527
0.846982
0.982881
0.796914
0.952482
1.105666
0.990629
1.093745
1.167655
1.152754
1.277924
1.503825
1.691580
1.725554
1.926422
1.927614
3.428459
11.543632
66.772699
166.544914
414.430499
688.788891
1015.867591
1015.867591
1015.867591
1015.867591
1015.867591
1015.867591
1015.647650
746.989846
381.097794
206.760764
81.950426
32.532811
13.332963
11.717677
12.012720
12.517571
14.013648
16.287565
22.340417
29.033422
40.967464
51.706433
66.883564
76.971650
83.799958
84.760785
80.415606
74.096918
61.666965
52.317977
40.085912
32.985806
26.437640
22.636652
20.214915
18.624663
18.410683
18.208623
18.093586
##ZVALUE=345
0.485778
0.367761
0.404716
0.382662
0.519753
0.482798
0.617504
0.491738
0.543594
0.499487
0.422597
0.417829
0.401735
0.391603
0.569820
0.540614
0.449419
0.383854
0.445843
0.440478
0.394583
0.530481
0.295639
0.408888
0.531673
0.521541
0.585914
0.595450
0.559688
0.560880
0.599623
0.547767
0.684857
0.553727
0.687838
0.795722
0.721812
0.677705
0.617504
0.831485
0.826716
0.855923
0.930429
0.952482
0.979900
1.104474
1.126528
1.168847
1.303554
1.241565
1.492500
1.655817
1.816750
2.280474
4.742742
29.802918
90.767741
260.108709
481.177568
888.461471
1015.846729
1015.846729
1015.846729
1015.846729
1015.846729
1015.846729
888.153911
511.577725
285.453796
109.090805
46.848655
17.267466
12.306571
11.935830
11.931658
12.251735
13.062954
16.058683
19.463897
28.301477
37.024617
50.636530
60.857534
70.774555
76.759458
78.925490
75.964928
68.281889
60.938001
49.890876
40.272474
31.146407
25.688410
21.401644
19.470453
18.105507
##ZVALUE=350
0.492930
0.417829
0.392795
0.508428
0.410676
0.572801
0.356436
0.558496
0.546575
0.616908
0.454783
0.452995
0.396967
0.528693
0.380874
0.651479
0.363588
0.568628
0.462532
0.411868
0.514984
0.485778
0.501871
0.563860
0.631809
0.647902
0.628829
0.520945
0.665784
0.494719
0.626445
0.653863
0.621676
0.660419
0.744462
0.668764
0.770688
0.766516
0.811815
0.669956
0.869632
0.783801
0.889897
0.861883
0.848770
0.923872
1.102686
0.946522
1.155734
1.212955
1.188517
1.330972
1.460910
1.806617
1.861453
2.214909
3.296733
10.645986
51.247478
124.870539
333.404541
586.146712
990.722775
1015.871763
1015.871763
1015.871763
1015.871763
1015.871763
958.433747
639.843941
331.766009
175.695419
60.110688
24.649501
12.402534
11.513829
11.301637
11.381507
11.817813
12.997985
15.878677
18.962622
25.542974
33.080578
43.708682
53.244829
64.118505
69.717765
72.057843
71.252584
64.319968
56.779981
46.388507
38.350821
29.292703
24.912953
##ZVALUE=355
0.411868
0.438690
0.547767
0.453591
0.522733
0.448823
0.314713
0.428557
0.435710
0.620484
0.443459
0.512600
0.479817
0.594854
0.627637
0.720620
0.582933
0.459552
0.344515
0.541806
0.581741
0.417829
0.516772
0.491738
0.479817
0.493526
0.545979
0.536442
0.501871
0.711679
0.594854
0.786781
0.722408
0.571609
0.820756
0.734925
0.702739
0.771880
0.610948
0.638962
0.767708
0.656843
0.794530
0.792742
0.893474
0.915527
0.993609
1.125932
0.973940
0.986457
1.229644
1.283884
1.282692
1.461506
1.621842
1.754761
1.711845
2.005696
2.399683
6.616712
22.836924
94.171762
203.908682
462.190509
777.236819
1015.871763
1015.871763
1015.871763
1015.871763
1015.871763
1015.871763
790.187716
480.319858
205.406547
95.668435
29.319525
14.065504
10.752678
10.909438
10.847449
11.176467
11.606812
12.412667
14.709830
17.371774
23.267865
29.231906
39.796829
48.074722
56.326985
62.346458
65.828562
64.575672
59.724450
53.456426
44.087768
##ZVALUE=360
0.572801
0.648499
0.465512
0.657439
0.500679
0.471473
0.535846
0.449419
0.459552
0.341535
0.474453
0.524521
0.596642
0.509620
0.529885
0.471473
0.414848
0.539422
0.599623
0.473857
0.573993
0.623465
0.512600
0.562668
0.531673
0.543594
0.455976
0.607967
0.592470
0.651479
0.684857
0.654459
0.724792
0.583529
0.866652
0.653863
0.703931
0.708699
0.763535
0.735521
0.800490
0.780821
0.761747
0.782609
0.809431
0.971556
0.953674
0.991821
0.939965
1.018643
1.097918
1.235604
1.112819
1.221895
1.093745
1.423955
1.449585
1.593828
1.811981
2.043843
2.230406
3.459454
10.117888
48.496723
120.686889
316.358805
552.966595
953.343511
1015.871763
1015.871763
1015.871763
1015.871763
1015.871763
958.498716
626.027584
291.533470
144.680738
51.381588
20.877719
10.754466
10.040998
10.082722
10.110736
10.579824
10.791421
11.240840
12.648702
15.311837
18.798709
25.271773
32.262802
42.022467
48.965812
56.134462
59.768558
60.164928
##ZVALUE=365
0.423789
0.256896
0.387430
0.326633
0.394583
0.433922
0.455976
0.444651
0.440478
0.409484
0.590682
0.541806
0.364780
0.550747
0.501871
0.415444
0.471473
0.516772
0.485778
0.476837
0.554919
0.650883
0.533462
0.531673
0.615716
0.494719
0.495911
0.601411
0.621676
0.553727
0.557899
0.699759
0.532866
0.497699
0.402927
0.812411
0.571609
0.643730
0.599623
0.759959
0.757575
0.711679
0.759959
0.839829
0.843406
0.842810
0.675917
0.877976
0.883937
0.884533
0.946522
1.098514
1.058578
1.187921
1.138449
1.249909
1.262426
1.213551
1.450777
1.658797
1.773834
1.981854
2.140999
2.538562
4.700422
26.133657
73.755980
206.846595
391.459465
760.404468
1015.872955
1015.872955
1015.872955
1015.872955
1015.872955
1015.872955
821.645856
438.234806
229.136944
75.630546
29.104948
11.068583
9.304881
9.416938
9.533763
9.487867
9.619594
9.849668
10.416508
11.138916
12.777448
16.644597
20.847917
28.499961
35.191774
43.172836
##ZVALUE=370
0.424981
0.469685
0.440478
0.313520
0.368953
0.520945
0.457764
0.469685
0.399947
0.416636
0.456572
0.588894
0.297427
0.545979
0.578761
0.388622
0.559688
0.481606
0.480413
0.619888
0.502467
0.497699
0.539422
0.413656
0.539422
0.643730
0.364780
0.450611
0.459552
0.626445
0.431538
0.574589
0.458956
0.518560
0.541806
0.562668
0.675917
0.615716
0.729561
0.638962
0.861883
0.691414
0.772476
0.852942
0.823736
0.746846
0.657439
0.833869
0.756979
0.941753
1.019835
0.992417
0.812411
0.896454
0.851750
0.970960
1.107454
1.130700
1.211762
1.367927
1.347661
1.487732
1.559854
1.705885
2.077818
2.194643
3.016591
13.673902
45.203567
150.661469
286.813974
560.465455
841.345787
1015.871763
1015.871763
1015.871763
1015.871763
1015.871763
1015.871763
648.248792
369.563699
139.176846
58.019757
17.765760
9.998679
8.528829
8.706450
8.552670
8.965731
8.455515
8.799434
9.365678
9.875894
11.986494
14.612675
19.384623
##ZVALUE=375
0.490546
0.671744
0.584722
0.638962
0.535846
0.457764
0.411868
0.535846
0.483990
0.543594
0.482798
0.440478
0.728965
0.597835
0.425577
0.554919
0.578761
0.604987
0.535846
0.566840
0.563860
0.534654
0.626445
0.594854
0.543594
0.657439
0.713468
0.571609
0.673532
0.644922
0.614524
0.616908
0.677705
0.762939
0.629425
0.651479
0.649691
0.513792
0.642538
0.601411
0.712872
0.752807
0.649691
0.748634
0.642538
0.758767
0.829697
0.756979
0.779629
0.967979
0.987649
1.051426
1.033545
1.035929
1.051426
0.951886
0.987649
0.984669
1.114607
1.120567
1.182556
1.327991
1.141429
1.526475
1.397729
1.603961
1.862645
2.174973
2.706647
8.227825
29.988885
110.118985
234.835744
520.988703
805.460811
1015.993953
1015.993953
1015.993953
1015.993953
1015.993953
1003.955007
642.040968
406.153798
201.884508
100.496411
32.021999
13.207793
8.233786
7.847548
7.784963
7.813573
8.089542
7.753968
8.204579
8.659959
9.295940
##ZVALUE=380
0.289679
0.391603
0.358820
0.197887
0.342727
0.406504
0.435710
0.318885
0.280738
0.276566
0.418425
0.336766
0.254512
0.462532
0.428557
0.423789
0.391603
0.286698
0.396967
0.348687
0.349879
0.370741
0.409484
0.324845
0.486970
0.402927
0.449419
0.496507
0.343919
0.418425
0.479817
0.610948
0.427961
0.455976
0.521541
0.533462
0.519753
0.723600
0.547767
0.574589
0.553727
0.416636
0.646710
0.618696
0.664592
0.570416
0.609756
0.643730
0.461936
0.638962
0.686646
0.568628
0.751615
0.799894
0.531673
0.619888
0.719428
0.740886
0.809431
0.862479
1.017451
0.990629
1.010895
1.018643
1.124740
1.260638
1.228452
1.547933
1.887679
2.063513
2.376437
3.892779
14.074445
71.886778
170.447826
394.922495
633.939505
987.592936
1015.871763
1015.871763
1015.871763
1015.871763
1015.871763
820.841789
549.991727
269.810557
134.377480
44.092536
17.549992
8.025765
7.025599
7.060766
6.946921
7.124543
7.021427
7.170439
##ZVALUE=385
0.347495
0.330806
0.200868
0.503659
0.503659
0.309944
0.164509
0.452995
0.257492
0.364780
0.441670
0.237823
0.440478
0.511408
0.418425
0.311732
0.340939
0.400543
0.422597
0.311732
0.470877
0.247955
0.261664
0.468493
0.269413
0.474453
0.303984
0.407696
0.462532
0.277758
0.071526
0.501871
0.450611
0.493526
0.498891
0.361800
0.395775
0.455976
0.276566
0.547767
0.535846
0.545979
0.454783
0.481606
0.569820
0.439882
0.536442
0.541806
0.535846
0.564456
0.663996
0.527501
0.674725
0.554919
0.628829
0.694990
0.818968
0.697970
0.803471
0.649691
0.641942
0.658631
0.802875
0.880957
0.896454
1.018643
0.942945
1.115799
1.355410
1.570582
1.583695
1.849532
2.031922
2.641678
6.578565
38.431883
103.910565
268.668532
481.274724
865.942836
1015.871763
1015.871763
1015.871763
1015.871763
1015.871763
982.198715
715.557933
393.846631
225.299597
89.782476
34.738779
9.950995
6.944537
6.476641
6.434917
6.383657
##ZVALUE=390
0.290871
0.355840
0.421405
0.339746
0.299811
0.224710
0.407696
0.376701
0.340939
0.299811
0.343919
0.331998
0.453591
0.315905
0.377893
0.484586
0.309944
0.302792
0.358820
0.464916
0.376701
0.435710
0.371933
0.392795
0.341535
0.462532
0.434518
0.404716
0.391603
0.556707
0.392795
0.325441
0.509620
0.527501
0.537634
0.437498
0.403523
0.517964
0.426769
0.560880
0.541806
0.432730
0.433922
0.415444
0.531673
0.431538
0.578761
0.508428
0.494719
0.489950
0.570416
0.464916
0.564456
0.530481
0.632405
0.407696
0.576973
0.535846
0.518560
0.639558
0.663996
0.701547
0.721812
0.619888
0.952482
0.833869
1.032948
1.088977
1.304746
1.440644
1.411438
1.640916
1.635551
1.575947
1.746416
2.037883
3.513694
20.793676
66.146851
203.480721
385.286808
721.868873
982.570648
1015.871763
1015.871763
1015.871763
1015.871763
1015.871763
844.565630
528.082848
318.598747
134.251714
59.938431
15.772581
7.274747
6.250739
##ZVALUE=395
0.364780
0.223517
0.359416
0.354648
0.468493
0.315905
0.283718
0.131726
0.231862
0.406504
0.274777
0.316501
0.300407
0.311732
0.321865
0.255704
0.398755
0.416636
0.278950
0.305772
0.445843
0.444651
0.525713
0.293851
0.373721
0.519753
0.476837
0.381470
0.344515
0.281930
0.389814
0.325441
0.457764
0.443459
0.392795
0.450611
0.572801
0.473857
0.603795
0.454783
0.472665
0.516772
0.474453
0.461936
0.429749
0.603795
0.543594
0.576973
0.559688
0.498891
0.674725
0.577569
0.412464
0.723600
0.684857
0.679493
0.733733
0.714660
0.686646
0.770688
0.740886
0.784993
0.707507
0.648499
0.759959
0.998974
0.910759
0.974536
1.247525
1.411438
1.438856
1.516938
1.420975
1.369715
1.468658
1.481771
1.763701
1.856685
2.220869
11.124611
43.276548
153.649449
291.473866
560.624599
842.450857
1015.871763
1015.871763
1015.871763
1015.871763
1015.871763
1015.871763
709.306002
445.832014
193.853974
88.217854
25.833845
##ZVALUE=400
0.404716
0.309944
0.298619
0.352859
0.271797
0.381470
0.509620
0.287890
0.334978
0.376701
0.477433
0.425577
0.344515
0.328422
0.397563
0.432730
0.442863
0.539422
0.412464
0.361800
0.307560
0.430942
0.334978
0.438690
0.426769
0.344515
0.510812
0.353456
0.140667
0.391603
0.428557
0.234842
0.429749
0.373721
0.386834
0.449419
0.629425
0.613928
0.390410
0.457764
0.636578
0.442863
0.492930
0.519753
0.588894
0.423789
0.412464
0.477433
0.282526
0.433922
0.464916
0.409484
0.669956
0.493526
0.552535
0.707507
0.732541
0.610948
0.620484
0.659823
0.685453
0.780821
0.667572
0.694990
0.666976
0.874996
1.009703
1.166463
1.157522
1.402497
1.307726
1.417994
1.442432
1.400709
1.313686
1.508594
1.427531
1.508594
1.604557
2.003908
2.236962
5.676746
21.432638
82.720518
184.619427
425.719619
697.588921
1015.875936
1015.875936
1015.875936
1015.875936
1015.875936
1015.875936
868.211985
575.512648
288.628936
##END
