##TITLE=QP00602
##FORMAT=SPECTACLE-ASCII V-1.2
##DATA TYPE=ULTRAVIOLET SPECTRUM
##SECOND TYPE=ULTRAVIOLET SPECTRUM
##DATE=01/30/18
##TIME=15:49:04
##SPECTROMETER/DATA SYSTEM=SPECTACLE
##XUNITS=NM EM
##YUNITS=ENERGY
##YFACTOR=1
##FIRSTX=220
##LASTX=410
##NPOINTS=96
##3DDATA=Equidistant
##ZUNITS=NM EX
##FIRSTZ=210
##LASTZ=400
##ZPOINTS=39
##XYDATA=(Y..Y)
##ZVALUE=210
2.177954
2.008677
2.023578
1.931787
1.983643
3.030896
2.445579
2.490878
2.510548
3.015995
2.627969
2.079606
2.543926
2.583861
3.261566
3.144741
3.465414
3.931522
4.436970
4.763603
4.821420
5.146861
5.132556
4.978776
4.884601
5.216599
6.137490
7.174611
6.698966
7.144809
6.734729
7.243752
7.364750
7.284880
7.666945
7.811785
7.580519
7.626414
7.723570
8.139610
8.129478
9.214878
8.079410
8.815527
8.238554
8.658767
8.533597
9.498000
8.762479
9.780526
8.403659
10.755658
9.401441
10.904670
10.905862
10.112524
10.521412
11.056662
9.808540
10.532737
9.870529
11.134744
10.438561
11.048913
11.043549
11.265874
12.018681
14.587641
15.488863
18.146634
22.268891
27.740598
33.010840
36.683679
40.468574
42.934418
41.822791
41.914582
40.789843
39.554834
38.615465
35.745502
31.937957
26.507974
22.082925
19.504428
17.954707
13.917685
12.299418
11.362433
12.811422
11.733770
10.436773
12.866855
11.623502
11.021495
##ZVALUE=215
8.225441
7.175803
6.247759
5.954504
5.702972
3.752708
5.132556
3.863573
4.122853
4.941821
4.773736
4.175901
3.542900
4.353523
3.552437
3.571510
3.236532
3.632903
3.325939
4.156828
3.700852
4.401803
5.658865
4.755855
6.047487
5.699992
5.438924
5.794764
5.809665
6.324649
4.935861
7.389784
5.916953
6.987453
7.024407
7.605553
7.134676
6.938577
7.492900
8.210540
7.473826
7.676482
8.180737
8.241534
8.550882
8.614659
8.683801
9.012818
9.235740
8.825660
9.231567
9.895563
9.969473
9.551644
10.055900
10.308623
9.091496
11.713505
10.735989
10.434985
10.053515
10.133982
10.531545
10.827780
11.109710
11.995435
12.287498
14.898777
16.094446
17.946959
19.844770
26.476979
28.949976
34.850836
38.219690
39.707422
38.700700
38.167834
39.070845
36.331415
33.855438
31.548738
26.887655
24.009943
20.689964
14.349818
14.180541
12.386441
11.854768
10.981560
11.000633
10.322928
10.387897
11.685491
10.400414
12.321472
##ZVALUE=220
28.827786
29.171705
32.394528
31.140447
27.210712
22.430420
16.942620
12.558699
11.708736
10.855794
10.805726
10.650754
11.644959
11.509657
9.318590
7.203817
5.568862
4.644990
4.321933
4.075766
4.841685
5.274415
4.928708
5.016923
5.059838
5.366802
6.535649
5.261898
5.697608
6.335974
6.128550
7.093549
7.364750
7.170439
7.596612
7.740855
8.074641
8.488894
9.011626
8.057952
8.172989
9.304881
8.813739
9.308457
9.140968
8.791685
9.880662
10.689497
9.794831
11.260509
10.622740
11.012554
10.567904
11.559725
10.311604
11.716485
11.133552
12.323856
12.267828
12.159944
11.805892
12.861490
12.630820
12.697577
12.840629
13.642907
13.460517
15.998483
18.550754
20.454526
24.532676
26.869774
31.134486
35.922527
38.789511
39.477944
40.093660
40.465593
39.514899
36.244988
35.187602
31.387806
30.065775
25.467873
22.747517
19.588470
15.845895
16.429424
14.326572
13.089776
13.969541
13.642907
13.999939
12.403727
12.661815
12.032986
##ZVALUE=225
61.885715
66.080689
90.304613
117.359757
130.949616
121.218562
113.816857
80.860853
60.768723
45.480728
28.115511
22.837520
25.682449
24.630427
25.677681
25.176406
20.487905
17.208457
13.930798
10.343790
8.094907
6.396770
5.998611
6.132722
6.889701
6.492734
7.233620
7.611513
7.397532
8.402467
9.449720
8.712411
8.852482
9.251833
9.067655
10.069609
8.861423
9.951591
9.271502
9.591579
10.832548
11.244416
10.880828
11.195540
11.569858
12.028813
11.640787
13.104677
12.537837
12.539625
11.832714
13.237000
12.750626
14.251471
13.368726
13.600588
14.344454
15.058517
14.210939
14.847517
14.786720
14.166832
13.790727
14.538765
16.994476
16.187429
17.186999
18.874407
21.739602
23.477674
27.777553
29.206872
34.369826
37.830472
38.518906
42.230487
39.880872
40.749907
40.243864
38.162470
35.949945
31.811595
29.418468
28.027892
24.945736
24.367571
19.888878
18.070936
17.530918
18.389821
15.767813
16.687512
16.267896
17.182827
15.182495
16.356707
##ZVALUE=230
47.048926
55.199862
87.472796
165.417790
218.435526
289.885998
319.761634
322.385430
291.907787
241.694450
162.142515
107.174516
65.810680
51.919818
45.079589
48.008561
52.464604
50.506592
47.003627
38.389564
29.539466
21.297932
14.611483
11.143684
8.201599
7.492900
7.882714
8.378625
8.266568
9.185672
9.567738
9.057522
8.628964
9.062886
9.632707
10.061860
10.446906
9.250641
10.648966
10.481477
11.414886
11.127591
11.673570
12.244582
10.261536
11.885762
11.348724
12.400746
12.605786
12.488961
12.399554
13.103485
13.692975
13.270974
14.557838
13.043880
12.572408
14.632940
15.825629
16.022921
15.670657
16.984940
16.665459
16.671419
17.226934
19.315481
19.047856
20.507574
24.081469
26.239753
27.446747
32.896996
38.402677
39.156675
45.696497
45.689940
47.309995
47.627687
46.836734
41.788816
41.245818
40.995479
34.907460
32.900572
29.410720
26.570559
26.066899
23.774505
24.296641
23.530722
23.790598
24.140477
22.795796
21.128654
22.065639
21.551847
##ZVALUE=235
16.491413
19.791722
42.939782
103.922486
173.828006
289.829969
386.389494
508.867502
552.970767
552.496910
480.439663
378.661752
261.563659
179.867744
119.648576
90.267658
79.947710
80.176592
85.642934
85.281730
80.567002
69.797635
57.301521
38.371682
28.404593
17.470717
15.378594
11.403561
10.680556
9.895563
10.465980
10.463595
9.964705
10.799766
11.203885
10.538697
10.146499
11.176467
10.997653
11.041760
11.554956
11.371970
11.263490
11.960864
11.365414
12.017488
11.570454
12.841821
12.834668
13.402700
13.491511
13.149977
13.137460
12.938976
14.053583
15.694499
14.957786
13.762712
15.837550
16.513467
15.406609
16.670823
18.246770
18.984675
18.214583
19.078851
22.339821
23.443699
24.804473
29.419661
30.555725
34.701824
39.316416
43.317676
43.991804
46.467781
46.682954
45.759678
45.610666
45.868754
43.042898
40.778518
38.041472
34.549832
33.319592
29.793978
31.003952
29.013753
27.125478
27.686954
26.478767
26.923418
26.363730
27.159452
27.041435
25.645494
##ZVALUE=240
2.139807
2.251863
7.863641
25.578737
61.208606
149.767995
255.953670
433.484912
570.133924
713.059902
776.395798
761.990547
703.212619
544.442534
419.058800
268.860459
187.914968
120.015740
104.559660
102.376938
109.928846
116.652846
114.764571
104.791522
84.914565
68.755746
48.713684
35.295486
24.739504
17.789602
15.148520
13.416409
12.238622
11.846423
12.191534
12.527704
11.570454
11.781454
11.918545
12.332797
12.140870
11.583567
11.470914
11.587739
11.720657
11.945963
11.366606
13.120770
10.830760
11.519790
12.651682
13.534427
12.667775
13.279915
14.579892
13.207793
13.501644
16.678572
14.689565
15.255809
15.628934
17.750859
17.687678
18.609762
18.615723
21.360517
21.798611
23.501515
26.101470
27.866960
30.050874
35.254955
36.436915
38.646460
41.244626
43.948889
45.036674
45.430660
44.275522
39.984584
41.410923
41.036606
36.024451
35.837889
36.749840
34.675598
33.150911
33.582449
31.479001
32.191873
30.679703
31.388998
30.674934
31.275749
30.770898
31.706691
##ZVALUE=245
1.562834
1.334548
1.662970
1.812577
4.668832
15.830994
55.518746
117.016435
251.009464
382.114649
571.944714
698.491931
788.380504
823.857784
767.776966
649.854541
523.547530
359.098911
253.686905
159.681439
118.097663
104.358792
113.290548
124.217868
126.100779
127.112865
113.549829
97.718835
71.497560
56.053996
43.581724
27.539730
19.155741
14.280677
12.481809
11.392832
10.621548
9.797812
10.962486
9.780526
7.893443
8.731484
8.341670
8.177757
8.368492
8.361936
8.490682
7.780790
8.515716
8.715987
8.799434
9.344816
8.602738
9.590983
9.336472
10.188818
10.559559
10.768771
12.031794
11.306405
11.770725
12.960434
14.017820
14.693737
15.327930
15.765429
16.488433
17.385483
20.192862
23.220778
24.660826
28.283000
28.890967
32.666922
34.409761
35.037994
35.172701
36.486983
35.853982
34.329891
34.393668
33.489466
34.081936
31.868815
32.047629
30.379891
30.759573
30.330420
31.157732
30.498505
31.569600
30.319691
30.534863
30.663610
32.643676
30.599833
##ZVALUE=250
1.364946
1.327991
1.182556
1.413822
1.251698
1.641512
3.501773
13.941526
55.146813
108.934641
248.533487
396.358967
554.867983
756.273866
874.637961
945.521593
922.124982
792.654753
667.765737
463.241935
313.955545
202.671885
124.342442
99.372864
106.170774
118.767619
137.349963
139.521956
135.283470
124.890804
111.013651
80.787539
61.715841
38.109422
27.810931
16.228557
12.177825
10.097623
9.103417
9.772778
8.898973
8.011460
8.865595
7.868409
8.277893
7.581711
7.103682
7.554889
6.924868
7.840991
7.971525
7.352829
8.170605
8.434653
8.519888
9.028912
8.944869
8.203983
9.128451
10.221601
9.896755
10.047555
10.864735
11.076927
12.697577
13.037920
14.544725
15.796423
18.233657
19.318461
21.591783
24.862885
26.406646
28.150678
30.026436
29.805899
30.720830
30.136704
30.271411
29.002428
30.139685
31.200647
29.538870
29.732585
29.556751
29.339790
28.661489
29.611588
29.816628
28.485656
28.563738
29.601455
30.187964
29.407740
29.863715
30.613542
##ZVALUE=255
1.186728
1.054406
0.975728
1.024604
1.160502
1.166463
1.359582
1.408458
1.854897
4.970431
24.880767
65.860748
135.493875
293.220878
454.723835
683.890581
838.579535
988.462567
1015.743613
967.602730
838.859677
670.994520
423.035622
271.303654
143.679976
101.601481
92.526674
103.185773
124.787688
138.898492
146.932602
138.120651
129.947662
103.636980
81.913471
54.973960
39.508939
23.918748
15.742779
10.541677
8.446574
8.194447
6.605983
7.382631
7.194877
6.700754
7.113814
6.699562
6.994605
7.299781
6.873608
6.672740
6.942749
7.657409
7.479787
7.337928
7.802844
7.858872
8.062720
8.583665
8.908510
9.050965
9.985566
10.640621
11.375546
12.604594
12.624860
14.077425
15.102625
18.132925
18.319488
20.812750
21.362901
23.654699
24.433732
26.105642
26.354790
26.272535
25.518537
25.691986
26.967525
26.016831
25.983453
25.933981
25.876760
25.495887
24.372935
25.912523
26.167631
26.138425
27.459860
26.714802
27.589798
26.575923
26.711822
27.905703
##ZVALUE=260
1.154542
1.168847
1.151562
1.214743
1.106858
1.187921
1.029968
1.321435
1.600981
1.565814
1.611710
2.475977
10.872483
35.247803
99.099874
194.626451
393.075943
570.108891
746.576786
989.132524
1015.871763
1015.871763
1012.897491
799.039006
598.315597
349.375606
221.821666
120.731592
85.320473
83.566904
98.369718
128.948689
139.266849
148.125887
145.633817
124.799609
109.150410
77.426434
57.514906
35.683513
24.614930
14.058948
9.399652
8.005500
7.436872
7.066727
6.380677
6.863475
6.973743
6.644726
6.738901
6.401539
7.165670
7.634759
7.627606
7.345676
7.288456
7.541776
7.781982
8.373857
8.421540
8.298755
9.026527
9.589791
9.906888
11.165738
11.245608
12.635589
13.011694
15.601516
15.842915
17.751455
20.351410
20.536780
20.895600
22.682548
22.082925
22.913814
23.468733
23.293495
23.414493
22.323728
23.710728
23.775697
23.879409
23.885965
24.479628
23.930669
25.383830
23.795962
24.132729
24.638772
24.628639
25.712848
25.392771
25.534630
##ZVALUE=265
0.860691
0.850558
0.849962
0.823736
0.905991
0.907779
0.949502
1.101494
1.036525
1.109838
1.557469
1.458526
1.865625
1.937747
4.459620
24.023652
59.228539
164.684653
293.631554
562.297702
804.547668
1003.539562
1015.743613
1015.743613
1015.743613
992.039442
729.486942
508.287549
277.452469
168.281794
102.571845
70.599914
76.965690
105.565786
124.333501
143.737793
152.293444
143.390894
128.775835
102.604628
81.241727
53.726435
37.638545
21.634698
14.000535
8.688569
7.720590
6.979704
7.067919
6.590486
6.660819
6.553531
6.968975
7.159710
7.266998
7.345676
7.218719
7.353425
7.392764
7.579923
8.543730
8.260608
8.693933
9.300709
9.474754
9.826422
10.965466
11.730790
12.388825
13.960600
15.038848
16.303658
17.449856
18.558502
18.253922
20.383000
20.519495
21.645427
20.166636
21.057725
21.290779
21.871924
21.568537
19.715428
22.397637
22.036433
23.038983
22.209883
22.063851
23.363829
22.681952
23.222566
21.434426
23.035407
24.451613
23.715496
##ZVALUE=270
1.008511
0.954866
1.028776
0.948906
1.127720
1.255870
1.070499
0.970960
1.047850
1.244545
1.281500
1.165867
1.391768
1.348853
1.841784
1.725554
2.741814
10.834932
33.088923
114.576817
241.804719
430.375934
767.634511
1008.742452
1015.871763
1015.871763
1015.871763
1015.871763
963.675976
712.663531
473.549962
241.903663
134.427547
65.931678
60.997605
82.768798
102.362633
130.204558
142.695904
149.746537
144.228935
126.819611
107.022524
79.302788
57.826638
34.040809
23.491979
14.481544
10.774732
7.960796
7.685423
7.167459
6.981492
7.767677
7.920861
7.545948
7.576942
7.286668
8.156896
8.222461
8.761883
8.513927
8.844733
9.438992
9.177923
9.854436
10.374784
11.297464
12.330413
13.596416
14.637709
15.981793
17.220974
18.443465
18.192530
19.589663
19.574761
19.670725
19.858479
18.807650
19.347668
19.891858
19.983649
20.127892
19.472837
20.741820
21.098852
20.872951
21.799803
21.171570
21.533966
22.143722
21.324754
21.763444
22.673607
23.383498
##ZVALUE=275
0.773668
0.885725
0.826716
0.962615
0.872612
0.924468
1.090765
1.096725
1.005530
0.941753
1.051426
1.234412
1.124740
1.124740
1.400709
1.358986
1.725554
1.562834
1.897812
4.021525
18.004775
79.584718
178.091526
401.253700
642.679930
983.411670
1015.871763
1015.871763
1015.871763
1015.871763
1015.871763
811.954737
573.189855
304.243565
173.921585
79.369545
51.965714
58.006644
77.013969
104.838610
125.390887
144.317746
149.033666
141.695738
129.795671
103.436708
82.617998
54.881573
38.180947
23.410916
15.949607
10.676980
8.531809
7.943511
7.407665
7.936954
7.449985
7.822514
8.233786
8.368492
9.164810
9.575486
9.022951
9.387732
9.782910
10.203719
10.985732
11.625886
12.114644
14.140606
14.390945
16.181469
17.819405
18.173456
18.438697
18.994808
18.732548
19.189715
18.835664
19.613504
19.339919
19.099712
18.866658
19.401908
19.106865
19.643903
19.519925
20.030737
20.268559
20.543933
20.150542
20.609498
20.823479
20.291805
20.612478
19.923449
##ZVALUE=280
0.730753
0.759959
0.835657
0.841618
0.858903
0.837445
0.906587
0.829697
0.937581
0.941753
0.818968
0.958443
0.967979
1.130700
1.204610
1.329780
1.203418
1.500845
1.540780
1.697540
1.871586
3.281832
12.627840
45.404434
149.192810
280.521512
538.395643
796.819925
1015.871763
1015.871763
1015.871763
1015.871763
1015.871763
1007.803679
683.721900
450.301766
220.795870
116.864443
52.566528
42.633414
55.529475
73.171854
101.382732
121.498704
141.876936
145.244002
137.217641
125.466585
101.510882
79.895854
53.610802
38.514733
23.639798
16.055703
10.895729
8.860826
8.572936
8.246899
8.060932
8.542538
8.577704
8.875728
9.486675
9.859800
10.280609
10.756850
11.534691
12.269616
13.067722
13.304949
14.471412
15.312433
15.955567
17.010570
18.044710
18.301606
17.790794
18.284917
17.644763
18.351674
19.215941
19.099712
18.696785
18.444657
19.062757
19.123554
19.261837
19.439459
19.598603
19.496679
19.411445
19.242764
19.119978
19.047856
19.760728
19.753575
##ZVALUE=285
0.708699
0.736713
0.752807
0.773668
0.624657
0.699759
0.819564
0.726581
0.984669
0.761747
0.730753
0.775456
1.061559
0.893474
0.937581
1.254678
1.165867
1.247525
1.220703
1.385808
1.432896
1.778603
1.736879
1.943707
5.149841
28.401613
76.015592
206.878781
368.614793
668.981671
934.306979
1015.871763
1015.871763
1015.871763
1015.871763
1015.871763
930.310488
571.924448
352.923870
160.040855
80.233812
36.414862
34.907460
50.905943
68.971515
96.220970
117.251873
133.520961
138.036609
135.783553
124.223828
102.048516
81.822872
57.426691
39.946437
24.244785
16.218424
11.728406
9.351969
8.661747
8.608699
8.914471
9.144545
9.940863
10.722876
10.632873
11.702776
12.067556
12.544990
14.260411
14.425516
15.136600
15.857816
16.859770
16.622543
17.817616
17.755628
17.865896
17.133951
18.289685
18.197894
18.207431
18.344522
18.806458
18.489957
18.972754
18.446445
18.888712
18.496513
18.806458
19.305944
18.983483
18.941760
18.712878
19.138455
18.889904
##ZVALUE=290
0.789762
0.674725
0.717640
0.738502
0.760555
0.836849
0.686646
0.739694
0.784993
0.793934
0.743866
0.783801
0.966787
0.824928
0.812411
1.084805
1.039505
1.099706
1.164675
1.176000
1.516938
1.275539
1.579523
1.568794
1.673698
2.072453
2.891421
9.766817
47.432780
117.153525
233.070850
491.945744
765.271783
1015.890837
1015.890837
1015.890837
1015.890837
1015.890837
1015.890837
793.615580
524.535775
257.570744
131.534934
48.104525
27.908683
33.603907
46.949983
67.903996
86.552501
112.342834
126.217604
137.084723
135.407448
119.836926
103.098750
76.769590
58.496594
38.542747
26.451945
17.271638
13.382435
10.390878
9.950995
10.000467
10.334849
10.613799
11.713505
12.012720
13.194680
14.047623
14.661551
15.645623
16.235709
16.664863
17.356873
17.603636
17.398596
17.356873
17.683506
18.288493
18.686652
18.629432
18.297434
18.806458
19.137859
18.959641
18.548965
19.213557
19.063950
19.174814
19.218922
18.316507
18.774867
19.117594
18.572807
18.811822
##ZVALUE=295
0.726581
0.720620
0.651479
0.681877
0.653863
0.652671
0.682473
0.866652
0.650883
0.824928
0.624657
0.581741
0.800490
0.919700
0.944734
0.784993
1.109838
1.079440
1.163483
0.865459
1.266599
1.206994
1.205802
1.366735
1.502633
1.452565
1.572967
1.778603
2.039671
4.020929
16.244650
74.884892
173.405409
411.222577
667.060018
1015.871763
1015.871763
1015.871763
1015.871763
1015.871763
1015.871763
967.675447
675.581694
354.518890
189.662576
66.734552
31.062961
21.817684
27.756691
44.361949
61.177611
86.393952
104.499459
120.607615
130.059719
126.428604
116.623640
97.605586
78.832507
56.126714
40.980577
26.494861
18.952489
13.790727
12.149811
11.663437
11.936426
12.497902
13.387799
14.069676
14.580488
15.483499
16.182661
16.763806
16.790628
17.634630
17.673969
18.213987
18.348694
17.916560
18.564463
18.581748
18.289685
18.985868
18.668771
19.308925
19.052625
19.268990
18.820763
19.010901
18.948913
18.807650
19.034743
18.665791
18.531680
18.393993
##ZVALUE=300
0.582933
0.707507
0.677705
0.520945
0.574589
0.610948
0.556707
0.715852
0.851750
0.678897
0.818968
0.725985
0.742674
0.734925
0.784993
0.701547
0.783801
0.755787
0.996590
0.860691
1.167655
1.183748
1.187921
1.193881
1.237988
1.344681
1.287460
1.544952
1.464486
1.988411
2.003908
2.662539
10.795593
38.937926
135.528445
273.768902
574.649572
870.348811
1015.871763
1015.871763
1015.871763
1015.871763
1015.871763
1015.871763
824.262500
537.983775
267.705917
137.512684
45.656562
21.093488
19.060969
24.837852
41.073561
55.577755
78.499913
96.999407
115.705729
124.171972
123.249888
114.973783
95.552802
78.568459
58.329701
43.220520
28.614998
21.545887
16.065836
13.757944
13.782978
14.194846
14.379621
15.079975
16.030669
16.973615
17.374754
17.528534
17.725825
18.155575
18.714666
18.672943
18.923879
19.030571
18.649697
18.749833
19.639730
19.678473
19.247532
19.232631
19.529462
19.301772
18.787980
19.166470
18.912554
19.068718
19.004941
18.572807
##ZVALUE=305
0.621676
0.637770
0.648499
0.729561
0.569820
0.702739
0.658631
0.527501
0.638962
0.733733
0.574589
0.857711
0.671744
0.711679
0.863671
0.991821
0.718832
0.772476
0.909567
0.970960
1.007915
1.044869
0.948906
1.059771
1.143813
1.058578
1.370907
1.284480
1.654625
1.637936
1.736879
1.814961
2.071857
2.470613
4.395843
26.268959
78.253746
234.131813
427.073836
804.743767
1015.871763
1015.871763
1015.871763
1015.871763
1015.871763
1015.871763
1015.871763
792.264938
517.128706
247.344971
117.338896
33.970475
15.846491
17.484426
24.370551
39.273500
53.964853
76.245666
92.755556
109.935999
116.811991
116.543770
108.218789
92.977881
76.537728
54.933429
41.523576
29.153824
22.615790
17.882586
16.115904
15.802979
16.530752
17.002821
17.207861
17.818809
17.900467
18.400550
18.744469
18.658638
19.098520
19.822717
19.789934
20.177960
19.988418
19.559860
20.125508
20.020604
19.924641
19.683838
19.637942
19.651651
19.399524
18.546581
19.077659
19.064546
##ZVALUE=310
0.647902
0.795722
0.631809
0.750422
0.574589
0.537634
0.752807
0.669956
0.675917
0.571609
0.707507
0.794530
0.698566
0.830889
0.854731
0.735521
0.759959
0.766516
0.748634
0.755787
0.824928
0.955462
1.055598
0.873804
0.993609
0.918508
0.999570
1.080632
1.218915
1.313686
1.283884
1.329780
1.677871
1.557469
2.206564
2.199411
2.706647
10.240674
37.340522
147.123933
309.044719
662.086606
989.297628
1015.875936
1015.875936
1015.875936
1015.875936
1015.875936
1015.875936
915.221572
624.800920
330.366492
180.674791
62.907934
23.741722
12.971759
15.831590
23.967624
33.555627
50.887465
66.669583
86.938739
100.832582
111.455917
112.999678
104.487538
93.880892
75.823665
59.856772
42.274594
32.936931
24.183989
20.392537
18.580556
18.173456
18.201470
17.598867
18.547773
19.130707
18.704534
19.162893
19.366741
19.512773
20.154715
20.383596
20.250678
20.084977
20.674467
20.533800
20.395517
19.930601
20.096898
19.525886
19.196868
19.215941
19.308925
##ZVALUE=315
0.595450
0.616908
0.476837
0.565648
0.464916
0.455976
0.591874
0.469685
0.617504
0.584722
0.664592
0.654459
0.681877
0.678897
0.581741
0.717640
0.630617
0.754595
0.807643
0.954866
0.671744
0.821948
0.862479
0.838637
0.847578
1.033545
1.116991
0.947714
0.979900
1.148582
1.261830
1.353621
1.317859
1.655817
1.679659
1.848936
2.071857
2.173781
2.553463
5.191565
19.760728
90.473890
219.012499
525.792837
864.094496
1015.873551
1015.873551
1015.873551
1015.873551
1015.873551
1015.873551
1010.610461
752.430558
415.122509
231.002569
88.272691
35.293698
13.659000
12.021661
15.437603
21.368861
33.704638
45.591593
65.043569
80.779791
97.749829
106.238723
107.910633
102.939606
88.914633
74.250698
58.268905
45.957565
32.973886
26.269555
21.495819
19.464493
18.892884
18.897653
18.956661
18.678904
19.936562
19.887686
20.347834
20.123720
19.778609
20.863414
21.109581
20.805597
20.709634
20.724535
20.363927
19.764900
19.777417
19.437671
19.993782
##ZVALUE=320
0.515580
0.521541
0.588894
0.503659
0.399947
0.518560
0.521541
0.538826
0.630617
0.783801
0.649691
0.622869
0.686646
0.669956
0.766516
0.743866
0.624657
0.675917
0.663996
0.679493
0.695586
0.680685
0.644922
0.635982
0.864863
0.803471
0.962615
1.016855
0.770688
1.168847
0.839829
1.069903
1.262426
1.252890
1.176596
1.430511
1.560450
1.729727
1.662970
2.025962
2.306700
3.134608
8.769631
52.158833
142.074823
390.966535
666.179657
1015.882492
1015.882492
1015.882492
1015.882492
1015.882492
1015.882492
1015.882492
939.986706
518.258810
293.312669
123.680830
55.039525
17.630458
11.804700
12.376904
14.507771
20.819902
29.670000
44.684410
58.471560
78.109503
90.635419
102.776885
103.269815
98.838806
90.034604
72.431564
58.901906
43.273568
34.099817
26.198626
22.555590
20.366907
20.086765
20.014644
20.059943
20.156503
19.903779
20.633936
20.544529
20.299554
20.505786
20.279884
20.288825
20.368695
20.155907
19.867420
19.869804
20.147562
##ZVALUE=325
0.571609
0.429749
0.561476
0.475645
0.434518
0.436902
0.536442
0.626445
0.526905
0.733733
0.653863
0.468493
0.535846
0.654459
0.496507
0.635982
0.656843
0.709891
0.481606
0.569820
0.848770
0.781417
0.828505
0.730753
0.630617
0.926852
0.808835
0.874996
0.872612
0.943542
0.995994
1.113415
0.954866
1.024604
1.117587
1.153946
1.372695
1.281500
1.584888
1.562834
1.788735
1.944900
2.202988
2.854466
7.282495
30.355453
120.977759
258.975029
589.673519
940.444469
1015.871763
1015.871763
1015.871763
1015.871763
1015.871763
1015.871763
1001.545787
706.659555
362.882614
194.523931
68.576932
28.554797
12.579560
11.281967
12.934804
15.036464
21.267533
29.068589
45.388937
59.801936
78.718662
89.762807
99.393725
100.849867
94.464421
85.154772
69.719553
56.755543
41.963458
33.270717
26.086569
23.081899
20.964742
20.755529
20.389557
20.124912
20.401478
20.128489
20.308495
19.902587
19.756556
20.074844
19.722581
19.520521
19.454956
19.288659
##ZVALUE=330
0.457764
0.595450
0.510812
0.520945
0.437498
0.553727
0.548959
0.502467
0.535846
0.471473
0.654459
0.657439
0.534654
0.679493
0.624657
0.667572
0.505447
0.567436
0.633597
0.593662
0.522733
0.758767
0.632405
0.676513
0.736713
0.678897
0.877976
0.841618
0.874996
0.919700
1.010895
0.932813
0.916719
1.058578
1.004934
1.043677
1.154542
1.148582
1.360774
1.261830
1.481771
1.661777
1.756549
2.057552
2.160668
2.487898
3.392696
15.789866
53.362846
198.477507
397.042632
821.262002
1015.871763
1015.871763
1015.871763
1015.871763
1015.871763
1015.871763
1015.871763
820.882916
510.644913
229.468942
110.134482
36.511421
16.067624
11.372566
11.397600
12.910962
15.665889
22.269487
29.994845
43.157935
55.638552
74.438453
84.815621
93.975663
95.045567
89.383721
81.203580
65.773726
54.052472
40.575862
32.212734
26.941895
23.315549
21.025538
20.379424
19.712448
19.827485
19.898415
19.633770
19.497871
19.224882
19.137859
19.408464
18.956661
##ZVALUE=335
0.596642
0.459552
0.605583
0.523925
0.489950
0.493526
0.539422
0.515580
0.545979
0.571609
0.585914
0.475645
0.679493
0.442863
0.515580
0.539422
0.498891
0.428557
0.781417
0.566840
0.727773
0.724792
0.777841
0.899434
0.917912
0.768900
0.760555
0.672936
0.576973
0.808835
0.983477
0.931621
0.842810
1.097918
0.859499
0.828505
1.008511
0.982881
0.980496
1.215935
1.278520
1.427531
1.449585
1.749992
1.715422
1.943707
2.090931
2.360940
2.608895
6.871819
26.596785
110.382438
246.907473
585.721731
962.651968
1015.874743
1015.874743
1015.874743
1015.874743
1015.874743
1015.874743
1015.874743
710.055828
356.152654
184.282660
62.482953
24.432540
12.394786
12.030602
12.615919
13.528466
16.637444
21.206737
31.407475
41.765571
56.713820
69.572926
82.073808
89.013577
90.704560
85.786581
75.893998
64.539909
51.482916
42.207837
32.857656
27.016997
23.359656
21.128654
20.001531
19.634962
18.993616
18.950701
18.685460
19.027591
18.984675
##ZVALUE=340
0.477433
0.434518
0.543594
0.621676
0.407696
0.428557
0.623465
0.431538
0.414848
0.513792
0.566840
0.562668
0.629425
0.439882
0.606775
0.526905
0.463724
0.566840
0.662804
0.652671
0.563860
0.805855
0.754595
0.658631
0.616908
0.639558
0.675917
0.842810
0.789762
0.813603
0.593662
0.778437
0.954866
0.812411
0.917912
0.785589
1.047850
0.947714
0.989437
1.109838
1.109838
1.186728
1.424551
1.367927
1.596808
1.550913
1.788735
1.990795
2.063513
2.415776
2.641678
3.942847
12.889504
70.170760
176.855922
456.863046
795.347691
1015.867591
1015.867591
1015.867591
1015.867591
1015.867591
1015.867591
1015.867591
1015.867591
575.250983
308.844447
115.044713
42.319894
14.523864
13.010502
13.276935
13.732910
15.493631
17.642975
23.059845
29.819608
41.429996
52.577853
67.330599
76.537728
84.965825
85.072517
80.195665
74.254870
61.974525
51.663518
40.637851
33.261776
26.612878
23.037791
19.990802
19.224882
18.620491
18.397570
18.200874
##ZVALUE=345
0.384450
0.534654
0.572801
0.509620
0.477433
0.601411
0.517964
0.482798
0.492930
0.439882
0.538826
0.582933
0.522733
0.433922
0.570416
0.537634
0.672936
0.674725
0.553727
0.699759
0.659823
0.534654
0.586510
0.718832
0.550747
0.700951
0.660419
0.440478
0.705719
0.525713
0.781417
0.670552
0.832677
0.726581
0.974536
0.947714
0.765920
0.997782
1.083612
0.966787
0.955462
1.053810
1.209974
1.173615
1.030564
1.245737
1.394749
1.486540
1.513958
1.825690
2.017617
2.026558
2.409816
2.969503
6.987453
46.024919
124.438405
326.135755
583.770871
1006.609797
1015.875936
1015.875936
1015.875936
1015.875936
1015.875936
1015.875936
1015.875936
797.286630
446.357727
167.210698
75.120926
22.621751
14.084578
13.060570
13.016462
13.558865
13.917685
16.534925
20.461679
28.514862
37.186742
50.617456
60.641766
71.688890
76.785684
79.435706
77.633858
68.874955
60.631633
49.878955
40.878654
31.325817
25.855899
21.566749
19.978881
18.374920
##ZVALUE=350
0.528693
0.518560
0.446439
0.515580
0.423789
0.377893
0.475645
0.518560
0.614524
0.497699
0.637770
0.685453
0.570416
0.585914
0.606775
0.618696
0.445843
0.426769
0.511408
0.621676
0.523925
0.622869
0.663996
0.378489
0.539422
0.665784
0.656843
0.607967
0.661612
0.651479
0.702739
0.666976
0.628829
0.739694
0.759959
0.745654
0.994802
1.002550
0.874996
0.859499
0.953674
0.930429
1.020432
1.020432
1.047850
0.961423
1.211762
1.246929
1.346469
1.485944
1.550913
1.719594
1.821518
2.095699
2.202988
2.456903
3.671646
22.651553
72.859526
225.629807
421.964526
835.883617
1015.868783
1015.868783
1015.868783
1015.868783
1015.868783
1015.868783
1015.868783
894.345641
541.057587
224.739909
97.011924
26.369691
13.993979
12.122989
11.898875
11.808872
12.143850
13.518929
15.117526
20.220876
25.312901
33.817887
42.880774
54.975748
62.747598
70.750713
72.622895
71.467757
66.365600
55.779815
47.810674
37.271976
30.775666
25.179982
##ZVALUE=355
0.335574
0.461936
0.454783
0.495911
0.397563
0.523925
0.470877
0.356436
0.461936
0.480413
0.590682
0.318885
0.279546
0.532866
0.407696
0.457764
0.492930
0.572801
0.413656
0.637770
0.575781
0.509620
0.525713
0.611544
0.772476
0.591874
0.533462
0.584722
0.637770
0.560880
0.589490
0.722408
0.769496
0.811815
0.804663
0.664592
0.684857
0.689626
0.686646
0.747442
0.800490
0.862479
0.856519
0.838637
0.922680
1.047850
1.085997
1.214743
1.303554
1.131892
1.187921
1.408458
1.488924
1.445413
1.562834
1.821518
2.070665
2.367496
2.624989
8.490682
35.060644
148.391724
312.082767
663.749576
993.258953
1015.818715
1015.818715
1015.818715
1015.818715
1015.818715
1015.818715
1003.036499
679.982901
305.048823
143.725872
40.975809
16.595721
11.518598
11.433959
11.173487
11.173487
11.793971
12.848973
14.610887
17.399788
23.396611
29.277802
39.101839
47.361851
57.228804
63.020587
66.756606
65.511465
60.892701
53.838491
45.221448
##ZVALUE=360
0.562668
0.561476
0.498891
0.518560
0.564456
0.601411
0.642538
0.661612
0.693798
0.540614
0.726581
0.510812
0.738502
0.629425
0.582933
0.667572
0.662804
0.466704
0.754595
0.721812
0.628829
0.739694
0.661612
0.617504
0.718832
0.548959
0.543594
0.617504
0.718832
0.684857
0.779629
0.706911
0.661612
0.867844
0.920892
0.871420
0.873804
0.722408
0.762939
0.759959
0.817776
0.862479
0.968575
1.097918
1.120567
1.014471
1.139641
1.279712
1.367927
1.301765
1.669526
1.381636
1.578927
1.745820
1.833439
1.768470
1.811981
2.150536
2.222657
2.779961
2.993941
4.834533
15.605688
77.027678
190.420747
485.360026
849.821568
1015.871763
1015.871763
1015.871763
1015.871763
1015.871763
1015.871763
1015.871763
824.846029
398.244858
205.802917
72.410703
27.139783
12.198687
10.909438
10.937452
10.992885
11.119843
11.108518
11.968613
13.187528
15.860796
19.026995
26.331544
32.964945
43.483973
50.210953
57.687759
60.159564
61.515570
##ZVALUE=365
0.617504
0.557899
0.452995
0.479817
0.619888
0.569820
0.403523
0.510812
0.551939
0.449419
0.390410
0.624657
0.500679
0.608563
0.667572
0.420809
0.686646
0.821948
0.661612
0.698566
0.553727
0.592470
0.665784
0.564456
0.554919
0.670552
0.630617
0.595450
0.736713
0.716448
0.670552
0.799894
0.737906
0.871420
0.846982
0.811815
0.815988
0.655651
0.798702
0.946522
0.994802
0.924468
0.914931
0.950694
0.977516
1.047850
1.192689
1.086593
1.125932
1.216531
1.188517
1.152754
1.258850
1.380444
1.392961
1.758933
1.660585
1.966953
1.932979
2.034903
2.177954
2.787709
3.005862
3.521442
7.617474
47.509670
132.333040
357.481837
666.002631
1015.871763
1015.871763
1015.871763
1015.871763
1015.871763
1015.871763
1015.871763
987.968445
557.712913
299.066901
106.057525
41.199923
13.243556
10.441542
10.158420
10.070801
10.202527
10.410547
10.557771
10.785460
11.979938
13.887882
17.569661
21.930933
29.480457
36.270618
45.440793
##ZVALUE=370
0.383854
0.413656
0.448823
0.422597
0.401735
0.520945
0.558496
0.467896
0.587702
0.525713
0.605583
0.545979
0.462532
0.530481
0.568628
0.597835
0.554919
0.692606
0.614524
0.583529
0.631809
0.538826
0.701547
0.602603
0.659823
0.655651
0.683665
0.718832
0.683665
0.794530
0.704527
0.607967
0.733733
0.704527
0.708699
0.799894
0.699759
0.722408
0.764728
0.806451
0.676513
0.806451
0.820756
0.990629
0.986457
0.979900
0.896454
1.108646
1.132488
1.158714
1.298785
1.098514
1.169443
1.223683
1.362562
1.236796
1.358986
1.355410
1.468658
1.621842
1.898408
2.108812
2.209544
2.440810
2.882481
3.086925
4.571676
29.029846
94.167590
284.865499
536.216497
983.639956
1015.868783
1015.868783
1015.868783
1015.868783
1015.868783
1015.868783
1015.868783
739.848614
415.832996
157.570839
66.446662
19.726753
10.729432
9.704828
9.513497
9.414554
9.411573
9.592772
9.819865
10.233521
10.850430
12.964606
15.107989
20.087957
##ZVALUE=375
0.442863
0.437498
0.442863
0.468493
0.557899
0.497699
0.545979
0.497699
0.639558
0.550747
0.587702
0.420809
0.615716
0.471473
0.504851
0.410676
0.555515
0.412464
0.566840
0.427961
0.697970
0.654459
0.544786
0.569820
0.618696
0.592470
0.448823
0.562668
0.468493
0.592470
0.559688
0.531673
0.576973
0.742674
0.674725
0.635982
0.660419
0.656843
0.688434
0.762939
0.668764
0.626445
0.885725
0.562668
0.612736
0.842810
0.881553
0.972748
0.844598
0.924468
0.889897
1.051426
1.058578
1.013875
0.903606
1.049638
1.101494
1.126528
1.159906
1.398921
1.413822
1.599789
1.623631
1.800656
1.916885
2.151728
2.346635
2.777576
3.577471
12.881756
46.901703
167.874694
354.146957
798.053741
1015.844941
1015.844941
1015.844941
1015.844941
1015.844941
1015.844941
1015.844941
979.778767
631.754994
296.074748
138.950944
37.818551
14.502406
9.155869
8.748770
8.870959
8.932948
9.158850
9.139776
9.287000
9.648800
10.682940
##ZVALUE=380
0.351667
0.476837
0.533462
0.457764
0.393987
0.357628
0.340939
0.269413
0.366569
0.522733
0.502467
0.480413
0.411868
0.467896
0.479817
0.533462
0.352859
0.543594
0.435710
0.501871
0.413656
0.480413
0.585914
0.609756
0.477433
0.532866
0.331998
0.577569
0.471473
0.444651
0.417829
0.628829
0.528693
0.609756
0.602603
0.493526
0.522733
0.610948
0.493526
0.537634
0.635982
0.576973
0.663996
0.545979
0.654459
0.758767
0.711679
0.627637
0.777841
0.732541
0.725985
0.691414
0.727773
0.828505
0.794530
1.013875
1.032948
1.043677
1.089573
1.028776
1.250505
1.102686
1.314878
1.375675
1.437664
1.664758
1.856685
2.075434
2.528429
3.050566
3.445745
6.083846
23.414493
121.122003
282.637477
660.064816
1009.622812
1015.845537
1015.845537
1015.845537
1015.845537
1015.845537
1015.845537
1015.845537
853.467584
408.777595
203.788877
66.451430
24.510622
9.760857
8.533597
8.388758
8.330941
8.636713
8.773804
9.185672
##ZVALUE=385
0.374913
0.466704
0.395775
0.476837
0.398755
0.381470
0.429749
0.268817
0.384450
0.337958
0.438690
0.427961
0.328422
0.482798
0.397563
0.228882
0.465512
0.406504
0.540614
0.339746
0.397563
0.336766
0.437498
0.539422
0.474453
0.421405
0.534654
0.481606
0.423789
0.487566
0.539422
0.629425
0.576973
0.648499
0.450611
0.541806
0.586510
0.543594
0.698566
0.555515
0.557899
0.556707
0.626445
0.625849
0.676513
0.560880
0.615716
0.653863
0.754595
0.701547
0.698566
0.871420
0.876784
0.893474
0.869632
0.773668
0.931621
0.837445
0.830889
0.965595
1.107454
1.051426
1.275539
1.316667
1.384616
1.200438
1.638532
1.874566
1.929998
2.308488
2.438426
2.814531
3.076792
3.726482
11.157990
71.619749
190.733075
487.713814
847.752690
1015.871763
1015.871763
1015.871763
1015.871763
1015.871763
1015.871763
1015.871763
973.107815
533.314943
293.121934
114.774704
44.825673
12.620687
8.727908
7.951856
8.113980
8.174777
##ZVALUE=390
0.393987
0.404716
0.442863
0.379682
0.506639
0.320673
0.436902
0.378489
0.499487
0.338554
0.469685
0.413656
0.331998
0.353456
0.451803
0.502467
0.432730
0.356436
0.400543
0.494719
0.428557
0.487566
0.309944
0.292659
0.373721
0.427961
0.336766
0.508428
0.512600
0.354648
0.387430
0.472665
0.577569
0.623465
0.505447
0.489950
0.549555
0.603795
0.540614
0.646710
0.492930
0.508428
0.709891
0.676513
0.641942
0.636578
0.691414
0.771880
0.727773
0.928640
0.778437
0.689626
0.743866
0.920892
0.809431
0.878572
0.844598
0.854731
0.800490
0.975728
0.901818
0.859499
1.017451
1.128912
1.025796
1.434684
1.578927
1.660585
1.788735
2.078414
2.105832
2.431870
2.415776
2.563000
2.869964
3.166795
4.955530
29.821396
106.048584
359.194875
696.736574
1015.872955
1015.872955
1015.872955
1015.872955
1015.872955
1015.872955
1015.872955
1015.872955
774.668455
437.456965
171.001554
72.897673
19.575953
9.380579
7.643700
##ZVALUE=395
0.465512
0.531673
0.382662
0.427961
0.359416
0.292659
0.414848
0.397563
0.394583
0.329614
0.458956
0.406504
0.335574
0.520945
0.500679
0.427961
0.336766
0.520945
0.254512
0.347495
0.514984
0.405908
0.482798
0.408888
0.505447
0.516772
0.490546
0.542998
0.461936
0.417829
0.509620
0.295639
0.634789
0.452995
0.277758
0.538826
0.430942
0.464916
0.661612
0.520945
0.696778
0.538826
0.585914
0.563860
0.518560
0.464916
0.561476
0.585914
0.641942
0.660419
0.818968
0.639558
0.694990
0.790954
0.802875
0.851750
0.868440
0.841618
0.892878
0.788569
0.709891
0.904799
0.916719
1.022816
1.004934
1.232624
1.391768
1.469851
1.683831
1.765490
1.923442
2.087951
2.307892
2.308488
2.125502
2.308488
2.254844
2.598763
3.194809
13.382435
53.001642
220.763683
472.355485
957.714915
1015.871763
1015.871763
1015.871763
1015.871763
1015.871763
1015.871763
1015.871763
877.977610
543.145537
245.470405
111.047626
33.063889
##ZVALUE=400
0.421405
0.326633
0.324845
0.329614
0.494719
0.410676
0.394583
0.267625
0.346899
0.230670
0.379682
0.323653
0.359416
0.231862
0.449419
0.267625
0.401735
0.442863
0.350475
0.560880
0.483990
0.387430
0.358820
0.422597
0.320673
0.437498
0.294447
0.391603
0.342727
0.377893
0.389814
0.420809
0.409484
0.472665
0.519753
0.660419
0.459552
0.462532
0.389814
0.600815
0.533462
0.462532
0.654459
0.623465
0.672936
0.536442
0.565648
0.583529
0.727773
0.626445
0.729561
0.637770
0.691414
0.587702
0.719428
0.726581
0.738502
0.847578
0.858903
0.768900
0.924468
0.699759
0.937581
1.035929
0.915527
1.048446
1.275539
1.320839
1.508594
1.702905
1.672506
1.884699
1.900792
1.902580
1.925826
1.833439
1.827478
2.049804
2.398491
2.524853
3.214478
5.779862
31.916499
94.962716
298.931003
591.340661
1015.871763
1015.871763
1015.871763
1015.871763
1015.871763
1015.871763
1015.871763
1015.871763
640.209913
375.892520
##END
