##TITLE=FQP00351
##FORMAT=SPECTACLE-ASCII V-1.2
##DATA TYPE=ULTRAVIOLET SPECTRUM
##SECOND TYPE=ULTRAVIOLET SPECTRUM
##DATE=05/07/18
##TIME=15:35:37
##SPECTROMETER/DATA SYSTEM=SPECTACLE
##XUNITS=NM EM
##YUNITS=ENERGY
##YFACTOR=1
##FIRSTX=220
##LASTX=410
##NPOINTS=96
##3DDATA=Equidistant
##ZUNITS=NM EX
##FIRSTZ=210
##LASTZ=400
##ZPOINTS=39
##XYDATA=(Y..Y)
##ZVALUE=210
2.196431
3.053546
2.631545
2.446771
3.268719
3.295541
2.908707
4.109740
3.300905
2.667904
3.112555
3.032684
3.170967
3.136992
2.575517
2.926588
3.132820
2.734661
3.303885
3.574491
3.335476
3.314614
3.619790
4.736781
3.768802
4.091859
4.920959
4.537702
4.388690
4.798770
5.817413
4.812479
4.392862
5.064607
5.671978
5.526543
5.042553
5.123615
5.272627
4.463792
5.338788
5.790591
5.092621
5.409718
5.294681
5.644560
5.591512
5.488992
5.626678
6.026626
5.425811
5.975962
5.827546
6.178617
5.322695
5.821586
5.616546
5.926490
5.910993
6.211996
5.437732
5.769730
5.846620
5.547404
5.409718
6.625652
6.269813
6.261468
7.587671
8.595586
9.742975
10.941625
12.419820
14.075637
14.281869
14.925599
15.224814
15.416741
14.329553
14.413595
12.142658
10.610819
10.398626
7.285476
7.565618
7.407665
5.705953
6.381869
5.473495
5.933642
5.363822
5.323887
5.707741
6.521940
5.854964
6.118417
##ZVALUE=215
6.495714
7.236600
6.264448
6.221533
4.478693
4.670620
5.641580
4.748702
5.171895
6.054640
4.742742
4.670620
4.478693
3.906488
3.899932
3.050566
3.502965
3.179908
3.145933
3.546476
3.470778
3.982782
4.065633
3.872514
3.835559
4.285574
4.152656
4.621744
5.150437
5.310774
4.976988
5.241632
5.699992
6.099939
5.990863
5.643964
6.016493
6.207824
5.580783
7.313490
7.035732
6.963611
5.655885
5.339980
5.681515
5.770922
6.191730
5.104542
6.215572
5.690455
6.548762
6.005764
6.334782
6.344914
6.027818
5.805492
5.885959
5.847812
5.976558
7.252693
6.335974
6.428957
7.018447
5.951524
6.967783
5.787611
6.085634
7.494688
7.211566
9.324551
9.129643
11.628866
11.781454
13.297796
14.241934
12.635589
13.366938
14.476776
12.775660
12.666583
10.593534
9.988546
9.025931
9.834766
8.185506
6.802678
6.432533
6.761551
6.068945
5.573630
5.899668
5.628467
5.163550
5.441904
5.625486
5.232692
##ZVALUE=220
22.766590
22.915602
23.661852
24.471879
21.696687
19.124746
13.574958
12.268424
10.893941
9.494424
12.197495
12.672544
12.013912
10.023713
8.483529
7.931590
6.196499
4.011989
4.100800
3.636479
3.275871
3.782511
3.941655
4.349947
4.083514
5.225539
5.683899
5.636811
5.506873
5.886555
6.158948
6.585717
6.885529
6.288886
7.058978
6.939769
7.907748
6.640553
6.811619
7.686615
7.155538
6.670952
6.295443
6.784797
6.477833
6.004572
6.503463
6.877780
5.832911
6.789565
6.243587
6.165504
6.395578
6.524920
6.237626
7.385612
6.796718
6.649494
7.253885
6.753802
5.607605
7.688999
6.421804
7.060766
7.564425
7.717609
7.662773
8.370876
7.356405
8.711815
9.250641
10.872483
11.603832
13.857484
13.089776
14.198422
14.007688
14.242530
12.604594
11.823773
11.526942
10.370612
10.087490
9.122491
8.215904
7.236600
6.699562
6.438494
6.128550
6.778836
6.541610
6.274581
6.061792
5.886555
5.415678
5.808473
##ZVALUE=225
35.762787
37.840605
47.688484
57.933927
64.645410
63.478947
59.597492
49.558878
37.213564
30.589700
24.718642
21.808743
22.542477
26.596785
25.162697
25.801659
21.912456
17.071962
11.874437
9.660721
5.845428
5.462766
4.326701
4.274845
4.887581
4.643798
5.791783
5.963445
6.297827
6.882548
7.466674
7.464886
7.837415
8.216500
8.459687
8.853674
8.418560
9.114742
8.877516
8.176565
8.950830
8.030534
7.868409
7.231832
7.337928
8.148551
7.452965
7.598996
7.214546
7.555485
7.501841
8.712411
7.834435
7.630587
7.241964
8.315444
7.012486
7.656813
7.637739
7.249713
8.075833
7.289648
7.681847
7.294416
7.107854
8.242726
9.276867
7.593632
9.600520
9.867549
11.656880
11.273623
13.045669
13.154745
12.381673
13.546944
14.069676
13.214946
14.031529
11.963844
12.783408
12.140870
10.857582
10.091662
9.545684
9.477735
7.920861
8.431673
8.817911
8.529425
7.790923
7.029772
7.823706
8.308887
7.371902
6.691813
##ZVALUE=230
33.107996
35.955906
58.156848
96.101761
118.480921
151.269436
158.614516
161.619782
147.834420
125.841498
90.678930
64.604878
48.858523
44.812560
44.756532
48.461556
49.182773
46.850443
43.757558
36.899447
26.329756
18.591881
12.686849
7.580519
6.827712
5.502701
6.064773
6.736517
5.987883
6.545782
7.396936
7.731915
9.506941
9.098649
9.173751
8.855462
8.829832
9.230971
8.041859
9.605885
8.858442
8.216500
10.069609
8.668900
8.536577
9.136796
7.941723
8.649826
7.144809
7.080436
7.963777
7.675886
9.550452
8.046627
8.012652
8.414984
8.067489
9.438992
8.986592
9.085536
9.583831
9.233952
9.386539
9.139776
9.983778
9.750724
10.887980
10.825992
10.531545
13.093948
11.281967
13.548732
15.578866
16.159415
15.511513
15.665889
17.202497
16.519427
15.227795
13.967752
14.184713
13.838410
12.903810
12.303591
12.871623
11.825562
10.558963
11.041760
9.739995
11.799932
11.578798
10.301471
10.090470
9.608865
10.427833
10.392666
##ZVALUE=235
12.923479
14.200807
33.441782
60.426593
103.544593
170.923471
227.087736
294.390917
309.262872
310.602784
283.012986
217.195749
168.690681
108.518004
83.972812
68.151951
66.910982
74.768662
80.448985
82.192421
75.118542
66.234469
46.652555
36.810637
22.915602
16.485453
10.527968
8.068681
7.744431
7.854700
7.951856
7.848740
8.936524
7.715821
8.675456
9.057522
10.776520
7.708669
9.290576
9.709597
8.170605
8.827448
9.197593
8.276701
8.966923
8.571744
7.845759
8.558631
8.757710
10.312796
9.268522
8.535981
9.156466
9.433627
9.040833
9.865761
9.692907
9.470582
9.860992
10.714531
10.647774
11.105537
10.347962
11.075735
11.126995
12.804866
13.416409
12.594461
12.791753
13.779998
14.974475
15.298724
18.660426
19.458532
19.829869
18.166900
19.260645
19.299984
18.592477
18.190742
18.674731
15.785694
15.960932
16.238689
16.568899
14.773607
13.372898
13.833642
15.181899
13.609529
13.997555
13.908744
13.746619
13.590455
12.399554
14.424920
##ZVALUE=240
2.577901
2.434850
7.543564
16.721487
45.328736
85.225701
168.939829
254.360437
374.321938
458.831787
513.995886
505.818725
473.770499
377.730727
291.885734
191.123486
140.800476
101.886988
90.141892
97.638965
107.811689
110.391974
109.607577
102.644563
81.150532
64.556599
45.750737
33.981800
19.547939
13.542771
10.028481
8.682609
7.878542
8.446574
9.314418
8.425713
8.959770
9.586811
9.383559
8.985996
9.885430
9.261966
8.759499
7.966757
8.506775
8.959770
9.213686
8.780956
9.228587
9.478927
9.667873
9.036660
9.533763
10.899901
10.065436
10.620952
10.765791
11.135936
10.777712
11.019707
11.185408
11.537671
12.424588
12.642741
12.432933
12.811422
12.867451
14.437437
15.490651
16.915798
18.418431
20.104647
19.980669
20.779967
21.765828
22.139549
22.013783
21.299720
21.473765
21.758676
20.282865
21.333694
18.762946
19.494891
18.570423
17.810464
20.329952
18.560886
19.150972
17.051697
18.502474
17.881989
18.608570
16.670823
17.153621
16.895533
##ZVALUE=245
1.879930
2.180934
1.978874
2.122521
4.382730
12.912750
37.562847
79.914927
169.539452
266.426802
405.017734
518.834591
594.020486
631.407499
603.119731
497.229695
405.811667
274.490714
191.793442
122.584701
97.708702
97.726583
110.414624
123.537779
126.233697
117.797852
109.958649
92.870593
69.231987
52.997470
37.856698
22.454858
14.658570
10.499954
8.577704
9.056926
9.130836
8.242726
8.613467
8.591413
7.749796
8.500814
8.665919
8.712411
9.926558
9.728670
8.694530
9.249449
9.229779
8.701682
8.840561
9.476542
10.692477
8.921623
9.241700
9.112954
8.871555
8.550882
9.191632
10.758638
9.798408
10.738969
10.631680
11.518598
11.763573
12.049675
13.307929
13.314486
14.016628
13.846755
16.453862
17.646551
18.329620
19.231439
20.066500
20.720959
20.582676
20.504594
20.375848
19.164681
19.943714
19.449592
19.138455
19.238591
19.353628
18.542409
18.333793
17.776489
18.153787
19.375682
18.092990
18.004775
16.781688
17.567873
16.214848
18.542409
##ZVALUE=250
1.481771
1.810789
1.624823
1.828671
1.979470
1.992583
2.506971
8.803606
25.281906
8.218884
143.087506
244.120955
405.122638
531.931520
655.570626
717.791915
707.382560
651.232004
521.215796
397.542715
246.207714
164.680481
103.237629
92.615485
99.520683
121.689439
132.237673
136.386752
132.455826
119.977593
103.509426
79.794526
56.831837
36.673546
24.052858
14.560819
10.649562
9.142756
8.251667
9.227991
9.465814
9.157658
9.545684
9.372830
8.907914
8.530617
9.930730
9.259582
8.975863
9.348989
9.227991
8.735657
9.765625
9.820461
7.923841
9.530783
9.322762
9.125471
8.511543
9.455681
9.846687
8.358955
11.145473
10.544658
10.572672
10.583997
10.782480
11.481643
12.489557
12.922883
13.956428
16.481876
16.155839
17.026663
16.606450
18.892884
17.693639
18.297434
17.782450
17.976761
17.936826
17.062426
17.333627
17.155409
18.414855
18.064976
17.276406
17.301440
17.846823
17.846823
16.362667
16.843677
16.766787
17.492771
17.104745
17.679930
##ZVALUE=255
1.364946
1.261830
1.948476
1.649857
1.377463
1.382828
1.776814
1.801848
2.703667
4.630685
21.049976
49.626827
103.583932
224.761963
343.848467
529.577732
662.900805
784.644485
827.735662
764.796734
669.331551
528.372526
337.283015
225.330591
120.326877
95.076561
89.670420
103.382468
128.824711
138.522983
145.691633
142.165422
130.757689
104.961991
81.620812
54.441690
40.287971
23.152828
16.708970
10.519624
10.018945
9.216666
9.634495
8.775592
9.063482
9.032488
9.714961
9.671450
9.515882
8.933544
8.978844
9.523630
9.098649
8.513927
9.127855
9.532571
8.802414
8.278489
9.122491
9.612441
9.338856
9.336472
9.288788
9.946823
9.408593
10.088682
10.735989
10.369420
10.869503
11.875629
12.712479
14.140606
14.550686
15.130639
15.662909
16.612411
16.217828
15.515685
15.621781
15.607476
15.835762
15.909672
14.739633
15.537739
16.512871
15.848875
15.984774
16.087890
15.977621
15.383959
16.813874
16.311407
16.048551
16.132593
16.174912
16.369820
##ZVALUE=260
1.273751
1.574755
1.235604
1.147985
1.302958
1.736879
1.634955
1.686811
1.672506
1.613498
1.806617
2.771616
8.637905
33.540726
74.527860
176.209807
294.457674
483.678579
642.946959
838.992000
919.394493
931.620002
816.085935
669.245720
447.045565
309.351683
176.829696
113.285780
80.402493
84.308982
100.502968
128.160715
143.305659
152.395964
149.109960
133.556724
112.182498
83.957911
61.505437
39.408803
26.765466
16.117692
12.172461
9.725690
9.225607
9.402633
9.609461
10.102987
9.745955
9.173751
9.795427
9.937882
9.884834
9.419918
8.712411
8.783937
9.147525
9.192824
8.711815
9.301901
8.849502
9.314418
8.915663
8.964539
9.705424
9.172559
10.487437
9.572506
10.987520
11.385679
12.209415
13.071895
12.790561
13.822913
14.250875
13.995767
14.822483
14.183521
14.253855
14.259815
14.362931
14.438629
14.238954
14.479756
15.143752
14.389753
14.491677
14.271736
15.313625
14.304519
15.384555
14.556646
14.888644
14.596581
15.203953
14.217496
##ZVALUE=265
1.000762
1.499653
1.153946
1.377463
1.085997
1.338720
1.566410
1.512766
1.351833
1.528859
1.526475
1.551509
1.940727
2.167821
4.621744
22.578835
56.101680
140.705705
246.275663
456.392765
643.184781
816.838741
994.241834
1015.684605
944.464803
818.712711
607.867837
431.247950
244.428515
146.275759
94.464421
69.970489
81.297755
111.284852
131.901503
152.095556
157.310963
151.765943
137.344599
110.925436
86.162686
58.710575
42.049885
24.457574
16.750693
11.780858
10.066628
9.163618
9.513497
8.955598
9.645820
9.076595
8.774996
8.945465
9.613633
9.352565
8.958578
8.320808
8.703470
8.759499
8.697510
9.277463
8.958578
8.847713
8.873940
9.312630
8.814931
9.771585
9.560585
10.170937
11.071563
11.906624
11.720657
12.395978
12.280941
13.289452
13.417602
13.260841
13.049841
12.584925
13.071895
13.299584
13.150573
12.969971
13.464689
12.828708
13.394952
12.663603
13.164878
12.910962
13.696551
13.237000
14.334917
15.026927
13.993979
14.006495
##ZVALUE=270
1.124740
1.044869
0.835657
1.188517
1.139641
1.108646
1.225471
1.094937
1.355410
1.171827
1.390576
1.201630
1.611710
1.758933
1.726747
1.846552
2.747774
10.787845
31.797886
101.135969
195.710659
338.015556
599.730015
804.307461
1015.700698
1015.700698
1015.700698
1000.694633
792.062879
592.388511
416.873693
214.994550
118.667483
64.668655
63.207746
85.863471
108.557940
134.068727
148.792863
158.177614
155.120492
134.628415
114.730000
82.760453
62.533617
37.718415
26.398897
16.500950
11.672974
9.339452
9.281635
8.736849
8.595586
8.365512
8.791685
8.379817
7.841587
8.448958
8.778572
8.696914
8.325577
8.112788
8.638501
8.353591
8.913875
8.538961
9.707808
8.908510
9.525418
9.773970
10.139942
10.447502
10.827780
12.134910
11.896491
12.530684
11.933446
11.968613
12.247562
12.221932
11.627674
12.189746
11.801720
12.318492
12.393594
12.124777
12.322664
12.635589
13.128519
12.840629
12.526512
12.727976
12.326837
12.851954
12.613535
13.280511
##ZVALUE=275
0.978708
0.868440
0.929832
0.865459
1.034737
1.012683
1.201630
0.969768
1.283884
1.057982
1.240969
1.159906
1.207590
1.364946
1.353621
1.675487
1.633763
1.752973
1.942515
5.144477
18.797517
53.086877
153.668523
285.858512
527.153611
717.333555
961.761475
1015.704870
1015.704870
1015.704870
1011.263728
769.056082
546.953678
289.292932
161.611438
72.218776
52.369833
59.990883
80.217719
108.902454
129.066706
148.914456
155.731440
149.274468
135.397911
107.851624
86.310506
60.091615
42.066574
25.709867
17.819405
11.767745
8.956790
8.482933
8.048415
8.303523
7.778406
8.067489
7.748604
8.118749
8.469820
8.228421
8.523464
7.460713
8.253455
8.335710
8.237958
8.538961
9.076595
9.351969
9.793639
10.180473
10.943413
11.471510
11.452436
11.948943
11.474490
11.726618
11.269450
12.041926
11.943579
11.197925
11.918545
11.752844
11.602640
11.956692
11.537671
11.267662
11.537671
11.915565
11.286736
11.917949
12.197495
11.681914
12.320876
11.830926
##ZVALUE=280
0.760555
1.088977
1.113415
1.025796
1.010895
1.027584
0.818968
0.922680
0.856519
0.889897
1.047850
1.214743
1.127720
1.529455
1.179576
1.468658
1.598597
1.474619
1.437664
1.602769
1.821518
2.506971
12.521744
40.104985
119.625926
224.132538
416.951776
604.446530
869.199634
1015.677452
1015.677452
1015.677452
1015.677452
872.306824
647.284985
371.869802
217.332840
93.477964
51.952600
42.977929
54.748654
81.236959
104.933977
130.723715
143.794417
149.044991
144.660473
128.992796
110.067725
81.033707
60.269833
38.659573
26.179552
15.700459
11.797547
8.833408
7.883906
7.666945
7.541776
7.761717
6.978512
8.183718
8.369684
8.097887
8.297563
7.966757
8.584857
8.208752
9.047985
9.481907
9.471774
10.245442
10.276437
11.410713
10.934472
11.582971
10.888577
10.878444
11.086464
11.338592
11.048913
11.188984
10.933876
11.549592
11.204481
11.294484
11.283755
11.627674
11.506677
11.483431
11.320710
11.109710
11.057854
11.536479
11.196733
11.421442
##ZVALUE=285
0.658631
0.853539
0.735521
0.886917
0.806451
0.836849
0.936985
0.963807
1.187921
0.955462
0.844598
0.958443
0.989437
1.042485
1.070499
1.075864
1.297593
1.295805
1.232624
1.285672
1.525879
1.756549
1.862645
2.013445
5.852580
20.105839
68.400502
145.216584
310.499668
481.555462
741.552711
954.405665
1015.681028
1015.681028
1015.681028
1015.681028
867.219567
566.834807
366.412997
175.871849
88.110566
37.818551
34.773946
54.608583
72.749853
103.447437
121.698976
140.924454
145.720840
143.408775
129.905939
107.975602
87.412596
61.632991
43.409467
25.611520
16.753674
11.437535
9.020567
8.455515
7.927418
7.989407
7.762909
7.918477
8.290410
8.396506
8.850694
8.964539
9.118915
9.385943
9.931922
10.237694
10.074973
11.123419
11.045933
11.024475
11.291504
11.030436
11.042953
10.659695
11.102557
11.446476
10.919571
11.075735
10.957718
11.061430
10.801554
11.301637
10.911822
11.254549
11.222959
11.571646
10.878444
10.765791
10.905862
11.170506
##ZVALUE=290
0.826716
0.818968
0.782609
0.873804
0.738502
0.733733
0.866652
1.059771
0.959635
0.774860
1.009703
1.042485
0.903606
1.081824
1.184940
1.097918
1.015663
1.016855
1.211762
1.313686
1.424551
1.533628
1.384616
1.577735
1.726747
2.095699
2.649426
8.245707
37.147999
89.882612
178.740621
373.767614
573.127866
870.075822
1015.733480
1015.733480
1015.733480
1015.733480
908.269882
631.739497
427.803993
217.763782
117.073655
46.291947
27.534962
35.756826
49.269795
71.587563
90.749860
118.659735
132.550001
143.457651
142.055750
124.546885
108.832717
82.414746
61.543584
39.389729
27.530789
16.797781
12.195706
9.032488
8.542538
8.147955
8.712411
8.111596
8.353591
8.891821
9.246469
9.948611
9.906888
10.240674
10.865927
10.844469
11.434555
11.161566
10.950565
11.738539
11.317730
10.863543
11.276603
10.857582
11.776686
11.194944
11.386871
11.072755
10.971427
11.451840
10.756850
11.453629
10.980964
11.258721
10.601878
11.168718
11.049509
10.536909
##ZVALUE=295
0.741482
0.757575
0.703931
0.803471
0.644922
0.727773
0.777841
0.881553
0.833869
0.808835
0.803471
0.953674
0.919700
0.751615
0.972748
0.949502
1.032948
1.045465
0.816584
0.934601
1.002550
1.069903
1.414418
1.680851
1.542568
1.437664
1.634955
1.856685
1.885891
4.386902
15.700459
64.206719
137.111545
308.558941
486.372709
779.581666
987.035632
1015.684605
1015.684605
1015.684605
988.104939
709.424615
491.638780
261.595845
145.718455
56.043863
27.651787
21.672845
29.684901
47.260523
64.863563
91.274977
110.271573
129.562616
137.074590
134.238601
123.215914
102.939606
83.163977
58.362484
41.413903
25.250912
17.788410
12.290478
9.496808
8.385777
8.957982
9.047985
9.072423
9.622574
9.759665
9.883642
10.284781
10.664463
11.094809
11.282563
11.335611
10.733604
11.009574
11.194944
11.687875
10.967851
11.225939
11.166930
11.291504
11.383891
10.666847
10.851622
11.040568
11.176467
10.689497
10.908842
10.983944
10.997653
10.853410
10.858774
##ZVALUE=300
0.675917
0.588894
0.728965
0.717640
0.613928
0.754595
0.621676
0.612736
0.560880
0.851750
0.727773
0.840425
0.728965
0.775456
0.878572
0.869632
0.648499
0.858903
0.854731
0.834465
1.062751
0.878572
1.058578
1.020432
1.164675
1.263618
1.270771
1.574755
1.423955
1.683831
1.953840
2.082586
7.677674
28.371811
97.716451
193.285942
394.464731
606.490970
903.173685
1015.684605
1015.684605
1015.684605
1015.684605
883.872509
579.633713
377.507806
188.124776
100.692511
36.559701
19.351840
18.443465
26.085973
42.988658
57.854652
82.500577
102.346539
120.314956
129.440427
127.632618
120.246410
99.393725
81.370473
58.148503
42.809844
26.840568
18.449426
12.567639
10.151863
9.424686
9.378791
9.527802
10.058880
10.387897
10.454655
10.716915
10.878444
10.877848
10.982752
11.637807
10.888577
11.212826
11.387467
11.437535
11.647940
11.594892
11.425614
11.113882
11.303425
11.208653
11.524558
11.145473
10.568500
10.694861
10.657907
10.904670
10.476708
##ZVALUE=305
0.641942
0.529885
0.734925
0.688434
0.725985
0.573993
0.757575
0.779629
0.608563
0.616908
0.739694
0.655651
0.832677
0.600815
0.697970
0.671744
0.730753
0.851750
0.870824
0.882745
0.816584
1.009703
1.027584
0.943542
0.879765
1.107454
1.141429
1.240969
1.215935
1.264811
1.597404
1.587868
1.888871
1.913905
4.386902
15.759468
64.824820
140.118599
315.411687
492.388010
780.026913
992.142558
1015.684605
1015.684605
1015.684605
990.752578
707.740784
487.860441
251.954794
138.259530
53.977966
24.679899
13.941526
16.778708
26.237965
37.087798
59.598684
76.335669
98.566413
112.266541
122.421980
121.615529
110.577941
98.562837
76.345801
58.971643
38.834810
27.465820
17.560720
12.940764
10.483861
9.907484
10.241866
10.765791
10.607839
10.421872
11.074543
10.669827
11.097789
10.998845
11.197925
11.352897
11.573434
11.620522
11.592507
11.152625
11.542439
11.456609
11.381507
11.208653
11.234879
11.112690
10.635853
10.825992
10.631680
10.722876
##ZVALUE=310
0.600815
0.504851
0.548959
0.597835
0.608563
0.623465
0.594854
0.713468
0.547767
0.675917
0.788569
0.714660
0.793934
0.753999
0.749826
0.602603
0.716448
0.682473
0.608563
0.738502
0.702739
0.769496
0.914931
0.933409
0.962615
0.853539
0.977516
1.133680
1.227856
1.246929
1.279712
1.307726
1.356602
1.547933
1.584888
1.956820
2.244711
8.329749
27.930737
93.797445
186.228752
388.555527
595.744848
899.497867
1015.743017
1015.743017
1015.743017
1015.743017
944.889784
625.915527
409.098864
196.238756
100.395679
35.941601
16.168952
12.082458
14.842749
23.097992
32.966733
51.989555
67.704916
90.811849
103.456974
116.579533
116.204619
108.315945
95.796585
75.635910
58.612823
39.203763
28.340816
19.552708
15.185475
11.963844
11.104941
10.974407
10.651946
10.701418
11.045933
11.117458
11.360645
11.449456
11.345744
11.451840
11.814833
12.175441
11.938810
12.058616
11.760592
11.773705
11.645555
11.418462
11.350513
10.809898
11.086464
10.892749
##ZVALUE=315
0.806451
0.622869
0.616908
0.643730
0.604987
0.630617
0.658631
0.558496
0.606775
0.742674
0.674725
0.726581
0.699759
0.765920
0.673532
0.674725
0.656843
0.676513
0.879765
0.921488
0.906587
0.829697
0.918508
0.898838
0.800490
0.924468
0.901818
0.969768
0.865459
1.131892
0.887513
1.189709
1.137853
1.083612
1.332760
1.608729
1.577735
1.848936
2.043843
4.260540
14.109612
60.673952
130.222440
295.634866
486.198664
801.432729
1003.797650
1015.775800
1015.775800
1015.775800
1015.775800
804.804564
558.753610
285.969973
149.761438
52.796602
21.833777
10.618567
10.818839
14.625788
20.435452
33.041835
46.197772
65.664649
82.873702
100.143552
108.524561
110.883713
104.919672
88.025928
74.041486
55.321455
41.931868
26.820898
20.093918
14.665723
12.433529
11.456609
10.919571
10.984540
11.001825
11.308789
11.572838
11.438727
11.328459
11.391640
11.729598
11.934638
11.333823
11.023879
11.403561
11.612773
11.058450
10.677576
10.517836
11.043549
##ZVALUE=320
0.449419
0.561476
0.658631
0.356436
0.685453
0.547767
0.454783
0.554919
0.436902
0.497699
0.637770
0.547767
0.438690
0.578761
0.552535
0.537634
0.721812
0.654459
0.548959
0.618696
0.671744
0.671744
0.744462
0.664592
0.737906
0.747442
0.698566
0.800490
0.906587
0.838637
0.861883
0.882745
1.031756
1.129508
1.141429
1.165867
1.202822
1.469851
1.366735
1.574755
1.790524
2.525449
6.648898
33.225417
85.226893
222.111940
369.215012
628.910661
852.671862
1015.684605
1015.684605
1015.684605
1015.684605
985.297561
736.850500
406.168699
226.554871
88.926554
38.226843
12.769699
9.426475
10.709763
12.704730
19.505620
27.158856
43.457747
58.107972
79.175830
92.645884
101.525784
105.519891
100.178719
87.822676
69.303513
54.937601
37.974715
28.745532
19.506812
15.333891
12.583733
11.970997
11.339784
11.495948
11.176467
11.723638
11.288524
11.419654
11.526942
11.527538
11.366606
11.299849
10.729432
11.328459
10.983944
11.012554
11.211634
##ZVALUE=325
0.409484
0.520945
0.369549
0.424981
0.506639
0.496507
0.617504
0.453591
0.710487
0.434518
0.570416
0.522733
0.454783
0.591874
0.552535
0.541806
0.478625
0.466704
0.439882
0.496507
0.624657
0.698566
0.692606
0.680685
0.715852
0.675917
0.689626
0.811815
0.696778
0.935793
0.843406
0.796914
0.779629
1.019835
0.633597
0.963807
1.038909
1.234412
1.206994
1.246929
1.384616
1.473427
1.631975
1.817942
3.777742
21.885633
57.663918
150.231719
272.813439
512.818694
730.393529
1001.585722
1015.684605
1015.684605
1015.684605
1015.684605
850.092769
528.408885
318.128467
134.439468
59.937835
18.246770
10.418892
9.203553
10.011792
13.386607
18.373728
29.524565
41.509867
60.967803
74.130893
90.563893
97.726583
98.776817
94.001889
79.613924
65.595508
48.983693
37.333965
25.324821
19.456744
14.616847
12.601614
11.856556
11.692643
11.129975
11.025667
11.273623
11.220574
11.024475
11.031628
10.928512
10.371804
11.072755
10.680556
10.789633
##ZVALUE=330
0.458956
0.543594
0.512600
0.480413
0.487566
0.404716
0.463724
0.432730
0.541806
0.390410
0.384450
0.499487
0.464916
0.633597
0.511408
0.568628
0.554919
0.529885
0.531673
0.603795
0.574589
0.599623
0.507832
0.630617
0.617504
0.657439
0.690818
0.730753
0.659823
0.605583
0.800490
0.735521
0.780821
0.780821
0.784993
0.890493
0.945926
0.737906
0.929832
1.083612
1.046658
1.232624
1.433492
1.445413
1.537800
1.843572
2.213717
9.235740
30.249953
100.922585
196.158886
394.877791
589.681864
879.255533
1015.684605
1015.684605
1015.684605
1015.684605
973.323584
658.208728
432.745814
202.793479
100.524426
32.327771
13.627410
9.026527
8.727908
9.909868
12.513995
19.400716
26.723742
40.161610
54.127574
72.657466
84.931850
92.912912
93.465447
87.257624
77.926517
61.577559
48.222542
34.750700
26.048422
19.118786
15.294552
12.783408
11.801720
11.355877
10.828972
11.044741
10.595918
10.978580
10.591745
10.622740
10.552406
10.505915
##ZVALUE=335
0.469685
0.457764
0.432730
0.441670
0.509620
0.452995
0.579953
0.522733
0.573993
0.396967
0.396967
0.394583
0.445843
0.393987
0.367761
0.495911
0.566840
0.526905
0.485778
0.650883
0.517964
0.701547
0.609756
0.624657
0.557899
0.651479
0.643730
0.458956
0.512600
0.646710
0.640750
0.639558
0.665784
0.797510
0.812411
0.821948
0.747442
0.884533
0.890493
0.886917
0.811815
0.884533
1.140833
1.129508
1.172423
1.386404
1.511574
1.673698
1.935959
4.015565
15.627742
60.672760
129.597783
292.530656
476.563573
760.352015
973.886847
1015.684605
1015.684605
1015.684605
993.362665
718.128681
504.341722
272.746682
143.975616
49.095750
19.512773
9.417534
8.642673
8.906722
9.932518
13.224483
17.745495
27.899742
38.417578
53.012967
65.425634
80.286860
85.567832
87.395906
82.366467
70.711970
59.658885
47.295690
36.800504
25.681853
20.015836
15.025735
12.708902
11.301637
10.900497
10.740757
10.126829
10.238886
9.776950
10.040998
##ZVALUE=340
0.250936
0.378489
0.398755
0.315905
0.250936
0.454783
0.373721
0.516772
0.437498
0.484586
0.424981
0.448823
0.447631
0.560880
0.362992
0.457764
0.424981
0.469685
0.366569
0.402927
0.521541
0.577569
0.495911
0.505447
0.494719
0.564456
0.502467
0.411868
0.551939
0.567436
0.451803
0.692606
0.516772
0.718832
0.613928
0.692606
0.779629
0.667572
0.764728
0.739694
0.836849
0.915527
0.881553
0.958443
0.949502
1.083612
1.223683
1.260638
1.168847
1.397729
1.631975
2.578497
7.618666
37.762523
92.937946
230.058432
390.165448
640.693903
838.233829
1015.684605
1015.684605
1015.684605
977.012515
744.653940
541.235805
303.384662
168.575644
64.683557
27.632713
10.665655
8.760691
8.680820
8.811951
9.995699
11.944771
18.087626
25.288463
37.045479
48.852563
65.057874
74.082613
81.028938
82.479715
77.672601
71.169734
56.905746
46.770573
33.967495
26.328564
18.712878
15.132427
11.851788
10.890961
10.088682
10.178685
9.438992
##ZVALUE=345
0.311732
0.293851
0.273585
0.252724
0.099540
0.381470
0.305772
0.343919
0.275970
0.450611
0.435710
0.447631
0.363588
0.528693
0.401735
0.304580
0.434518
0.600815
0.395775
0.458956
0.361800
0.420809
0.385642
0.429749
0.240803
0.425577
0.430942
0.412464
0.571609
0.603795
0.594854
0.484586
0.475645
0.623465
0.639558
0.544786
0.526905
0.478625
0.667572
0.646710
0.658631
0.716448
0.843406
0.658631
0.709891
0.986457
0.991821
0.977516
1.137853
1.109838
1.286864
1.350641
1.377463
1.645684
3.566742
20.854473
59.048533
156.992674
282.391906
513.257980
702.976584
938.299894
1015.687585
1015.687585
981.025696
758.558512
565.655828
334.519744
191.131830
77.119470
35.486817
13.421774
8.861423
8.253455
8.206964
8.478761
9.284616
11.590719
15.433431
23.773909
33.126473
47.298670
57.573915
67.536831
73.246956
76.065660
73.125958
65.433979
56.546926
44.428706
34.806728
24.347901
19.016862
13.712645
11.673570
10.272861
##ZVALUE=350
0.365973
0.476837
0.432730
0.510812
0.574589
0.333786
0.418425
0.338554
0.233650
0.429749
0.460744
0.417829
0.448823
0.452995
0.566840
0.380874
0.371933
0.415444
0.480413
0.462532
0.275970
0.598431
0.381470
0.608563
0.370741
0.415444
0.372529
0.423789
0.554919
0.582933
0.562668
0.651479
0.620484
0.597835
0.619888
0.609756
0.658631
0.574589
0.702739
0.566840
0.562668
0.706911
0.707507
0.731945
0.643730
0.796914
0.711679
0.776649
0.877976
1.067519
0.999570
0.973940
1.071692
0.984669
1.239777
1.482964
2.406836
8.299947
38.584471
88.845491
216.906667
366.213918
611.663461
796.537995
995.911956
1015.684605
1003.298759
872.219801
612.307787
409.941673
207.098722
114.468932
44.709444
18.507838
8.455515
7.695556
7.573962
7.635951
7.946491
8.503795
11.218786
14.419556
21.689534
28.523803
40.443540
49.809813
61.328411
67.525506
69.174767
67.954659
61.081648
53.046942
41.239858
32.582879
23.307800
18.462539
##ZVALUE=355
0.354648
0.306964
0.369549
0.487566
0.387430
0.443459
0.408888
0.316501
0.379682
0.390410
0.329614
0.367761
0.278950
0.304580
0.258684
0.480413
0.318885
0.399947
0.497699
0.481606
0.690818
0.464916
0.340939
0.503659
0.406504
0.434518
0.484586
0.495911
0.593662
0.527501
0.533462
0.481606
0.615716
0.394583
0.557899
0.567436
0.516772
0.300407
0.589490
0.697970
0.570416
0.575781
0.717640
0.742674
0.643730
0.748634
0.679493
0.667572
0.734925
0.771880
0.812411
1.039505
1.061559
0.930429
1.129508
1.148582
1.123548
1.371503
1.574755
4.849434
18.036962
69.604516
144.326687
303.615928
480.235815
740.583539
902.407765
1015.684605
1015.684605
879.524946
716.539025
472.434759
301.366448
135.517716
66.098571
21.233559
10.117888
7.381439
7.280707
6.944537
7.046461
7.522702
7.859468
9.842515
12.608767
18.320680
24.769902
35.088658
43.448806
53.464770
60.138702
63.346624
62.288642
56.709647
49.989820
39.740801
##ZVALUE=360
0.283718
0.315905
0.279546
0.367761
0.315905
0.504851
0.368953
0.267625
0.407696
0.435710
0.376701
0.349879
0.401735
0.482798
0.474453
0.444651
0.379682
0.398755
0.420809
0.489950
0.449419
0.261664
0.383854
0.499487
0.527501
0.417829
0.578761
0.419617
0.618696
0.593662
0.292659
0.601411
0.572801
0.660419
0.462532
0.461936
0.612736
0.442863
0.698566
0.670552
0.634789
0.629425
0.526905
0.667572
0.732541
0.644922
0.690818
0.667572
0.629425
0.819564
0.824928
0.828505
1.000762
0.924468
1.082420
1.100898
1.067519
1.120567
1.247525
1.315475
1.681447
2.402663
7.956624
36.313534
89.167953
222.447515
369.123816
600.371957
789.883733
973.480940
1014.551520
945.706964
802.813768
551.509857
367.551446
179.480910
93.472600
34.186840
14.197826
7.408857
7.093549
6.712675
6.865859
6.441474
6.921887
7.516742
8.375645
11.017919
14.487505
21.181703
28.417706
38.351417
45.631528
53.517818
56.581497
56.219697
##ZVALUE=365
0.332594
0.389814
0.411868
0.405908
0.326633
0.466704
0.297427
0.408888
0.312924
0.284910
0.360608
0.312924
0.296831
0.445843
0.324845
0.381470
0.402927
0.371933
0.446439
0.449419
0.441670
0.288486
0.334978
0.398755
0.324845
0.456572
0.409484
0.545979
0.379682
0.394583
0.454783
0.612736
0.523925
0.622869
0.586510
0.501871
0.478625
0.785589
0.521541
0.668764
0.611544
0.529885
0.582933
0.646710
0.550747
0.509620
0.610948
0.611544
0.672936
0.627637
0.679493
0.881553
0.860691
0.727773
0.699759
0.780821
0.915527
1.016855
1.045465
1.262426
1.260638
1.411438
1.508594
1.672506
3.472567
20.454526
55.291653
146.277547
271.880627
504.176617
682.931542
879.713893
973.272920
959.391594
845.935941
622.627735
441.270471
242.833495
131.644607
48.340559
19.599795
7.845759
6.467700
6.315708
6.569624
6.308556
6.251931
6.193519
6.586909
7.441640
9.116530
13.078451
17.125607
24.876595
31.163692
40.269494
##ZVALUE=370
0.324845
0.424981
0.433922
0.375509
0.170469
0.325441
0.444651
0.193715
0.263453
0.218749
0.338554
0.236630
0.345707
0.278950
0.174642
0.338554
0.386834
0.294447
0.356436
0.297427
0.247955
0.390410
0.336766
0.212789
0.414848
0.299811
0.256896
0.272989
0.511408
0.448823
0.452995
0.543594
0.471473
0.410676
0.346899
0.422597
0.305772
0.332594
0.546575
0.467896
0.364780
0.581741
0.314713
0.497699
0.414848
0.402927
0.425577
0.395775
0.605583
0.336766
0.643730
0.518560
0.610948
0.692606
0.662804
0.789762
0.676513
0.673532
0.726581
0.882745
0.866652
0.856519
1.045465
1.177788
1.336932
1.451969
2.204776
8.081794
41.311979
100.875497
237.797499
382.403731
611.564517
787.270665
941.841602
975.390673
883.328915
732.720494
491.066575
319.063663
150.960684
77.766776
28.888583
12.641549
6.598830
6.175637
5.862713
5.575418
5.714893
5.583763
5.728602
6.110668
6.621480
8.272529
11.393428
15.322566
##ZVALUE=375
0.447631
0.298619
0.438690
0.406504
0.379682
0.457764
0.257492
0.246763
0.266433
0.393987
0.109673
0.249743
0.541806
0.436902
0.380874
0.437498
0.393987
0.459552
0.501871
0.312924
0.367761
0.423789
0.177622
0.411868
0.490546
0.510812
0.296831
0.319481
0.468493
0.587702
0.385642
0.550747
0.555515
0.522733
0.541806
0.602603
0.394583
0.466704
0.406504
0.586510
0.536442
0.520945
0.527501
0.337958
0.401735
0.431538
0.576973
0.448823
0.528693
0.671744
0.711679
0.482798
0.658631
0.445843
0.614524
0.713468
0.668764
0.768900
0.901818
0.670552
0.642538
0.832677
0.857711
0.876784
0.954866
1.104474
1.207590
1.339912
1.690984
5.304813
18.276572
65.170527
141.819715
316.491723
490.030646
733.143687
878.182650
969.507694
943.742990
778.722763
602.311492
366.586447
232.716799
114.917755
57.431459
19.312501
8.575916
5.735755
5.465746
5.176663
5.172491
5.222559
5.338788
5.407929
5.332828
5.857944
##ZVALUE=380
0.275970
0.139475
0.432730
0.230670
0.314713
0.349879
0.357628
0.456572
0.155568
0.230670
0.135899
0.395775
0.282526
0.145435
0.343919
0.465512
0.419617
0.398755
0.276566
0.330806
0.251532
0.253916
0.327826
0.399947
0.440478
0.375509
0.224710
0.400543
0.326633
0.248551
0.285506
0.335574
0.316501
0.430942
0.371933
0.444651
0.344515
0.305772
0.338554
0.367761
0.361800
0.391603
0.343919
0.374913
0.485778
0.465512
0.428557
0.421405
0.526905
0.429749
0.503659
0.484586
0.550747
0.436902
0.496507
0.504851
0.519753
0.652671
0.604987
0.630617
0.714660
0.811815
0.785589
0.793934
0.824928
0.898838
1.062751
1.112819
1.195669
1.309514
1.520514
2.720952
9.967685
47.651529
109.394789
252.763629
405.307412
630.009770
798.694491
943.234563
955.500603
834.272504
688.807964
479.080677
322.533846
157.475471
80.680847
28.496981
12.100935
5.972981
5.186796
5.084872
4.687905
4.880428
4.839897
4.807711
##ZVALUE=385
0.358820
0.305772
0.369549
0.281930
0.160933
0.253916
0.255704
0.222921
0.205636
0.227690
0.342727
0.428557
0.334978
0.504851
0.402927
0.450611
0.473857
0.254512
0.223517
0.202656
0.320673
0.232458
0.202656
0.333786
0.307560
0.354648
0.380874
0.445843
0.274777
0.287890
0.470877
0.375509
0.379682
0.473857
0.369549
0.270605
0.363588
0.385642
0.208616
0.351667
0.446439
0.336766
0.325441
0.413656
0.389814
0.425577
0.329614
0.597835
0.394583
0.382662
0.481606
0.459552
0.480413
0.426769
0.473857
0.502467
0.578761
0.559688
0.532866
0.586510
0.492930
0.679493
0.550747
0.645518
0.655651
0.757575
0.887513
0.875592
0.915527
1.070499
1.327991
1.417994
1.501441
1.815557
5.027652
30.769706
78.965425
194.898844
331.076980
561.027527
733.520985
900.525451
953.674912
904.870629
787.521005
577.735901
411.504507
224.642754
128.333569
52.474737
21.385550
6.895661
4.943609
4.644990
4.632473
4.611611
##ZVALUE=390
0.226498
0.140667
0.269413
0.214577
0.245571
0.344515
0.161529
0.128746
0.249743
0.258684
0.318885
0.446439
0.453591
0.424981
0.159740
0.285506
0.240803
0.309944
0.393987
0.194907
0.356436
0.387430
0.374913
0.366569
0.330806
0.184774
0.446439
0.364780
0.348687
0.264645
0.267625
0.309944
0.354648
0.357628
0.358820
0.368953
0.342727
0.434518
0.325441
0.444651
0.395775
0.426769
0.406504
0.382662
0.332594
0.372529
0.431538
0.366569
0.488758
0.336766
0.377893
0.436902
0.299811
0.445843
0.369549
0.430942
0.520945
0.476837
0.436902
0.581741
0.608563
0.526905
0.550747
0.670552
0.786781
0.706911
0.763535
0.900626
0.958443
1.023412
1.100898
1.161695
1.234412
1.283884
1.313686
1.580715
2.606511
15.489459
56.352615
192.465782
348.434448
599.112511
767.903924
933.056474
993.363857
968.806744
874.703526
686.633587
521.993637
318.099856
185.847878
76.554418
35.301447
9.989738
5.223751
4.594922
##ZVALUE=395
0.252724
0.134706
0.204444
0.379682
0.249743
0.260472
0.274777
0.333786
0.355840
0.336766
0.284910
0.510812
0.454783
0.153780
0.319481
0.372529
0.397563
0.256896
0.388622
0.373721
0.442863
0.028610
0.472665
0.281930
0.169873
0.356436
0.367761
0.510812
0.438690
0.419617
0.447631
0.314713
0.387430
0.424981
0.164509
0.435710
0.298619
0.250936
0.351667
0.412464
0.359416
0.498891
0.502467
0.516772
0.375509
0.338554
0.312924
0.434518
0.322461
0.474453
0.459552
0.459552
0.391603
0.647902
0.564456
0.679493
0.468493
0.514984
0.427961
0.418425
0.434518
0.432730
0.568628
0.606775
0.645518
0.512600
0.714660
0.720620
0.988841
1.087785
1.152754
1.072884
0.892878
1.200438
1.106858
1.166463
1.136661
1.313686
1.857877
7.058978
36.451817
88.330507
210.499763
349.447727
578.293800
749.141574
923.786759
979.876518
929.259658
816.896558
601.698756
421.338677
223.591924
119.515657
45.009851
19.682646
##ZVALUE=400
0.306964
0.170469
0.206828
0.356436
0.409484
0.327826
0.364780
0.324845
0.438690
0.270605
0.363588
0.447631
0.341535
0.308752
0.295639
0.345707
0.322461
0.352859
0.386834
0.185966
0.207424
0.368953
0.241995
0.342727
0.410676
0.169873
0.322461
0.352859
0.397563
0.417829
0.442863
0.298619
0.444651
0.379682
0.350475
0.344515
0.550747
0.322461
0.430942
0.500679
0.479817
0.565648
0.487566
0.486970
0.370741
0.446439
0.430942
0.487566
0.459552
0.496507
0.477433
0.469685
0.445843
0.373721
0.671744
0.423789
0.614524
0.432730
0.431538
0.518560
0.534654
0.620484
0.504851
0.635982
0.498891
0.675917
0.757575
0.698566
0.742674
0.999570
0.850558
0.978708
1.007915
0.987649
0.955462
0.990629
0.927448
0.984669
1.060963
1.233816
1.478791
4.285574
16.811490
62.670708
130.841732
282.301903
442.080498
669.139028
820.499659
943.598747
958.026648
839.890838
689.551830
457.521677
301.829576
152.180791
##END
