##TITLE=FQP00652
##FORMAT=SPECTACLE-ASCII V-1.2
##DATA TYPE=ULTRAVIOLET SPECTRUM
##SECOND TYPE=ULTRAVIOLET SPECTRUM
##DATE=05/07/18
##TIME=15:08:52
##SPECTROMETER/DATA SYSTEM=SPECTACLE
##XUNITS=NM EM
##YUNITS=ENERGY
##YFACTOR=1
##FIRSTX=220
##LASTX=410
##NPOINTS=96
##3DDATA=Equidistant
##ZUNITS=NM EX
##FIRSTZ=210
##LASTZ=400
##ZPOINTS=39
##XYDATA=(Y..Y)
##ZVALUE=210
2.593994
2.616644
2.196431
3.440976
2.798438
3.547668
2.956986
2.924800
2.415776
3.016591
2.524853
2.393723
2.606511
2.716780
2.767444
3.120899
3.167987
2.826452
2.533793
3.408790
3.339648
3.066659
3.833771
3.134608
4.450679
4.259944
5.223751
5.005598
5.127788
6.363988
6.306767
6.065965
7.076859
7.113814
7.717609
7.479787
7.008910
7.732511
7.882714
7.754564
6.972551
7.055998
6.632805
5.778670
6.761551
6.789565
5.927682
5.804896
6.287694
6.332994
7.006526
6.520748
6.032586
5.161762
5.278587
5.849600
5.225539
5.669594
6.032586
5.658865
4.977584
4.883409
4.627705
5.201697
5.951524
5.932450
5.541444
6.992817
6.788969
6.870627
8.060932
10.010600
10.448694
12.908578
12.053847
11.053681
11.994839
13.351440
12.747645
11.911988
11.512637
9.961724
9.297729
7.789731
6.334782
5.978942
5.531907
5.666614
5.465746
4.307628
5.030632
5.101562
4.884601
5.837679
5.357862
5.054474
##ZVALUE=215
7.309914
7.084608
6.158948
5.784631
5.521774
5.100965
5.457997
5.777478
5.319715
7.118583
4.702806
5.231500
4.152656
3.298521
3.443956
2.563596
2.863407
3.039837
3.257990
2.784729
3.018975
4.043579
4.115701
4.227757
4.310608
5.078912
5.244613
6.753802
8.081794
8.242726
8.973479
9.183884
10.882616
10.838509
10.344982
11.133552
10.738969
12.905598
10.848641
10.664463
10.910630
11.542439
10.399818
9.294748
8.834600
8.905530
8.184910
7.939935
7.793903
7.277727
7.398725
7.284880
6.489754
7.073879
6.237626
6.134510
6.166697
6.997585
6.742477
6.660819
6.107688
5.933642
6.057620
5.512834
5.862713
6.213784
6.562471
6.290674
6.876588
7.519722
8.831620
9.990931
10.420680
11.019707
12.025833
11.865497
11.244416
10.773540
10.036826
9.964705
10.021925
9.338856
7.837415
7.036924
6.497502
6.909966
5.780458
5.232692
5.658865
4.491806
4.680753
4.615784
4.876852
4.675984
5.112886
5.533695
##ZVALUE=220
21.765828
22.349954
23.888946
22.334456
19.494891
16.757846
13.913512
12.007952
11.488795
11.513829
12.336969
12.343526
12.810826
10.808706
9.305477
7.254481
6.704926
4.692674
4.220605
3.577471
3.187656
3.578663
4.357696
4.375577
5.677938
6.068945
7.593632
8.231997
10.384917
12.409687
12.925863
13.766885
16.530752
16.548634
20.233989
19.102693
19.306540
16.675591
17.710924
18.178821
16.743541
14.970899
14.398694
14.565587
14.254451
13.257861
12.576580
11.152625
11.385679
10.458827
10.658503
10.525584
9.237528
9.484887
8.748770
8.641481
8.061528
8.590817
8.360744
6.949902
7.171631
6.420612
6.775856
7.063746
7.093549
7.052422
7.125735
8.096695
8.103848
8.889437
10.533929
10.280609
11.738539
11.901855
12.872815
12.264848
12.883544
12.417436
11.183619
10.744929
10.722876
8.180737
10.049939
8.296967
8.232594
6.681681
7.530451
6.194711
6.321669
6.540418
5.727410
5.958676
6.118417
6.775856
5.832911
5.864501
##ZVALUE=225
35.358667
39.316416
44.411421
58.262944
63.177943
61.894655
57.592988
47.659874
37.450790
28.746724
22.853613
23.278594
24.318695
25.022626
24.984479
24.881959
20.039678
17.142892
12.647510
8.547902
6.412864
4.982948
5.055666
4.152656
6.393790
7.396936
8.077621
9.311438
11.098981
14.242530
18.436909
19.554496
20.136833
21.810532
21.468997
21.684766
23.555756
22.279620
22.033453
21.783710
20.584464
18.388629
18.433928
17.354488
15.640855
14.948845
14.369488
13.679862
13.036728
13.896823
12.705922
11.656880
12.132525
10.551810
10.237694
10.099411
10.792613
8.325577
8.954406
9.662509
8.682609
8.547902
8.283854
8.809566
8.987784
8.462667
7.864833
9.706616
10.444522
10.787845
10.476708
10.448694
13.720989
13.138652
13.612509
13.119578
13.027787
13.589859
12.259483
11.413693
10.679960
11.613965
11.299849
9.386539
9.576678
9.094477
9.881854
8.338690
8.402467
8.660555
7.425547
7.906556
7.176995
7.873774
7.052422
7.777810
##ZVALUE=230
32.827854
34.610629
55.466890
88.437796
119.359493
140.637755
150.778890
149.477720
129.473805
112.298727
80.523491
62.377453
46.347976
41.879416
45.356750
47.387481
48.729777
46.080947
43.920875
34.400821
26.567578
17.663836
13.329983
7.175803
6.739497
7.354617
8.641481
9.050965
11.183619
11.622906
13.867617
15.060902
17.371774
18.595457
19.489527
21.785498
19.768476
20.279884
19.168854
19.866824
20.986795
17.498732
18.657446
16.991496
16.174912
15.010834
15.573502
14.715791
13.708472
12.340546
12.692809
12.538433
12.593865
11.980534
12.173653
13.022423
11.374950
11.285543
11.546612
10.911822
11.697412
11.031628
11.198521
11.450648
10.530949
11.784434
11.042953
12.055635
12.967587
14.031529
14.927983
13.734698
16.376972
15.352964
16.008615
15.762448
14.825463
16.359687
15.964508
15.781522
13.634562
12.493730
13.990998
13.298988
11.595488
12.350678
9.994507
10.543466
11.917949
11.340976
9.968877
11.398792
9.766817
10.266900
10.295510
9.563565
##ZVALUE=235
11.995435
13.617873
32.259822
61.484575
98.647475
162.343979
218.014717
277.000666
296.264887
295.255780
261.499882
204.729438
154.856443
104.183555
77.725649
66.206455
68.144798
75.002909
82.122684
81.131458
75.210929
129.248500
50.412416
37.032962
22.923946
15.341640
11.844635
8.037686
9.702444
10.576844
10.264516
12.646914
12.246966
13.446808
13.190508
12.272596
14.601946
15.159845
16.616583
15.237927
14.361739
14.401674
15.740991
14.785528
14.786720
14.301538
13.254881
13.858676
14.403462
12.604594
12.432933
12.537837
11.812449
12.597442
12.876987
12.622476
13.050437
13.481975
13.266802
12.745857
13.396740
12.773871
12.098551
12.226701
12.311935
12.077689
15.336871
13.455749
15.373826
15.254617
17.047524
17.273426
17.571449
19.150972
19.362569
21.172762
20.214915
19.511580
17.450452
18.608570
17.447472
17.604828
15.076995
16.475916
16.544461
16.454458
16.372800
15.360713
15.971661
15.422702
14.241934
14.210939
13.866425
13.294816
15.299916
13.860464
##ZVALUE=240
2.229810
2.254844
6.253719
16.209483
43.765903
76.528788
158.224702
231.888890
346.447825
419.202447
463.827848
474.767685
432.769656
353.677869
272.920728
180.590749
130.652785
95.530748
86.853504
99.720955
105.205774
110.910535
107.058883
98.452568
80.705881
65.207481
44.371486
33.235550
20.585656
15.646815
12.810826
11.743903
11.792779
11.878610
13.096929
13.080835
13.843775
14.752746
15.111566
14.342666
15.214682
15.387535
14.659762
14.682412
14.828444
15.267730
15.575886
15.122890
14.858842
13.539791
15.372634
13.445616
13.480783
12.912750
12.826920
14.140606
13.903975
12.258887
13.422966
12.552738
13.750792
13.054609
13.069510
15.476942
13.763905
14.828444
14.361739
16.201735
16.216636
17.840862
17.097592
19.167662
19.842982
21.121502
21.132827
22.137761
21.758676
22.107959
21.810532
21.455884
22.112727
20.498633
19.211769
19.155741
20.126700
19.826889
19.211769
19.075871
18.468499
19.163489
19.207597
17.755628
17.224550
16.611814
17.553568
18.156767
##ZVALUE=245
1.814961
1.811981
2.105832
2.503991
4.372597
11.996627
33.761859
75.030923
164.615512
253.011584
384.585857
490.375757
557.389855
586.704612
557.388663
469.972491
372.082591
253.282785
181.540847
116.041899
94.271898
92.913508
110.049844
120.312572
128.531456
121.351480
106.467605
93.523860
72.158575
51.640868
41.260719
26.923418
19.872785
15.147924
14.775991
14.489889
15.334487
15.297532
15.863776
16.713738
16.267896
16.616583
17.369986
16.928911
16.419888
16.433597
15.921593
15.396476
14.278889
15.196800
15.129447
14.011860
13.110638
13.532639
12.113452
12.216568
12.839437
12.561679
12.840629
13.187528
12.133718
11.746883
12.451410
12.875795
12.998581
13.492703
13.205409
14.774799
14.528632
16.024709
16.381741
17.292500
17.711520
18.415451
19.212961
20.563602
19.933581
20.423532
20.411611
19.854903
18.884540
19.961596
19.504428
18.539429
19.431710
18.844604
17.833710
19.359589
17.800927
19.053817
17.409921
19.552708
18.431544
17.833710
18.102527
17.971992
##ZVALUE=250
1.761913
1.565814
1.767874
1.326799
1.833439
1.717806
2.873540
7.095933
29.421449
61.788559
146.426558
240.542889
351.701975
501.618981
596.765876
668.214560
667.870641
587.245822
494.318008
345.294476
242.319703
161.759853
104.047656
90.405941
100.803971
118.097663
131.290555
135.432482
132.094622
123.006701
103.503466
80.757737
63.812733
42.823553
33.454895
23.509860
21.380782
19.933581
19.963980
18.026829
19.590855
20.042658
21.048784
19.862652
19.441843
19.149780
18.611550
17.746687
17.689466
16.735792
15.449524
13.891459
14.369488
12.864470
14.107823
12.798905
12.505651
11.646748
11.739731
11.513829
12.074709
11.226535
11.247993
11.317730
11.359453
11.794567
12.152791
13.037920
12.504458
14.599562
15.258789
15.258789
16.187429
17.701983
17.407537
17.272830
19.093752
17.935634
17.755628
18.736720
17.860532
17.403960
17.325878
17.493963
17.285943
16.750693
17.493963
17.886758
17.193556
17.738938
17.010570
18.513799
17.189980
17.411709
17.425418
17.780662
##ZVALUE=255
1.476407
1.453757
1.691580
1.518726
1.693964
1.668930
1.622438
1.916885
1.746416
4.418492
20.895004
46.748519
96.531510
208.541751
322.390795
497.304797
609.290600
731.802583
763.257742
710.323453
614.013672
490.228534
309.405923
199.828744
115.107894
89.892745
87.116957
103.630424
126.569867
143.283606
151.585937
149.425864
140.912533
115.098953
95.457435
69.866776
54.592490
39.004683
31.499863
25.290847
24.999976
25.017858
25.105476
22.464991
22.787452
21.885633
21.205544
20.490885
18.866658
18.307567
16.949773
16.487837
17.061830
15.544891
14.973879
13.244748
13.687611
12.531877
12.254715
11.882782
10.954738
11.245608
11.398792
10.906458
11.251569
11.534691
11.972785
12.118816
11.887550
12.131929
13.822913
14.184713
13.803840
14.796853
15.288591
15.236735
14.706850
15.013814
15.732646
15.750527
16.454458
16.606450
15.865564
17.143488
16.003847
17.035604
16.304851
16.489625
15.737414
15.261769
15.496612
16.209483
15.575886
15.967488
16.047955
15.283823
##ZVALUE=260
1.378655
1.352429
1.197457
1.196861
1.349449
1.540780
1.484752
1.803637
1.510978
1.698732
1.919866
2.317429
7.904768
31.189919
68.550706
164.457560
271.071792
441.277623
586.835742
755.730867
823.071003
830.058455
734.076500
606.272817
398.501754
279.079676
168.275833
110.214949
85.565448
91.207623
117.262602
139.596462
157.356858
172.843933
170.915723
152.052641
133.663416
105.297565
82.121491
61.233640
49.550533
37.066936
30.120611
28.779507
27.193427
25.295615
23.595691
23.641586
21.746755
20.316839
19.105673
18.117428
17.908812
16.547441
15.165806
14.085770
13.679862
12.197495
12.320876
11.761785
12.036562
11.611581
11.231899
10.942817
10.668635
10.301471
11.064410
11.242628
11.416674
11.374950
12.422800
13.436675
12.851954
13.519526
13.751984
13.866425
14.295578
14.155507
14.183521
13.486743
14.940500
14.300942
14.538765
14.580488
14.906526
14.806986
14.875531
14.772415
14.914870
15.441775
15.298724
15.190840
15.570521
15.548468
16.304851
15.524626
##ZVALUE=265
1.109838
1.215935
0.924468
1.263618
1.307726
1.325607
1.393557
1.519918
1.355410
1.465678
1.647472
1.764894
1.717806
2.184510
4.382730
20.928979
50.098896
126.823783
226.177573
410.503745
580.072999
732.840896
882.484913
907.628536
828.766823
707.999468
530.743003
378.244519
217.870474
143.948793
104.354620
89.888573
103.767514
133.040547
158.072710
176.194906
182.244778
175.784826
159.372687
134.812593
112.283826
82.537532
61.822534
45.925975
36.502481
29.271841
26.420951
24.937987
22.998452
21.942854
20.616651
18.747449
18.085837
17.395616
15.940666
15.570521
15.099645
13.642907
12.579560
11.960864
12.059808
10.741949
11.355877
10.066628
10.510683
10.958910
10.494590
10.837913
10.467768
10.703802
12.142658
12.377501
12.603998
13.196468
12.816787
13.188720
12.408495
13.214946
13.074875
13.067722
13.634562
13.615489
13.484955
14.210939
13.244748
13.555884
13.530850
13.296604
13.737679
14.014840
13.194680
14.724731
14.715791
13.883710
14.427900
15.099645
##ZVALUE=270
1.140833
1.005530
1.266599
1.011491
1.047850
0.955462
1.059771
1.022816
1.282692
1.459718
1.361966
1.432896
1.433492
1.666546
1.912713
1.836419
2.387762
9.855628
29.035807
90.371966
177.505612
311.742425
534.178615
712.831020
897.184610
966.132879
942.047834
851.063728
673.518777
514.656901
357.543826
201.659799
128.173828
87.226629
88.369846
112.422705
134.800673
160.158873
175.089836
180.832744
173.836946
157.379508
136.483908
103.845000
81.832409
56.234598
43.302774
31.633973
25.755763
22.903681
20.390749
19.008517
18.049479
16.682744
15.311837
15.194416
14.420748
12.900829
13.230443
12.272000
12.158751
11.185408
11.131763
10.750890
10.521412
10.906458
11.571646
10.998845
10.956526
11.022687
11.218786
11.605620
12.977719
11.681914
12.658834
12.774467
12.463927
12.598634
12.811422
12.435913
13.205409
13.332963
12.996793
12.860894
13.162494
13.239980
12.885928
13.509989
13.532639
12.716651
12.828708
12.935996
12.744665
13.953447
13.371706
13.228655
##ZVALUE=275
0.921488
0.937581
1.098514
0.986457
1.142621
1.122952
1.108646
0.996590
1.040697
1.120567
1.081824
1.095533
1.301765
1.324415
1.214743
1.367927
1.481771
1.851916
2.037883
4.137754
20.214915
53.492785
149.242878
268.949866
480.863452
647.757649
847.355723
957.608819
1001.073718
944.866538
799.032450
631.754994
412.776470
267.966986
141.029954
90.960860
69.464445
78.602433
103.269815
124.523640
150.709748
162.866712
170.380473
166.572928
145.315528
123.366714
95.824599
73.233843
49.877763
37.214756
24.961829
20.031929
17.307997
14.958978
14.472604
13.550520
12.151599
12.612939
12.746453
12.311935
12.224913
11.040568
11.401772
10.840893
10.799766
10.988712
11.392832
10.713935
11.280775
11.470914
12.159944
11.489987
12.383461
12.740493
12.432933
12.527704
13.420582
13.056993
12.614727
12.944937
12.346506
12.263656
13.211966
12.341738
12.300611
12.484789
12.247562
12.285709
12.468696
12.212992
12.779832
12.237430
11.940598
12.270808
12.781620
12.755990
##ZVALUE=280
0.765920
0.758767
0.957847
0.822544
0.987649
0.891685
0.821948
1.057982
0.917912
1.185536
1.069903
1.073480
1.226664
1.194477
1.050830
1.178980
1.234412
1.334548
1.382828
1.719594
1.596808
2.275705
10.946989
35.840869
110.481977
202.380419
378.838778
551.747680
781.709552
922.629833
1007.075906
1003.555655
911.507010
700.121522
522.273779
302.110910
186.107755
89.767575
55.712461
50.245523
63.098669
90.493560
110.818744
135.547519
151.897669
157.323480
151.870847
133.557916
115.323663
85.523725
64.404607
42.084455
30.765533
19.991994
15.107989
12.112856
11.042953
10.770559
10.740757
11.179447
11.122823
10.811687
10.838509
11.301637
11.001825
11.084676
11.369586
11.139512
11.290908
11.590719
11.802912
11.902452
12.716651
12.396574
12.930632
12.331605
12.837648
13.029575
13.168454
12.296438
12.303591
12.628436
12.771487
12.288690
12.334585
12.769699
12.512803
12.218952
12.389421
12.076497
11.640787
11.654496
12.061000
11.868477
12.047887
11.857748
##ZVALUE=285
0.751615
0.907779
0.789762
0.831485
0.693798
0.834465
0.868440
0.739694
0.786781
0.800490
0.774860
0.808835
0.789762
0.972748
0.844598
1.012683
1.177788
1.085997
1.341701
1.186728
1.330972
1.527667
1.817942
1.713634
5.047917
18.992424
62.489510
125.751495
273.023844
432.474017
607.540607
842.560530
976.160765
1015.684605
978.257656
794.852972
626.322031
388.675928
242.484808
118.306875
63.287616
35.693645
36.871433
57.102442
76.434612
105.032921
123.292804
140.066743
148.093700
141.643882
129.751563
107.163787
87.387562
61.278939
43.650866
27.030706
19.709468
13.112426
11.907816
10.938644
10.722876
11.330843
11.088848
11.210442
11.166930
12.240410
11.059642
11.933446
11.974573
12.852550
12.431741
13.323426
12.885928
13.628602
13.387799
12.739897
13.333559
13.286471
13.365746
13.131499
12.762547
13.051629
13.220906
12.805462
13.074875
12.570620
12.559891
12.394786
12.205839
12.268424
12.390614
12.208819
12.127757
11.694431
12.284517
12.027621
##ZVALUE=290
0.816584
0.782609
0.716448
0.615716
0.786781
0.764728
0.680685
0.699759
0.847578
0.941753
0.898838
0.884533
0.963807
0.841618
0.861883
0.744462
0.868440
1.047850
0.955462
1.114607
1.091957
1.344681
1.324415
1.374483
1.745820
1.853704
2.326965
7.268786
33.591986
79.725981
159.046650
335.291624
511.950850
768.276453
925.490856
1015.694737
1015.694737
891.893506
734.047890
494.916439
327.183604
165.684819
86.600780
37.116408
26.234984
35.432577
49.410462
71.727633
93.202591
118.264556
133.123994
142.031908
141.676664
125.257969
108.127594
80.979466
62.002540
41.305423
29.789805
19.407868
15.248656
12.508631
12.602806
11.974573
12.023449
12.074709
12.076497
12.739897
13.560653
13.406873
13.681650
13.654828
13.932586
14.361739
14.138818
13.985634
13.884902
13.888478
13.713837
13.483763
13.701916
13.295412
12.841821
12.923479
13.515949
13.718605
12.873411
13.055801
12.936592
12.530684
12.708902
12.225509
12.035966
11.817813
11.569858
12.134910
##ZVALUE=295
0.786781
0.766516
0.717640
0.602603
0.631809
0.819564
0.680685
0.502467
0.669956
0.821948
0.763535
0.798702
0.701547
0.900626
0.692606
0.895858
0.860691
0.828505
0.802875
0.856519
1.037717
1.106858
0.983477
1.233816
1.169443
1.311898
1.467466
1.603961
1.788735
3.409982
11.923909
50.130486
115.259886
265.728831
429.423451
680.966973
849.809647
1007.788777
1015.676856
961.135030
825.316906
593.366623
409.739614
218.135715
119.034648
45.734644
25.542974
22.399426
29.536486
48.602819
65.250993
90.499520
110.209584
127.309561
137.434602
133.951902
123.170614
102.428794
84.472895
60.551763
44.185519
28.736591
21.669865
16.296506
14.615655
12.917519
13.097525
13.129711
13.526678
13.859868
13.622642
13.931990
14.413595
14.810562
14.757514
14.493465
14.850497
14.158487
13.939738
13.771653
14.100671
13.668537
13.318658
13.712645
13.468862
13.291836
13.078451
13.178587
12.792945
12.639761
12.614727
11.760592
12.086630
11.914968
11.905432
11.557937
##ZVALUE=300
0.518560
0.591874
0.658631
0.733733
0.661612
0.759959
0.711679
0.596642
0.860691
0.885725
0.766516
0.767708
0.800490
0.793934
0.644922
0.720620
0.639558
1.051426
1.010895
0.868440
0.963807
1.013875
0.816584
1.237988
1.124740
1.056790
1.259446
1.288652
1.297593
1.544952
1.870990
2.036691
7.834435
27.340651
89.287758
172.351599
356.343985
534.138680
782.383680
936.268568
1015.684605
1015.684605
891.546011
728.987455
482.156873
315.635800
157.050490
84.784627
33.128858
19.112825
20.519495
27.034879
42.910576
59.357882
83.365440
101.712942
123.621821
130.503774
129.822493
121.027827
102.912784
84.240437
61.612725
46.447515
30.125976
23.581982
17.388463
15.088916
13.986826
13.377666
14.115572
14.003515
14.556646
14.634728
14.032722
14.583468
14.731884
14.717579
14.419556
14.008880
13.803840
14.041662
14.314651
13.745427
13.907552
13.763905
13.412833
13.440847
12.890697
12.462735
12.467504
12.362599
12.196898
11.797547
11.364818
11.808872
##ZVALUE=305
0.490546
0.568628
0.664592
0.581741
0.589490
0.708699
0.671744
0.613928
0.617504
0.745654
0.574589
0.655651
0.823736
0.703931
0.707507
0.666976
0.740886
0.798702
0.875592
0.804663
0.943542
0.934601
0.840425
0.760555
0.894666
1.119971
1.045465
0.986457
1.056790
1.219511
1.333952
1.474619
1.696944
1.787543
3.044605
17.468929
48.881769
139.085650
249.171853
460.252762
644.489527
875.282884
994.111896
1015.688777
967.766643
765.582919
598.010421
379.880667
234.292746
109.618902
52.696466
21.009445
14.076829
18.563867
26.009679
42.242408
57.776570
80.935955
97.533464
116.097927
124.038458
124.241710
115.172863
97.454786
80.862641
57.809949
43.211579
30.492544
22.619963
16.574860
15.224814
14.172792
13.639927
13.941526
13.778806
14.089942
13.877749
14.361739
13.897419
13.808608
13.332963
13.612509
13.737679
14.017820
13.219714
13.422966
13.440847
12.986660
13.214946
12.720823
12.633801
12.185574
11.769533
11.868477
11.639595
11.390448
##ZVALUE=310
0.550747
0.581741
0.657439
0.690818
0.537634
0.596642
0.620484
0.511408
0.531673
0.557899
0.581741
0.617504
0.531673
0.590682
0.596642
0.671744
0.733733
0.711679
0.646710
0.643730
0.814795
0.827909
0.842810
0.800490
0.677705
0.709891
1.141429
1.034737
1.004934
1.122952
0.872612
1.168847
1.285672
1.285672
1.541972
1.705885
2.061725
6.150603
30.513406
73.573589
182.794929
316.251516
548.622608
734.773874
945.866704
1015.684605
1008.564830
917.146802
706.179738
521.952510
299.462676
178.162456
76.239705
36.742687
15.236735
12.443662
17.311573
23.627877
36.415458
50.892830
72.319508
89.317560
107.192993
117.892623
118.662715
112.746954
96.294880
81.138611
57.980418
43.160915
29.517412
22.571683
17.189980
14.720559
13.725758
13.493896
13.065934
13.128519
12.869835
12.949705
12.989640
13.053417
13.088584
12.971759
13.396740
12.768507
12.727976
12.909770
12.320876
12.283921
12.183785
11.525750
11.835694
11.664629
11.872649
11.634827
##ZVALUE=315
0.451803
0.429749
0.486970
0.375509
0.540614
0.410676
0.526905
0.647902
0.611544
0.650883
0.535846
0.626445
0.541806
0.683665
0.513792
0.788569
0.745654
0.766516
0.576973
0.796914
0.616908
0.626445
0.753999
0.795722
0.698566
0.657439
0.892878
0.763535
0.945926
0.845790
0.923872
0.951886
1.048446
0.985861
0.990629
1.369715
1.369715
1.475811
1.476407
3.293753
12.728572
53.320527
116.567016
262.806416
426.329970
687.322021
850.947499
1001.171470
1015.681028
957.885981
823.750496
586.462617
414.204001
217.809677
118.593574
45.207739
20.757914
11.279583
12.089610
15.729666
21.117926
34.633875
47.658682
66.585541
83.321929
100.632906
109.999776
111.047626
105.248690
90.160966
76.555610
55.573583
42.556524
28.350949
21.405816
15.617609
13.814569
12.475848
12.687445
12.196898
12.279749
12.350678
12.560487
12.568831
12.314916
12.810826
12.512803
12.431741
12.184978
11.691451
11.982918
11.840463
11.910796
10.817647
11.118650
11.404753
##ZVALUE=320
0.478625
0.465512
0.510812
0.347495
0.460744
0.436902
0.551939
0.524521
0.578761
0.663996
0.400543
0.393987
0.444651
0.402927
0.498891
0.557899
0.499487
0.582933
0.644922
0.609756
0.605583
0.615716
0.528693
0.587702
0.798702
0.954866
0.596642
0.764728
0.644922
0.871420
0.872612
1.074672
0.903606
0.845790
0.970960
0.996590
0.954866
1.104474
1.327991
1.362562
1.550913
2.109408
5.597472
29.610395
75.279474
198.350549
325.828791
540.255904
723.949671
928.310752
1009.892821
1002.337933
906.294584
693.043470
506.719947
284.546614
164.793730
69.791675
32.620430
12.418628
9.760857
10.760427
13.660789
19.875765
28.020740
45.284629
59.750676
78.299642
91.976523
103.930831
105.538964
99.950433
87.926984
69.417953
56.013465
38.291812
28.190613
20.190477
15.882850
12.884736
12.255907
11.925697
11.658669
11.426806
11.234879
11.793971
11.642575
11.751652
11.710525
11.549592
11.155605
11.314750
11.492968
11.107922
10.825992
11.363626
##ZVALUE=325
0.546575
0.480413
0.480413
0.535846
0.622869
0.524521
0.500679
0.485778
0.583529
0.583529
0.437498
0.583529
0.713468
0.490546
0.604987
0.490546
0.692606
0.641942
0.725985
0.498891
0.602603
0.593662
0.660419
0.719428
0.691414
0.770688
0.937581
0.782609
0.579953
0.847578
0.843406
0.907779
0.568628
0.778437
0.749826
0.798702
1.236796
1.017451
0.946522
1.048446
1.221895
1.324415
1.480579
1.730919
3.961921
14.571548
56.138635
118.243694
263.058543
426.074862
667.717457
830.580592
982.782841
1010.934711
925.616026
783.850551
535.594821
370.238423
197.327733
108.253956
40.620565
18.768907
9.705424
8.776784
9.925961
12.289882
19.000769
27.022958
43.981671
59.255958
77.723861
89.332461
98.442435
99.306703
91.756582
81.775784
65.232515
51.071644
35.902858
26.928782
18.510818
15.175939
12.936592
12.321472
11.846423
11.298656
11.404753
11.276603
11.057854
11.302829
10.841489
10.993481
10.968447
10.784864
10.684729
11.167526
##ZVALUE=330
0.184774
0.253916
0.242591
0.230670
0.239611
0.206828
0.251532
0.306964
0.105500
0.088811
0.216961
0.281930
0.386834
0.264645
0.285506
0.341535
0.473857
0.244975
0.413656
0.250936
0.411868
0.320673
0.333786
0.387430
0.266433
0.417829
0.513792
0.362992
0.557899
0.614524
0.484586
0.495911
0.539422
0.634789
0.672936
0.634789
0.742674
0.548959
0.668764
0.737906
0.718832
0.775456
0.894666
1.108646
1.128912
1.288652
1.788735
8.425713
26.441813
89.151859
172.441602
348.933935
515.608788
753.057599
901.754498
992.097855
962.761641
817.373991
651.523471
423.273444
273.773670
126.136541
63.180923
23.797750
10.978580
8.067489
7.823706
9.163618
11.774898
18.817782
26.142597
39.524436
53.498745
71.239471
82.662702
91.006756
92.393756
85.877776
76.599717
60.346723
47.057867
32.996535
25.242567
18.693805
15.225410
12.797713
11.621714
11.307597
10.816455
10.635853
10.452867
10.405779
10.257959
10.350943
10.367632
10.057688
##ZVALUE=335
0.376701
0.325441
0.382662
0.264645
0.243783
0.313520
0.448823
0.493526
0.328422
0.453591
0.439882
0.290871
0.277758
0.372529
0.408888
0.216961
0.450611
0.579953
0.508428
0.504851
0.560880
0.426769
0.488758
0.528693
0.610948
0.494719
0.476837
0.492930
0.482798
0.661612
0.674725
0.818968
0.665784
0.683665
0.756979
0.793934
0.849962
0.775456
0.672936
0.783801
0.973940
0.898838
0.906587
1.107454
1.015663
1.026988
1.247525
1.427531
1.548529
3.872514
13.661981
54.752827
116.284490
261.534452
417.372584
657.367706
818.874836
950.419903
967.326760
870.921016
727.864504
500.421524
339.908004
178.706646
93.775988
33.334494
15.347600
8.502603
8.011460
8.279681
9.344816
12.151599
16.881824
26.739836
36.965609
53.420663
65.616965
78.800917
85.648894
85.766912
82.072616
69.784522
59.849620
45.735836
36.209822
25.554895
19.534826
14.643669
12.820959
11.300445
10.604858
10.373592
10.197759
10.069609
9.912848
10.445714
##ZVALUE=340
0.490546
0.329614
0.277758
0.316501
0.327826
0.416636
0.344515
0.484586
0.387430
0.450611
0.459552
0.385642
0.390410
0.466704
0.213981
0.451803
0.386834
0.353456
0.436902
0.450611
0.506639
0.546575
0.286698
0.489950
0.514984
0.529885
0.466704
0.531673
0.486970
0.480413
0.568628
0.588894
0.558496
0.616908
0.633597
0.551939
0.573993
0.702739
0.667572
0.854731
0.709891
0.807643
0.806451
0.846982
0.783801
0.889897
0.914931
1.020432
1.091957
1.242757
1.298785
2.179742
6.655455
33.003688
81.861615
205.434561
344.619751
564.175844
732.457638
901.796818
955.694914
899.896622
784.661770
581.555963
408.017635
210.979581
117.093921
48.840642
20.518899
9.200573
8.249879
8.148551
8.745790
9.767413
12.166500
17.850995
25.066733
36.809444
48.535466
64.090490
73.317885
81.278682
81.185699
76.759458
68.677664
56.037903
46.349764
33.508539
26.246905
18.492937
15.103817
11.931658
10.602474
9.935498
9.858608
9.764433
##ZVALUE=345
0.399947
0.297427
0.382662
0.417829
0.384450
0.475645
0.392795
0.448823
0.375509
0.351667
0.410676
0.514984
0.412464
0.257492
0.536442
0.514984
0.292659
0.379682
0.488758
0.612736
0.464916
0.460744
0.345707
0.464916
0.559688
0.440478
0.363588
0.479817
0.409484
0.462532
0.492930
0.616908
0.570416
0.592470
0.615716
0.550747
0.491738
0.620484
0.611544
0.714660
0.531673
0.729561
0.621676
0.755787
0.748634
0.777841
0.789762
0.768900
0.912547
0.927448
0.957847
1.121759
1.314878
1.564622
3.340840
18.920898
51.935911
137.925744
248.622894
453.192592
624.243617
822.062492
915.522575
928.176641
845.682621
647.643805
479.283929
283.182859
160.412788
63.937902
29.714704
11.503696
8.290410
7.733703
8.227825
8.166432
9.185672
11.304617
15.311837
23.698807
33.070445
47.071576
56.666732
67.240596
73.380470
75.403452
73.174834
64.573884
56.734681
43.866634
34.930706
24.450421
18.780828
14.041662
11.559725
10.720491
##ZVALUE=350
0.241995
0.405908
0.471473
0.230670
0.414848
0.383854
0.377893
0.332594
0.479817
0.537634
0.264645
0.381470
0.457764
0.253916
0.440478
0.435710
0.437498
0.485778
0.387430
0.440478
0.592470
0.513792
0.335574
0.425577
0.306964
0.649691
0.509620
0.456572
0.502467
0.605583
0.454783
0.544786
0.691414
0.370741
0.595450
0.563860
0.536442
0.530481
0.654459
0.664592
0.594854
0.586510
0.615716
0.647902
0.802875
0.793934
0.806451
0.703931
0.813603
0.853539
0.784993
0.954866
0.940561
1.062751
1.176596
1.436472
2.039671
9.430647
29.997826
92.657804
177.757740
355.409980
515.197515
724.052787
848.428011
915.882587
868.371725
714.398026
549.528003
327.841640
201.271772
93.444586
44.009686
14.155507
8.683801
7.315874
7.405877
7.210970
7.780790
8.777976
10.807514
15.552640
20.932555
29.866695
38.987994
51.013827
59.565902
67.250729
69.062710
67.628622
61.224699
51.441789
42.889714
32.044649
25.291443
17.970800
##ZVALUE=355
0.642538
0.629425
0.451803
0.547767
0.611544
0.529885
0.514984
0.550747
0.445843
0.642538
0.556707
0.724792
0.638962
0.604987
0.533462
0.525713
0.773668
0.804663
0.667572
0.722408
0.657439
0.630617
0.834465
0.837445
0.624657
0.553727
0.613928
0.601411
0.605583
0.689626
0.549555
0.766516
0.714660
0.869632
0.759959
0.913739
0.898838
0.850558
0.712872
0.769496
0.847578
0.882745
0.764728
0.819564
1.003742
0.839829
0.744462
0.851750
0.852942
0.889897
0.978708
1.131892
1.070499
1.199841
1.287460
1.317859
1.373887
1.636744
1.666546
4.670620
15.956759
60.626864
124.845505
265.495777
417.746902
643.531680
785.363913
887.879729
885.242820
755.595565
612.432957
403.219461
254.064798
113.920569
55.912733
18.611550
9.554625
7.419586
7.228851
7.155538
7.320642
7.670522
8.536577
10.025501
12.818575
19.134879
25.094748
35.852790
43.444633
54.575801
59.951544
63.516498
61.559677
56.078434
49.220920
39.851665
##ZVALUE=360
0.441670
0.209808
0.424981
0.396967
0.371933
0.385642
0.296831
0.437498
0.455976
0.264645
0.403523
0.576973
0.318885
0.426769
0.359416
0.339746
0.288486
0.421405
0.345707
0.332594
0.437498
0.372529
0.319481
0.405908
0.371933
0.494719
0.384450
0.492930
0.472665
0.372529
0.577569
0.560880
0.463724
0.530481
0.545979
0.563860
0.554919
0.529885
0.629425
0.474453
0.468493
0.675917
0.468493
0.672936
0.680685
0.702739
0.464916
0.827909
0.827909
0.760555
0.871420
0.693798
0.687838
0.865459
0.785589
0.934601
1.010895
0.942945
1.131892
1.145601
1.425743
2.266765
6.909966
31.531453
77.162981
192.275643
319.611430
521.661639
685.480833
846.604705
884.933472
823.527575
696.692467
475.202799
316.522717
154.543519
80.216527
30.623674
13.001561
6.999969
6.531477
6.469488
6.353855
6.587505
6.944537
7.428527
8.549690
11.156797
14.533997
20.948648
28.373599
38.666725
45.722723
53.235888
56.772828
56.791902
##ZVALUE=365
0.376701
0.373721
0.355840
0.353456
0.385642
0.245571
0.470877
0.394583
0.443459
0.364780
0.376701
0.495911
0.224710
0.345707
0.328422
0.243783
0.330806
0.209808
0.498891
0.255704
0.337958
0.260472
0.475645
0.488758
0.585914
0.457764
0.515580
0.673532
0.562668
0.435710
0.530481
0.520945
0.493526
0.523925
0.492930
0.556707
0.415444
0.580549
0.554919
0.654459
0.572801
0.513792
0.490546
0.576973
0.486970
0.601411
0.484586
0.595450
0.682473
0.733733
0.789762
0.576973
0.821948
0.826716
0.749826
0.875592
0.910759
0.829697
0.901818
0.974536
1.004934
1.198649
1.330972
1.598597
3.127456
17.707944
47.765970
127.358437
236.590505
437.710881
592.792630
761.038661
840.829611
829.515457
733.762980
542.076826
385.681987
214.805603
115.386844
42.183995
17.990470
7.396936
6.626844
6.305575
6.195903
6.023645
6.078482
6.320477
6.500483
7.435679
9.275675
12.716651
17.504692
25.147796
31.578541
40.210485
##ZVALUE=370
0.323653
0.327826
0.356436
0.447631
0.486970
0.299811
0.389814
0.445843
0.432730
0.424981
0.411868
0.356436
0.382662
0.366569
0.510812
0.442863
0.495911
0.464916
0.366569
0.446439
0.505447
0.319481
0.422597
0.403523
0.462532
0.376701
0.478625
0.346899
0.438690
0.393987
0.734925
0.500679
0.312924
0.438690
0.553727
0.511408
0.535846
0.375509
0.562668
0.457764
0.476837
0.548959
0.542998
0.578761
0.493526
0.441670
0.639558
0.592470
0.641942
0.562668
0.752807
0.720620
0.641942
0.720620
0.704527
0.774860
0.987649
0.703931
0.821948
0.893474
0.871420
1.161695
1.084805
1.170635
1.230836
1.588464
1.871586
8.907914
29.570460
96.375942
179.662704
344.059467
503.205657
707.013607
809.616446
835.866928
768.231750
606.888533
450.264812
251.956582
142.125487
56.814551
26.601553
10.211468
6.543994
5.914569
5.780458
5.579591
5.728602
5.603433
5.412698
5.923510
6.449819
8.356571
10.867715
15.551448
##ZVALUE=375
0.328422
0.220537
0.249743
0.305772
0.159740
0.387430
0.203848
0.422597
0.420809
0.443459
0.308752
0.377893
0.386834
0.325441
0.279546
0.381470
0.308752
0.503659
0.504851
0.361800
0.359416
0.376701
0.375509
0.310540
0.242591
0.365973
0.299811
0.233650
0.502467
0.321865
0.441670
0.540614
0.365973
0.338554
0.500679
0.443459
0.352859
0.456572
0.346899
0.384450
0.365973
0.475645
0.464916
0.479817
0.478625
0.366569
0.371933
0.509620
0.523925
0.420809
0.481606
0.535846
0.684857
0.577569
0.494719
0.602603
0.614524
0.807643
0.721812
0.693798
0.724792
0.615716
0.731945
0.799894
0.846982
0.838637
0.970960
1.230836
1.456738
4.558563
15.917420
56.372881
120.933652
271.221995
423.363447
632.630587
758.208036
839.048624
817.917585
678.188801
528.837442
323.594809
204.953551
100.749731
50.272942
16.907454
7.717609
5.633831
5.347729
5.465746
5.111694
5.118847
5.061626
5.242825
5.283952
5.558729
##ZVALUE=380
0.396967
0.318885
0.478625
0.204444
0.390410
0.236630
0.364780
0.279546
0.297427
0.250936
0.282526
0.284910
0.323653
0.449419
0.412464
0.294447
0.244975
0.337958
0.324845
0.481606
0.241995
0.376701
0.391603
0.418425
0.335574
0.433922
0.427961
0.473857
0.292659
0.422597
0.264645
0.309944
0.429749
0.325441
0.543594
0.419617
0.535846
0.409484
0.511408
0.436902
0.476837
0.434518
0.457764
0.283718
0.447631
0.542998
0.390410
0.561476
0.353456
0.582933
0.465512
0.525713
0.552535
0.484586
0.461936
0.692606
0.641942
0.684857
0.690818
0.728965
0.675917
0.652671
0.738502
0.740886
0.730753
0.847578
0.875592
1.002550
1.101494
1.258850
1.192689
2.484918
8.644462
40.473938
92.392564
217.550993
349.537730
547.114611
692.149997
812.834501
818.674564
710.159540
589.097738
408.792496
274.666548
135.569572
71.026683
25.119781
10.955930
5.561709
4.865527
4.957914
4.668832
4.915595
4.873872
4.769564
##ZVALUE=385
0.381470
0.383854
0.306964
0.421405
0.284910
0.285506
0.440478
0.341535
0.464916
0.275970
0.326633
0.515580
0.287890
0.321865
0.344515
0.318885
0.330806
0.313520
0.401735
0.357628
0.335574
0.315905
0.165701
0.456572
0.297427
0.360608
0.444651
0.528693
0.497699
0.559688
0.375509
0.361800
0.379682
0.485778
0.339746
0.375509
0.552535
0.432730
0.482798
0.453591
0.614524
0.409484
0.499487
0.352859
0.558496
0.514984
0.285506
0.423789
0.501871
0.427961
0.645518
0.504851
0.486970
0.555515
0.541806
0.543594
0.358820
0.537634
0.589490
0.590682
0.725985
0.566840
0.574589
0.494719
0.735521
0.784993
0.900626
0.849962
0.785589
1.091957
1.203418
1.123548
1.314878
1.627803
4.094839
22.644997
57.874918
148.440599
263.704658
462.888479
614.897609
762.891769
807.564855
765.299797
672.723651
493.074656
348.847508
190.192461
108.264685
44.168830
18.499494
6.296635
4.724860
4.543662
4.432797
4.443526
##ZVALUE=390
0.332594
0.186563
0.225902
0.319481
0.344515
0.255704
0.286698
0.393987
0.418425
0.339746
0.302792
0.240803
0.309944
0.232458
0.335574
0.270605
0.254512
0.297427
0.339746
0.202656
0.585914
0.358820
0.384450
0.359416
0.375509
0.451803
0.397563
0.265837
0.436902
0.379682
0.351667
0.322461
0.485778
0.536442
0.364780
0.458956
0.588894
0.590682
0.413656
0.357628
0.425577
0.513792
0.398755
0.455976
0.513792
0.461936
0.653863
0.562668
0.485778
0.461936
0.535846
0.354648
0.540614
0.432730
0.374913
0.537634
0.408888
0.453591
0.486970
0.474453
0.555515
0.347495
0.432730
0.601411
0.653863
0.726581
0.655651
0.846982
0.806451
0.942945
0.912547
0.998974
0.977516
0.982881
1.085997
1.352429
2.062917
11.836886
36.816597
113.124847
212.703943
396.212935
535.720587
691.486597
776.530504
797.572732
733.139515
580.208898
444.500446
267.320871
155.766606
64.591765
29.335618
9.056926
4.879832
3.981590
##ZVALUE=395
0.277758
0.237823
0.354648
0.203848
0.241995
0.219941
0.323653
0.280738
0.366569
0.170469
0.121593
0.337958
0.370741
0.228882
0.305772
0.273585
0.245571
0.215769
0.272989
0.278950
0.222921
0.338554
0.299811
0.391603
0.312924
0.390410
0.254512
0.449419
0.402927
0.435710
0.473857
0.466704
0.476837
0.539422
0.685453
0.592470
0.513792
0.426769
0.440478
0.542998
0.423789
0.474453
0.515580
0.554919
0.620484
0.431538
0.506639
0.457764
0.459552
0.381470
0.461936
0.262856
0.470877
0.432730
0.516772
0.455976
0.504851
0.507832
0.404716
0.654459
0.548959
0.510812
0.457764
0.525713
0.587702
0.525713
0.641942
0.739694
0.790954
0.917912
0.815988
0.996590
0.980496
0.861883
0.961423
0.908971
1.200438
1.215935
1.619458
6.622672
24.069548
81.881881
155.284405
297.161937
438.361764
635.433793
753.171444
821.990967
797.763467
670.363903
524.854660
323.461890
201.551914
87.964535
42.478442
14.038682
##ZVALUE=400
0.338554
0.294447
0.281930
0.295639
0.245571
0.147820
0.238419
0.165701
0.212789
0.290871
0.226498
0.308752
0.270605
0.365973
0.254512
0.324845
0.202656
0.260472
0.154972
0.343919
0.254512
0.302792
0.179410
0.335574
0.355840
0.356436
0.353456
0.427961
0.450611
0.334978
0.367761
0.396967
0.410676
0.574589
0.587702
0.363588
0.463724
0.596642
0.651479
0.561476
0.536442
0.431538
0.321865
0.349879
0.425577
0.460744
0.442863
0.459552
0.403523
0.434518
0.505447
0.314713
0.431538
0.388622
0.330806
0.404716
0.501871
0.499487
0.470877
0.620484
0.720620
0.626445
0.508428
0.535846
0.646710
0.463724
0.677705
0.638962
0.568628
0.836849
0.803471
0.682473
0.976920
0.870824
1.003742
0.881553
1.017451
0.904799
1.078844
1.118779
1.194477
3.364682
12.190938
45.478940
99.615455
223.821998
357.718468
550.386906
682.538748
788.478851
801.314712
705.178976
578.099489
383.436680
252.793431
126.146674
##END
