##TITLE=FQP00352
##FORMAT=SPECTACLE-ASCII V-1.2
##DATA TYPE=ULTRAVIOLET SPECTRUM
##SECOND TYPE=ULTRAVIOLET SPECTRUM
##DATE=05/07/18
##TIME=15:40:06
##SPECTROMETER/DATA SYSTEM=SPECTACLE
##XUNITS=NM EM
##YUNITS=ENERGY
##YFACTOR=1
##FIRSTX=220
##LASTX=410
##NPOINTS=96
##3DDATA=Equidistant
##ZUNITS=NM EX
##FIRSTZ=210
##LASTZ=400
##ZPOINTS=39
##XYDATA=(Y..Y)
##ZVALUE=210
2.982616
3.139973
3.255606
3.297925
2.949834
3.412962
3.258586
4.482865
3.174543
3.134608
2.917647
3.208518
3.607869
3.679991
3.546476
3.784895
4.371405
4.748702
4.873872
5.044937
5.621910
5.150437
5.400777
5.901456
6.097555
6.178617
7.157922
6.933808
6.970763
7.813573
8.199811
8.439422
9.145737
9.103417
9.365678
9.313822
10.666847
9.880662
10.592937
10.412931
11.277795
9.087920
9.875894
9.731650
10.663867
9.756684
9.764433
9.656549
9.565949
10.253787
9.468794
10.499954
10.486841
11.016726
10.241866
10.761619
10.184646
9.456873
9.812713
10.264516
10.494590
11.178851
11.498928
11.697412
11.203885
11.060834
12.200475
11.367798
15.020967
16.415715
21.063685
23.310781
26.609898
29.638410
33.794641
37.865639
41.679740
40.395856
43.384433
39.625764
39.220452
37.842989
31.230450
28.435588
21.294951
17.823577
15.060902
11.615753
11.944771
11.031628
10.538697
9.587407
10.390878
11.145473
10.545850
11.026859
##ZVALUE=215
10.900497
9.747744
9.431839
8.459687
8.609891
6.145835
5.919933
5.926490
6.379485
5.900860
6.752610
5.443692
4.681945
4.945993
4.826784
4.271865
4.430413
3.682971
3.917813
4.192591
4.803538
5.628467
5.566478
5.668998
6.422997
5.981922
7.286668
8.250475
7.695556
9.661913
11.734962
11.751652
11.490583
11.703968
11.770725
11.664629
11.839867
12.369752
12.545586
11.758804
11.247993
11.094809
12.225509
10.194778
11.687875
11.815429
11.539459
10.967851
10.783672
10.866523
10.575652
10.328889
10.757446
11.177659
10.999441
10.676980
10.531545
10.553598
10.532737
10.819435
9.826422
11.570454
11.567473
10.141730
11.847615
11.557937
11.417866
11.708736
13.497472
14.594793
19.016862
21.021962
24.258494
26.240945
29.631853
31.330585
30.434728
34.345984
34.042597
32.526851
32.046437
26.412606
25.541782
26.223660
20.410419
17.341971
13.585687
12.601614
10.670424
11.486411
9.715557
9.182692
10.065436
9.965897
9.127855
10.280609
##ZVALUE=220
30.216575
30.766726
33.376813
32.421947
29.102564
24.214983
17.406940
14.643669
11.689663
11.484623
12.113452
11.395812
11.525750
11.615753
11.286736
7.549524
6.293654
5.802512
4.404783
4.669428
5.486608
4.704595
5.545616
5.636811
6.498694
7.034540
7.755756
9.190440
10.128617
10.978580
12.741685
13.781786
15.608668
14.878511
16.957521
16.644597
16.211867
16.569495
15.403628
15.854836
15.280843
14.169812
14.727712
14.564991
13.267994
14.437437
13.161898
12.281537
11.465549
12.219548
12.068748
11.674762
12.033582
11.085868
11.020899
11.926889
11.722445
10.934472
10.846853
11.253953
10.531545
11.278987
10.131598
11.409521
10.425448
11.319518
12.575984
11.955500
13.166666
15.472770
16.701818
20.303726
19.999743
22.855997
25.037527
28.592944
28.814673
28.538704
28.504729
30.348897
28.681755
27.190447
27.496815
21.591783
19.976497
16.724467
14.276505
10.901690
11.058450
10.018945
9.920597
10.120869
9.721518
8.813739
9.784698
8.876920
##ZVALUE=225
48.305988
53.965449
67.755580
88.743567
91.180801
84.372759
80.594420
64.212680
45.643449
33.668876
26.154518
23.559928
24.502873
24.910569
25.000572
23.911595
20.649433
17.985702
14.103651
10.087490
7.429719
5.855560
5.948544
5.808473
6.252527
6.796718
8.677840
11.249781
11.967421
13.282895
14.315844
16.651750
17.106533
17.886758
20.302534
18.236637
18.746853
18.342733
18.684864
19.016862
17.097592
15.933514
16.512871
17.038584
16.729832
15.404820
14.686584
15.327930
14.511943
13.979673
12.771487
11.939406
11.809468
12.623668
12.570620
12.089610
12.427568
11.101961
10.475516
11.948943
12.356639
12.294650
11.826754
10.353923
12.052655
10.558963
11.813641
11.584759
11.755824
14.236569
16.229749
16.600490
18.427968
21.180511
22.261739
21.509528
20.697713
21.167994
20.876527
18.339753
19.477606
18.810630
18.086433
15.585423
14.239550
13.217926
11.079907
11.367798
10.897517
9.932518
9.927750
10.115504
9.760857
9.398460
8.944869
9.870529
##ZVALUE=230
39.145947
46.428442
73.288679
120.626688
152.373910
187.386870
211.986899
211.376548
182.033777
156.363845
105.730891
74.281693
50.880909
43.931603
43.846965
47.217607
49.705505
48.993826
44.277906
35.128593
28.305650
19.815564
13.860464
10.045767
7.715821
7.153749
7.862449
9.851456
9.813905
11.834502
13.237596
14.256835
15.351772
17.747879
17.218590
16.976595
16.172528
16.829967
16.402602
16.818643
17.187595
16.821623
15.432835
14.610887
15.344620
14.116764
13.676882
13.006926
13.510585
12.966990
12.570620
12.284517
13.252497
12.902617
11.419654
12.315512
11.941791
13.283491
12.579560
11.914968
11.921525
11.233687
12.999773
12.932420
13.858676
14.630556
12.447834
13.073683
12.688637
15.441775
17.020702
19.042492
18.584728
22.369623
20.996928
22.568703
23.698807
22.716522
22.229552
21.075606
19.440651
19.055605
17.436743
16.041994
14.794469
15.555620
13.927817
11.955500
13.683438
14.229417
12.570620
13.422966
12.552738
13.068914
13.216734
13.266802
##ZVALUE=235
13.224483
15.187860
32.047629
80.884695
133.203864
209.069848
282.455683
362.176895
391.941667
399.628878
365.067720
304.536819
206.250548
153.715611
98.392963
80.231428
73.553920
76.623559
78.705549
82.575679
73.212981
63.388944
51.795840
34.733415
26.418567
15.314817
13.448596
10.590553
8.906722
10.514855
11.111498
11.270642
11.690855
13.102889
13.498664
14.410615
14.576912
13.690591
15.027523
14.007688
14.412999
14.883876
16.138554
15.775561
13.766885
13.543963
14.065504
13.958812
14.121532
14.631748
12.264848
14.423728
13.639927
12.789965
12.718439
12.980700
13.982654
14.625788
14.615655
14.531612
14.162660
12.718439
13.457537
14.842749
14.485717
14.714599
14.652610
17.557740
15.824437
18.799901
19.071698
18.668771
20.883679
23.749471
24.069548
23.843646
26.215911
23.846626
24.744868
23.860931
23.380518
20.682812
19.641519
18.571615
17.849803
16.318560
17.389655
17.432570
17.379522
16.806722
16.211867
16.663671
16.045570
16.372800
16.197562
16.111732
##ZVALUE=240
2.335906
2.578497
7.183552
16.905665
50.339699
98.527670
186.918974
279.350877
414.379835
508.242846
575.879812
577.134490
530.048013
420.888662
330.011845
205.944777
155.542493
109.311938
97.240806
100.434422
108.233690
114.975572
111.335516
99.616647
83.276629
66.233873
46.022534
32.939911
21.435618
15.216470
12.818575
10.466576
11.582971
11.673570
10.929704
13.166666
12.836456
14.889836
13.840795
14.985800
14.826655
16.132593
15.865564
15.544891
15.974641
15.875697
16.773939
17.241836
14.932752
15.603900
14.085770
13.768673
14.282465
13.414621
14.545918
13.907552
13.517737
12.938976
13.687611
14.536977
14.572740
14.703870
14.549494
15.365481
15.253425
15.330911
15.281439
17.801523
16.201735
19.960999
20.411611
22.844672
23.113489
23.414493
23.769736
24.816990
25.088787
26.465654
26.342869
25.090575
23.202896
23.661852
23.136735
23.063421
21.810532
20.821691
20.732880
20.273924
19.623637
21.405816
18.707514
19.444823
19.573569
19.469857
20.116568
19.340515
##ZVALUE=245
1.780987
1.506805
2.132654
2.121925
3.460646
13.773441
32.680631
98.917484
168.340802
297.695994
416.665673
550.328493
628.572702
655.480027
622.519851
520.857573
421.102643
291.763544
209.222436
131.492615
106.106997
99.328756
109.597445
118.470788
126.796961
125.737786
107.458830
94.283819
71.880817
52.636862
36.584735
25.931597
17.710924
14.217496
13.393760
12.799501
14.265776
15.938878
15.742779
15.031695
15.558600
15.810728
15.837550
15.816689
15.595555
16.433597
16.156435
15.989542
14.345646
14.681816
15.180707
13.278723
14.052987
12.954473
14.365911
13.973713
13.935566
13.454556
13.485551
12.355447
14.115572
12.853742
13.392568
12.800694
13.865829
13.770461
15.025735
16.087890
15.938878
16.463995
17.557740
19.233823
19.986629
20.331740
21.221638
21.634698
22.894740
23.362637
22.414923
22.129416
20.832419
21.386743
20.855665
19.921660
19.419789
21.022558
18.765926
19.963980
19.142628
19.904971
19.617677
19.920468
18.436909
17.746687
20.472407
18.716455
##ZVALUE=250
1.789927
1.745820
1.727939
1.845956
1.773834
2.239943
2.864599
7.458925
30.631423
65.445900
164.931417
267.947912
379.523635
547.211766
650.585890
716.456771
701.043606
627.989769
531.553626
369.388461
259.232521
167.957544
109.736919
93.908906
104.710460
115.801692
131.415725
138.019919
134.433508
123.600960
106.481910
82.975626
63.747764
40.705800
30.364990
21.673441
18.144846
17.214417
16.787648
17.364621
17.906427
18.117428
17.937422
18.628836
18.112659
17.798543
16.917586
16.689897
17.499924
16.203523
17.619729
15.674829
14.740825
14.320612
14.282465
13.882518
14.395714
13.036728
12.668967
11.827946
12.946725
12.749434
12.061596
13.143420
12.882948
12.811422
13.567805
13.563633
14.929771
16.000867
15.802979
17.498732
18.588901
18.335581
18.196702
19.211769
19.907951
20.338893
20.397902
19.139647
19.017458
18.992424
17.971992
19.345880
17.755628
20.032525
18.589497
19.525886
18.178821
17.427802
17.380714
18.391609
17.259717
17.518997
17.137527
17.300844
##ZVALUE=255
1.679659
1.552701
1.775622
1.550913
1.580715
1.911521
1.796484
2.181530
2.116561
4.578829
20.823479
49.073696
105.395913
219.438672
338.975787
520.302653
647.732019
764.320493
785.629749
738.631487
644.237995
514.232516
329.618454
212.053657
121.601820
91.131926
89.528561
103.979707
124.142766
140.210986
150.774717
147.596002
135.577917
115.807652
94.801784
67.119598
50.759912
35.717487
27.057528
22.438765
20.570755
21.007657
19.991994
21.348596
20.603538
19.831657
19.940734
18.825531
18.500686
18.400550
16.981959
15.638471
15.870929
15.131831
15.209913
14.105439
13.200641
12.522936
13.423562
13.205409
12.233853
12.783408
12.205839
11.556745
11.399984
12.921691
12.694597
12.065768
13.578534
13.708472
13.787746
14.543533
15.765429
16.117692
16.292930
17.336607
17.233491
17.262697
17.227530
17.486811
16.382933
17.098784
18.118620
16.502738
17.554760
16.260743
16.699433
17.348528
17.437935
16.981959
17.905831
17.602444
17.558932
16.931891
17.435551
18.099546
##ZVALUE=260
1.489520
1.485944
1.466870
1.432896
1.332760
1.393557
1.697540
1.675487
1.631975
1.697540
1.781583
3.008842
8.293986
35.211444
76.338649
143.322945
295.958519
433.769822
629.187822
760.134459
851.925611
853.098035
735.526681
610.540509
407.384038
275.150537
180.763602
104.367733
83.281994
91.787577
108.370781
136.039853
154.703856
165.996552
162.268877
145.533681
129.330754
98.122954
76.446533
53.626895
41.481853
30.413866
26.116967
23.558736
22.728443
20.667911
21.060705
19.384623
19.002557
18.661618
18.329620
16.270876
16.335845
16.213655
15.421510
13.970733
13.928413
13.331771
13.686419
13.041496
12.546778
11.853576
12.116432
12.414455
12.017488
12.352467
12.038946
11.997819
11.593699
13.045669
12.063980
14.078617
14.155507
13.900995
14.847517
14.545918
15.438795
15.033484
15.827417
15.564561
15.271902
15.993714
15.196800
16.242862
16.143918
16.357899
15.291572
15.663505
15.295744
16.296506
15.867949
15.714765
15.579462
16.357899
16.363859
17.005801
##ZVALUE=265
1.050830
1.089573
1.035929
1.144409
1.294613
1.270771
1.318455
1.545548
1.320839
1.542568
1.475811
1.512766
1.662970
1.997948
4.190803
22.215843
52.879453
132.861733
234.553814
438.041687
614.960790
777.874589
924.874544
951.105952
858.381987
736.701488
544.016957
390.087962
226.619840
143.572688
98.410845
81.452727
95.603466
123.604536
146.765709
167.248845
173.738599
165.253878
149.063468
129.169822
104.073882
74.359775
55.349469
39.586425
31.314492
25.081635
20.951629
20.566583
19.496679
18.773675
18.161535
17.489791
17.436743
16.005635
16.050935
14.884472
14.193654
13.093948
13.707876
13.244748
13.275743
12.180805
11.678934
11.810660
11.889935
11.720657
11.955500
12.241602
12.090802
12.943745
13.285875
13.347864
13.593435
14.205575
13.839602
14.040470
14.902949
13.701916
14.993548
14.105439
14.092922
14.588833
14.297962
14.857650
13.964772
14.608502
15.193820
14.953613
14.429688
14.881492
14.767647
14.164448
14.688969
14.476776
14.533997
15.580654
##ZVALUE=270
1.203418
1.106858
1.126528
1.034737
1.211762
1.242757
1.141429
1.223683
1.144409
1.099706
1.419783
1.274943
1.479983
1.845956
1.714826
2.166629
2.513528
9.962916
28.810501
92.875957
184.325576
329.705477
566.838980
762.049556
969.199538
1015.774608
1008.815765
905.932784
704.640746
530.452728
368.973017
202.552676
121.624470
79.781413
77.605844
102.335811
123.908520
151.461959
167.443752
175.943971
169.611573
150.555968
127.718449
99.383593
75.628757
50.547719
37.445426
27.615428
22.821426
18.914938
17.431974
16.735792
16.086698
15.626550
15.136600
14.332533
14.629960
13.810992
13.260841
12.941957
12.830496
12.428761
12.325644
11.712909
11.994839
11.535883
11.955500
11.614561
12.387633
12.011528
12.331605
12.887716
13.371706
13.490915
13.861656
14.230609
13.503432
13.618469
14.177561
13.573766
13.412833
13.345480
14.155507
13.619661
13.491511
13.113618
13.670921
13.943911
13.690591
14.728904
14.014840
13.938546
14.065504
13.296604
13.437867
14.378428
##ZVALUE=275
1.085997
1.035929
0.894666
0.951886
1.201630
1.077652
1.192689
1.088977
1.230836
1.155734
1.027584
1.303554
1.485944
1.106858
1.401901
1.177788
1.465678
1.633763
1.845956
4.737973
17.057657
49.703717
144.179463
270.605683
504.414439
697.444677
916.732550
1015.686989
1015.686989
1015.686989
927.051902
682.785511
485.220551
259.386897
151.986480
79.596639
62.054992
72.141886
89.874864
120.149851
141.318440
161.081553
165.600777
158.320665
144.717693
117.732882
95.644593
67.665577
50.370693
32.402873
25.004745
17.816424
15.756488
13.913512
13.718605
13.011694
12.629628
12.112856
12.566447
12.522936
12.552738
12.442470
12.410879
12.362599
11.630654
11.307597
11.764765
12.199879
11.386871
12.284517
12.632608
13.085604
12.885928
13.796687
13.520718
13.577938
13.959408
13.739467
13.710856
13.418794
13.019443
14.275908
13.253689
13.464689
13.468862
12.868643
13.425946
12.933612
13.498664
13.203621
13.221502
12.432933
13.170838
13.493896
13.335943
13.573766
##ZVALUE=280
1.048446
1.309514
1.121759
1.137853
1.293421
1.333952
1.246929
1.188517
1.472831
1.288652
1.348853
1.183748
1.139641
1.494884
1.756549
1.562834
1.588464
1.557469
1.633763
1.889467
2.198815
2.898574
11.643767
37.789941
115.697980
218.575001
418.725610
621.757507
905.364752
1015.909910
1015.909910
1015.909910
1015.909910
816.722512
593.267679
331.871510
195.819736
89.311600
54.893494
48.378706
59.965849
86.619854
109.627843
135.162473
149.575472
155.489445
148.983002
135.463476
116.269588
87.633729
66.758990
43.853521
31.977892
20.256639
15.549660
13.246536
11.783838
11.509657
12.293458
11.447668
11.839867
11.314750
12.097955
12.147427
11.937618
11.915565
12.684464
12.302995
12.924671
12.928843
12.461543
14.137626
14.078617
14.405847
14.143586
14.518499
13.812780
14.029741
14.052987
14.249682
14.048815
13.295412
13.659596
13.667941
13.463497
13.493896
13.037920
13.371706
13.064742
13.164878
13.137460
13.116598
12.947917
12.972951
13.042688
12.892485
##ZVALUE=285
0.884533
1.142621
0.741482
0.822544
0.825524
0.674725
0.853539
0.862479
1.058578
0.886917
0.927448
0.942945
1.124740
1.021624
0.963807
1.145601
1.155734
1.194477
1.413822
1.521707
1.476407
1.506805
1.784563
2.010465
6.216764
20.034909
64.844489
133.369565
286.784768
464.025736
676.441789
971.802473
1015.684605
1015.684605
1015.684605
987.269878
773.338675
471.261740
286.742449
133.058429
67.414641
36.387444
37.768483
56.300759
75.926781
105.512738
125.019550
144.164562
149.697661
145.399570
134.238601
109.897852
89.803934
63.326955
44.836998
29.103756
20.422935
14.701486
12.893677
11.910796
11.625886
11.356473
12.124777
12.267828
12.241602
13.041496
12.810826
13.048649
13.259649
13.348460
13.450980
14.342666
14.468431
14.656782
14.015436
14.510751
13.967752
14.346838
13.861656
13.756752
14.259815
13.473630
13.107657
13.848543
13.576746
13.670921
13.633966
12.884736
12.834668
13.674498
12.996793
12.919903
13.007522
12.623668
12.796521
12.589693
##ZVALUE=290
0.697970
0.685453
0.723600
0.589490
0.658631
0.741482
0.952482
0.722408
0.841618
0.921488
1.053810
0.830889
0.911951
0.823736
0.855923
0.859499
0.949502
0.930429
1.000762
1.069903
1.191497
1.134872
1.549721
1.397729
1.674891
1.974702
2.863407
7.820725
35.992861
85.905790
165.675879
352.563858
554.616451
869.830847
1015.661955
1015.661955
1015.661955
1015.661955
927.318931
616.602898
401.033759
193.219781
97.886920
41.097999
27.633905
36.323667
51.052570
72.965622
93.649626
119.624734
134.879947
144.834518
144.308805
130.353570
111.674666
84.185004
64.587593
43.592453
31.416416
20.531416
16.584992
13.420582
12.833476
12.189746
12.673736
12.996793
12.840629
13.101697
13.780594
13.397932
14.257431
14.561415
14.439821
14.765859
14.969707
14.582872
14.405847
14.845729
14.293790
14.720559
14.327765
13.983846
13.911724
14.077425
14.025569
14.158487
13.853908
13.209581
13.063550
12.331605
13.228655
13.041496
13.074875
12.788773
12.258887
12.720823
##ZVALUE=295
0.627637
0.776649
0.663996
0.691414
0.761747
0.626445
0.713468
0.716448
0.670552
0.852942
0.731945
0.657439
0.847578
0.988841
0.916719
0.756979
0.912547
1.150966
0.914931
1.256466
1.235604
1.036525
1.279712
1.303554
1.214743
1.363754
1.296997
1.756549
1.886487
3.698468
12.746453
54.133534
120.926499
280.990005
453.792810
730.284452
923.858881
1015.684605
1015.684605
1015.684605
929.659009
665.473938
463.961959
242.668986
133.071542
50.360560
27.293563
23.143888
30.676723
47.702789
65.341592
91.257691
110.585690
129.902959
138.652921
134.920478
125.001669
105.151534
86.234808
60.614944
46.078563
30.089617
21.879673
16.618967
14.661551
13.162494
13.075471
13.491511
13.760924
13.854504
14.138818
14.516711
14.799833
15.214682
15.248656
14.910698
15.300512
14.486909
14.758706
14.460683
14.540553
14.382601
14.078617
13.705492
13.686419
13.940930
13.349652
13.543963
13.116598
12.975931
13.194680
11.996627
12.758970
12.588501
12.091994
11.768937
##ZVALUE=300
0.589490
0.777841
0.679493
0.641942
0.567436
0.736713
0.646710
0.579953
0.733733
0.773668
0.683665
0.818968
0.625849
0.833869
0.950694
0.803471
0.797510
0.917912
0.910759
0.936985
0.935793
0.958443
0.972748
1.013875
1.134872
1.389980
1.284480
1.378655
1.412630
1.565814
1.591444
1.937747
7.631779
28.052926
91.424584
180.942416
371.827483
564.936996
827.894807
991.230011
1015.684605
1015.684605
953.045487
783.504844
511.897802
334.890485
168.794990
89.789629
34.210682
19.031763
20.291805
27.289987
43.052435
58.626533
84.353685
103.022456
124.342442
131.115913
131.480694
123.501420
102.987885
85.615516
62.295794
46.671629
31.396747
22.939444
17.349720
14.745593
13.583899
13.703704
13.928413
13.838410
14.151931
14.549494
14.680624
14.304519
14.113784
15.133619
14.691949
14.664531
14.016628
14.347434
14.319420
13.754964
14.099479
13.660789
13.966560
13.540983
13.259649
13.204813
12.985468
13.006926
12.754798
12.243986
11.918545
12.490749
##ZVALUE=305
0.648499
0.650883
0.588894
0.727773
0.438690
0.529885
0.610948
0.602603
0.696778
0.655651
0.708699
0.712872
0.511408
0.611544
0.634789
0.608563
0.681877
0.761747
0.750422
0.855923
0.733733
0.855923
0.873804
0.909567
0.869632
0.893474
1.207590
1.077652
1.205802
1.211762
1.429915
1.490712
1.799464
1.682639
4.116893
15.336871
67.743659
145.767927
322.158933
497.043729
762.213469
946.954489
1015.664935
1015.664935
1013.671756
875.295997
622.564554
432.500839
230.942965
126.666427
49.141645
23.131967
14.321804
17.641783
26.647449
38.857460
60.070753
78.284740
100.288987
115.285516
124.844909
125.623941
114.584565
101.402998
77.672601
62.613487
42.646527
31.962991
21.211505
16.546845
13.818741
13.247728
13.967752
13.339520
13.669729
13.590455
14.042854
13.920665
13.876557
13.548732
13.861656
14.043450
13.805628
13.844967
13.201833
13.959408
13.649464
13.460517
12.824535
13.300776
12.922883
12.499690
12.580752
12.376904
12.044907
12.194514
##ZVALUE=310
0.560880
0.514984
0.463724
0.511408
0.683665
0.581741
0.808835
0.587702
0.596642
0.586510
0.663996
0.635982
0.594854
0.642538
0.593662
0.682473
0.656843
0.708699
0.792742
0.645518
0.540614
0.646710
0.736713
0.824928
0.777841
0.944734
0.975728
1.093745
0.926852
1.026988
1.110435
1.231432
1.133680
1.601577
1.364946
1.828671
2.041459
8.134842
27.723908
99.121928
199.171901
406.178832
609.657764
877.236724
1015.684605
1015.684605
1015.684605
985.732675
805.364847
534.924865
354.257822
173.776746
93.145967
34.016967
16.117692
13.241768
15.827417
24.310946
34.687519
54.231882
70.334673
93.165636
106.750727
117.914677
118.597746
110.407472
97.859502
79.071522
61.250925
42.149425
31.005740
21.593571
17.540455
14.053583
13.420582
12.791753
12.816787
12.751818
12.589693
13.135672
13.641715
13.309717
13.256669
13.674498
13.333559
13.529658
13.571978
13.184547
12.853742
12.599826
12.776852
12.571812
12.244582
12.250543
11.938810
11.820793
##ZVALUE=315
0.524521
0.562668
0.598431
0.501871
0.510812
0.534654
0.453591
0.668764
0.456572
0.737906
0.538826
0.342727
0.366569
0.495911
0.654459
0.642538
0.745654
0.725985
0.667572
0.696778
0.730753
0.700951
0.757575
0.877976
0.672936
0.680685
0.815988
0.845790
0.908971
0.971556
1.121759
1.062751
1.022816
1.124740
1.322627
1.451969
1.520514
1.719594
1.956820
3.798604
14.606714
62.193871
144.706964
325.057507
509.560704
796.678662
972.638726
1015.684605
1015.684605
1015.684605
917.209983
655.546784
457.511544
242.380500
128.563643
48.083663
21.013618
11.421442
11.423826
15.673637
21.336675
34.102798
47.239661
66.559911
83.648562
101.006627
110.361576
113.089681
106.042624
90.194941
76.561570
57.657957
43.424964
29.180646
21.685958
15.765429
13.901591
12.810826
12.497902
12.458563
12.449622
13.112426
12.917519
12.789965
13.141632
12.683868
13.025999
13.017654
12.413859
12.523532
12.559891
12.419820
12.634993
11.912584
12.203455
11.666417
##ZVALUE=320
0.583529
0.640750
0.588894
0.441670
0.423789
0.588894
0.499487
0.380874
0.494719
0.621676
0.475645
0.653863
0.601411
0.543594
0.591874
0.659823
0.701547
0.799894
0.581741
0.574589
0.617504
0.601411
0.622869
0.626445
0.936985
0.727773
0.811815
0.910759
0.821948
0.805855
0.771880
0.911951
0.808835
1.150966
0.931621
1.067519
1.176000
1.253486
1.361966
1.441836
1.719594
2.239943
6.408691
34.647584
92.062950
239.790678
396.976471
645.713806
848.057866
1015.684605
1015.684605
1015.684605
999.756455
765.282512
556.041598
307.746530
173.658729
73.535442
34.232736
13.208985
9.754896
10.965466
13.403893
20.070672
28.924942
44.462681
60.497522
78.796744
92.876554
104.001760
106.156468
100.182891
89.926720
70.683956
55.422783
38.654804
28.874874
20.841956
16.517639
13.608932
12.479424
12.504458
12.272000
12.027621
12.401938
12.349486
12.659431
12.049675
12.116432
11.971593
12.232661
11.854768
12.178421
12.140870
12.010932
11.877418
##ZVALUE=325
0.418425
0.438690
0.353456
0.328422
0.550747
0.509620
0.404716
0.595450
0.426769
0.500679
0.414848
0.542998
0.553727
0.456572
0.644922
0.553727
0.551939
0.685453
0.569820
0.648499
0.568628
0.644922
0.775456
0.661612
0.733733
0.643730
0.649691
0.638962
0.655651
0.775456
0.728965
0.900626
0.886917
0.615716
0.686646
0.818968
1.010895
0.967979
1.173615
1.112819
1.366735
1.444817
1.583695
1.909733
3.535748
22.166967
59.715509
162.722468
291.720629
535.390973
740.032792
982.365012
1015.684605
1015.684605
1015.684605
833.261609
620.779991
369.125009
225.687623
102.539659
49.567819
16.924739
10.032654
8.829832
9.717941
13.374686
18.360615
28.858781
41.075945
60.757995
73.706508
90.108514
98.675489
99.422932
94.049573
80.242753
66.731572
50.119758
38.844943
26.220679
20.031929
15.244484
13.520718
12.741685
12.366772
12.244582
12.002587
11.963844
11.994839
11.861920
11.952519
11.812449
11.595488
11.690855
11.330843
11.515617
##ZVALUE=330
0.455976
0.386834
0.456572
0.497699
0.391603
0.696778
0.465512
0.469685
0.494719
0.459552
0.474453
0.302792
0.531673
0.371933
0.519753
0.610948
0.634789
0.495911
0.544786
0.368953
0.646710
0.540614
0.609756
0.557899
0.564456
0.650883
0.560880
0.618696
0.775456
0.595450
0.760555
0.712872
0.816584
0.664592
0.829697
0.863671
0.776649
0.869632
1.025796
0.912547
1.129508
1.077652
1.219511
1.280904
1.512766
1.645684
2.056956
9.259582
30.539632
102.318525
198.952556
403.112769
591.612458
852.929950
1003.124714
1015.684605
1015.684605
902.836919
725.717545
466.303825
299.535990
138.072968
70.230961
25.574565
12.086630
8.569956
8.852482
9.802580
12.524724
19.169450
26.817918
40.235519
53.804517
72.223544
84.498525
92.095733
93.347430
87.440610
77.910423
61.685443
49.065948
34.036636
26.675463
19.710660
16.369820
13.276935
12.305975
11.879802
11.855960
11.769533
11.171699
11.206865
11.676550
11.327863
11.325479
11.504889
##ZVALUE=335
0.381470
0.375509
0.510812
0.537634
0.455976
0.309944
0.547767
0.464916
0.426769
0.522733
0.530481
0.622869
0.478625
0.511408
0.399947
0.512600
0.413656
0.461936
0.525713
0.545979
0.571609
0.412464
0.499487
0.631809
0.557899
0.577569
0.396967
0.680685
0.588894
0.655651
0.615716
0.670552
0.701547
0.783801
0.793934
0.725985
0.729561
0.705719
0.861883
0.796914
0.851750
0.986457
1.067519
1.143813
1.279712
1.254678
1.318455
1.425743
1.575947
4.397631
16.155839
63.850880
134.496689
298.952460
477.106571
744.915009
922.417641
1015.688777
1015.688777
972.507000
814.208984
556.589961
378.890634
195.329785
101.553798
36.314726
16.054511
9.159446
8.717775
8.819699
9.893775
12.509823
17.534494
27.355552
37.736893
54.003000
65.976977
80.243945
86.162686
87.815523
82.312822
71.761608
61.146617
47.265887
37.746429
26.545525
20.783544
15.507936
13.206601
12.203455
11.504889
11.661649
11.383891
11.012554
11.137724
10.941625
##ZVALUE=340
0.547767
0.470877
0.413656
0.494719
0.471473
0.394583
0.470877
0.437498
0.406504
0.370741
0.439882
0.396967
0.603795
0.414848
0.297427
0.517964
0.494719
0.575781
0.547767
0.492930
0.571609
0.451803
0.605583
0.364780
0.489950
0.567436
0.461936
0.603795
0.673532
0.475645
0.457764
0.530481
0.656843
0.674725
0.507832
0.742674
0.599623
0.783801
0.676513
0.815988
0.667572
0.722408
0.705719
0.778437
1.013875
0.997782
0.993609
1.132488
1.253486
1.384616
1.421571
2.262592
7.619858
38.098693
93.238950
232.829452
386.173725
627.358556
813.590884
999.141932
1015.681028
995.806456
867.095590
637.387633
447.169542
233.624578
129.861832
52.484870
22.237897
9.697676
8.445978
8.696914
8.835793
10.127425
12.243986
18.193722
24.941564
37.202835
49.695969
64.890981
74.657798
82.314610
83.015561
77.619553
70.437789
57.077408
47.299862
34.941435
27.443767
19.885898
15.486479
12.822747
11.573434
10.922551
10.756850
10.328889
##ZVALUE=345
0.396967
0.258684
0.382662
0.433922
0.387430
0.420809
0.410676
0.314713
0.475645
0.448823
0.364780
0.276566
0.241995
0.374913
0.331998
0.377893
0.413656
0.376701
0.408888
0.398755
0.297427
0.460744
0.426769
0.438690
0.293851
0.497699
0.526905
0.550747
0.698566
0.455976
0.581741
0.460744
0.473857
0.688434
0.533462
0.691414
0.537634
0.634789
0.603795
0.717640
0.662804
0.645518
0.705719
0.629425
0.637770
0.817776
0.864863
0.915527
1.014471
1.040697
1.156926
1.150966
1.411438
1.591444
3.297925
21.236539
57.338476
152.125955
269.352794
487.912893
666.079521
877.255797
981.707573
992.118716
904.220939
689.286590
516.806841
302.567482
172.297955
69.115758
32.291412
12.431741
8.828640
8.385777
8.084774
8.499622
9.300709
11.736751
15.934706
24.617910
33.320785
47.819614
57.271719
67.710876
73.815584
77.212453
73.982477
65.858960
57.601929
45.198798
35.889745
25.235415
19.472837
14.460683
12.389421
11.216998
##ZVALUE=350
0.328422
0.375509
0.368953
0.388622
0.272989
0.466704
0.375509
0.390410
0.437498
0.415444
0.408888
0.317693
0.518560
0.458956
0.445843
0.457764
0.371933
0.398755
0.403523
0.352859
0.328422
0.458956
0.403523
0.404716
0.314713
0.370741
0.414848
0.495911
0.561476
0.455976
0.552535
0.532866
0.599623
0.543594
0.590682
0.617504
0.679493
0.654459
0.450611
0.607967
0.498891
0.770688
0.493526
0.595450
0.675917
0.592470
0.680685
0.722408
0.893474
0.970960
0.764728
1.029968
1.104474
1.434684
1.275539
1.527667
2.053976
10.441542
33.082962
102.246404
193.632841
386.745930
558.452606
776.706934
913.522840
982.615948
932.514668
767.448545
588.516593
350.494981
216.129422
100.529790
46.727657
15.525818
9.113550
7.834435
7.848740
7.747412
7.884502
9.038448
11.143684
15.900731
20.746589
30.240417
39.275885
51.732659
61.212778
68.181753
71.196556
68.575740
62.673688
52.232742
43.185949
32.094717
25.044680
18.573999
##ZVALUE=355
0.463724
0.348687
0.355840
0.257492
0.412464
0.203848
0.387430
0.410676
0.406504
0.273585
0.421405
0.348687
0.393987
0.504851
0.532866
0.370741
0.283718
0.229478
0.373721
0.481606
0.339746
0.379682
0.477433
0.399947
0.266433
0.438690
0.677705
0.546575
0.462532
0.559688
0.389814
0.356436
0.406504
0.544786
0.460744
0.403523
0.586510
0.573993
0.682473
0.623465
0.567436
0.633597
0.731945
0.692606
0.696778
0.763535
0.688434
0.740886
0.638962
0.756979
0.819564
0.978708
0.862479
0.947714
1.145601
1.218915
1.260638
1.371503
1.470447
4.742742
18.265843
69.146752
140.824914
292.629004
454.812646
697.427988
842.621922
952.755809
948.020816
810.559988
651.449561
431.940556
271.277428
121.032596
59.331656
19.569993
10.012984
7.372499
7.267594
7.484555
7.457733
7.573962
8.319616
10.483861
12.996793
19.299984
25.922656
36.150813
44.105649
53.841472
60.620904
64.198971
62.837601
56.625605
50.291419
40.101409
##ZVALUE=360
0.409484
0.588894
0.601411
0.504851
0.543594
0.481606
0.465512
0.519753
0.434518
0.528693
0.636578
0.578761
0.444651
0.517964
0.442863
0.431538
0.442863
0.565648
0.613928
0.616908
0.562668
0.616908
0.567436
0.533462
0.576973
0.567436
0.619888
0.518560
0.630617
0.481606
0.595450
0.523925
0.681877
0.520945
0.731945
0.728965
0.648499
0.755787
0.607967
0.694990
0.759959
0.826716
0.684857
0.713468
0.703931
0.769496
0.827909
0.834465
0.813603
0.889897
0.963807
0.953674
0.909567
0.818968
0.928640
1.025796
1.113415
1.229644
1.443624
1.484752
1.501441
2.575517
7.934570
36.553741
88.567734
214.412808
348.443985
560.890436
730.645657
898.264647
931.945443
859.360695
726.647973
496.857762
329.844952
161.654949
84.673762
32.853484
14.264584
7.853508
7.120967
7.205606
7.134676
7.257462
7.319450
7.857680
9.008646
11.652708
14.962554
21.733642
28.854609
39.054751
46.304464
53.885579
57.388544
57.446957
##ZVALUE=365
0.424981
0.431538
0.440478
0.390410
0.423789
0.490546
0.232458
0.263453
0.408888
0.286698
0.361800
0.371933
0.345707
0.381470
0.485778
0.400543
0.530481
0.398755
0.396967
0.355840
0.439882
0.417829
0.386834
0.379682
0.451803
0.550747
0.279546
0.382662
0.528693
0.424981
0.404716
0.570416
0.469685
0.598431
0.547767
0.552535
0.573993
0.520945
0.582933
0.442863
0.568628
0.569820
0.436902
0.694990
0.759959
0.704527
0.605583
0.732541
0.758767
0.700951
0.743866
0.613928
0.775456
0.769496
0.924468
0.983477
0.967979
0.871420
0.851750
1.112819
1.205802
1.298785
1.608729
1.762509
3.574491
20.454526
55.009723
146.383643
270.830989
501.181483
679.273009
869.908929
969.799757
941.458941
826.667547
599.021912
420.596600
227.763653
125.303864
47.653913
20.443797
8.100867
6.725788
6.514788
6.259680
6.605983
6.503463
6.373525
6.990433
7.721782
9.238720
13.547540
17.921925
25.825500
32.535791
41.422844
##ZVALUE=370
0.544786
0.478625
0.481606
0.482798
0.188947
0.341535
0.429749
0.383854
0.517964
0.467896
0.427961
0.490546
0.428557
0.417829
0.393987
0.551939
0.450611
0.470877
0.384450
0.480413
0.407696
0.390410
0.449419
0.400543
0.468493
0.569820
0.413656
0.445843
0.405908
0.560880
0.396967
0.513792
0.606775
0.648499
0.588894
0.524521
0.438690
0.646710
0.473857
0.691414
0.417829
0.606775
0.457764
0.591874
0.654459
0.744462
0.664592
0.704527
0.709891
0.810623
0.655651
0.708699
0.721812
0.828505
0.828505
0.653863
0.828505
0.933409
0.810623
1.039505
0.960827
1.046658
1.008511
1.114607
1.328588
1.561642
2.478957
7.900596
40.711761
99.159479
232.563615
371.249914
587.328672
747.714639
891.847610
916.029811
824.369788
682.622790
453.166962
294.992924
137.505531
71.785450
27.157664
12.531877
6.891489
6.289482
6.067753
6.061792
5.938411
5.664825
5.852580
6.287694
7.187724
8.472800
11.420846
15.200973
##ZVALUE=375
0.230670
0.381470
0.448823
0.399947
0.269413
0.276566
0.385642
0.323653
0.324845
0.411868
0.414848
0.342727
0.404716
0.375509
0.423789
0.372529
0.423789
0.382662
0.237823
0.332594
0.418425
0.248551
0.448823
0.403523
0.362992
0.467896
0.407696
0.372529
0.368953
0.383854
0.299811
0.412464
0.427961
0.361800
0.458956
0.290871
0.411868
0.287890
0.364780
0.470877
0.570416
0.413656
0.510812
0.357628
0.498891
0.603795
0.595450
0.573993
0.477433
0.631809
0.429749
0.601411
0.597835
0.591874
0.618696
0.663996
0.675917
0.716448
0.803471
0.839829
0.619888
0.779629
0.826716
0.859499
1.133680
1.086593
1.199841
1.381636
1.568794
4.996657
17.809868
66.053867
141.466856
309.044719
472.809672
693.099499
821.653605
901.547670
876.752734
730.932951
569.319725
351.160765
219.903588
101.890564
50.926805
17.129779
8.405447
5.769730
5.591512
5.598664
5.248785
5.217791
5.340576
5.225539
5.548596
5.948544
##ZVALUE=380
0.255704
0.240803
0.225902
0.390410
0.281930
0.253916
0.360608
0.342727
0.442863
0.297427
0.456572
0.351667
0.378489
0.201464
0.126958
0.448823
0.308752
0.354648
0.318885
0.362992
0.409484
0.348687
0.465512
0.395775
0.363588
0.308752
0.382662
0.163913
0.271797
0.424981
0.386834
0.292659
0.344515
0.489950
0.474453
0.377893
0.235438
0.426769
0.395775
0.413656
0.542998
0.472665
0.424981
0.381470
0.567436
0.538826
0.517964
0.396967
0.477433
0.480413
0.550747
0.411868
0.683665
0.644922
0.603795
0.500679
0.578761
0.536442
0.643730
0.742674
0.743866
0.686646
0.783801
0.767708
0.871420
0.893474
0.800490
1.011491
1.153946
1.450777
1.424551
2.765656
9.802580
46.884418
108.637810
251.267552
401.151776
618.003011
772.114992
897.558928
898.875594
783.506036
648.600459
450.735688
302.961469
149.047971
76.818466
27.464628
12.047887
6.068945
5.248785
5.193949
4.965663
5.110502
4.763603
5.113482
##ZVALUE=385
0.280738
0.445843
0.387430
0.228882
0.294447
0.152588
0.184774
0.290871
0.232458
0.296831
0.366569
0.323653
0.160933
0.298619
0.222921
0.391603
0.300407
0.288486
0.316501
0.382662
0.335574
0.320673
0.228882
0.315905
0.343919
0.282526
0.353456
0.400543
0.326633
0.411868
0.361800
0.370741
0.548959
0.374913
0.373721
0.490546
0.402927
0.371933
0.371933
0.440478
0.579953
0.383854
0.385642
0.385642
0.402927
0.421405
0.608563
0.258684
0.567436
0.386834
0.444651
0.502467
0.532866
0.452995
0.445843
0.462532
0.522733
0.547767
0.465512
0.564456
0.668764
0.665784
0.509620
0.684857
0.886917
0.688434
0.772476
0.954866
0.856519
1.003742
1.169443
1.245737
1.338720
1.677871
4.591942
26.610494
68.921447
175.692439
308.080912
530.380607
699.448586
869.954824
916.194916
862.897635
750.206709
547.548532
389.893055
212.086439
120.125413
49.727559
20.175576
6.717443
5.017519
4.502535
4.783869
4.569888
##ZVALUE=390
0.354648
0.269413
0.500679
0.227690
0.282526
0.201464
0.491738
0.362992
0.254512
0.231862
0.298619
0.452995
0.349879
0.270605
0.256896
0.385642
0.307560
0.312924
0.258684
0.326633
0.365973
0.315905
0.255704
0.355840
0.265837
0.364780
0.273585
0.452995
0.360608
0.457764
0.350475
0.483990
0.511408
0.378489
0.354648
0.428557
0.442863
0.486970
0.377893
0.546575
0.502467
0.419617
0.589490
0.383854
0.455976
0.422597
0.236630
0.509620
0.373721
0.539422
0.493526
0.577569
0.445843
0.616908
0.491738
0.469685
0.416636
0.525713
0.471473
0.493526
0.502467
0.609756
0.655651
0.689626
0.681877
0.674725
0.583529
0.992417
1.011491
1.028776
1.022816
1.067519
1.032948
1.355410
1.331568
1.535416
2.509952
13.866425
43.003559
133.587718
252.965689
469.861627
636.992455
820.956826
917.456746
934.746861
859.268904
675.160885
514.117479
312.634706
182.915926
74.851513
34.225583
10.212660
5.566478
4.590750
##ZVALUE=395
0.389814
0.379682
0.207424
0.328422
0.287890
0.094771
0.479817
0.205636
0.143647
0.284910
0.340939
0.380874
0.109673
0.125766
0.320673
0.259876
0.194907
0.325441
0.283718
0.350475
0.227690
0.326633
0.353456
0.424981
0.378489
0.325441
0.251532
0.502467
0.419617
0.314713
0.486970
0.437498
0.445843
0.475645
0.567436
0.439882
0.398755
0.335574
0.390410
0.499487
0.468493
0.488758
0.512600
0.421405
0.469685
0.434518
0.400543
0.439882
0.434518
0.433922
0.442863
0.546575
0.456572
0.422597
0.459552
0.461936
0.339746
0.531673
0.573993
0.403523
0.521541
0.511408
0.504851
0.622869
0.505447
0.767708
0.726581
0.866652
0.857711
1.028776
0.998974
1.097918
1.210570
0.932813
1.050830
0.971556
1.144409
1.277924
1.716614
7.733703
28.119683
98.048449
185.552835
357.841849
525.242686
761.991739
899.775624
970.234871
934.391022
779.717565
608.937740
374.655724
234.227777
103.635788
49.658418
16.661882
##ZVALUE=400
0.237823
0.172853
0.324845
0.258684
0.220537
0.338554
0.284910
0.287890
0.294447
0.338554
0.290871
0.236630
0.160933
0.253916
0.216961
0.347495
0.428557
0.289679
0.300407
0.387430
0.249743
0.291467
0.174642
0.274777
0.314713
0.340939
0.415444
0.366569
0.416636
0.421405
0.204444
0.483990
0.285506
0.434518
0.421405
0.352859
0.406504
0.371933
0.532866
0.632405
0.538826
0.590682
0.473857
0.440478
0.526905
0.364780
0.286698
0.529885
0.503659
0.599623
0.540614
0.479817
0.540614
0.514984
0.396967
0.574589
0.462532
0.534654
0.370741
0.341535
0.361800
0.586510
0.579953
0.626445
0.659823
0.723600
0.647902
0.788569
0.876784
0.936985
0.935793
0.950694
0.993609
1.019835
1.090765
0.935793
0.949502
1.030564
1.137853
1.205802
1.529455
3.765821
14.153719
56.558847
122.958422
270.323753
431.958437
664.168000
820.868611
944.955945
948.858857
823.614001
671.643019
454.711914
299.958587
151.839852
##END
