##TITLE=FQP00651
##FORMAT=SPECTACLE-ASCII V-1.2
##DATA TYPE=ULTRAVIOLET SPECTRUM
##SECOND TYPE=ULTRAVIOLET SPECTRUM
##DATE=05/07/18
##TIME=15:05:31
##SPECTROMETER/DATA SYSTEM=SPECTACLE
##XUNITS=NM EM
##YUNITS=ENERGY
##YFACTOR=1
##FIRSTX=220
##LASTX=410
##NPOINTS=96
##3DDATA=Equidistant
##ZUNITS=NM EX
##FIRSTZ=210
##LASTZ=400
##ZPOINTS=39
##XYDATA=(Y..Y)
##ZVALUE=210
2.922416
2.318621
2.715588
2.982616
2.922416
2.706647
3.783703
2.659559
2.899766
2.818704
2.940893
2.558827
2.847910
2.994537
3.383756
2.859831
2.656579
2.921820
3.249645
3.979802
3.124475
3.405809
3.754497
4.157424
4.599690
4.162788
4.699826
4.802942
5.492568
5.443692
5.535483
5.791783
5.011559
6.112456
6.018877
5.843639
6.983876
6.250739
6.539822
6.452799
7.094741
6.377697
5.994439
6.276965
5.901456
5.664825
5.402565
5.944967
5.715489
5.834699
5.707741
6.247759
6.448627
6.018877
5.717874
5.729795
5.966425
5.853772
4.700422
5.888939
4.773736
5.146861
6.073713
6.133914
5.768538
6.161928
6.458759
6.167889
7.311702
8.602738
9.415746
9.884834
11.614561
11.993647
14.665723
13.569593
13.195872
13.881922
13.422966
12.044907
11.213422
10.322928
10.304451
9.074807
6.684661
6.568432
7.330775
5.669594
5.541444
5.145669
5.335808
4.901886
4.953742
6.048679
5.153418
5.812645
##ZVALUE=215
7.277727
6.747842
5.832911
5.643964
5.682707
5.225539
5.676746
4.528761
5.704761
5.583763
4.709959
4.378557
4.467964
4.136562
2.984405
3.332496
2.811551
3.628731
3.238916
3.710985
3.690720
4.134774
4.124641
3.997684
4.543662
5.465746
5.371571
5.950928
6.883740
6.458759
6.883740
8.227825
7.701516
8.698702
9.234548
8.119941
9.319782
9.176731
8.239746
8.386970
9.867549
9.055734
7.878542
7.478595
8.857846
7.742643
7.174611
7.704496
7.870793
7.492900
7.328987
7.070899
6.972551
6.106496
7.035732
6.716847
7.105470
6.439686
5.979538
6.718636
6.171465
6.460547
6.392598
6.606579
6.329417
6.607771
6.651878
6.498694
6.466508
8.139610
9.860992
10.533929
11.497736
13.248920
12.437701
14.232993
14.042854
13.356805
13.091564
11.965632
11.600852
9.203553
9.484887
7.829666
7.706881
6.652474
5.615950
5.943775
6.555915
6.793737
5.260706
5.442500
6.351471
5.615950
5.269647
5.450845
##ZVALUE=220
23.684502
23.138523
22.364855
21.885633
20.577908
18.581748
15.063882
13.988614
11.236668
9.843707
12.623668
12.491941
13.241768
11.273623
10.624528
8.387566
6.350875
4.745722
4.224777
3.588796
3.174543
3.842711
3.855824
4.909635
5.080700
6.023645
6.999969
7.204413
8.355975
11.538863
10.384917
10.633469
12.256503
13.293624
12.580752
13.208985
15.312433
14.066696
12.762547
11.808872
12.381673
11.887550
11.735559
12.724996
9.090900
9.689927
9.807944
8.476973
8.392930
8.896589
8.495450
9.233952
8.640885
8.056760
8.597970
8.096695
7.847548
7.972717
7.422566
7.138848
7.087588
6.575584
7.525682
7.430911
7.984638
7.498860
7.639527
7.861853
8.467436
10.089874
10.461807
10.772943
12.859702
12.696981
13.507605
14.093518
15.054941
13.883710
13.302565
13.519526
11.512637
11.357665
10.813475
10.137558
8.654594
8.050799
6.860495
6.988645
7.004738
7.371902
7.594824
5.910993
7.281899
5.107522
6.825924
5.949736
##ZVALUE=225
37.227869
39.242506
54.260492
60.275793
65.526962
70.353746
60.667992
49.525499
35.597682
30.439496
22.420883
21.538734
23.764968
24.790764
25.888681
23.496747
20.472407
17.432570
12.464523
9.388924
7.318854
5.268455
4.479885
5.056858
4.997849
5.773902
6.732941
7.698536
10.336637
11.377931
14.290810
13.800859
13.567805
15.490651
16.053915
16.061664
15.511513
15.416741
16.024709
13.985634
13.801455
12.867451
14.297962
12.143850
12.882948
11.664629
10.730624
10.754466
10.906458
11.705756
9.660721
9.699464
10.286570
8.389950
8.877516
8.921623
9.574890
9.945631
9.100437
9.106994
9.343624
8.944869
8.520484
8.662939
8.118749
9.462833
10.261536
10.411739
9.829998
10.962486
10.904670
11.093616
11.601448
15.989542
14.661551
15.118718
14.033914
15.402436
13.144612
12.480617
11.404753
11.912584
12.184978
9.772778
10.896921
9.619594
9.256601
8.419752
7.735491
8.291602
7.824898
9.386539
8.712411
8.494854
8.206964
8.740425
##ZVALUE=230
33.721924
36.567450
58.517456
92.771649
119.491816
149.047971
161.859989
157.402754
146.885514
128.792524
87.306499
65.236688
47.190785
43.918490
46.141744
46.194792
51.448941
48.686862
40.510893
34.204721
27.508736
16.288757
12.542605
8.271933
6.587505
7.013679
7.311702
9.277463
10.138750
11.401772
11.928678
14.202595
13.709664
15.464425
14.761686
14.688969
15.502572
15.879869
15.471578
15.110970
14.651418
13.871789
13.315678
12.959838
13.862848
12.030602
11.750460
12.145638
11.815429
11.911988
11.705756
10.938644
10.483861
11.170506
10.400414
10.949969
9.927750
12.097955
9.918809
10.366440
10.090470
11.046529
9.940863
10.615587
12.130737
10.771751
12.455583
11.712909
12.545586
13.651848
14.351606
14.930964
16.523600
16.611814
16.812682
17.511845
16.752481
17.344952
15.332699
16.105771
15.408993
14.813542
13.640523
14.909506
12.169480
11.583567
12.623668
12.230873
12.145638
12.390614
11.977553
11.199713
10.088682
11.078715
10.863543
11.502504
##ZVALUE=235
13.974905
14.254451
27.856827
68.680644
107.889771
170.802474
225.437880
290.380716
311.293602
310.366750
281.024575
229.181647
158.692002
118.680596
85.124969
69.654584
72.666407
75.287819
80.698729
80.420971
74.512959
65.651536
49.005747
34.773946
22.439957
16.297698
11.350513
8.802414
8.159876
9.349585
10.735989
9.972453
10.634661
12.161732
12.450814
12.262464
14.260411
12.948513
12.398958
13.511777
12.997985
12.941957
12.405515
12.654662
12.770891
12.432933
12.342930
12.846589
11.348724
10.751486
12.140870
12.924671
12.091994
13.089776
12.403727
12.066960
12.123585
12.041926
11.829734
10.584593
11.355877
12.336969
11.971593
11.771917
13.579726
14.056563
13.661981
12.476444
14.919639
15.835762
16.891956
17.206669
18.804669
19.534826
20.764470
20.913482
20.417571
21.167994
21.395683
18.703938
19.957423
18.383861
17.015934
16.581416
17.506480
15.837550
15.614629
14.732480
14.788508
15.323758
13.977885
16.145706
14.784932
14.168620
14.643669
15.507936
##ZVALUE=240
2.519488
2.698898
5.458593
15.172958
44.217706
80.526471
165.546536
243.364573
372.460485
448.212624
513.950586
514.580607
471.313596
368.724465
287.706852
186.809897
131.396651
101.366639
92.933774
95.932484
102.394819
112.661719
110.184550
102.976561
78.788996
64.787865
45.494437
31.194687
20.832419
15.320778
10.277629
9.026527
10.056496
11.335611
10.436773
12.173653
11.158586
11.769533
12.624860
11.667609
12.282729
12.643933
13.090968
12.835860
13.448000
13.390779
11.779666
12.124777
13.072491
12.591481
13.004541
14.451742
12.759566
10.922551
11.239648
12.039542
12.777448
12.142658
12.531877
12.476444
12.740493
12.772679
13.558865
12.432933
13.227463
13.967752
13.867617
16.073585
16.358495
17.107725
18.887520
19.076467
19.172430
22.105575
21.244884
21.627545
23.911595
22.834539
23.449659
22.442937
21.571517
22.355914
20.155907
19.955635
20.015836
19.086599
19.498467
18.754601
19.420981
21.209717
19.314885
17.801523
17.378926
17.479658
18.854737
19.189715
##ZVALUE=245
1.845956
1.920462
2.450943
2.066493
4.058480
13.403893
31.776428
87.008476
152.343512
245.071650
389.547944
501.963496
599.434972
626.719594
584.970713
507.061481
375.009775
278.952718
203.625560
128.712654
95.734000
94.799399
108.425617
121.517777
126.830935
118.328929
113.483667
91.486573
75.539947
51.285625
39.231777
24.330616
16.853809
13.030767
11.444688
11.713505
12.267828
13.900995
13.116598
13.341904
11.785626
12.508631
14.078617
14.140606
12.607574
12.595654
13.123751
13.017654
13.052821
11.142492
11.574626
11.585951
11.242628
12.398958
11.020899
10.515451
11.057854
11.101961
10.963678
11.448860
11.310577
11.125803
11.009574
11.736751
11.801720
13.158917
12.718439
13.948679
14.233589
16.170740
16.206503
17.044544
17.624497
19.557476
19.580722
20.475984
21.262765
20.396709
19.296408
21.338463
19.588470
19.061565
21.458864
18.149614
19.061565
18.824935
17.755628
18.381476
17.370582
18.693805
17.814636
18.578768
18.931627
19.217730
16.732812
20.449758
##ZVALUE=250
1.616478
1.419783
1.625419
1.820922
1.641512
1.904964
2.890825
7.772446
30.195713
63.507557
153.593421
252.464414
372.758508
525.487661
633.147955
700.792670
695.632696
615.269542
523.322821
359.887481
245.588422
165.868998
102.991462
89.629889
100.980997
115.570426
134.115815
140.108466
134.456754
122.176409
108.608603
81.958771
62.012672
40.499568
27.680993
18.758774
16.226768
14.268756
13.501644
14.459491
14.452934
14.216900
14.486909
14.786720
13.149977
14.759898
14.082789
13.573766
13.081431
12.803674
12.507439
12.425780
12.113452
10.470748
11.446476
10.733604
9.953976
10.583997
9.941459
9.029508
10.606647
9.708405
9.779930
10.709763
10.098815
10.711551
11.799932
11.642575
12.176633
13.752580
14.045835
15.145540
15.536547
16.928911
18.049479
17.195940
18.194914
17.739534
18.294454
17.569661
16.721487
17.389655
17.021894
16.623735
16.499758
17.670989
16.863942
18.054843
16.850829
18.557906
17.650723
17.522573
17.806888
17.590523
17.764568
17.823577
##ZVALUE=255
1.529455
1.829863
1.507998
1.595616
1.732707
1.753569
1.569986
1.866817
2.176762
3.876686
17.583966
47.214627
119.487643
206.515789
353.723764
496.360660
660.094023
747.925639
783.497691
751.521587
646.770597
478.334427
335.046649
195.224881
126.093626
88.885427
86.090565
104.028583
124.495625
143.327713
150.593519
142.831802
135.414004
107.926726
88.243484
64.107776
45.798421
31.300783
23.183823
20.221472
16.101599
17.171502
16.072989
15.633702
15.804768
16.176701
16.134977
14.368892
13.852715
14.265776
12.899637
12.956858
11.983514
11.676550
11.635423
10.287762
10.862947
9.504557
10.392666
9.480715
10.448694
9.564757
9.815693
9.400845
9.068847
9.689927
9.999871
11.044741
11.195540
12.329817
13.012886
13.386607
13.424754
13.908744
14.862418
15.080571
15.922785
15.793443
15.907884
16.040802
15.306473
15.854836
15.445948
15.859604
15.373826
14.965534
15.799999
16.210675
15.638471
15.885830
16.011000
16.816854
16.068816
15.652776
16.403794
16.195774
##ZVALUE=260
1.553893
1.315475
1.299977
1.318455
1.391768
1.171827
1.663566
1.635551
1.567602
1.778603
1.915693
3.065467
7.947683
31.831861
71.105957
171.768665
282.447934
466.851592
618.935823
798.633695
871.656537
876.495838
773.134828
624.284744
419.856906
290.760994
170.623660
111.898780
83.114505
86.911917
107.365847
134.574771
148.897767
160.126686
157.215595
140.906572
123.393536
92.671514
72.315931
49.596429
37.039518
27.126670
22.307634
19.309521
18.388629
17.197728
16.375780
15.836954
15.376806
14.883876
14.206767
12.760758
13.761520
11.700988
11.310577
10.579824
10.029674
10.576844
9.424686
9.851456
9.834766
9.579659
9.510517
9.489655
9.163618
10.181665
10.238886
9.406805
10.821819
10.474920
11.884570
12.983680
13.307929
12.748837
13.933778
13.557673
14.935732
13.528466
13.499856
12.793541
13.824701
14.742613
13.376474
14.258623
14.768839
15.206933
14.976859
15.445948
15.571713
15.296936
14.940500
15.264750
15.058517
14.125705
15.591979
15.582442
##ZVALUE=265
1.147985
1.068711
1.228452
1.253486
1.225471
1.189709
1.354814
1.214743
1.429915
1.367927
1.555681
1.569986
1.703501
1.824498
4.600883
21.861792
52.165985
133.567452
233.062506
433.938503
609.465837
773.783922
932.629704
958.596468
873.039961
759.792924
560.085773
399.170518
222.203732
141.718984
88.128448
78.107715
91.967583
120.211840
144.352913
160.446763
168.309808
159.401894
146.465898
120.507479
98.014474
69.901943
51.854849
34.619570
26.093721
20.622611
16.996861
17.172694
15.541911
14.979839
14.348626
13.605952
12.993813
12.464523
11.934638
10.828972
11.459589
10.384917
10.521412
9.483695
9.367466
9.288788
9.537935
9.335876
9.210706
9.822845
10.160804
9.972453
9.808540
9.816885
11.113882
11.097789
12.016892
11.703968
12.329817
12.717843
12.924671
12.840629
13.209581
12.958646
13.676882
12.593865
12.236834
13.872981
13.618469
13.417602
12.931824
13.522506
13.608932
13.274550
13.470650
13.464689
13.033748
14.221668
13.984442
13.725758
##ZVALUE=270
1.134872
1.026988
1.203418
1.164675
1.113415
1.237988
1.213551
1.249909
1.462698
1.158714
1.304746
1.334548
1.578927
1.633763
1.980662
1.773834
2.429485
10.334849
30.497909
93.058944
185.548663
328.889489
566.053987
755.693913
950.079560
1015.684605
993.402004
896.273851
707.208514
538.449883
371.163487
201.190710
122.147799
76.484680
75.563788
98.352432
121.463537
147.829652
161.074996
167.458653
161.891580
144.738555
123.436451
92.323422
70.666671
45.155883
33.405423
23.158789
18.982887
15.529990
14.258623
13.105869
12.837648
12.517571
12.091994
11.290908
11.089444
10.277629
10.290742
10.135770
9.516478
9.441972
8.761883
8.749962
9.617805
9.045601
9.519458
9.515882
10.255575
9.916425
10.507703
11.468530
11.633635
11.872649
12.370944
12.008548
12.164712
13.004541
12.489557
13.174415
12.015700
12.438893
13.085604
12.631416
12.240410
12.842417
12.650490
12.275577
12.104511
13.093948
12.956858
13.367534
13.208985
12.959838
13.108850
13.283491
##ZVALUE=275
0.829697
0.983477
1.021624
1.021624
1.093745
0.937581
1.047850
1.153946
1.100898
1.143813
1.324415
1.451969
1.074672
1.328588
1.514554
1.351833
1.529455
1.629591
1.789927
5.124807
17.675757
51.641464
148.996711
277.155638
509.031415
687.816739
899.469852
1011.619568
1015.675664
1005.526781
905.598998
666.954517
470.132828
256.210566
150.435567
76.575875
58.831573
70.846677
86.603761
116.253495
137.244463
154.868960
162.423849
153.156519
140.854716
113.580823
91.877580
64.340830
46.495795
30.076504
21.296740
14.770627
12.721419
11.493564
10.707974
9.832978
9.798408
10.444522
10.136962
9.821653
9.745955
9.816885
9.770989
9.292960
9.116530
9.326935
9.739995
9.632707
9.541512
10.312796
10.839701
11.058450
11.852980
11.283755
11.827946
12.349486
12.201667
12.253523
11.849999
12.335777
12.344718
12.678504
11.917949
12.727976
12.059808
12.194514
12.399554
12.165904
12.134910
11.784434
12.102723
11.924505
11.733770
12.394786
12.766719
12.318492
##ZVALUE=280
0.741482
0.993609
0.882745
0.950694
0.789762
0.987649
1.057982
1.054406
1.059771
0.960827
1.208782
1.181960
1.119971
1.310706
1.221895
1.493692
1.147985
1.480579
1.745820
1.738667
1.761913
2.927780
9.880662
45.553446
110.121965
254.646540
406.014919
648.354888
826.131701
1011.483669
1015.684605
1015.684605
963.558555
735.832453
539.201498
315.586925
188.795924
86.033940
53.186417
45.773983
59.382915
84.769726
108.583570
132.461786
146.346688
152.200460
148.518682
130.836964
112.820864
84.766746
63.568950
40.419698
29.194951
17.234683
12.508631
9.970665
9.812713
9.468794
9.395480
9.470582
9.549856
9.537935
9.547472
9.648800
9.692907
10.439754
10.327697
10.580420
10.535717
11.073947
11.663437
11.262894
12.451410
12.419820
11.810660
12.646914
12.577772
12.456775
12.897849
13.068914
12.179613
11.730790
12.213588
12.381673
11.914968
11.726618
11.686683
12.123585
11.965632
11.538863
11.913776
10.950565
11.706948
12.186766
11.100769
11.494756
##ZVALUE=285
0.769496
0.768900
0.861883
0.855923
0.660419
0.818968
0.764728
0.938773
0.751615
0.965595
1.013875
1.031756
1.143813
1.058578
1.257658
1.050830
1.087785
1.077652
1.270771
1.233816
1.320839
1.710653
1.647472
1.952648
5.469918
19.684434
67.181587
141.035914
304.042697
469.327569
720.352530
901.940465
1015.684605
1015.684605
1015.684605
891.094804
634.319782
441.602468
233.314633
134.141445
58.141947
36.223531
38.079619
50.683618
77.360868
98.651648
123.474598
138.433576
147.796869
143.896937
130.598545
110.099912
81.896782
62.737465
41.252971
28.245449
16.841888
12.662411
10.499954
9.945631
9.155869
9.994507
9.606481
9.923577
10.015965
10.527968
10.333657
11.179447
11.035800
11.852980
12.022853
12.519956
12.223721
12.987852
12.854934
12.450814
12.942553
13.597608
12.860894
12.958646
12.353659
12.487769
11.906624
12.300611
11.776686
12.186766
12.607574
11.566877
12.078881
12.049675
12.022853
11.300445
11.499524
11.555552
11.564493
11.755824
##ZVALUE=290
0.867844
0.779629
0.737906
0.923872
0.671744
0.735521
0.851750
1.016855
0.929832
1.017451
0.962615
0.980496
0.929832
0.929832
0.887513
0.851750
0.971556
0.999570
1.087785
1.107454
1.113415
1.236796
1.519918
1.492500
1.759529
1.782775
2.427697
8.322597
37.626624
87.723732
168.880820
357.882977
552.294850
828.047991
993.225574
1015.684605
1015.684605
962.206721
793.201923
533.683896
352.807641
175.063610
91.132522
39.154887
26.330948
35.205483
48.212409
71.038604
93.116760
118.135810
131.633878
140.318871
139.721632
127.507448
108.259916
81.378818
61.150789
40.270686
27.925968
17.783642
13.659596
10.998845
10.157824
9.855628
9.428859
9.595752
10.525584
10.380745
11.500716
10.915995
11.799932
11.797547
11.937618
12.772679
12.619495
12.237430
12.398958
12.625456
12.207627
12.379885
11.887550
12.175441
11.910796
12.521744
12.307763
11.763573
11.664629
12.045503
11.888742
12.026429
11.680722
12.131929
11.058450
11.243820
11.008978
11.349916
##ZVALUE=295
0.592470
0.762939
0.755787
0.762939
0.728965
0.657439
0.817776
0.770688
0.580549
0.583529
0.704527
0.920892
0.847578
0.767708
0.891685
0.905991
0.951886
0.957847
1.022816
1.113415
1.070499
0.867844
1.224875
1.050830
1.311898
1.414418
1.433492
1.663566
1.935959
3.628731
18.387437
52.585602
121.737719
289.718509
471.583605
744.196773
936.716795
1015.677452
1015.677452
1015.677452
900.334716
638.402700
438.239574
227.379799
127.374530
49.345493
26.657581
22.184849
29.735565
47.273636
64.937472
90.097785
110.339522
128.294826
134.102702
132.591724
122.004747
101.591945
81.670880
57.218671
42.721629
26.833415
18.903613
13.894439
11.225939
10.433793
10.182858
10.504723
11.019707
10.905862
11.776686
11.591911
12.361407
12.719631
13.280511
12.472868
13.036728
12.588501
12.212992
12.687445
12.492537
12.354851
12.652874
12.331605
12.193918
11.939406
12.302995
11.852980
11.862516
11.701584
11.549592
11.192560
11.443496
11.481643
10.957718
10.764599
##ZVALUE=300
0.690818
0.612736
0.450611
0.622869
0.625849
0.535846
0.759959
0.660419
0.761747
0.726581
0.583529
0.589490
0.892878
0.839829
0.824928
0.834465
0.959635
0.793934
0.896454
0.914931
0.836849
0.992417
1.036525
0.994802
0.950694
1.227856
1.230836
1.310706
1.386404
1.538992
1.829863
2.089739
8.098483
26.889443
93.871951
187.295675
391.675830
600.771904
878.396630
1015.684605
1015.684605
1015.684605
985.608697
800.445676
534.477830
346.236825
176.890492
93.268752
34.814477
19.283891
18.749833
26.757717
42.498708
57.873726
81.886649
102.034807
122.753978
127.904415
127.679706
121.351480
101.440549
81.954002
58.681965
44.041872
28.207898
20.312667
13.962984
12.064576
11.169910
10.999441
10.841489
11.754632
12.114644
12.008548
12.346506
12.338758
12.052655
11.666417
12.262464
12.261868
12.260675
12.359619
11.893511
12.497902
12.055635
12.121797
11.625886
11.606812
11.924505
12.304783
11.627674
11.601448
10.990500
11.156797
11.179447
10.839701
##ZVALUE=305
0.494719
0.664592
0.459552
0.655651
0.528693
0.738502
0.517964
0.730753
0.676513
0.690818
0.663996
0.664592
0.756979
0.672936
0.709891
0.747442
0.775456
0.631809
0.720620
0.714660
0.930429
0.913739
0.801682
0.874996
0.913739
0.976920
1.056790
1.234412
1.215935
1.303554
1.458526
1.425743
1.594424
1.714826
3.972650
15.012622
61.813593
136.383772
316.494703
501.601696
778.047442
975.055695
1015.684605
1015.684605
1015.684605
896.507502
637.692809
443.014503
233.154893
130.023956
52.333474
24.617910
13.690591
16.326904
26.241541
37.898421
59.667826
76.725483
98.847747
112.047791
122.991800
122.366548
111.642480
97.915530
75.661540
58.531761
39.882660
28.702617
18.904805
14.527440
12.099743
11.669993
11.068583
11.384487
11.714697
11.546612
11.781454
12.069941
12.045503
11.737943
11.789799
12.000799
11.915565
11.898875
11.827946
11.859536
11.585951
12.134910
11.733770
11.602640
11.642575
11.702776
11.251569
11.139512
11.275411
10.660887
##ZVALUE=310
0.544786
0.476837
0.626445
0.630617
0.562668
0.543594
0.714660
0.492930
0.642538
0.689626
0.742674
0.548959
0.612736
0.689626
0.687838
0.525713
0.689626
0.875592
0.674725
0.747442
0.767708
1.026988
0.954866
0.754595
0.765920
1.123548
0.760555
0.941753
1.236796
0.978708
1.066923
1.429915
1.238585
1.320839
1.463890
1.656413
1.865625
8.218884
27.635694
93.459487
190.541744
416.320562
646.598935
962.687731
1015.684605
1015.684605
1015.684605
1015.684605
866.115689
567.612648
372.910500
185.988545
98.985434
35.273433
15.994906
12.112856
15.205741
23.410916
33.948421
52.955747
68.961978
91.329813
105.360746
114.945769
116.103888
108.135939
94.761848
74.636936
58.355927
39.123893
29.634833
19.898415
15.771985
12.362599
12.027621
11.378527
11.723638
11.427999
11.261702
11.271834
11.699796
11.405945
11.713505
11.975765
12.036562
11.685491
12.001991
12.085438
11.996627
11.697412
11.596680
11.470914
11.548996
10.885000
10.890961
10.933876
##ZVALUE=315
0.516772
0.577569
0.621676
0.519753
0.532866
0.542998
0.374913
0.511408
0.562668
0.539422
0.532866
0.489950
0.603795
0.702739
0.519753
0.627637
0.764728
0.677705
0.537634
0.544786
0.773668
0.819564
0.802875
0.628829
0.892878
0.831485
0.928640
0.893474
0.981688
1.121759
0.912547
1.020432
1.311898
1.489520
1.433492
1.315475
1.504421
1.610518
1.830459
3.865957
14.126897
58.677793
130.121708
307.155848
514.211655
844.166875
1015.673876
1015.673876
1015.673876
1015.673876
975.840688
694.756508
485.171676
256.732702
139.044523
52.513480
23.236871
11.122823
11.351705
14.499426
20.175576
33.411980
46.205521
67.146420
81.141591
99.480748
106.860995
109.361410
103.060603
88.445544
73.741674
54.371953
40.751696
27.408600
20.437837
14.861822
12.829900
11.591911
11.077523
11.273623
11.207461
11.175871
11.236668
11.505485
11.366606
11.322498
11.431575
11.683702
11.477470
11.453629
11.252761
11.248589
11.008978
11.129975
11.072755
11.004806
##ZVALUE=320
0.528693
0.545979
0.638962
0.375509
0.619888
0.538826
0.594854
0.519753
0.557899
0.589490
0.584722
0.459552
0.639558
0.626445
0.666976
0.607967
0.432730
0.510812
0.617504
0.763535
0.739694
0.473857
0.768900
0.713468
0.770688
0.824928
0.760555
0.741482
0.816584
0.795722
0.738502
0.899434
0.810623
1.118779
0.977516
0.949502
1.067519
1.253486
1.456738
1.496673
1.494884
2.057552
6.237626
32.129884
82.857609
218.355656
360.175967
598.400831
797.225833
1005.832553
1015.688777
1015.688777
978.598595
750.879645
550.890565
309.626460
178.712606
78.091621
36.381483
13.320446
9.352565
10.247827
12.629628
19.473433
28.283596
44.509768
58.917999
78.353882
91.794729
102.745891
105.167627
97.696781
88.115931
69.544911
54.549575
37.731528
28.432608
19.351840
15.190840
12.244582
11.659861
11.155605
11.114478
11.028647
11.267662
11.375546
11.265874
11.217594
11.096597
11.288524
10.892749
11.015534
10.916591
10.749698
10.845661
10.772943
##ZVALUE=325
0.553727
0.378489
0.463724
0.521541
0.393987
0.412464
0.517964
0.551939
0.582933
0.644922
0.640750
0.643730
0.378489
0.559688
0.595450
0.415444
0.512600
0.521541
0.558496
0.656843
0.470877
0.456572
0.537634
0.655651
0.586510
0.680685
0.703931
0.580549
0.775456
0.734925
0.715852
0.818968
0.819564
1.014471
0.837445
0.936985
1.129508
0.947714
1.156926
1.068711
1.235604
1.328588
1.393557
1.774430
3.445745
22.783875
61.320662
160.130858
286.782384
523.631573
718.655586
950.937867
1015.678644
1015.678644
1009.891629
806.340575
611.250997
373.571515
225.789547
101.788640
49.234629
17.026663
9.508729
8.811951
9.556413
12.704730
18.078685
28.950572
40.687919
59.788823
73.364973
89.533925
97.218752
98.190904
92.903972
78.351498
65.975785
49.071908
36.555529
24.693608
19.104481
14.070868
12.710690
11.471510
11.375546
10.856986
10.784864
10.889769
10.654926
11.134744
10.740757
10.621548
10.115504
10.269880
10.643601
10.462999
##ZVALUE=330
0.343919
0.410676
0.460744
0.382662
0.383854
0.456572
0.364780
0.461936
0.388622
0.466704
0.506639
0.544786
0.483990
0.440478
0.398755
0.375509
0.522733
0.423789
0.466704
0.584722
0.424981
0.565648
0.378489
0.513792
0.434518
0.352859
0.657439
0.621676
0.595450
0.627637
0.645518
0.775456
0.634789
0.680685
0.721812
0.678897
0.784993
0.924468
0.804663
0.789762
0.997782
0.984669
1.194477
1.187921
1.265407
1.422763
2.231598
10.474920
33.339858
106.375813
199.846625
392.697453
574.991703
826.768875
982.378721
1015.623808
1015.623808
873.310566
699.689984
454.542637
293.726921
137.005448
69.135427
25.461912
11.821985
8.106828
8.124709
9.450912
12.119412
18.527508
26.533604
40.540695
53.824782
71.608424
82.945824
91.566443
93.072653
85.802674
76.580644
60.208440
47.710538
33.781528
26.208758
18.518567
15.149713
12.452602
11.456609
11.172891
10.771751
10.419488
10.526776
10.193586
10.379553
10.371804
10.223985
10.292530
##ZVALUE=335
0.428557
0.213981
0.302792
0.261664
0.235438
0.322461
0.318885
0.409484
0.330806
0.377893
0.265837
0.361800
0.275970
0.356436
0.441670
0.419617
0.417829
0.359416
0.523925
0.366569
0.535846
0.499487
0.545979
0.418425
0.511408
0.480413
0.489950
0.470877
0.534654
0.501871
0.429749
0.548959
0.541806
0.649691
0.635982
0.631809
0.626445
0.664592
0.854731
0.658631
0.775456
1.024604
0.986457
1.086593
1.123548
1.149774
1.224875
1.356602
1.400709
4.413724
17.146468
69.424510
144.894719
311.670899
492.045879
756.108761
923.005939
1015.616655
1015.616655
953.650475
797.888637
546.158552
368.252993
192.210674
100.342631
35.114884
15.839934
8.846521
7.981658
8.418560
9.411573
12.125969
16.978979
26.931763
36.987662
53.020716
65.693855
78.523755
85.811615
87.437630
81.721544
69.982409
59.444904
45.757890
36.426783
25.167465
19.573569
14.341474
12.467504
11.295676
10.254979
10.189414
10.194778
9.839535
9.740591
9.937882
##ZVALUE=340
0.395775
0.434518
0.531673
0.456572
0.308752
0.419617
0.353456
0.276566
0.347495
0.297427
0.519753
0.298619
0.379682
0.446439
0.375509
0.455976
0.451803
0.503659
0.571609
0.390410
0.438690
0.455976
0.538826
0.553727
0.610948
0.483990
0.445843
0.539422
0.550747
0.456572
0.483990
0.550747
0.669956
0.769496
0.703931
0.704527
0.707507
0.843406
0.706911
0.687838
0.804663
0.661612
0.739694
0.818968
0.908971
0.918508
1.114607
1.197457
1.192689
1.320839
1.378655
2.390742
7.642508
39.314628
99.104643
245.555639
405.498743
651.238561
834.129453
1001.125574
1015.684605
983.507037
851.809978
629.003644
444.141626
239.011645
129.336715
48.830509
20.725727
9.799600
8.272529
8.361936
8.295774
9.682775
12.156963
17.481446
24.736524
36.912560
48.035979
63.909888
72.680712
80.240965
81.781745
76.686740
68.596601
55.407882
46.152472
33.206940
25.596619
18.479824
14.679432
11.761785
10.249615
10.429621
9.843707
9.579659
##ZVALUE=345
0.465512
0.336766
0.267625
0.429749
0.554919
0.315905
0.208616
0.278950
0.423789
0.479817
0.447631
0.370741
0.288486
0.402927
0.444651
0.406504
0.362992
0.404716
0.407696
0.426769
0.389814
0.419617
0.545979
0.473857
0.586510
0.506639
0.419617
0.591874
0.614524
0.615716
0.670552
0.641942
0.617504
0.553727
0.614524
0.652671
0.724792
0.734925
0.713468
0.521541
0.760555
0.680685
0.870824
0.687838
0.698566
0.883937
1.075864
0.901818
0.941753
1.197457
1.267791
1.200438
1.465678
1.725554
4.331470
27.050972
72.964430
190.602541
322.696567
547.900796
733.924508
948.847532
1015.684605
1015.684605
933.237672
706.470609
522.503853
306.741595
172.847509
69.055557
31.864643
12.030602
8.842945
8.311868
8.076429
8.369684
8.885860
11.427999
15.041828
23.626685
32.771826
46.844482
56.336522
66.988468
73.359609
75.063705
72.549582
64.345598
56.813955
44.034719
33.963919
23.651719
18.172860
13.911724
11.531711
9.962916
##ZVALUE=350
0.325441
0.510812
0.359416
0.545979
0.511408
0.287890
0.251532
0.431538
0.460744
0.352859
0.345707
0.372529
0.487566
0.414848
0.420809
0.357628
0.508428
0.306964
0.297427
0.436902
0.589490
0.458956
0.507832
0.546575
0.586510
0.531673
0.603795
0.572801
0.603795
0.604987
0.276566
0.549555
0.550747
0.443459
0.556707
0.551939
0.706911
0.623465
0.746846
0.557899
0.736713
0.790954
0.815988
0.596642
0.697970
0.871420
0.817776
0.762939
0.817776
0.896454
1.106858
0.999570
1.284480
1.325607
1.495481
1.524687
2.311468
14.308691
46.209693
139.366984
257.170796
487.256646
681.157708
907.573700
1015.710831
1015.710831
1001.083851
810.937881
613.264441
360.685587
220.435858
102.372766
47.360659
15.030503
8.912683
7.778406
7.526875
7.367730
7.861853
8.825660
11.099577
15.289783
20.883679
29.849410
38.457513
50.939918
59.208870
67.140460
69.245696
66.592693
60.926676
51.006675
42.211413
30.988455
24.259686
17.850995
##ZVALUE=355
0.442863
0.461936
0.409484
0.448823
0.445843
0.377893
0.327826
0.486970
0.349879
0.291467
0.284910
0.236630
0.456572
0.271797
0.369549
0.423789
0.363588
0.424981
0.427961
0.453591
0.495911
0.439882
0.431538
0.444651
0.375509
0.513792
0.573993
0.565648
0.511408
0.528693
0.512600
0.689626
0.615716
0.638962
0.459552
0.601411
0.446439
0.706911
0.546575
0.605583
0.616908
0.657439
0.736713
0.572801
0.631809
0.737906
0.624657
0.808835
0.747442
0.897646
0.840425
0.911951
0.983477
1.045465
1.141429
1.085997
1.271963
1.505613
1.578927
5.138516
20.722747
86.214542
178.671479
367.990732
561.389923
822.472572
976.510644
1015.684605
1015.684605
864.824653
687.694550
442.111492
276.877880
121.889710
58.513880
19.037724
9.668469
7.115602
7.244945
7.093549
7.176995
7.458925
8.031726
10.076761
13.405681
18.830895
25.051832
34.914613
43.247938
53.472519
60.130954
62.798858
61.867833
56.352615
49.686432
39.777756
##ZVALUE=360
0.308752
0.425577
0.327826
0.350475
0.345707
0.440478
0.494719
0.249743
0.429749
0.322461
0.173450
0.373721
0.304580
0.390410
0.319481
0.387430
0.350475
0.301600
0.280738
0.358820
0.448823
0.433922
0.433922
0.444651
0.352859
0.454783
0.366569
0.427961
0.537634
0.501871
0.443459
0.708699
0.495911
0.502467
0.510812
0.568628
0.488758
0.347495
0.528693
0.750422
0.654459
0.512600
0.706911
0.593662
0.555515
0.717640
0.705719
0.646710
0.709891
0.707507
0.677705
0.713468
0.682473
0.966787
0.864863
0.895858
1.018643
1.143813
1.197457
1.285672
1.586676
2.370477
7.523894
37.820935
98.985434
255.842805
425.154567
685.104728
880.317688
1015.636921
1015.636921
949.271917
788.387656
527.669787
347.682834
167.946815
88.688731
32.164454
14.011860
7.326603
7.001758
6.846786
6.705523
6.466508
6.829500
7.194877
8.506775
11.410713
14.378428
21.101832
28.132796
38.338900
45.573711
53.105950
55.872798
56.084991
##ZVALUE=365
0.344515
0.340939
0.334978
0.164509
0.379682
0.234842
0.302792
0.567436
0.407696
0.400543
0.343919
0.399947
0.564456
0.399947
0.437498
0.297427
0.390410
0.414848
0.353456
0.402927
0.504851
0.380874
0.646710
0.537634
0.405908
0.581741
0.428557
0.471473
0.392795
0.580549
0.438690
0.470877
0.474453
0.669956
0.491738
0.534654
0.510812
0.376701
0.606775
0.454783
0.511408
0.475645
0.456572
0.544786
0.623465
0.699759
0.647902
0.614524
0.651479
0.713468
0.716448
0.785589
0.673532
0.757575
0.903606
0.916719
0.823736
0.976920
1.098514
1.141429
1.106858
1.419783
1.538992
2.052784
3.358722
17.534494
54.374933
162.584782
304.010510
553.128719
755.341649
961.955786
1015.684605
996.125937
857.513547
611.230731
426.168442
229.885578
125.356913
46.627522
19.877553
7.996559
6.609559
6.419420
6.284714
6.110668
6.107688
6.201863
6.453991
7.376671
9.122491
13.049841
17.324686
24.568439
31.046867
40.347576
##ZVALUE=370
0.310540
0.474453
0.339746
0.273585
0.462532
0.469685
0.317693
0.314713
0.260472
0.397563
0.468493
0.342727
0.332594
0.358820
0.271797
0.385642
0.242591
0.420809
0.338554
0.437498
0.392795
0.367761
0.429749
0.468493
0.450611
0.263453
0.380874
0.310540
0.433922
0.597835
0.370741
0.400543
0.287890
0.482798
0.514984
0.602603
0.460744
0.455976
0.447631
0.658631
0.542998
0.396967
0.618696
0.680685
0.719428
0.662804
0.747442
0.456572
0.574589
0.676513
0.752807
0.651479
0.616908
0.584722
0.689626
0.833869
0.800490
0.798702
0.817776
1.100898
0.949502
0.984669
1.199841
1.264811
1.308918
1.637936
2.388954
9.711981
32.314658
112.856627
221.953988
440.436006
657.482743
926.941633
1015.684605
1015.684605
957.134962
729.840994
526.783466
285.204649
159.058571
62.015653
29.001832
11.070967
6.800890
5.839467
5.700588
5.754828
5.538464
5.683899
5.962849
5.941987
6.695986
8.389950
10.784864
15.440583
##ZVALUE=375
0.307560
0.292659
0.356436
0.455976
0.369549
0.463724
0.363588
0.404716
0.379682
0.199676
0.368953
0.247955
0.312924
0.253916
0.336766
0.349879
0.386834
0.509620
0.423789
0.433922
0.478625
0.472665
0.207424
0.417829
0.382662
0.416636
0.461936
0.400543
0.464916
0.461936
0.524521
0.424981
0.403523
0.410676
0.418425
0.456572
0.458956
0.396967
0.620484
0.412464
0.529885
0.406504
0.582933
0.564456
0.516772
0.526905
0.517964
0.559688
0.544786
0.581741
0.507832
0.539422
0.547767
0.631809
0.604987
0.719428
0.645518
0.682473
0.758767
0.740886
0.794530
0.913739
0.947714
0.977516
0.886917
1.130700
1.076460
1.496673
1.670718
4.964471
16.899705
60.317516
135.657787
319.626927
508.912802
776.037574
938.970447
1015.684605
991.484523
805.859566
613.358617
368.210673
228.911638
111.299753
55.295825
18.140674
8.317828
5.606413
5.582571
5.342960
5.272627
5.275607
5.276799
5.294681
5.455613
6.190538
##ZVALUE=380
0.296831
0.257492
0.358820
0.451803
0.357628
0.405908
0.281930
0.307560
0.305772
0.264645
0.386834
0.281930
0.381470
0.380874
0.285506
0.285506
0.319481
0.270605
0.336766
0.377893
0.259876
0.255704
0.406504
0.414848
0.334978
0.363588
0.532866
0.409484
0.466704
0.434518
0.383854
0.413656
0.467896
0.221729
0.301600
0.410676
0.377893
0.389814
0.493526
0.533462
0.515580
0.365973
0.424981
0.422597
0.423789
0.541806
0.497699
0.437498
0.431538
0.617504
0.404716
0.601411
0.454783
0.599623
0.375509
0.662804
0.567436
0.582933
0.602603
0.647902
0.844598
0.799894
0.717640
0.726581
0.780821
0.903606
1.048446
1.032948
1.242757
1.384616
1.599789
2.541542
9.232759
43.526888
101.974010
246.665478
407.539606
657.384992
844.461918
1007.300019
1015.684605
892.439485
728.178024
484.134555
318.200588
153.628588
77.688694
26.817918
11.788607
5.687475
5.156994
4.809499
4.826784
4.983544
4.931688
4.704595
##ZVALUE=385
0.189543
0.151992
0.104904
0.353456
0.160933
0.322461
0.141859
0.263453
0.290871
0.330806
0.247955
0.178814
0.384450
0.311732
0.204444
0.210404
0.142455
0.077486
0.183582
0.228882
0.279546
0.240803
0.276566
0.356436
0.187755
0.296831
0.325441
0.220537
0.303984
0.366569
0.444651
0.308752
0.419617
0.420809
0.347495
0.292659
0.264645
0.434518
0.263453
0.375509
0.201464
0.258684
0.299811
0.424981
0.375509
0.436902
0.243783
0.304580
0.365973
0.315905
0.494719
0.304580
0.358820
0.494719
0.400543
0.601411
0.572801
0.323653
0.445843
0.475645
0.592470
0.447631
0.542998
0.653863
0.625849
0.681877
0.733733
0.664592
0.992417
1.020432
1.191497
1.313686
1.513958
1.676679
4.359484
24.615526
63.411593
164.330602
295.772552
532.523394
718.056560
910.091996
972.209573
935.032964
823.252797
602.805018
426.616669
229.298472
128.254890
50.508976
20.917654
6.510615
4.959702
4.541874
4.317760
4.487634
##ZVALUE=390
0.319481
0.325441
0.476837
0.306964
0.174642
0.178814
0.262856
0.198483
0.198483
0.244975
0.281930
0.257492
0.348687
0.293851
0.225902
0.331998
0.180602
0.234842
0.319481
0.275970
0.304580
0.287890
0.418425
0.411868
0.237823
0.391603
0.316501
0.299811
0.241995
0.350475
0.413656
0.421405
0.418425
0.341535
0.395775
0.316501
0.417829
0.484586
0.422597
0.503659
0.492930
0.432730
0.440478
0.404716
0.393987
0.492930
0.503659
0.475645
0.530481
0.436902
0.328422
0.548959
0.496507
0.461936
0.513792
0.430942
0.608563
0.590682
0.439882
0.470877
0.512600
0.421405
0.531673
0.572801
0.574589
0.704527
0.716448
0.863671
0.873804
1.068711
0.995994
1.235604
1.099706
1.235604
1.226664
1.565814
2.635717
12.842417
40.155649
124.378800
234.588981
437.888503
595.871806
786.494613
892.092586
931.839943
863.795877
687.039495
529.455543
319.668651
186.340809
75.237751
34.940839
10.863543
5.402565
4.398823
##ZVALUE=395
0.265837
0.352859
0.387430
0.243783
0.359416
0.172853
0.290871
0.279546
0.272989
0.314713
0.341535
0.363588
0.359416
0.249743
0.364780
0.365973
0.412464
0.356436
0.302792
0.315905
0.387430
0.292659
0.404716
0.352859
0.448823
0.439882
0.399947
0.419617
0.404716
0.411868
0.545979
0.427961
0.357628
0.394583
0.498891
0.538826
0.537634
0.397563
0.323653
0.470877
0.536442
0.382662
0.381470
0.388622
0.533462
0.420809
0.574589
0.392795
0.492930
0.556707
0.531673
0.575781
0.517964
0.377893
0.483990
0.415444
0.451803
0.592470
0.397563
0.539422
0.649691
0.728965
0.631809
0.524521
0.568628
0.740886
0.542998
0.644922
1.072884
0.814795
0.911951
1.163483
1.011491
0.962615
1.018643
1.005530
1.239777
1.323819
1.705885
5.576611
30.899644
75.150728
178.990960
301.796794
511.695743
675.270557
848.788619
905.165672
869.776011
758.792758
559.430718
391.447544
205.004811
110.819936
41.448474
18.095970
##ZVALUE=400
0.391603
0.187755
0.338554
0.268817
0.406504
0.446439
0.172853
0.457764
0.251532
0.183582
0.207424
0.349879
0.404716
0.296831
0.251532
0.193715
0.198483
0.454783
0.181794
0.333786
0.388622
0.441670
0.184774
0.305772
0.476837
0.407696
0.343919
0.428557
0.430942
0.404716
0.464916
0.586510
0.458956
0.503659
0.523925
0.551939
0.385642
0.359416
0.423789
0.580549
0.485778
0.526905
0.689626
0.408888
0.450611
0.450611
0.341535
0.341535
0.381470
0.470877
0.542998
0.442863
0.338554
0.451803
0.524521
0.511408
0.645518
0.493526
0.487566
0.463724
0.594854
0.397563
0.535846
0.599623
0.471473
0.668764
0.690818
0.778437
0.790954
0.896454
0.903606
0.989437
0.886917
0.872612
1.081824
0.958443
1.015663
0.980496
1.149774
1.201630
1.472831
3.799796
13.420582
50.357580
108.733773
247.030854
389.588475
603.005886
741.854906
863.407850
876.682997
770.945549
634.052753
420.372486
275.181532
137.720704
##END
