##TITLE=FQP00301
##FORMAT=SPECTACLE-ASCII V-1.2
##DATA TYPE=ULTRAVIOLET SPECTRUM
##SECOND TYPE=ULTRAVIOLET SPECTRUM
##DATE=05/07/18
##TIME=15:21:13
##SPECTROMETER/DATA SYSTEM=SPECTACLE
##XUNITS=NM EM
##YUNITS=ENERGY
##YFACTOR=1
##FIRSTX=220
##LASTX=410
##NPOINTS=96
##3DDATA=Equidistant
##ZUNITS=NM EX
##FIRSTZ=210
##LASTZ=400
##ZPOINTS=39
##XYDATA=(Y..Y)
##ZVALUE=210
2.438426
2.698898
2.491474
2.570748
3.341436
2.807975
3.389716
3.520846
3.187656
2.867579
2.830625
2.813935
2.317429
2.623796
2.291799
3.124475
3.380775
3.296733
3.793836
3.746748
3.435612
3.854632
4.474521
3.994703
4.652739
4.673600
5.459785
4.931688
5.732775
5.692840
5.983710
7.043481
7.258654
6.220937
6.985664
6.513000
7.926822
7.232428
6.554723
7.955432
6.459951
8.588433
7.389784
7.276535
6.179810
6.236434
7.006526
6.216764
6.358624
7.166862
7.363558
7.593632
6.634593
6.035566
7.224679
6.113648
6.612539
7.333755
7.039905
7.955432
6.851554
7.344484
7.235408
7.227659
7.419586
8.107424
6.736517
7.915497
7.909536
11.758804
11.903644
14.727712
16.500950
19.159913
20.170808
20.812750
18.890500
20.493865
19.686818
18.911958
15.799999
15.409589
13.746619
13.262630
11.760592
9.851456
8.987784
7.823706
6.487966
7.198453
6.725788
6.803870
7.202625
7.558465
8.119941
8.178949
##ZVALUE=215
7.261634
7.154942
7.782578
5.753636
5.501509
5.847812
5.620718
5.772710
6.051660
5.995631
6.655455
5.426407
5.098581
4.390478
3.610849
3.391504
3.726482
3.259778
3.368855
3.287792
3.559589
4.256964
4.637837
4.620552
4.507899
5.835891
5.807877
6.856918
6.224513
7.256866
7.752776
9.171963
8.604527
8.743405
10.967851
9.151697
9.309649
9.977818
9.885430
10.262728
9.820461
9.609461
9.306669
9.728670
8.428693
9.534955
9.346604
8.076429
8.574724
7.957816
7.989407
7.542968
7.701516
7.025599
7.434487
8.248687
8.028746
8.450747
7.279515
7.618666
7.904768
7.825494
7.460713
8.489490
8.256435
8.004904
8.490682
8.947849
9.510517
10.371804
13.242960
15.608668
16.355515
16.837716
19.729733
19.141436
20.395517
19.174814
19.382834
18.255711
17.466545
15.489459
15.116930
12.876987
11.961460
10.965466
9.554625
8.935928
7.598996
7.687807
7.600784
7.826686
7.531643
7.315874
7.381439
8.018613
##ZVALUE=220
23.116469
25.328994
24.609566
26.490688
21.546483
19.261837
16.711950
13.868809
12.038946
10.969639
12.051463
12.212992
12.544990
11.340976
9.582639
8.007884
6.414652
4.397631
4.449487
4.208684
4.564524
3.938675
4.775524
4.794598
4.938841
6.651878
7.187724
8.360744
8.632541
11.563897
10.661483
12.175441
12.174845
12.622476
12.865663
13.631582
13.466477
14.332533
13.434887
14.286637
12.155771
13.364553
12.274981
11.905432
11.131763
10.909438
9.828806
10.802746
10.135770
9.833574
9.808540
9.935498
9.624958
8.737445
8.449554
9.042621
8.771420
8.759499
8.351803
9.682775
8.973479
9.539723
9.253621
8.187890
9.488463
8.862615
8.205771
10.592937
10.744929
11.695623
12.127757
13.175607
14.577508
15.711784
17.390847
19.103885
19.385815
21.951795
19.436479
20.178556
18.577576
17.673969
16.702414
15.311837
12.750626
11.615753
10.272861
9.630919
9.877682
8.679628
8.898973
8.594990
8.413792
8.541942
9.296536
7.472634
##ZVALUE=225
37.389994
42.233467
53.386688
65.459609
67.328811
66.246986
59.329867
50.606728
40.690899
27.193427
26.009679
21.047592
23.806691
26.806593
26.209950
23.687482
20.452738
17.919540
12.848973
9.734631
6.309748
4.923940
4.693866
4.880428
5.082488
6.194711
7.479787
8.538961
10.268688
11.302829
12.388825
13.558865
14.397502
16.085505
15.888810
16.695857
17.137527
16.425848
14.203787
15.994906
14.281869
15.080571
14.657974
12.861490
12.970567
13.439655
11.727810
11.285543
10.726452
11.353493
10.189414
10.374784
10.694861
9.662509
10.672808
9.800792
10.916591
9.466410
10.197759
10.680556
9.605885
11.049509
9.974837
8.903742
9.928942
11.033416
10.066628
10.577440
11.673570
12.642741
12.254715
14.270544
13.892651
16.487837
17.991662
17.464757
18.233657
17.691851
16.280413
17.320514
16.584992
17.370582
14.797449
14.272928
14.009476
11.688471
11.906624
12.322664
12.332797
12.105703
11.737943
11.789799
11.379719
12.385845
12.278557
11.863708
##ZVALUE=230
35.422444
38.627982
59.822798
94.773769
122.292638
148.754716
158.771873
162.815452
147.671700
124.504566
90.332627
64.248443
44.974685
42.568445
44.023991
45.327544
50.416589
49.608946
44.356585
36.221743
28.317571
18.265843
12.685657
7.719994
7.485747
7.082820
7.816553
9.683967
9.630919
11.192560
11.300445
12.957454
13.905764
12.903810
14.010668
13.829470
14.130473
15.064478
14.757514
14.351606
14.802814
14.599562
13.095737
13.138652
12.452602
12.931824
12.644529
11.601448
11.489987
11.581779
9.925961
11.639595
12.309551
10.821819
9.457469
11.855960
10.957718
11.995435
11.142492
10.423660
11.969805
12.101531
11.434555
11.930466
12.207627
13.003945
12.693405
14.741421
14.471412
15.856624
16.687512
17.160773
17.408729
19.331574
19.963980
18.359423
20.263791
20.590425
19.711852
20.007491
19.669533
19.279718
18.106699
17.563701
16.781688
18.642545
17.157793
17.219782
17.239451
17.696619
16.587973
16.167760
17.130971
17.089844
15.884638
15.553832
##ZVALUE=235
10.530949
12.854934
31.588674
62.788725
99.622607
169.880986
226.240754
285.671949
307.583809
310.414433
277.912617
218.200684
165.020823
108.755827
81.474781
69.393516
66.965818
74.944496
78.211427
77.204704
74.080825
68.546534
50.745606
35.388470
22.744536
17.490983
10.462999
9.021759
8.665919
8.854866
9.992719
10.203719
9.487867
11.361837
11.310577
11.856556
12.182593
11.915565
13.365746
11.854768
11.761785
12.648702
11.539459
12.000799
12.301803
11.321902
10.841489
11.317730
11.039972
10.977983
11.961460
10.649562
11.518598
11.175871
11.121631
11.268854
11.323690
13.054609
12.397766
12.693405
12.767911
13.820529
14.718771
14.734864
15.146732
16.462803
16.495585
17.528534
18.848777
18.137693
19.589663
21.127462
21.834970
24.598837
26.563406
25.424957
25.120974
26.527643
28.124452
26.204586
25.036931
24.382472
25.741458
25.251508
25.188923
24.363995
25.383830
24.245977
25.953650
23.719668
24.570823
23.847818
24.002790
24.233460
22.819638
23.573637
##ZVALUE=240
2.657771
2.426505
6.501675
16.512871
44.951439
80.361962
162.417889
242.700577
366.288424
443.748832
502.106547
492.721796
452.138782
368.644595
287.575722
186.480880
134.053826
98.365545
92.394948
97.077489
105.877519
112.031698
108.628869
99.519491
78.942776
64.405799
42.868853
32.904744
21.780729
15.768409
11.677742
10.140538
10.257959
10.440946
10.496974
10.532737
10.385513
10.095835
11.739731
10.852814
11.622906
11.141896
10.546446
12.338758
10.978580
11.970997
11.653900
11.380911
11.741519
12.112856
11.756420
11.829734
11.794567
11.990666
13.320446
13.091564
11.882782
13.509989
13.986826
14.668703
13.881922
15.251637
15.218854
15.711784
15.931726
16.236901
16.971827
18.560886
20.863414
21.710992
21.597743
25.663972
25.541782
28.944612
29.717684
28.422475
31.630993
30.742884
31.644702
29.061437
32.150745
31.648874
29.091835
31.507611
31.262636
29.150844
31.347871
30.830503
30.102730
29.464960
31.934977
31.610727
30.843616
30.224919
31.040907
31.886697
##ZVALUE=245
1.925826
1.823902
1.724958
2.158880
4.861951
10.885596
36.018491
76.375604
172.220469
259.082913
406.398773
509.367585
578.938723
612.718463
585.681796
483.400822
392.786860
260.468721
189.249516
121.124983
98.514557
93.726516
113.891959
120.812654
127.741694
121.237636
110.313892
95.869899
70.708990
53.965449
40.229559
24.649501
17.059445
12.840629
11.124611
11.406541
11.387467
10.778904
12.309551
11.909604
12.242794
12.055635
12.219548
12.356639
11.604428
12.744665
11.771917
12.762547
11.330843
11.327863
11.807680
10.697842
12.160540
10.378957
11.895895
11.018515
11.683702
12.729764
13.148785
12.187958
13.131499
13.765693
13.704896
14.496446
15.146732
15.562773
17.456412
17.706752
18.819571
20.133853
22.105575
23.341775
23.047924
25.257468
27.637482
28.148890
28.265715
29.000640
29.473901
30.573606
30.388832
28.121471
30.540824
30.348897
30.804873
29.646754
31.847954
30.833483
30.348897
31.306744
31.508803
31.033754
29.376745
30.989647
30.758977
31.927824
##ZVALUE=250
2.042651
1.973510
1.944900
1.794696
1.888871
1.921654
2.667904
8.119941
30.643940
65.628886
153.006911
251.497626
368.807912
519.818664
622.006655
699.337721
699.321032
614.018440
514.482856
361.640453
246.766806
164.589882
107.851624
91.656446
104.800463
117.173791
132.116675
137.856603
133.146644
122.371912
109.709501
82.195997
61.658621
39.893985
27.905703
18.645525
15.443563
13.358593
13.527870
15.354753
13.077855
14.031529
14.156699
12.893677
13.308525
13.716817
13.643503
12.859702
12.203455
12.125969
12.332797
12.538433
11.706948
10.982752
12.170672
12.022853
12.068748
11.682510
11.067986
11.460781
11.815429
12.620687
12.035966
12.652874
13.204813
14.025569
15.818477
16.020536
16.516447
18.828511
18.824935
20.476580
20.850897
23.177862
23.657680
24.973750
26.001930
25.846958
25.368929
25.350451
28.176904
27.421713
25.850534
28.785467
26.370883
28.711557
29.468536
28.446913
29.730797
28.760433
28.080940
29.280782
29.977560
29.144883
28.116703
30.251741
##ZVALUE=255
1.315475
1.370907
1.513958
1.604557
1.379848
1.341701
1.627803
1.789927
1.742840
3.362894
18.517971
47.703981
119.187832
201.827884
353.316665
490.803719
666.692853
756.855607
791.816711
751.500726
654.618740
476.727486
340.918899
194.008946
126.435757
89.846849
86.866617
107.208490
123.387575
140.261650
147.777796
143.098831
135.257840
110.432506
89.183450
62.410831
46.992898
30.078888
23.157001
17.582774
17.333627
16.240478
16.126633
16.887784
15.186667
14.465451
14.633536
15.009642
14.045835
13.573766
12.773871
13.109446
12.810826
13.781786
12.080669
12.439489
11.968613
11.842847
11.631846
11.737943
11.640787
11.974573
11.920929
12.567639
12.609959
12.872815
13.669729
14.568567
14.874935
15.716553
16.691685
18.151999
19.975901
19.085407
21.293759
22.072792
22.561550
22.670627
23.027658
24.442673
23.532510
24.344921
24.958849
24.903417
25.356412
24.916530
26.015639
26.191473
26.675463
26.434660
27.100444
27.719736
26.341677
27.389526
27.098656
27.699471
##ZVALUE=260
1.602769
1.266599
1.241565
1.408458
1.585484
1.415610
1.628995
1.585484
1.725554
1.922846
2.293587
2.733469
8.114576
32.659769
72.255731
171.296597
281.791687
468.451977
615.640879
794.924498
875.827670
881.316662
774.987936
633.322001
421.524644
292.145610
170.474648
110.959411
81.913471
87.922812
109.584928
132.829547
150.723457
165.219903
157.979727
141.497850
127.526522
95.461607
74.374676
51.075816
37.094951
26.850700
22.833943
19.236803
18.655658
17.077923
17.254949
16.823411
15.739799
15.309453
15.817881
14.230609
13.804436
13.837814
12.958646
13.099909
12.735724
12.543797
11.738539
11.699796
11.256933
11.910796
12.852550
12.355447
12.517571
12.747645
12.675524
13.633966
14.233589
15.029907
15.519857
17.233491
18.550754
18.982887
18.133521
20.373464
21.037459
20.954609
21.270514
21.427870
22.543669
22.779703
22.954941
23.635626
23.342967
24.266839
23.906827
24.464726
24.814606
23.404956
23.980737
25.553703
24.313927
25.737882
25.411844
25.814772
##ZVALUE=265
1.196861
1.228452
1.204610
1.433492
1.103878
1.422763
1.147985
1.348853
1.533628
1.745820
1.518726
1.691580
1.843572
2.024770
4.337430
22.699833
52.872896
132.929683
233.909488
433.579683
610.723495
776.345730
937.747955
967.970490
875.363946
757.475495
559.991598
401.243567
233.035684
147.192478
98.098516
79.608560
93.082786
119.615793
142.972469
163.732767
171.788931
164.759755
149.640441
124.507546
98.409653
70.858598
52.585602
35.917759
27.138591
20.910501
19.732714
18.267632
17.162561
16.549826
16.511679
15.094876
15.513897
14.489889
14.017820
14.000535
12.421608
12.463927
12.520552
11.438727
12.276769
11.829734
12.046695
11.657476
12.108684
12.087822
12.068748
13.462901
14.388561
13.817549
14.204979
15.453696
16.971827
18.091798
18.578768
18.694997
18.730760
20.111799
20.117760
20.251870
21.576881
21.588802
22.458434
22.562742
21.486878
23.382902
22.937655
23.237467
23.493767
25.078654
23.236871
23.746490
23.874640
25.034547
23.634434
24.804473
##ZVALUE=270
0.833869
1.108646
1.140833
1.229644
1.103878
1.013875
1.442432
1.262426
1.337528
1.455545
1.183748
1.592636
1.657605
1.655817
1.800656
2.044439
2.690554
10.261536
29.748678
95.862746
187.234879
326.275826
567.192435
756.185651
947.329998
1014.904976
995.686650
901.836753
706.844926
536.298752
371.179581
201.562643
122.911930
75.492859
75.892806
100.443959
120.324492
148.962736
164.660811
171.502829
165.752769
147.807598
127.028823
98.297596
73.539615
47.898889
36.000609
25.844574
20.313859
17.423630
15.971661
15.412569
15.053749
14.082789
13.836622
13.187528
12.807846
12.201667
11.827946
11.923909
11.390448
12.096763
11.970997
11.546612
12.067556
12.075901
12.529492
13.021827
13.709664
13.368726
15.277863
15.270710
15.843511
16.505718
17.569661
18.164515
18.050671
19.085407
18.281937
18.847585
20.055771
19.350648
20.582676
20.813942
20.602942
22.106767
21.935701
21.043420
21.906495
21.580458
22.265911
23.093820
22.431612
22.649765
21.791458
22.443533
##ZVALUE=275
0.929832
1.026988
1.009703
0.931621
1.271963
1.037717
1.228452
1.099706
1.021624
1.098514
1.211762
1.281500
1.311898
1.385808
1.364946
1.278520
1.646876
1.648664
1.911521
4.770756
18.080473
50.928593
145.270824
272.420645
500.541925
674.589872
889.357924
1004.656553
1015.684605
1004.780531
888.371468
657.870770
471.268892
255.958438
153.223872
79.240799
62.870979
71.011782
89.849830
120.528936
139.791965
157.896876
164.616704
159.246922
145.112872
116.751790
95.212460
67.985654
49.393773
32.497644
24.659634
16.876459
15.595555
13.228655
12.536645
11.894703
11.487603
11.878610
11.973977
11.243820
11.906624
11.493564
11.333823
12.033582
11.583567
11.802912
13.097525
12.734532
12.858510
14.176965
14.490485
15.490651
15.875697
16.592741
16.569495
18.539429
18.252730
18.491745
18.714666
19.047856
20.400882
19.830465
19.911528
20.776987
19.934773
20.152926
20.204782
20.388961
21.167994
21.333694
21.529794
21.257997
21.661520
22.062659
21.458864
21.617413
##ZVALUE=280
0.746846
0.724792
1.012683
1.019835
0.974536
0.866652
1.042485
1.170635
0.966787
1.223683
1.265407
1.140833
1.220703
1.072884
1.205802
1.381636
1.639724
1.526475
1.513958
1.552701
1.772642
2.269745
11.984706
39.172769
119.760633
217.294693
400.682688
585.571527
829.834938
985.271931
1015.684605
1015.684605
972.613692
743.794441
553.628802
319.079757
194.328427
90.259910
55.416822
48.401952
61.511993
87.303519
108.858943
137.775540
149.108768
156.050920
150.228739
134.464502
114.706755
85.826516
64.673424
42.748451
30.408502
19.248724
15.404820
11.965632
10.732412
10.756850
10.896921
10.933876
10.435581
11.430979
11.862516
11.841655
12.047887
11.860728
12.083650
12.920499
13.534427
14.124513
14.538765
15.488863
15.649796
15.463829
17.569661
17.490983
17.495751
18.811822
18.622875
18.545985
19.370914
19.281507
20.181537
20.034909
19.954443
20.781755
20.795465
20.396709
20.681620
20.630956
21.468997
20.664930
21.031499
21.077991
21.308661
21.640658
##ZVALUE=285
0.816584
0.875592
1.033545
0.791550
1.025796
0.818968
0.739694
1.029968
1.091957
0.925660
0.841618
0.893474
1.029968
1.084805
1.028776
1.204610
1.260638
1.245737
1.377463
1.184940
1.443624
1.597404
1.712441
2.036691
6.355643
20.425916
66.668987
137.411952
290.399790
459.772944
651.356578
892.701745
1015.694737
1015.694737
1015.694737
866.792798
683.535933
427.955985
268.636942
130.352974
68.564415
37.699938
37.984848
56.655407
75.265765
107.068419
125.711560
142.816901
149.658918
145.975947
132.617950
110.222697
89.227557
61.763525
45.198798
27.520657
19.018650
13.363957
11.842847
10.336637
10.475516
11.342764
11.124611
11.694431
12.105703
12.437701
12.808442
13.132691
13.271570
14.734864
14.921427
14.963746
16.281605
17.091632
17.150640
17.270446
18.012524
18.532872
18.939972
19.098520
19.804835
19.654632
20.482540
20.627975
20.199418
20.510554
20.623803
20.533800
21.055937
20.783544
20.912886
21.284819
20.577908
21.560788
21.071434
20.458698
##ZVALUE=290
0.874996
0.662804
0.540614
0.770688
0.646710
0.747442
0.835657
0.870824
0.730753
0.904799
0.789762
0.837445
0.934601
0.903606
0.927448
0.763535
1.082420
1.066923
1.060963
1.200438
1.137853
1.187921
1.339912
1.277924
1.917481
1.762509
2.548695
8.418560
39.306879
90.123415
143.498778
356.683731
544.549823
821.360946
988.833904
1015.650630
1015.650630
970.001817
798.201561
538.443923
356.719494
181.080699
95.658898
39.344430
26.942492
34.903884
48.936605
74.089766
92.541575
118.718743
135.044456
145.810843
141.842961
126.877427
109.194517
81.470609
62.233806
40.710568
29.247999
18.251538
14.417768
12.054443
11.494756
11.182427
11.331439
11.754632
12.765527
13.576746
13.365746
14.518499
14.759898
15.798807
16.525984
17.430782
17.120838
18.245578
18.223524
19.032955
18.868446
19.542575
19.750595
20.518899
20.308495
20.869970
20.631552
20.907521
21.159649
21.000504
21.313429
21.297932
21.241903
21.669865
21.578670
21.481514
20.867586
21.309853
##ZVALUE=295
0.666976
0.864863
0.757575
0.848770
0.718832
0.769496
0.786781
0.595450
0.645518
0.722408
0.826716
0.924468
0.789762
0.905991
0.841618
0.947714
0.889897
1.000762
0.964999
0.978708
1.030564
1.106858
1.260638
1.320839
1.326799
1.482964
1.613498
1.679659
1.944900
3.474951
12.976527
54.299831
124.376416
286.788940
460.968018
725.427866
915.454030
1015.688777
1015.688777
1015.688777
896.745920
644.892454
446.447730
239.980817
130.703449
50.099492
26.767850
22.426844
30.175447
46.725869
65.133572
91.187954
109.466910
129.937530
137.869716
134.126544
122.687817
102.056861
83.383918
59.118867
42.710900
27.988553
19.602776
15.127659
12.496710
12.078881
12.495518
12.774467
13.863444
14.532804
15.389919
16.129613
16.876459
17.821789
17.732978
18.453598
18.996596
18.834472
19.337535
19.950867
20.047426
20.052791
20.646453
21.062493
21.302700
21.623969
21.007657
21.311641
21.718740
22.037625
21.772981
21.430850
21.334887
21.235943
20.960569
20.802617
##ZVALUE=300
0.612736
0.518560
0.729561
0.725985
0.647902
0.779629
0.698566
0.761747
0.777841
0.777841
0.709891
0.942945
0.800490
0.878572
0.683665
0.696778
0.784993
0.785589
0.776649
0.823736
0.945926
0.807643
0.902414
1.093745
1.315475
1.024604
1.193881
1.330972
1.381636
1.650453
1.642704
2.127886
5.764961
32.524467
81.441998
206.674933
350.176692
605.232716
801.191926
1004.081964
1015.684605
1015.684605
984.002948
745.310783
550.963879
314.439535
187.368989
83.263516
40.687919
17.747879
17.876625
27.329922
39.980412
61.174631
81.192851
105.088949
118.951797
131.126642
127.743483
118.422508
103.321671
80.105662
63.091516
43.557882
31.525493
20.933747
16.870499
14.543533
14.297962
14.324784
15.151501
16.044974
16.659498
17.118454
18.520951
18.351674
18.401742
19.411445
20.250678
20.761490
20.154715
20.894408
21.386743
21.863580
21.972656
22.012591
22.061467
21.904707
21.857619
22.351742
21.628737
22.194982
22.175908
21.786690
21.484494
21.193624
##ZVALUE=305
0.555515
0.791550
0.670552
0.677705
0.609756
0.584722
0.608563
0.608563
0.685453
0.611544
0.719428
0.657439
0.715852
0.808835
0.614524
0.810623
0.731945
0.909567
0.949502
0.819564
0.911951
0.903606
1.176596
0.820756
0.960827
0.961423
1.015663
1.225471
1.111627
1.379848
1.426935
1.463890
1.501441
1.789927
4.365444
15.860796
63.652992
136.592984
301.748514
471.157432
728.811622
907.897949
1015.679836
1015.679836
1007.941961
862.772465
622.089505
437.943935
235.765576
127.929449
48.777461
22.979975
13.772845
16.557574
26.152730
37.725568
60.416460
77.476501
101.331472
113.199949
124.430656
123.826861
112.808943
101.098418
78.234673
61.169863
42.416453
31.929612
22.140741
18.436909
16.464591
16.243458
16.717911
17.665625
18.007755
18.869638
19.357800
19.495487
20.589828
20.650625
21.602511
21.974444
21.740794
22.773743
22.611618
22.464991
22.871494
22.795796
22.732615
22.459626
22.306442
21.921992
21.780729
21.690726
21.827817
21.913648
##ZVALUE=310
0.624657
0.671744
0.616908
0.646710
0.699759
0.571609
0.483990
0.679493
0.609756
0.726581
0.571609
0.364780
0.589490
0.544786
0.700951
0.701547
0.607967
0.874996
0.683665
0.701547
0.703931
0.815988
0.794530
1.027584
0.868440
0.880957
0.846982
0.990629
0.968575
0.984669
1.285672
1.298785
1.464486
1.391768
1.526475
1.765490
2.230406
6.662607
33.584833
81.001520
201.951861
344.474912
596.852899
794.376731
1004.430652
1015.682817
1015.682817
990.977883
760.883689
558.650494
318.951011
188.520551
81.103444
38.191676
14.781952
11.869669
16.128421
22.497773
35.814643
50.230622
72.691441
88.586807
108.024478
115.788579
118.860602
112.554431
98.457932
82.088709
59.196949
45.486689
32.927990
26.035905
21.589994
18.855929
18.290877
18.807650
19.371510
19.436479
20.036697
20.918846
21.444559
21.838546
22.339821
22.138953
22.731423
22.898912
23.466945
23.076534
23.138523
23.037791
22.630692
22.417903
22.405982
22.596717
22.272468
21.477938
##ZVALUE=315
0.610948
0.575781
0.684857
0.625849
0.718832
0.749826
0.572801
0.535846
0.669956
0.637770
0.638962
0.690818
0.715852
0.879765
0.659823
0.650883
0.752807
0.702739
0.663996
0.788569
0.785589
0.800490
0.856519
0.975728
0.999570
1.102686
1.051426
0.970960
1.043677
0.926852
1.001954
1.133680
1.178980
1.181960
1.474619
1.172423
1.330972
1.840591
1.747608
3.974438
13.763905
57.555437
127.286911
288.237929
464.653969
748.286843
918.986797
1015.788913
1015.788913
1015.444994
887.703896
639.258027
449.595451
240.099430
129.328966
48.439503
21.285415
11.103749
11.244416
15.798807
21.727681
35.162568
47.969818
68.307519
85.070729
104.492903
112.608671
114.588737
109.305978
92.612505
79.588890
60.702562
46.912432
33.896565
27.509928
22.971630
21.011829
20.644665
20.612478
21.104813
21.437407
22.079945
22.702813
22.512674
23.044944
23.458600
23.207664
23.160577
23.621917
22.828579
22.951961
23.324490
23.171902
22.418499
22.385716
22.267699
##ZVALUE=320
0.577569
0.453591
0.410676
0.458956
0.510812
0.578761
0.587702
0.546575
0.534654
0.573993
0.433922
0.686646
0.683665
0.400543
0.760555
0.525713
0.555515
0.814795
0.668764
0.703931
0.727773
0.800490
0.552535
0.662804
0.768900
0.753999
0.752807
0.915527
0.956655
0.891685
0.943542
0.902414
1.146793
0.947714
1.053810
1.143813
1.152754
1.173615
1.117587
1.463890
1.638532
2.316833
6.089807
31.107664
81.367493
212.143660
352.249742
586.313605
779.458880
997.753739
1015.699506
1015.699506
971.698761
744.398832
550.719500
308.289528
176.802874
76.756477
35.253763
13.562441
10.501742
11.712909
14.180541
21.152496
30.427575
46.593547
61.569810
82.041621
95.360875
108.515620
110.576749
104.566813
94.697475
77.236891
62.256455
45.494437
36.273599
28.063655
24.531484
22.714734
21.955967
21.868944
22.032857
22.626519
22.729635
22.601485
23.034811
22.740960
22.974610
23.560524
23.198724
22.685528
22.787452
22.343993
22.748709
22.378564
##ZVALUE=325
0.555515
0.487566
0.488758
0.478625
0.397563
0.316501
0.400543
0.309944
0.513792
0.408888
0.502467
0.478625
0.574589
0.505447
0.505447
0.463724
0.560880
0.562668
0.563860
0.623465
0.506639
0.606775
0.797510
0.695586
0.708699
0.681877
0.655651
0.971556
0.652671
0.683665
0.751615
0.620484
0.769496
0.930429
0.922680
1.094937
0.998974
1.118779
1.129508
1.047850
1.328588
1.279712
1.449585
1.794696
3.453493
20.790696
55.029988
144.930482
260.792971
486.485958
681.693554
917.410851
1015.684605
1015.684605
1006.346941
805.178881
611.849427
372.995734
226.847529
100.502968
49.157739
17.244816
11.020899
10.447502
11.482835
15.199780
20.711422
31.942725
44.039488
63.509941
78.758001
93.855858
102.697611
104.679465
100.029707
86.845756
74.042678
57.397485
46.604872
34.794807
28.903484
23.974776
23.465753
22.467971
22.467971
22.693872
22.565722
22.750497
22.233725
22.729635
22.243857
22.816658
22.702813
22.122860
21.877885
21.996498
##ZVALUE=330
0.425577
0.434518
0.483990
0.517964
0.608563
0.672936
0.481606
0.418425
0.582933
0.346899
0.312924
0.400543
0.580549
0.514984
0.538826
0.550747
0.591874
0.747442
0.559688
0.703931
0.477433
0.550747
0.425577
0.709891
0.548959
0.516772
0.696778
0.628829
0.727773
0.804663
0.725985
0.789762
0.821948
0.717640
0.767708
0.830889
0.847578
0.883937
0.952482
0.909567
1.094937
1.078844
1.351833
1.376867
1.482964
1.535416
2.137423
6.883740
33.899546
84.862709
210.940838
352.056623
597.986579
785.055757
985.974669
1015.684605
1014.661789
908.806920
685.594678
504.401922
281.467438
160.619617
66.669583
30.639768
12.417436
10.315776
10.652542
12.203455
16.330481
21.897554
33.165812
44.159889
61.397552
75.446963
91.153979
98.632574
99.822879
95.710754
83.851814
71.136951
55.701733
45.618415
34.965873
30.073524
25.253892
23.568869
22.619963
22.167563
22.157431
22.063851
21.630526
21.348000
21.603703
21.317601
21.853447
21.299720
##ZVALUE=335
0.399947
0.645518
0.303984
0.470877
0.538826
0.569820
0.405908
0.509620
0.538826
0.555515
0.399947
0.345707
0.328422
0.494719
0.452995
0.343919
0.385642
0.475645
0.468493
0.465512
0.487566
0.567436
0.427961
0.471473
0.471473
0.608563
0.468493
0.646710
0.779629
0.592470
0.762939
0.673532
0.638962
0.597835
0.697970
0.827909
0.703931
0.839829
0.559688
0.962615
0.966787
0.944734
1.053810
1.097918
1.081824
1.083612
1.151562
1.389980
1.686811
3.911853
14.815927
59.376955
126.241446
281.838775
451.796651
714.711547
884.600878
1015.684605
1015.684605
945.050716
793.767571
546.580553
370.805860
195.579529
104.775429
38.972497
18.237829
10.756850
10.854602
11.550784
12.792945
16.277432
21.495819
31.982660
43.073893
60.160756
73.421001
87.051988
94.527602
94.865561
91.157556
78.522563
68.909526
54.772496
45.972466
35.071969
30.285716
24.874806
23.128986
21.963716
21.302700
21.162629
21.037459
20.971894
20.565987
20.706654
##ZVALUE=340
0.471473
0.516772
0.370741
0.337958
0.359416
0.581741
0.393987
0.460744
0.459552
0.422597
0.298619
0.467896
0.446439
0.485778
0.357628
0.605583
0.513792
0.640750
0.540614
0.646710
0.572801
0.478625
0.462532
0.496507
0.430942
0.676513
0.538826
0.619888
0.677705
0.577569
0.666976
0.839829
0.623465
0.709891
0.828505
0.562668
0.681877
0.852942
0.666976
0.792742
0.698566
0.797510
0.914931
0.850558
0.917912
1.041889
1.126528
1.100898
1.195669
1.432896
1.549721
2.222657
7.448792
36.592484
89.352727
220.938921
378.565788
624.824762
799.764991
974.678993
1015.684605
973.047614
844.065547
625.811815
438.702703
232.556462
129.583478
54.713488
23.829937
11.781454
10.755658
11.117458
11.954904
13.761520
16.721487
22.648573
29.959679
42.964816
54.684877
71.774721
81.471801
89.629889
90.048909
86.331964
78.450441
66.302419
55.305958
43.441653
35.869479
28.481483
24.695992
22.131801
20.904541
19.934773
20.190477
19.975901
##ZVALUE=345
0.386834
0.434518
0.295639
0.297427
0.436902
0.253916
0.440478
0.426769
0.572801
0.454783
0.483990
0.412464
0.257492
0.386834
0.498891
0.489950
0.474453
0.450611
0.329614
0.597835
0.634789
0.610948
0.621676
0.600815
0.539422
0.716448
0.370741
0.583529
0.662804
0.542998
0.673532
0.679493
0.657439
0.651479
0.579953
0.609756
0.734925
0.675917
0.645518
0.753999
0.543594
0.716448
0.727773
0.948906
0.945926
0.751615
0.792742
1.037717
1.016855
1.069903
1.006722
1.159906
1.298785
1.635551
3.360510
20.101666
55.299997
148.237944
265.113711
482.725501
663.617849
884.347558
986.644626
999.857783
912.172794
698.942542
519.529581
307.950974
174.747705
71.833730
34.689903
14.305711
11.469722
11.080503
11.711717
12.103915
13.106465
16.429424
21.034479
30.123591
39.275885
53.832531
64.042807
75.378418
80.640912
84.022880
81.843734
73.487759
65.658689
53.362846
43.530464
33.481717
27.537942
23.074746
21.109581
19.264817
##ZVALUE=350
0.377893
0.243783
0.360608
0.318885
0.451803
0.483990
0.379682
0.393987
0.386834
0.440478
0.373721
0.482798
0.431538
0.305772
0.398755
0.416636
0.440478
0.490546
0.417829
0.460744
0.386834
0.570416
0.430942
0.504851
0.585914
0.572801
0.631809
0.480413
0.535846
0.630617
0.593662
0.576973
0.633597
0.615716
0.533462
0.603795
0.605583
0.627637
0.783801
0.634789
0.796914
0.644922
0.644922
0.548959
0.699759
0.639558
0.834465
0.672936
0.791550
0.854731
0.991821
1.146793
1.181960
1.232624
1.271963
1.578927
1.947880
10.050535
32.336712
102.513433
194.883943
387.258530
557.833910
778.882504
912.225842
986.536741
942.810774
768.839717
592.692494
364.358425
221.408606
101.395845
48.985481
17.636418
11.456609
10.630488
11.008978
11.602640
11.707544
13.398528
15.582442
20.476580
26.566982
36.915541
45.949817
58.385730
66.860914
74.466467
76.055527
74.614882
69.464445
58.790445
51.100850
40.415525
32.988787
26.364923
##ZVALUE=355
0.268817
0.282526
0.206828
0.328422
0.181794
0.201464
0.337958
0.371933
0.197887
0.299811
0.286698
0.304580
0.358820
0.220537
0.409484
0.427961
0.530481
0.334978
0.328422
0.308752
0.383854
0.386834
0.358820
0.460744
0.259876
0.330806
0.461936
0.360608
0.488758
0.553727
0.452995
0.427961
0.336766
0.517964
0.369549
0.586510
0.589490
0.552535
0.625849
0.390410
0.425577
0.661612
0.682473
0.661612
0.633597
0.697970
0.579953
0.639558
0.682473
0.779629
0.803471
0.934601
0.978708
0.932813
0.956655
1.082420
1.115799
1.303554
1.528859
4.536510
17.175674
65.841675
136.067867
283.829570
446.966887
687.859654
839.538574
945.401788
945.582986
810.893774
656.372905
436.413884
276.261568
124.779940
61.896443
21.818876
12.203455
9.746552
10.085702
10.492802
11.060834
11.492968
12.412667
14.548898
17.557740
23.835897
30.884743
41.064620
49.768686
59.980750
65.985918
69.704652
69.325566
63.825846
57.116747
47.053695
##ZVALUE=360
0.416636
0.484586
0.343919
0.252724
0.392795
0.327826
0.326633
0.323653
0.501871
0.465512
0.473857
0.582933
0.494719
0.422597
0.458956
0.514984
0.461936
0.304580
0.382662
0.464916
0.431538
0.550747
0.578761
0.559688
0.427961
0.550747
0.502467
0.534654
0.588894
0.436902
0.401735
0.483990
0.621676
0.464916
0.441670
0.614524
0.530481
0.764728
0.723600
0.626445
0.492930
0.580549
0.476837
0.761747
0.760555
0.688434
0.726581
0.648499
0.743866
0.918508
0.748634
0.763535
1.127720
0.940561
0.999570
1.053810
0.901818
1.157522
1.179576
1.293421
1.707673
2.576709
7.723570
33.748746
83.267689
207.366943
343.413949
559.452772
737.895966
903.638005
948.022008
884.987712
754.252672
520.947576
351.119637
172.273517
90.497732
34.950972
16.050935
9.597540
9.737611
9.865761
9.792447
10.525584
10.886788
11.640787
12.884736
15.847683
19.128919
26.198626
33.501983
44.070482
51.296949
59.397817
62.901974
63.248873
##ZVALUE=365
0.395775
0.291467
0.200868
0.427961
0.336766
0.347495
0.418425
0.385642
0.316501
0.283718
0.333786
0.391603
0.451803
0.370741
0.391603
0.451803
0.292659
0.404716
0.430942
0.432730
0.487566
0.407696
0.448823
0.372529
0.402927
0.435710
0.465512
0.401735
0.440478
0.342727
0.610948
0.509620
0.526905
0.528693
0.509620
0.480413
0.460744
0.727773
0.467896
0.497699
0.617504
0.648499
0.567436
0.818968
0.611544
0.643730
0.578761
0.609756
0.688434
0.651479
0.750422
0.552535
0.659823
0.723600
0.874996
0.930429
1.043677
0.940561
0.982881
1.134872
1.301765
1.348853
1.461506
1.669526
3.444552
18.819571
51.758885
138.407946
256.585479
473.906994
642.992854
830.639005
913.122892
887.966752
785.971880
590.772629
422.365665
225.804448
125.070810
46.900511
20.571947
9.300709
8.895993
8.670688
9.129643
9.353757
9.309649
9.526610
10.141730
11.414886
13.123751
17.355680
21.792650
30.095577
37.211776
45.635700
##ZVALUE=370
0.446439
0.451803
0.376701
0.394583
0.406504
0.404716
0.346899
0.502467
0.390410
0.463724
0.326633
0.286698
0.392795
0.376701
0.342727
0.261664
0.503659
0.231862
0.375509
0.227690
0.311732
0.406504
0.464916
0.591874
0.381470
0.601411
0.441670
0.467896
0.359416
0.479817
0.489950
0.591874
0.437498
0.545979
0.649691
0.557899
0.571609
0.514984
0.553727
0.249743
0.389814
0.487566
0.413656
0.523925
0.549555
0.497699
0.706911
0.457764
0.511408
0.710487
0.630617
0.579953
0.556707
0.672936
0.698566
0.740886
0.827909
0.779629
1.015663
0.857711
1.038909
1.073480
1.125932
1.164675
1.343489
1.429915
2.048612
9.815693
32.450557
104.678869
196.337700
375.177860
545.373559
764.535666
869.920850
895.754695
823.194981
650.205612
482.832789
271.633863
155.422688
63.580871
30.358434
12.458563
8.838773
8.001924
8.063912
8.166432
8.571744
8.635521
9.017587
9.318590
10.373592
12.067556
14.385581
19.385815
##ZVALUE=375
0.622869
0.643730
0.562668
0.591874
0.566840
0.554919
0.518560
0.594854
0.556707
0.534654
0.576973
0.459552
0.343919
0.569820
0.517964
0.578761
0.604987
0.678897
0.561476
0.497699
0.568628
0.593662
0.610948
0.649691
0.493526
0.625849
0.776649
0.662804
0.733733
0.826716
0.682473
0.591874
0.698566
0.585914
0.735521
0.781417
0.559688
0.609756
0.694990
0.797510
0.634789
0.700951
0.703931
0.697970
0.850558
0.654459
0.690818
0.689626
0.563860
0.840425
0.718832
0.754595
0.769496
0.913739
0.895858
0.812411
0.798702
0.887513
0.952482
0.759959
0.907779
1.058578
1.119971
1.015663
1.037717
1.253486
1.276731
1.559854
1.852512
5.217791
17.285943
61.571002
133.618712
294.489861
456.471443
678.384900
808.217525
896.844864
874.594450
729.221702
576.141477
361.936688
236.215591
121.284723
63.488483
22.188425
10.404587
7.609725
7.424951
7.864833
7.700920
7.895827
8.131862
8.594990
8.680820
9.261966
##ZVALUE=380
0.389814
0.425577
0.481606
0.307560
0.416636
0.419617
0.318885
0.419617
0.323653
0.216961
0.390410
0.240803
0.277758
0.302792
0.425577
0.336766
0.234842
0.308752
0.301600
0.301600
0.422597
0.447631
0.297427
0.360608
0.408888
0.372529
0.345707
0.373721
0.425577
0.463724
0.591874
0.362992
0.445843
0.475645
0.372529
0.567436
0.509620
0.426769
0.551939
0.489950
0.350475
0.368953
0.396967
0.357628
0.488758
0.520945
0.530481
0.453591
0.520945
0.541806
0.439882
0.281930
0.541806
0.475645
0.524521
0.599623
0.672936
0.727773
0.681877
0.756979
0.680685
0.527501
0.648499
0.655651
0.795722
0.817776
0.899434
1.076460
1.220703
1.349449
1.324415
2.632737
9.463429
44.516921
102.786422
240.241885
385.968685
599.575639
755.609870
879.447460
883.063674
768.218637
636.478662
448.979735
306.007862
156.631470
84.524751
31.813979
14.196634
7.480979
6.729960
6.737709
6.945729
6.908774
7.252693
7.586479
##ZVALUE=385
0.374913
0.189543
0.330806
0.247955
0.361800
0.257492
0.255704
0.387430
0.368953
0.282526
0.421405
0.413656
0.185966
0.263453
0.268817
0.220537
0.249743
0.244975
0.321865
0.267625
0.282526
0.227690
0.384450
0.292659
0.320673
0.349879
0.510812
0.381470
0.393987
0.365973
0.365973
0.422597
0.258684
0.368953
0.490546
0.348687
0.578761
0.392795
0.433922
0.451803
0.427961
0.420809
0.431538
0.423789
0.430942
0.316501
0.344515
0.387430
0.520945
0.378489
0.354648
0.290871
0.517964
0.276566
0.511408
0.442863
0.495911
0.551939
0.667572
0.566840
0.546575
0.678897
0.497699
0.698566
0.621676
0.654459
0.741482
0.913739
0.947714
1.046658
1.121759
1.097918
1.505613
1.628995
4.469752
24.907589
64.654946
165.234804
292.728543
511.243939
675.857663
832.490921
876.270533
835.459828
734.973550
537.296534
380.358696
208.663940
118.745565
50.185919
21.258593
7.880926
6.408691
6.234646
6.348491
6.455779
##ZVALUE=390
0.137687
0.312924
0.245571
0.236630
0.383854
0.392795
0.155568
0.182986
0.150800
0.154972
0.100732
0.181794
0.223517
0.305772
0.245571
0.139475
0.241995
0.217557
0.177622
0.147820
0.179410
0.281930
0.288486
0.328422
0.278950
0.292659
0.357628
0.322461
0.450611
0.345707
0.494719
0.275970
0.315905
0.370741
0.408888
0.370741
0.295639
0.259876
0.389814
0.432730
0.306964
0.278950
0.295639
0.269413
0.198483
0.512600
0.351667
0.499487
0.357628
0.340939
0.499487
0.491738
0.509620
0.399947
0.478625
0.258684
0.418425
0.457764
0.421405
0.434518
0.438690
0.707507
0.659823
0.573993
0.621676
0.510812
0.546575
0.810623
0.694990
0.911951
1.120567
1.188517
1.151562
1.321435
1.215935
1.340508
2.338886
13.073683
41.417480
125.786662
234.440565
435.130000
588.047504
757.488012
850.794911
871.864557
801.168680
634.268522
483.376980
292.137861
168.119669
69.559813
32.401681
10.574460
6.413460
5.762577
##ZVALUE=395
0.110865
0.244975
0.151992
0.062585
0.324845
0.158548
0.264645
0.446439
0.302792
0.161529
0.306964
0.110865
0.191927
0.246763
0.242591
0.276566
0.299811
0.244975
0.308752
0.313520
0.327826
0.290871
0.255704
0.311732
0.296831
0.299811
0.228882
0.306964
0.123978
0.259876
0.327826
0.262856
0.447631
0.349879
0.371933
0.443459
0.331998
0.322461
0.443459
0.276566
0.354648
0.230670
0.466704
0.378489
0.296831
0.393987
0.413656
0.304580
0.437498
0.445843
0.397563
0.388622
0.439882
0.314713
0.531673
0.352859
0.456572
0.439882
0.391603
0.395775
0.323653
0.473857
0.390410
0.521541
0.472665
0.492930
0.577569
0.787973
0.670552
0.911951
0.823736
0.885725
0.891685
0.886917
1.088977
1.024604
1.235604
1.252890
5.023479
8.017421
26.465654
88.469982
169.114470
323.254466
477.359891
685.499907
813.324451
890.002847
867.995024
736.907721
577.556491
358.793736
224.816799
99.428892
48.646927
16.871691
##ZVALUE=400
0.298619
0.324845
0.254512
0.221729
0.235438
0.091791
0.234842
0.413656
0.378489
0.330806
0.366569
0.316501
0.329614
0.217557
0.247955
0.369549
0.259876
0.226498
0.336766
0.380874
0.439882
0.457764
0.442863
0.442863
0.281930
0.325441
0.226498
0.377893
0.386834
0.408888
0.478625
0.479817
0.385642
0.435710
0.560880
0.455976
0.349879
0.418425
0.495911
0.401735
0.480413
0.533462
0.447631
0.521541
0.544786
0.596642
0.398755
0.413656
0.444651
0.485778
0.414848
0.545979
0.461936
0.532866
0.547767
0.663996
0.428557
0.643730
0.526905
0.627637
0.623465
0.553727
0.559688
0.522733
0.607967
0.706911
0.710487
0.674725
0.856519
0.861883
0.986457
0.996590
1.009703
0.956655
0.932813
0.969768
1.041889
1.212955
1.102686
1.332760
1.365542
4.237890
14.441609
52.414536
112.140775
248.729587
394.396782
601.570606
744.305849
854.427814
864.372849
760.604739
625.314713
415.800810
274.580717
138.659477
##END
