##TITLE=QP00601
##FORMAT=SPECTACLE-ASCII V-1.2
##DATA TYPE=ULTRAVIOLET SPECTRUM
##SECOND TYPE=ULTRAVIOLET SPECTRUM
##DATE=05/07/18
##TIME=14:44:21
##SPECTROMETER/DATA SYSTEM=SPECTACLE
##XUNITS=NM EM
##YUNITS=ENERGY
##YFACTOR=1
##FIRSTX=220
##LASTX=410
##NPOINTS=96
##3DDATA=Equidistant
##ZUNITS=NM EX
##FIRSTZ=210
##LASTZ=400
##ZPOINTS=39
##XYDATA=(Y..Y)
##ZVALUE=210
3.182888
3.396869
2.536774
2.767444
2.878904
2.824664
2.958775
4.155636
3.550649
3.209710
2.210736
3.038645
2.809763
3.043413
3.178716
3.237724
3.383756
3.491640
3.719926
4.285574
4.214644
4.314780
4.202724
4.484653
4.231930
4.575849
4.845858
4.435778
4.850626
4.911423
5.352497
5.603433
5.730987
5.419850
6.387830
5.813837
6.608963
6.089807
6.169677
6.584525
6.208420
6.913543
6.873608
6.648898
7.457733
7.040501
6.674528
6.046891
7.818937
7.484555
7.542968
7.499456
6.856918
8.204579
7.373691
8.413792
7.459521
7.598996
7.545948
8.561611
8.126497
7.638931
8.325577
8.201599
9.230971
9.407997
9.662509
10.977983
11.839867
13.747811
16.165972
18.445849
21.836758
23.752451
24.609566
26.469827
28.092861
26.924610
26.737452
25.245547
24.677515
20.206571
18.996596
16.020536
13.445616
11.096597
10.206699
9.766817
7.917881
9.273887
8.768439
9.097457
8.972883
9.538531
9.601712
10.512471
##ZVALUE=215
8.001924
8.515716
6.032586
6.142855
5.772710
6.045699
4.851818
6.039739
5.951524
5.380511
6.102920
5.018711
4.736781
3.909469
3.699660
3.566742
3.468990
3.911853
4.346967
4.256964
4.478693
4.824996
5.020499
4.430413
4.897714
4.857779
4.643798
5.251765
5.614758
6.014705
6.179810
5.814433
6.903410
6.393790
6.560683
6.741881
6.588697
6.623864
6.015897
6.977916
6.522536
6.836653
6.485581
7.050633
7.399917
7.868409
8.829832
7.444620
7.292628
8.161664
6.954670
8.339882
7.268786
7.477999
7.200837
7.582903
7.936954
7.926822
7.982850
7.839799
7.560849
8.386970
8.956790
8.714795
8.628964
8.635521
10.472536
11.608601
12.553930
13.668537
15.716553
18.316507
21.271706
22.624731
21.995902
23.633838
24.243593
23.365617
23.458600
21.100640
18.643737
18.196702
15.630722
13.436675
13.608932
12.620687
10.703802
8.505583
9.532571
8.978844
8.688569
9.005666
8.761883
8.391738
8.193851
9.036660
##ZVALUE=220
31.090975
28.903484
30.256510
31.437874
26.053786
20.820498
15.898943
12.727976
11.816621
12.310743
12.966990
13.263822
12.979507
11.972785
8.922815
8.627772
6.728768
5.258918
4.184842
4.430413
4.503727
4.699826
4.907846
4.891753
4.794598
4.891753
5.477667
5.155802
5.513430
5.933642
6.304979
6.865859
5.989671
5.498528
6.517768
6.757975
7.008910
7.456541
6.595850
7.450581
7.862449
8.158684
6.849766
7.694960
7.608533
7.549524
7.907748
7.541776
7.789731
8.023977
8.738637
8.903742
8.375645
7.968545
8.657575
9.335876
9.067655
9.143949
9.225607
8.769631
9.362698
9.868741
9.105802
9.756684
9.525418
10.411739
10.292530
11.855960
12.880564
14.112592
16.686916
18.788576
21.757483
22.892952
24.472475
26.776791
24.418831
24.033785
22.556782
21.922588
19.800663
20.403862
18.351674
16.479492
14.549494
12.667775
12.352467
11.600852
10.221601
9.369850
10.023713
10.362864
9.964705
9.620786
10.890961
10.422468
##ZVALUE=225
51.009655
53.483844
67.404509
80.960989
91.117620
87.741613
79.302788
59.843659
44.745803
37.841797
27.319789
23.408532
25.749803
28.036833
27.055740
26.142597
22.536516
18.319488
13.074875
9.287000
8.295774
5.236864
5.521774
6.304979
5.080700
5.668998
7.008910
6.003976
6.106496
7.728934
6.382465
6.731749
6.872416
6.285906
6.479621
7.046461
6.944537
7.226467
7.791519
7.770658
8.549690
8.837581
7.905960
8.345842
9.059906
8.699894
9.155869
8.881688
8.742809
10.049939
8.449554
8.712411
9.168983
10.054708
9.686947
9.507537
10.356903
10.639429
11.081696
10.776520
9.823442
11.938810
11.277795
10.985732
11.969805
12.802482
11.443496
13.100505
15.760660
16.166568
16.350746
20.282865
19.336939
22.315979
24.900436
24.427772
23.139715
23.452640
22.175908
20.957589
21.669865
19.316673
18.055439
16.759634
14.743805
15.160441
15.483499
14.441609
15.043616
13.001561
13.356805
13.997555
13.046861
14.412999
13.746619
12.532473
##ZVALUE=230
44.546723
52.845478
78.196526
129.172802
159.735680
202.828646
215.298533
206.836462
177.963972
141.981840
103.935599
69.538951
53.861737
47.836900
49.792528
51.130652
53.563714
48.513412
44.502616
36.597848
27.326941
19.123554
11.904836
8.038878
6.048679
5.831718
6.282926
5.806684
7.172823
6.550550
7.510781
7.693768
8.369684
7.858872
7.422566
8.140802
9.092689
8.112788
8.582473
8.095503
9.198785
8.226633
9.177923
8.837581
9.428859
10.456443
9.550452
9.342432
9.568930
9.491444
9.842515
9.515882
11.565685
11.533499
10.306835
11.181831
12.464523
11.817813
11.559725
13.365746
12.875795
14.124513
11.939406
12.653470
14.033914
15.298724
16.216636
16.999841
17.713904
20.192862
22.124648
23.520589
25.405884
26.733875
27.590990
26.776791
27.163625
27.153492
26.987791
24.434924
25.780797
22.298694
24.458766
20.833611
20.134449
20.899773
19.225478
21.119714
20.746589
18.269420
20.462871
19.555688
19.841790
17.722845
19.307733
17.582774
##ZVALUE=235
16.201735
19.866824
39.948821
96.781850
159.347653
248.336792
315.598845
393.930674
423.775911
420.005918
366.036892
298.249722
200.116634
145.190954
96.789002
80.723763
74.319839
78.282952
85.719824
84.504485
81.141591
63.716769
48.463941
37.112832
24.781823
14.780760
12.388825
8.235574
8.339882
7.960796
8.139610
7.690787
7.673502
7.956624
7.920861
9.707808
8.567572
8.313656
8.582473
8.673668
9.571910
9.258986
10.163784
9.599924
9.386539
9.423494
9.337664
10.558963
11.171699
10.237694
10.499954
11.038780
11.708736
10.963678
11.411905
12.473464
12.763739
13.912916
14.269948
14.762878
15.653968
14.349818
15.724897
16.721487
16.351938
17.960668
17.381907
21.054745
22.336841
22.582412
24.720430
26.088953
30.974746
31.140447
32.407641
31.640530
31.776428
31.201839
31.453967
31.582713
30.882955
30.625463
29.575825
30.638576
27.547479
26.990771
28.435588
27.338862
27.442575
25.377870
27.395487
27.438998
27.098656
26.533604
26.156902
25.322437
##ZVALUE=240
2.484918
2.715588
8.333921
20.740628
60.402751
106.631517
213.376880
326.108932
469.174981
554.008484
616.976619
611.171722
550.858974
435.587764
336.705446
211.540461
150.818825
111.509562
95.046759
98.441839
105.955601
115.826726
110.556483
96.547604
81.250668
64.849854
44.018626
32.215714
20.355582
14.662743
10.576844
8.741617
8.621812
8.984804
8.159876
7.830858
8.493662
8.064508
9.050965
9.106994
9.212494
8.366704
8.311868
9.007454
9.092689
8.956790
9.793639
9.632707
8.992553
10.436773
9.357929
9.962916
11.735559
10.718703
11.184812
13.120770
12.172461
13.109446
13.090968
14.890432
16.234517
16.758442
15.687943
16.037822
18.512607
17.724633
21.214485
21.119714
23.572445
24.397969
26.870966
28.619766
28.919578
31.932592
33.281446
32.879710
36.626458
36.276579
34.467578
33.860803
33.168793
33.296943
33.094883
32.079816
30.246973
31.400919
33.278465
31.679869
30.513406
30.768514
30.635595
30.553937
30.393600
29.531717
30.527711
29.302835
##ZVALUE=245
1.913905
2.617836
2.547503
2.692938
4.855990
16.099811
51.492453
105.305910
227.131844
353.621840
525.883436
656.198859
737.970471
760.365725
726.139545
591.927767
471.325517
311.436653
215.972662
132.557750
102.618933
100.154877
110.540986
121.917725
127.548575
118.391514
105.865598
89.625716
67.280531
49.762726
35.869479
21.200776
14.088750
9.255409
7.664561
8.457899
8.008480
8.078814
8.387566
8.166432
7.550716
8.377433
7.667542
8.259416
8.847713
7.744431
7.975698
8.666515
9.560585
8.402467
9.453893
9.587407
9.628534
10.638833
10.364652
10.913610
10.821819
11.152625
11.391640
12.260675
13.767481
13.677478
14.982820
15.133619
15.422702
16.603470
17.262697
17.631650
19.164681
21.868944
24.420619
26.202798
28.477907
29.798746
31.514764
31.782985
31.613708
32.363534
31.924844
32.301545
32.409430
32.803416
31.293631
30.547976
30.181408
30.799508
31.008720
27.477741
29.210448
30.070543
28.690696
30.993819
30.702949
29.826760
30.118823
27.884841
##ZVALUE=250
1.903772
1.888871
2.040863
1.930594
1.954436
2.570748
3.280640
9.392500
41.413903
86.202621
205.164552
336.889625
477.283001
685.140491
804.581642
876.920819
853.750706
756.555796
639.873743
437.850952
299.991965
190.865397
114.060640
94.122887
100.878477
114.847422
127.829909
132.376552
130.839944
117.527843
99.677444
73.881745
53.872466
33.849478
21.616817
12.828708
9.308457
8.115768
8.069873
7.478595
7.448792
7.526875
8.049607
7.613897
7.426739
7.562637
8.431673
8.282661
7.771850
8.006692
8.458495
8.558631
8.624792
8.620620
10.030866
10.646582
10.203719
11.429787
10.380745
11.169910
11.075735
13.131499
12.649894
13.578534
13.398528
13.399720
15.698671
17.112494
18.594861
19.895434
20.460486
23.010969
23.998618
25.571585
27.797818
28.168559
29.325485
27.710795
28.341413
28.151870
28.751493
27.677417
28.365850
27.719736
29.306412
26.361942
27.555823
27.903914
28.629899
28.418899
27.769804
28.403997
27.859807
28.768778
28.367639
29.434562
##ZVALUE=255
1.368523
1.408458
1.439452
1.250505
1.301765
1.263618
1.634955
1.930594
2.186894
6.176829
20.728707
69.540739
141.831636
298.610926
453.456640
673.003793
829.144716
971.287489
1009.348631
912.395716
787.152648
625.177622
395.992994
249.003768
131.513476
98.221898
85.791945
100.659728
123.111606
136.210918
142.092705
138.841867
125.693679
99.505782
81.021786
53.110719
37.178993
20.871758
13.268590
8.802414
7.621646
7.096529
7.132888
7.259846
7.290840
6.594658
7.485747
7.515550
7.599592
7.331967
7.520914
7.794499
8.063912
8.386970
7.891655
8.432865
9.390712
8.580685
9.829998
9.474754
10.069609
10.937452
10.967851
10.879636
11.573434
12.736917
13.684630
15.197992
15.998483
17.529726
17.617941
20.066500
20.950437
22.511482
22.207499
25.077462
23.779869
23.643970
24.238825
23.332834
25.039911
25.321841
24.899840
26.998520
25.422573
25.246739
25.547743
24.227500
25.216937
25.673509
25.289655
25.638938
26.411414
26.066899
26.192665
25.538802
##ZVALUE=260
1.472831
1.549721
1.154542
1.206994
1.701713
1.682639
1.852512
1.613498
2.020597
1.837611
2.285838
3.131628
10.103583
41.360855
94.319582
225.623846
375.245810
611.947775
811.609030
1011.619568
1015.684605
1015.684605
987.957716
814.345479
541.855693
370.736718
203.468800
123.701692
81.521869
81.726909
96.883774
122.121572
141.954422
146.774650
145.161748
126.991868
107.652545
78.675747
58.383942
35.967827
23.564696
15.110970
10.826588
8.227825
6.885529
7.695556
7.274747
7.801652
6.982684
7.806420
8.310676
8.310676
8.183718
8.428693
8.864999
8.750558
8.720756
9.638667
9.177923
9.569526
9.217858
9.628534
10.799766
10.912418
11.574626
11.994839
12.503862
13.544559
14.750957
15.877485
16.369820
17.458797
19.933581
19.652843
20.565987
21.991730
23.057461
22.291541
22.260547
21.746755
23.477674
22.500753
21.908879
22.808909
24.575591
23.684502
23.826957
24.108887
23.728609
25.213957
25.387406
24.817586
24.267435
24.370551
24.888515
25.640726
##ZVALUE=265
1.382828
1.231432
1.561642
1.403689
1.484752
1.333952
1.634955
1.650453
1.854897
1.709461
1.759529
1.943707
2.233982
2.380610
5.071759
28.062463
68.057775
175.862908
308.232903
570.052862
799.416900
996.786952
1015.684605
1015.684605
1015.684605
979.879498
716.531873
496.673584
270.889997
161.180496
98.737478
70.344806
79.376698
107.685924
126.884580
144.223571
151.471496
140.896440
129.041672
103.920698
79.545975
53.918958
38.168430
21.800995
15.231967
9.812713
8.717775
7.606745
8.067489
7.638931
7.657409
8.862615
8.294582
8.419752
8.313656
8.769631
8.247495
8.462667
9.768605
9.587407
10.228753
10.404587
10.360479
11.011958
11.272430
11.175871
12.712479
13.386607
13.219714
14.858842
15.349984
17.005801
17.977953
19.295812
19.674897
19.867420
21.129847
19.365549
21.283627
20.325780
20.917654
21.276474
21.713972
21.405816
21.711588
21.991730
21.117926
22.185445
22.051930
21.779537
22.342801
23.792982
21.794438
23.246408
23.722649
24.037957
##ZVALUE=270
1.233816
1.291633
1.347661
1.450777
1.203418
1.312494
1.397729
1.390576
1.485944
1.454949
1.562834
2.018809
1.824498
2.032518
1.972914
2.468824
3.168583
14.067888
40.443540
127.794743
256.592631
438.727736
751.843452
984.978676
1015.684605
1015.684605
1015.684605
1015.684605
896.065831
665.198565
453.822017
230.803490
130.126476
66.758990
60.933828
83.442926
106.488466
131.927729
144.982934
150.927901
147.852898
128.414631
107.795596
79.965591
59.748888
36.146641
24.402738
15.172958
10.827780
8.403659
7.855892
8.166432
8.004904
8.436441
8.630753
9.277463
8.731484
8.863807
9.456873
9.806752
9.785891
10.069609
10.001659
11.034608
10.319948
10.876656
11.542439
12.659431
13.467669
14.377832
14.621615
16.049743
17.497540
17.790794
18.356442
18.918514
18.786788
19.147992
19.385815
19.182563
19.066930
19.930601
19.818544
19.683838
20.002723
20.863414
20.904541
21.362901
20.884871
21.245480
21.676421
21.275878
21.862984
21.929741
22.398829
22.936463
##ZVALUE=275
1.226664
1.075864
1.266599
1.362562
1.355410
1.212955
1.220703
1.442432
1.379848
1.406670
1.459718
1.399517
1.472831
1.697540
1.682639
1.505613
1.677871
2.236962
2.492666
6.191730
22.320747
63.928962
189.883709
356.114507
661.220551
896.260738
1015.684605
1015.684605
1015.684605
1015.684605
1015.684605
841.049552
583.136678
309.114456
175.899863
76.802969
52.430630
59.865713
80.517530
106.599927
126.973987
144.128799
150.913596
143.299699
131.848454
104.606748
83.378553
58.632493
41.679740
24.748445
16.625524
11.885762
9.390712
8.452535
8.470416
8.352995
8.846521
8.475780
8.545518
9.271502
9.835958
10.054708
10.474920
10.347962
10.576844
11.561513
11.911988
12.648702
13.492703
13.746619
14.456511
15.505552
16.594529
17.444491
17.613769
18.628836
18.619895
18.187761
18.182993
18.173456
18.304586
19.206405
19.632578
19.242764
19.477606
19.642711
20.246506
19.423962
19.604564
20.220876
19.540787
20.709634
20.275712
21.125674
21.089911
21.412969
##ZVALUE=280
0.952482
0.971556
0.998974
0.965595
1.125932
1.060963
1.196861
1.001954
1.272559
1.199841
1.234412
1.235604
1.317859
1.201630
1.482964
1.352429
1.480579
1.576543
1.711845
1.901984
2.120733
2.982616
14.017820
47.394633
151.743889
274.536014
518.917441
761.252642
1015.672684
1015.672684
1015.672684
1015.672684
1015.672684
985.906720
742.329955
415.354967
242.738724
103.890896
55.874586
42.364597
54.832697
79.851747
102.043748
127.523541
140.407681
148.395896
140.992999
124.239922
105.641484
78.022480
59.627891
37.543774
25.620461
16.246438
11.603832
9.148717
8.876920
9.482503
9.085536
9.709597
10.068417
10.189414
10.247827
10.341406
10.701418
11.592507
11.945963
12.178421
13.288856
13.938546
14.019608
15.438795
16.222596
16.807914
17.168522
17.349720
17.663836
17.323494
18.185973
18.302798
18.314719
18.213987
18.448830
19.495487
18.809438
19.372702
19.602776
19.212961
19.203424
20.009875
19.722581
20.199418
19.679666
19.764900
19.998550
19.953847
##ZVALUE=285
0.885725
0.988841
0.936985
1.051426
1.095533
0.995994
0.903606
1.009703
1.241565
0.947714
1.325607
0.914931
1.279712
1.243949
1.417994
1.335740
1.320839
1.410842
1.548529
1.550913
1.707673
1.732707
2.055764
2.542734
7.533431
25.075674
86.680651
179.838538
386.076570
612.288713
863.465667
1015.685797
1015.685797
1015.685797
1015.685797
1015.685797
941.320658
580.767393
359.990597
163.198709
81.435442
36.825538
35.915971
54.267645
73.453784
102.092624
119.432807
137.063861
142.923594
139.658451
127.024651
105.710626
84.490776
60.085654
41.907430
25.522709
17.824769
12.626648
10.559559
9.939671
10.107756
10.011792
10.527968
10.515451
11.263490
11.464953
11.922717
12.612939
12.683868
14.053583
14.656782
15.509725
16.121864
16.829967
16.962886
16.908646
18.066764
17.862916
18.206835
18.493533
18.470883
18.925667
18.670559
18.605590
19.456744
19.726753
19.470453
19.690990
19.267797
19.308925
19.140840
19.656420
18.856525
19.036531
19.307733
19.263625
##ZVALUE=290
1.024604
0.891685
0.832677
0.882745
0.835657
1.017451
0.842810
0.870824
0.835657
1.052618
1.002550
1.134872
1.171827
1.090765
1.155734
1.129508
1.242757
1.232624
1.459718
1.383424
1.592636
1.694560
1.544952
2.045631
1.845956
2.386570
2.975464
14.340878
44.038892
133.012533
256.474614
518.770814
767.760873
1015.684605
1015.684605
1015.684605
1015.684605
1015.684605
1015.684605
738.862753
485.543609
239.965916
122.360587
44.089556
27.398467
33.752918
47.962666
72.392821
91.752410
115.178823
130.044818
140.764713
137.495995
123.203993
106.944442
78.714490
60.456991
39.650798
28.133988
18.144846
13.830662
11.445880
10.656714
11.181831
11.140704
11.738539
12.181997
12.612939
12.712479
13.908744
15.187860
15.582442
16.353726
16.588569
16.895533
16.976595
17.671585
18.009543
17.708540
18.158555
17.844439
18.694997
18.711686
18.957853
19.054413
19.129515
19.155741
19.188523
20.220876
19.513965
19.191504
19.931793
19.384623
19.319654
19.303560
18.947721
##ZVALUE=295
0.912547
0.909567
0.842810
0.917912
1.033545
0.981688
1.031756
0.889897
0.991821
1.110435
0.972748
1.115799
0.902414
1.132488
1.281500
1.184940
1.210570
1.358986
1.378655
1.342893
1.329780
1.325607
1.454949
1.472831
1.963973
1.780987
2.158880
2.216697
2.616644
4.721880
16.737580
75.071454
167.663693
391.809940
626.398921
981.438756
1015.780568
1015.780568
1015.780568
1015.780568
1015.780568
874.490738
617.125630
329.656005
175.796747
62.022805
29.400587
22.640824
29.447675
46.452880
63.672662
89.370608
107.341409
125.436783
132.861733
129.342675
118.875504
99.518895
82.217455
57.398677
42.918921
27.670860
20.924807
14.826655
12.920499
11.762977
12.055635
12.655854
13.650656
13.928413
14.634728
15.426874
16.156435
16.851425
16.866922
17.354488
17.800927
17.590523
18.193722
18.851757
18.338561
18.785000
19.143820
19.074678
18.946528
19.673705
19.231439
19.519925
19.183755
19.389987
19.572973
19.485950
19.713640
19.041896
18.866658
19.649863
##ZVALUE=300
0.807643
0.675917
0.722408
0.856519
0.874996
0.767708
0.762939
0.760555
0.953674
0.865459
0.804663
0.828505
1.025796
0.924468
0.969768
1.005530
0.987649
1.028776
0.965595
1.049638
1.144409
1.188517
1.194477
1.239777
1.177788
1.389980
1.695752
1.750588
1.882911
2.043843
2.322793
2.784729
11.266470
38.242936
129.436851
255.893469
529.189706
801.502466
1015.684605
1015.684605
1015.684605
1015.684605
1015.684605
1015.684605
752.653480
490.450859
241.947770
127.425790
44.250488
21.155477
19.427538
26.539564
42.337775
59.101582
83.104968
100.603700
121.224523
129.515529
126.280785
118.957758
97.055435
81.664920
58.180690
43.548942
28.536916
21.442771
16.014576
14.480948
13.840795
14.092922
14.614463
15.319586
16.440749
16.376972
17.236471
17.645955
18.339753
17.893910
18.229485
19.018650
19.271970
19.239783
19.612908
20.057559
20.180941
19.884706
20.103455
19.855499
19.630790
19.725561
19.856691
19.611716
19.365549
19.261837
19.727945
19.050837
##ZVALUE=305
0.787973
0.739694
0.815988
0.705719
0.810623
0.756979
0.706911
0.841618
0.751615
0.695586
0.745654
0.823736
0.999570
0.834465
0.858903
0.998974
0.867844
1.068711
0.921488
0.925660
1.086593
0.895858
1.128912
1.233816
1.086593
1.285672
1.341701
1.506805
1.649857
1.431704
1.466870
1.897812
2.111793
2.457500
4.654527
26.441813
73.444843
206.474662
376.166701
701.887608
977.978706
1015.681624
1015.681624
1015.681624
1015.681624
1015.681624
985.431671
636.384487
396.302938
171.037912
79.606771
25.532842
15.296936
18.516779
25.996566
40.411949
57.606697
79.470873
96.653700
113.936663
120.942593
121.016502
112.689734
95.470548
79.669952
56.368709
42.753816
29.964447
22.507906
17.470717
15.903711
15.529990
16.170740
16.806722
17.383695
17.767549
17.604828
17.872453
18.687844
19.197464
19.398928
19.504428
19.664764
20.138621
20.275712
20.341873
20.404458
20.640492
20.961761
20.492673
20.264983
20.038486
20.401478
19.561648
19.559860
19.383430
##ZVALUE=310
0.540614
0.531673
0.683665
0.693798
0.512600
0.751615
0.719428
0.641942
0.652671
0.636578
0.698566
0.805855
0.597835
0.587702
0.818968
0.804663
0.954866
0.868440
0.929832
0.716448
0.763535
0.987649
1.058578
0.816584
0.914931
0.907779
1.298785
1.260638
1.339912
1.298785
1.316667
1.444817
1.588464
1.613498
1.774430
2.122521
2.671480
11.452436
38.272738
127.498507
250.107646
517.766476
789.083838
1015.601754
1015.601754
1015.601754
1015.601754
1015.601754
1015.601754
829.902887
548.941493
270.355940
140.784979
46.030879
18.755794
12.910962
16.047955
24.292469
34.480691
52.840710
69.423914
90.524554
103.774667
114.621520
116.238594
108.337998
95.542669
76.691508
61.135888
41.961670
32.881498
24.516582
20.594597
17.815828
17.519593
17.409921
17.820597
17.949939
18.572807
18.660426
19.575953
19.476414
19.750595
19.929409
20.087957
20.868778
19.834638
20.833611
20.763874
20.550489
20.155907
20.202994
20.029545
20.109415
19.949675
19.557476
##ZVALUE=315
0.673532
0.680685
0.622869
0.683665
0.525713
0.820756
0.655651
0.661612
0.828505
0.764728
0.733733
0.678897
0.731945
0.816584
0.863671
0.939965
0.961423
0.929832
0.995994
0.795722
0.996590
0.868440
1.086593
1.035929
0.926852
0.812411
0.862479
1.199841
1.085997
1.182556
1.331568
1.501441
1.465678
1.443624
1.687407
1.787543
1.965761
2.214909
2.256632
5.329847
20.619631
84.085464
180.450678
407.061577
653.751493
1005.222797
1015.684605
1015.684605
1015.684605
1015.684605
1015.684605
983.868837
717.107654
381.952524
206.612945
71.533918
28.022528
12.166500
11.986494
15.865564
21.811724
34.341812
47.764778
67.169666
83.344579
101.173520
109.115839
111.006498
106.013417
91.466904
75.595975
57.843924
45.604706
32.205582
25.978684
21.035671
19.343495
18.895864
18.347502
19.104481
19.540787
19.652843
19.834638
20.395517
20.364523
20.241737
20.537972
20.582676
20.558834
20.708442
20.397902
20.222664
20.283461
20.447969
19.962788
19.779801
##ZVALUE=320
0.554919
0.662804
0.611544
0.542998
0.531673
0.650883
0.616908
0.770688
0.735521
0.704527
0.839829
0.779629
0.765920
0.753999
0.744462
0.811815
0.657439
0.772476
0.805855
0.875592
0.880957
0.855923
0.804663
0.867844
0.853539
0.866652
0.856519
0.943542
1.106858
1.197457
1.012683
1.067519
1.035929
1.336932
1.312494
1.419783
1.576543
1.524687
1.819730
1.865625
2.095699
2.436638
11.616945
40.263534
138.378739
274.741650
551.253557
810.690522
1015.684605
1015.684605
1015.684605
1015.684605
1015.684605
1015.684605
784.574747
517.600775
245.994925
130.383968
45.476556
18.423796
10.906458
11.940598
15.300512
19.910932
31.779408
43.945909
61.966777
77.494979
95.648766
104.232430
106.515884
101.731420
89.896917
76.646805
58.157444
45.979619
34.568906
26.969910
21.780729
20.726919
20.008683
19.413829
19.918680
19.555688
20.295978
20.977855
20.991564
20.706654
20.630956
20.584464
20.580888
20.336509
20.245910
20.520687
20.053983
20.412803
##ZVALUE=325
0.670552
0.489950
0.500679
0.679493
0.526905
0.598431
0.573993
0.623465
0.515580
0.727773
0.634789
0.678897
0.693798
0.583529
0.557899
0.591874
0.707507
0.738502
0.693798
0.726581
0.795722
0.843406
0.759959
0.811815
0.836849
0.917912
1.013875
0.983477
0.883937
0.736713
0.963807
1.117587
1.045465
1.117587
1.110435
1.185536
1.249909
1.311898
1.356602
1.343489
1.608729
1.893640
1.912713
2.155900
5.144477
33.917427
89.485645
234.177709
417.375565
755.994916
1000.459790
1015.684605
1015.684605
1015.684605
1015.684605
1015.684605
897.651911
557.476878
340.082645
150.905848
72.554946
23.007989
11.998415
10.875463
11.913776
15.426874
20.453930
32.375455
44.109821
62.950850
76.379776
91.882944
99.264979
101.259947
96.425414
84.431767
70.211887
54.907799
44.056773
32.497644
26.872754
22.565722
21.082759
20.512938
20.535588
20.460486
20.768642
20.790696
20.322800
20.522475
20.277500
20.402670
20.297766
19.768476
20.151734
19.824505
##ZVALUE=330
0.458956
0.550747
0.599623
0.603795
0.512600
0.623465
0.607967
0.629425
0.608563
0.621676
0.590682
0.589490
0.675917
0.626445
0.668764
0.592470
0.750422
0.768900
0.583529
0.685453
0.867844
0.655651
0.757575
0.737906
0.717640
0.943542
0.774860
0.875592
0.938773
0.848770
0.902414
0.995994
0.960827
0.868440
1.086593
0.988841
1.056790
1.162887
1.314878
1.297593
1.351833
1.203418
1.627803
1.716614
1.962781
2.046824
3.117919
10.773540
57.668686
136.357546
331.511497
545.359850
914.983749
1015.684605
1015.684605
1015.684605
1015.684605
1015.684605
983.300805
726.560950
406.824946
231.037736
94.327927
42.095780
14.655590
10.787845
10.983944
12.011528
15.990734
21.730661
32.417774
43.542981
60.512424
73.304772
88.254809
95.518827
97.013712
91.440678
80.513954
68.816543
52.858591
42.560697
33.204556
27.359724
23.106933
21.578670
20.592809
19.856691
19.930601
19.719601
19.561648
19.764900
20.014644
19.449592
19.171834
19.544959
##ZVALUE=335
0.519753
0.641942
0.492930
0.684857
0.468493
0.585914
0.587702
0.523925
0.691414
0.598431
0.677705
0.589490
0.585914
0.573993
0.664592
0.635982
0.600815
0.616908
0.500679
0.782609
0.471473
0.716448
0.665784
0.698566
0.515580
0.770688
0.852942
0.796914
0.717640
0.700951
0.833869
0.775456
0.834465
0.780821
0.992417
1.043677
0.916719
1.151562
1.025796
1.027584
1.086593
1.135468
1.198649
1.457930
1.425743
1.642704
1.804829
2.032518
2.363920
6.154776
23.209453
95.549822
207.281709
455.094576
724.256635
1015.684605
1015.684605
1015.684605
1015.684605
1015.684605
1015.684605
797.623992
540.136695
278.944969
145.626664
50.312877
21.817684
11.697412
10.965466
12.034774
12.808442
16.307831
20.998716
31.289458
41.929483
58.270693
70.217848
82.943439
90.169907
91.341734
87.087750
76.361895
66.045523
53.535700
44.097900
33.270717
27.808547
23.436546
21.504760
19.768476
19.834638
19.000769
19.167662
19.039512
19.181967
18.631816
##ZVALUE=340
0.564456
0.492930
0.479817
0.303984
0.454783
0.395775
0.435710
0.496507
0.629425
0.512600
0.577569
0.427961
0.660419
0.555515
0.630617
0.425577
0.340939
0.655651
0.493526
0.747442
0.673532
0.607967
0.803471
0.686646
0.668764
0.669956
0.679493
0.770688
0.772476
0.735521
0.664592
0.662804
0.826716
0.906587
1.014471
0.954866
0.885725
0.901818
0.831485
1.056790
1.056790
1.068711
1.102686
1.135468
1.103878
1.439452
1.488924
1.544952
1.846552
1.824498
2.059937
3.394485
11.438727
57.445765
144.913793
369.884968
629.365444
994.361639
1015.684605
1015.684605
1015.684605
1015.684605
1015.684605
935.171843
649.326444
336.555839
184.564590
73.305964
30.419827
12.579560
11.552572
11.389852
11.976957
13.869405
16.183853
22.279620
29.326677
41.406751
53.510666
69.052577
79.214573
86.739659
87.817907
83.172917
75.542927
63.727498
53.163767
41.127801
34.333467
26.695728
23.030639
20.079613
19.339919
18.553734
18.596649
18.524528
##ZVALUE=345
0.496507
0.613928
0.595450
0.520945
0.390410
0.555515
0.668764
0.550747
0.498891
0.567436
0.581741
0.476837
0.718832
0.497699
0.619888
0.664592
0.684857
0.635982
0.622869
0.664592
0.611544
0.515580
0.727773
0.650883
0.660419
0.726581
0.550747
0.607967
0.613928
0.753999
0.818968
0.609756
0.807643
0.651479
0.875592
0.914931
0.885725
0.864863
0.839829
0.847578
0.878572
0.780821
1.083612
1.066923
1.060963
1.046658
1.276731
1.254678
1.261830
1.527667
1.536608
1.794696
1.832843
2.327561
5.436540
33.525825
92.399716
244.733095
440.321565
788.128972
1015.684605
1015.684605
1015.684605
1015.684605
1015.684605
1008.575559
773.387551
444.280505
247.876644
97.620487
44.669509
16.605854
11.791587
11.588931
11.907816
12.454987
13.465881
15.883446
20.068884
29.076934
37.709475
52.243471
62.480569
73.143840
78.666806
80.575943
78.838468
70.276856
62.283874
50.237775
41.575432
31.539798
26.137829
21.597743
19.430518
18.350482
##ZVALUE=350
0.514984
0.539422
0.586510
0.569820
0.431538
0.597835
0.437498
0.413656
0.464916
0.522733
0.478625
0.480413
0.617504
0.430942
0.512600
0.571609
0.471473
0.530481
0.584722
0.558496
0.515580
0.515580
0.645518
0.624657
0.629425
0.727773
0.577569
0.630617
0.820756
0.706911
0.521541
0.747442
0.717640
0.757575
0.728965
0.757575
0.796914
0.815988
0.919700
0.807643
0.825524
0.838637
0.940561
1.047850
1.021624
1.049638
1.083612
1.028776
1.110435
1.258850
1.322627
1.395941
1.378655
1.708865
1.809597
1.987815
3.081560
16.436577
52.268505
166.034698
317.759514
638.011694
912.677646
1015.684605
1015.684605
1015.684605
1015.684605
1015.684605
880.243778
528.947711
318.039656
139.700770
65.946579
20.441413
12.245774
11.025667
11.090636
11.158586
11.532903
12.981892
15.240908
20.002723
25.397539
35.954714
44.616461
56.317449
65.166950
72.351694
74.112415
72.044730
67.120790
56.661963
48.700571
38.768649
31.778812
25.114417
##ZVALUE=355
0.561476
0.469685
0.565648
0.382662
0.574589
0.534654
0.369549
0.613928
0.714660
0.587702
0.523925
0.451803
0.645518
0.536442
0.650883
0.669956
0.648499
0.637770
0.637770
0.514984
0.481606
0.572801
0.562668
0.595450
0.620484
0.416636
0.534654
0.637770
0.683665
0.838637
0.775456
0.638962
0.711679
0.577569
0.721812
0.762939
0.654459
0.819564
0.876784
0.709891
0.744462
0.779629
0.858903
0.867844
1.019835
0.929832
0.953674
0.973940
1.104474
1.018643
1.192689
1.259446
1.316667
1.261830
1.512766
1.573563
1.832843
2.032518
2.337694
8.021593
29.660463
114.812851
240.658522
504.959822
787.081718
1015.684605
1015.684605
1015.684605
1015.684605
1015.684605
981.735587
638.067722
396.347642
174.297690
83.853602
27.056932
13.445616
10.384917
10.305643
10.834932
11.018515
11.486411
12.472868
14.439821
17.265677
22.862554
30.601621
39.813519
48.229694
58.491826
63.971877
67.748427
66.548586
61.160922
54.453611
45.075417
##ZVALUE=360
0.406504
0.429749
0.483990
0.586510
0.481606
0.484586
0.360608
0.560880
0.492930
0.595450
0.654459
0.521541
0.687838
0.589490
0.509620
0.449419
0.672936
0.469685
0.669956
0.495911
0.622869
0.651479
0.724792
0.742674
0.620484
0.441670
0.739694
0.668764
0.806451
0.687838
0.746846
0.545979
0.686646
0.646710
0.677705
0.712872
0.781417
0.834465
0.766516
0.652671
0.659823
0.760555
0.984669
0.816584
0.902414
0.809431
0.913739
0.995994
0.965595
0.977516
1.005530
1.185536
1.181960
1.232624
1.249909
1.309514
1.485944
1.648664
1.832843
2.001524
2.192855
3.773570
12.967587
60.917735
147.655606
361.177921
594.584942
941.962600
1015.684605
1015.684605
1015.684605
1015.684605
1015.684605
759.608746
503.562689
239.694715
121.003985
43.824911
18.863678
10.330677
9.894967
9.704828
9.895563
10.106564
10.616779
11.117458
12.328625
15.055537
18.774867
25.643706
32.287836
42.462945
49.692988
57.011843
60.339570
61.178803
##ZVALUE=365
0.527501
0.475645
0.518560
0.539422
0.489950
0.466704
0.494719
0.551939
0.411868
0.560880
0.488758
0.449419
0.625849
0.581741
0.530481
0.585914
0.678897
0.697970
0.630617
0.700951
0.605583
0.463724
0.631809
0.489950
0.566840
0.540614
0.636578
0.659823
0.716448
0.643730
0.693798
0.669956
0.595450
0.607967
0.628829
0.751615
0.669956
0.712872
0.759959
0.730753
0.781417
0.789762
0.792742
0.841618
0.893474
0.934601
0.935793
1.010895
0.899434
0.952482
0.958443
1.001954
1.159906
1.295805
1.198649
1.121759
1.323819
1.449585
1.428723
1.751781
1.702905
2.037883
2.136827
2.787709
5.885959
35.496950
98.082423
261.291862
480.766892
869.987011
1015.684605
1015.684605
1015.684605
1015.684605
1015.684605
921.290517
632.320642
323.197842
172.858834
62.432885
25.961995
10.859966
9.232759
9.225607
8.935928
9.277463
9.113550
9.548664
9.727478
11.076927
12.871623
17.034411
21.387935
29.310584
36.175847
44.157505
##ZVALUE=370
0.520945
0.411868
0.484586
0.499487
0.502467
0.428557
0.530481
0.511408
0.577569
0.562668
0.512600
0.531673
0.502467
0.500679
0.486970
0.423789
0.614524
0.447631
0.531673
0.426769
0.528693
0.489950
0.560880
0.557899
0.445843
0.566840
0.618696
0.689626
0.640750
0.668764
0.743866
0.588894
0.597835
0.761747
0.613928
0.744462
0.570416
0.660419
0.729561
0.719428
0.766516
0.769496
0.893474
0.913739
0.820756
0.690818
0.818968
0.735521
0.967979
0.887513
0.888705
0.975728
1.044869
0.888705
0.963807
1.000762
0.985861
1.163483
1.071692
1.266599
1.304746
1.483560
1.535416
1.657605
1.858473
2.302527
3.087521
16.541481
58.874488
193.198919
364.853740
680.124760
972.438455
1015.684605
1015.684605
1015.684605
1015.684605
1002.096534
749.530792
402.947664
219.619870
84.708929
39.526820
14.816523
9.421706
8.313656
8.211732
8.450747
8.650422
8.713603
8.700490
9.215474
9.978414
11.841655
14.092922
19.116998
##ZVALUE=375
0.465512
0.401735
0.523925
0.483990
0.471473
0.382662
0.360608
0.342727
0.348687
0.576973
0.566840
0.535846
0.559688
0.401735
0.451803
0.541806
0.478625
0.367761
0.408888
0.402927
0.428557
0.427961
0.519753
0.647902
0.565648
0.583529
0.484586
0.644922
0.724792
0.630617
0.565648
0.566840
0.608563
0.660419
0.548959
0.676513
0.540614
0.586510
0.722408
0.588894
0.523925
0.679493
0.715852
0.602603
0.652671
0.581741
0.770688
0.646710
0.665784
0.755787
0.709891
1.062751
0.802875
0.859499
0.791550
1.019835
0.992417
1.017451
0.972748
1.106858
1.054406
1.195669
1.356602
1.274943
1.522899
1.609921
1.855493
1.793504
2.451539
7.541776
28.437972
107.798576
240.244865
543.640852
843.283534
1015.685797
1015.685797
1015.685797
1015.685797
1015.685797
903.570652
528.165698
329.572558
162.015557
82.259774
26.216507
11.559725
8.140802
7.748604
7.762909
7.776618
7.867813
7.944703
8.225441
8.457899
9.032488
##ZVALUE=380
0.346899
0.441670
0.371933
0.429749
0.410676
0.600815
0.519753
0.623465
0.452995
0.506639
0.486970
0.269413
0.498891
0.404716
0.447631
0.358820
0.532866
0.486970
0.660419
0.536442
0.555515
0.524521
0.508428
0.532866
0.565648
0.233650
0.328422
0.542998
0.621676
0.412464
0.559688
0.709891
0.502467
0.603795
0.458956
0.566840
0.477433
0.442863
0.446439
0.566840
0.593662
0.590682
0.685453
0.571609
0.653863
0.582933
0.568628
0.590682
0.650883
0.766516
0.644922
0.784993
0.575781
0.795722
0.801682
0.737906
0.863671
1.029968
0.898838
0.894666
0.899434
1.031756
1.053810
1.109838
1.234412
1.263618
1.508594
1.609921
2.000928
2.253652
2.450943
4.274845
16.621947
81.395507
194.983482
464.210510
742.397904
1015.684009
1015.684009
1015.684009
1015.684009
1015.684009
1015.684009
763.287544
494.401455
233.038664
117.601752
40.567517
17.090440
8.115768
7.218719
7.158518
7.079840
7.351637
7.284880
7.470846
##ZVALUE=385
0.386834
0.351667
0.386834
0.383854
0.280738
0.388622
0.518560
0.465512
0.317693
0.536442
0.347495
0.475645
0.517964
0.324845
0.495911
0.518560
0.299811
0.437498
0.511408
0.431538
0.404716
0.494719
0.485778
0.492930
0.379682
0.479817
0.501871
0.587702
0.259876
0.398755
0.542998
0.524521
0.400543
0.505447
0.669956
0.612736
0.601411
0.473857
0.454783
0.591874
0.574589
0.686646
0.447631
0.554919
0.663996
0.595450
0.661612
0.608563
0.626445
0.695586
0.648499
0.698566
0.630617
0.781417
0.606775
0.666976
0.716448
0.735521
0.811815
0.815988
0.974536
0.912547
0.824928
0.855923
0.934601
1.059771
1.210570
1.337528
1.432896
1.778603
2.000928
2.037883
2.266765
2.571940
8.640885
33.645630
134.318471
289.208889
622.707009
919.788480
1015.688777
1015.688777
1015.688777
1015.688777
1015.688777
1003.324986
670.765638
424.785018
191.791654
92.462897
27.840734
11.011958
6.843805
6.445646
6.686449
6.636977
##ZVALUE=390
0.444651
0.498891
0.511408
0.384450
0.235438
0.439882
0.371933
0.401735
0.339746
0.395775
0.416636
0.482798
0.322461
0.446439
0.407696
0.338554
0.471473
0.546575
0.500679
0.312924
0.238419
0.324845
0.413656
0.463724
0.386834
0.392795
0.374913
0.357628
0.376701
0.538826
0.500679
0.517964
0.431538
0.511408
0.457764
0.327826
0.486970
0.471473
0.525713
0.428557
0.637770
0.628829
0.615716
0.536442
0.510812
0.525713
0.632405
0.594854
0.546575
0.709891
0.782609
0.754595
0.805855
0.633597
0.603795
0.778437
0.883937
0.781417
0.763535
0.721812
0.990629
0.888705
0.993609
0.878572
0.949502
1.006722
1.153946
1.227856
1.461506
1.653433
1.526475
1.679659
1.892447
2.173781
1.985431
2.168417
4.227757
18.644929
90.769529
214.601755
499.038696
780.075788
1015.684605
1015.684605
1015.684605
1015.684605
1015.684605
1015.684605
837.791562
561.412573
285.662413
143.822432
49.655437
18.548965
7.008910
6.443858
##ZVALUE=395
0.363588
0.508428
0.376701
0.354648
0.384450
0.388622
0.446439
0.445843
0.335574
0.317693
0.407696
0.404716
0.188947
0.456572
0.356436
0.467896
0.464916
0.410676
0.302792
0.260472
0.325441
0.478625
0.393987
0.326633
0.356436
0.316501
0.459552
0.399947
0.660419
0.555515
0.498891
0.585914
0.445843
0.503659
0.305772
0.402927
0.440478
0.405908
0.465512
0.536442
0.475645
0.564456
0.539422
0.422597
0.544786
0.625849
0.518560
0.522733
0.573993
0.657439
0.631809
0.705719
0.499487
0.763535
0.623465
0.680685
0.686646
0.733733
0.578761
0.883937
0.890493
0.787973
0.954866
1.013875
0.927448
1.055598
1.036525
1.085997
1.211762
1.319647
1.525879
1.468658
1.698732
1.609921
1.729727
1.664758
1.983643
2.127886
2.799630
10.064840
55.781603
133.522749
319.713354
545.316935
927.886963
1015.684605
1015.684605
1015.684605
1015.684605
1015.684605
985.682607
695.935488
366.542935
195.097923
70.056915
29.620528
##ZVALUE=400
0.419617
0.389814
0.303984
0.363588
0.387430
0.334978
0.278950
0.332594
0.285506
0.345707
0.232458
0.298619
0.545979
0.374913
0.432730
0.459552
0.537634
0.433922
0.501871
0.564456
0.554919
0.461936
0.553727
0.393987
0.309944
0.321865
0.453591
0.417829
0.529885
0.449419
0.458956
0.414848
0.553727
0.520945
0.570416
0.363588
0.583529
0.383854
0.342727
0.465512
0.483990
0.580549
0.650883
0.557899
0.438690
0.674725
0.584722
0.645518
0.619888
0.564456
0.727773
0.720620
0.705719
0.701547
0.645518
0.804663
0.763535
0.819564
0.762939
0.670552
0.763535
0.622869
0.752807
0.994802
0.890493
1.042485
1.009703
1.155734
1.328588
1.551509
1.579523
1.477599
1.342893
1.395941
1.565814
1.614690
1.460910
1.781583
1.833439
2.086759
2.279878
6.797910
25.167465
92.905760
201.111436
456.526875
730.887651
1015.684605
1015.684605
1015.684605
1015.684605
1015.684605
1015.684605
791.930556
526.667833
268.326998
##END
