##TITLE=QP00352
##FORMAT=SPECTACLE-ASCII V-1.2
##DATA TYPE=ULTRAVIOLET SPECTRUM
##SECOND TYPE=ULTRAVIOLET SPECTRUM
##DATE=05/07/18
##TIME=15:32:32
##SPECTROMETER/DATA SYSTEM=SPECTACLE
##XUNITS=NM EM
##YUNITS=ENERGY
##YFACTOR=1
##FIRSTX=220
##LASTX=410
##NPOINTS=96
##3DDATA=Equidistant
##ZUNITS=NM EX
##FIRSTZ=210
##LASTZ=400
##ZPOINTS=39
##XYDATA=(Y..Y)
##ZVALUE=210
3.186464
2.658963
2.527833
3.363490
3.255606
3.356934
3.365874
3.795624
3.345609
3.512502
3.309846
3.887415
3.060699
2.813935
3.782511
3.509521
3.733635
3.436804
4.570484
4.395843
4.263520
4.411936
5.440712
5.319715
5.254745
6.040931
5.910993
5.443692
6.236434
7.148981
6.550550
5.890727
7.022619
6.457567
5.775690
6.207824
7.068515
7.516742
7.830858
7.228851
8.058548
8.624792
7.994771
7.914901
7.443428
8.820891
8.198619
9.181499
8.581877
9.693503
9.700656
9.591579
10.953546
10.506511
9.064674
10.510683
10.270476
10.530949
10.182858
11.168718
11.230707
11.213422
11.702776
10.969639
11.811852
12.573600
11.843443
13.489723
15.626550
18.251538
22.116899
26.330948
31.223893
32.721758
36.993623
38.896799
41.084886
40.029883
37.501454
36.327839
32.916665
29.044747
25.267601
22.521615
17.477870
16.554594
14.605522
11.866689
10.691881
10.615587
10.955930
10.837913
10.775924
11.443496
9.566545
10.789633
##ZVALUE=215
9.853840
9.552836
8.683801
6.852746
6.418824
6.239414
5.247593
5.486608
6.572604
5.829930
6.123781
5.487800
5.129576
4.417896
3.603697
3.823638
4.150867
4.562736
3.851652
4.619956
4.461408
4.619956
4.891753
5.207658
5.502701
5.753636
6.536841
6.158948
6.557703
6.300807
6.649494
6.929636
7.099509
6.854534
7.429719
7.282495
7.531643
6.883740
7.740855
8.016825
8.010864
8.333921
7.762909
7.969737
7.742643
8.733869
7.598996
8.360744
8.809566
8.571744
8.855462
8.577704
8.056760
9.370446
9.854436
10.075569
9.118915
9.974837
10.344982
9.662509
9.789467
11.760592
10.942817
10.432601
9.826422
10.849833
12.031794
12.149811
14.149547
17.460585
18.623471
23.617744
25.546551
25.971532
29.144883
33.696890
31.180978
29.004812
30.938983
27.408600
26.029944
22.079945
21.938682
18.333793
16.009808
12.346506
12.321472
10.395646
10.030866
10.846853
9.831786
10.390878
9.012818
9.815693
10.124445
9.248853
##ZVALUE=220
29.770732
29.438734
31.666756
31.698942
29.012561
24.482608
20.124912
15.760660
12.859702
12.263656
12.469888
12.125969
13.169646
12.582541
10.687709
8.910894
6.807446
5.593896
5.409718
4.595518
4.078746
5.043745
4.426837
5.653501
5.374551
6.052852
6.294847
6.956458
6.854534
7.473826
7.540584
6.316900
6.418824
7.256866
7.129908
7.228851
6.834865
8.601546
8.379817
6.943941
7.563829
7.070899
8.469820
7.857680
8.040667
9.274483
8.710623
8.570552
8.642673
8.623600
9.844899
9.533763
9.524822
9.374619
8.773804
10.344982
10.395646
10.453463
10.498762
10.157824
10.665655
9.379983
10.799766
10.750890
11.391640
12.064576
10.686517
12.258887
14.607906
16.038418
17.780662
23.166537
24.723411
25.944710
27.474761
28.678775
29.862523
27.677417
28.651953
26.228428
24.417639
21.002889
20.998716
17.220974
15.265942
13.265610
13.342500
11.117458
11.964440
9.602904
10.009408
9.975433
9.805560
10.233521
9.473562
9.288788
##ZVALUE=225
48.567653
51.984787
68.749785
86.420774
91.047883
93.330741
85.924864
60.589910
50.422549
37.142634
26.545525
24.027824
26.187897
25.624633
26.814938
25.447607
20.574927
17.596483
13.139844
9.813905
6.665587
5.453825
6.584525
6.295443
5.617738
5.731583
6.591678
6.880760
7.829666
6.702542
6.980896
7.433891
6.728768
7.443428
7.264614
6.688833
7.912517
7.206798
9.059906
8.340478
7.695556
8.720756
8.670688
8.708835
8.993745
9.271502
8.956790
9.430647
8.275509
9.881854
9.837747
10.180473
11.193752
10.051727
10.607839
10.455847
10.240674
10.285974
10.556579
11.215806
11.765957
10.629892
11.757612
10.983944
12.455583
11.175871
13.044477
13.112426
14.709830
16.693473
17.626882
21.276474
24.122596
26.329756
25.571585
27.815700
27.000904
25.762916
24.158955
22.402406
20.880699
19.800663
16.123652
16.123652
15.055537
14.144778
12.936592
12.743473
11.725426
11.844635
11.914968
10.617971
10.448694
11.017919
11.244416
11.025667
##ZVALUE=230
46.517849
49.116611
81.581473
130.375624
176.560879
210.294724
232.234001
235.026479
205.024481
173.145533
120.143890
86.099505
56.390762
48.861504
45.095682
47.381520
50.502419
48.815608
43.203831
36.312938
28.623939
19.542575
13.905764
10.344982
7.367730
7.065535
7.213950
7.725954
7.383823
8.026958
7.901788
7.660985
8.404851
9.024739
8.687973
9.111762
8.637905
9.673834
9.130836
10.636449
9.532571
9.926558
9.397864
9.752512
9.330511
10.112524
10.214448
9.865761
11.400580
11.613965
10.754466
11.916757
11.241436
12.134910
11.223555
11.279583
11.530519
11.312962
12.213588
12.915730
11.483431
13.170838
14.295578
14.447570
13.457537
15.598536
15.078783
15.653968
16.256571
18.988848
20.702481
22.851825
27.816892
27.524829
30.285716
28.667450
28.931499
27.756691
27.354956
25.138855
24.217963
21.549463
21.368861
18.509626
18.020868
15.610456
16.613603
13.981462
15.153885
13.974905
14.160872
15.251637
13.686419
15.406609
13.357997
14.209747
##ZVALUE=235
15.974641
17.020702
40.794611
94.836950
154.892802
245.387554
321.036577
417.494774
451.254845
461.062789
409.175754
338.210464
218.718648
158.307552
108.755827
81.494451
74.565411
74.771643
81.841946
82.773566
78.615546
66.064000
49.180984
36.612749
27.508736
17.298460
12.518764
9.466410
9.360909
8.042455
8.268952
9.362698
9.316802
9.555817
9.240508
8.649826
8.770823
9.427667
9.608865
9.472966
10.203719
10.490417
10.755658
10.269880
10.557771
10.390878
10.067821
11.691451
11.968613
11.355877
13.010502
11.463761
13.349652
12.917519
13.755560
13.285875
13.487935
13.421774
13.905764
13.891459
15.112758
14.689565
16.327500
15.090704
16.093850
16.667843
16.335845
18.368959
21.644831
21.752715
26.198626
27.990937
32.569766
32.123923
33.642650
33.275485
33.873916
32.579899
30.299425
29.405951
30.447841
24.705529
25.646687
24.339557
22.432804
20.584464
20.815730
20.100474
18.572807
19.971728
17.904639
19.004941
19.019842
18.659830
17.863512
19.391775
##ZVALUE=240
2.573729
3.291965
9.224415
24.319887
66.407919
120.452642
243.681669
356.504917
538.046956
641.797781
726.887584
727.050900
674.200654
536.279678
414.384007
264.525414
185.646415
120.562911
101.983547
101.638436
112.211704
116.513968
111.607909
101.312995
80.521703
65.393448
48.091412
31.274557
22.217631
15.027523
12.052655
9.996891
9.473562
9.808540
10.573864
9.332895
9.566545
10.575652
9.895563
9.257793
10.601878
10.839701
9.337664
11.079907
10.597706
10.829568
10.851622
10.951757
11.635423
12.038946
12.109876
12.569427
11.635423
12.837648
13.134480
12.903810
13.266802
13.502836
13.916492
14.825463
16.288757
15.284419
15.862584
16.477704
16.721487
19.445419
19.269586
21.001697
22.428632
24.170876
26.447773
31.743646
30.519962
36.247969
35.584569
36.241412
35.909414
35.811663
34.591556
34.564734
31.043887
29.154420
28.368831
25.736690
26.377439
24.933815
23.857951
23.824573
21.511912
20.892620
22.827983
21.937490
23.076534
20.751953
22.317767
21.871924
##ZVALUE=245
1.977682
1.995564
2.071857
2.593994
6.054640
18.781424
60.254931
119.375587
272.576809
413.402915
627.034903
774.819851
881.994963
914.222002
868.538022
724.411607
582.511425
387.344956
266.476870
155.559778
114.234686
100.947618
113.434792
127.743483
128.540993
123.874545
111.293793
97.415447
72.017908
55.381656
39.614439
25.470853
16.996861
11.260509
9.601712
10.206699
9.995699
9.272695
9.569526
9.445548
9.402633
9.743571
9.422898
10.493994
9.508729
10.093451
10.168552
10.655522
10.544658
10.885596
10.187626
10.744929
11.035800
10.879636
12.230873
11.972785
13.582706
11.638999
13.143420
13.623834
13.971925
13.827682
13.825893
14.281869
15.760660
17.792583
16.816854
18.598437
19.909739
22.216439
24.812818
26.463866
30.172467
31.306744
31.566620
34.314990
32.243729
34.318566
32.444000
30.870438
28.695464
26.920438
23.544431
24.137497
24.707913
22.529960
22.892952
22.658706
22.849441
22.045970
21.115541
20.990968
19.738674
20.651817
20.598769
20.718575
##ZVALUE=250
2.068877
2.012849
2.130866
1.884699
2.117753
2.126694
3.437996
10.551810
48.843622
105.710626
256.776810
419.855714
618.909597
876.446962
1006.438732
1015.681624
1015.681624
986.853838
829.061866
575.597882
389.136672
250.469446
141.310692
106.508732
107.140541
117.571950
133.651495
140.813589
133.529902
121.663809
107.651949
79.047680
59.126616
38.485527
24.558902
15.549660
11.535883
9.142756
9.723902
9.427667
8.966923
8.829832
8.344650
9.165406
9.309649
10.477901
9.987950
10.041595
9.910464
9.603500
9.576678
10.161996
10.232925
10.393858
10.942817
11.403561
12.023449
11.281967
11.943579
11.840463
12.448430
12.395978
13.346672
12.889504
15.085936
14.298558
14.928579
16.094446
17.869473
19.489527
22.495985
25.597811
25.220513
27.232766
28.566718
28.324723
28.526783
28.868914
26.877522
26.201606
24.402738
23.188591
22.773743
22.729635
20.510554
21.525621
20.374656
19.903779
19.832850
20.374656
22.052526
20.251870
20.662546
20.257831
20.628572
20.832419
##ZVALUE=255
1.875758
1.632571
1.800656
1.889467
1.657605
1.775622
2.438426
2.365708
2.510548
7.260442
24.050474
84.102750
174.564719
366.023779
557.057858
765.422583
1009.029746
1015.684605
1015.684605
1015.684605
1004.260778
811.817646
514.258742
332.253575
244.805813
119.033456
95.091462
106.423497
122.463703
141.663551
146.235824
141.505003
131.626725
102.921724
83.631873
56.948662
38.754940
22.473931
16.408563
10.728836
8.904934
8.498430
8.600950
9.072423
9.241700
8.755922
8.529425
9.765625
8.978844
9.233952
9.894967
10.289550
10.048747
9.348989
10.247827
11.308789
10.863543
10.936856
10.845661
11.733770
11.881590
11.930466
12.076497
12.214780
12.589693
12.790561
13.480783
14.003515
16.067624
17.280579
18.451810
20.766854
22.324920
23.837686
23.430586
24.190545
23.420453
24.077892
23.606420
21.206737
20.890832
19.353628
20.645857
18.900633
20.150542
18.247962
18.508434
18.374920
19.388795
20.022988
18.584728
18.166900
18.315911
17.981529
18.268824
18.370748
##ZVALUE=260
1.519918
1.321435
1.628995
1.484752
1.735687
1.886487
1.728535
1.816750
1.954436
2.187490
2.377629
3.493428
10.403991
46.377778
112.163424
270.311832
453.070998
759.370923
985.888839
1015.684605
1015.684605
1015.684605
1015.684605
994.479656
677.765608
463.338494
262.726545
161.353946
96.624494
86.514950
98.967552
129.805803
145.960450
150.241852
149.389505
132.806897
112.575889
83.389878
61.947703
38.883686
26.886463
15.787482
10.351539
8.738637
8.623600
8.015633
8.250475
8.819699
8.117557
9.679794
9.500980
9.222627
9.412766
10.103583
9.663701
10.472536
9.760857
10.674596
9.935498
11.123419
10.728836
11.020899
10.989904
11.606812
11.666417
12.154579
12.760758
14.404655
14.480948
16.610622
17.923713
18.668771
19.739866
20.494461
22.156835
22.130609
20.905733
20.896792
20.638704
20.653605
19.871593
18.647909
18.365979
17.762780
17.537475
17.345548
16.874671
16.656518
17.603636
17.130971
16.758442
17.068982
17.184615
17.112494
17.631650
16.892552
##ZVALUE=265
1.173615
1.449585
1.349449
1.596808
1.323819
1.464486
1.534820
1.779795
1.757741
1.884699
1.733899
2.069473
2.012849
2.907515
6.282926
32.029748
78.232884
203.738809
366.918445
686.295629
972.678661
1015.685797
1015.685797
1015.685797
1015.685797
1015.685797
903.483629
640.831590
361.618996
215.927958
124.802589
78.824759
84.123611
110.060573
131.422877
148.235559
154.315829
149.210691
134.818554
108.043551
83.585978
57.729483
40.161610
22.189617
15.586615
9.829998
8.589625
8.868575
8.423924
8.375645
8.432865
8.665919
9.338856
9.755492
9.414554
9.909868
9.863973
10.221601
9.607673
10.084510
9.439588
11.097789
10.681748
10.279417
10.644794
11.007786
11.071563
11.848807
12.669563
13.295412
15.371442
15.600920
16.473532
17.971992
18.384457
18.545985
18.269420
17.782450
17.594695
16.212463
16.363859
15.534759
16.649961
15.674829
16.074777
15.600920
15.265942
14.850497
16.527772
15.535951
14.264584
15.336871
15.763640
16.089678
16.095638
15.376806
##ZVALUE=270
1.303554
1.179576
1.203418
1.188517
1.294613
1.177788
1.776814
1.555681
1.524687
1.443624
1.398921
1.681447
1.940727
1.948476
1.933575
2.298951
4.058480
11.522770
36.122799
128.362775
268.220901
568.135977
853.358507
1015.684605
1015.684605
1015.684605
1015.684605
1015.684605
1015.684605
847.128630
578.887463
292.248726
163.329840
78.329444
65.892935
83.881617
107.723475
132.951736
147.093534
158.284903
151.357651
132.152438
111.565590
83.053708
62.063932
37.348866
26.174784
15.465617
11.429787
9.158850
8.568764
8.396506
8.684993
8.997917
9.019971
9.163618
9.521842
8.774996
9.815693
9.098649
9.636879
10.411739
9.614825
9.858608
9.965897
10.480881
10.966659
11.368990
11.900663
12.579560
13.098717
14.640689
15.459657
15.668869
16.792417
16.745925
16.444921
16.683936
16.054511
15.464425
14.297962
14.238954
14.055967
14.449954
13.984442
14.180541
13.682842
13.910532
14.014840
13.794899
14.031529
14.741421
14.134645
14.392734
13.826489
13.952851
##ZVALUE=275
1.449585
1.375675
1.427531
1.139641
1.368523
1.268983
1.183748
1.526475
1.744628
1.615882
1.691580
1.701713
1.841784
1.757741
1.756549
1.895428
2.256632
2.734661
2.701879
7.214546
26.686788
75.880885
228.107572
431.563854
806.753635
1015.895605
1015.895605
1015.895605
1015.895605
1015.895605
1015.895605
1015.895605
810.246468
425.962806
239.380002
101.644993
61.218739
61.235428
78.541636
108.085871
127.787590
148.870945
155.111551
146.717429
134.723783
107.945800
86.274743
60.269833
42.722821
26.020408
17.592907
11.855960
9.881854
9.021759
8.459687
8.562803
8.249879
9.317994
8.926988
9.372830
9.282827
9.603500
9.034872
9.465814
9.756684
9.387732
10.303855
10.742545
11.882782
12.257695
13.016462
14.367700
14.747977
15.512705
16.230941
16.310811
16.391873
15.183687
15.287995
14.295578
14.633536
13.957620
13.331771
13.686419
13.630986
13.452768
13.331771
13.626814
12.879968
13.451576
12.711883
13.662577
13.394952
13.159513
13.315678
13.727546
##ZVALUE=280
1.302958
1.180768
1.033545
1.178980
1.275539
1.133680
1.106858
1.178980
1.153946
1.331568
1.466870
1.430511
1.362562
1.315475
1.568794
1.632571
1.709461
1.754761
1.972914
2.469420
2.722740
4.349947
17.430782
76.224804
177.058578
406.571627
645.904541
1001.856923
1015.684605
1015.684605
1015.684605
1015.684605
1015.684605
1015.684605
1003.407836
612.723827
363.683701
152.833462
76.739788
47.516823
55.775642
82.094669
104.972720
130.162835
144.796968
152.141452
146.594644
128.248930
111.106634
81.631541
62.152743
39.527416
28.105974
16.604662
12.182593
9.542704
8.181930
8.556843
8.487701
8.393526
8.786917
8.848906
8.972883
9.159446
9.466410
9.270906
9.828806
10.289550
11.062622
10.936856
11.761785
12.969971
13.451576
14.694929
14.228821
14.644861
14.422536
14.279485
13.754964
13.913512
13.726950
12.738705
12.870431
12.582541
12.306571
12.459755
12.501478
12.148619
12.555718
12.464523
12.015700
12.093782
12.625456
12.529492
12.026429
12.378693
##ZVALUE=285
1.012683
0.902414
0.979900
0.987649
1.019835
1.101494
1.036525
1.091957
1.092553
1.111627
1.106858
1.126528
1.167655
1.180768
1.292825
1.217723
1.247525
1.715422
1.793504
1.881719
2.058744
2.262592
2.692938
2.678633
10.037422
35.232902
116.627812
238.132477
506.634712
801.717639
1015.639901
1015.639901
1015.639901
1015.639901
1015.639901
1015.639901
1015.639901
813.416839
532.261729
264.792442
136.898756
52.518845
39.135814
54.829717
73.881745
105.094910
124.059916
139.954686
148.246884
145.236850
132.083893
107.849836
88.925958
60.473680
42.590499
25.574565
17.954707
12.059808
9.608865
8.885860
8.912683
9.054542
8.433461
9.455681
9.574890
9.629726
9.159446
10.251999
10.169744
11.442900
12.165904
12.601614
13.341904
13.758540
13.912916
14.134645
14.069676
13.558865
13.345480
12.739897
12.655854
12.759566
12.124777
12.376904
12.550950
12.177825
11.682510
11.462569
12.264848
11.618733
11.693835
11.559725
11.282563
11.730790
11.841655
11.918545
##ZVALUE=290
1.031756
0.769496
0.932813
0.894666
0.845790
0.892878
1.191497
1.005530
1.056790
1.115799
0.988841
1.147985
1.098514
1.150966
1.151562
1.080632
1.320839
1.333952
1.391768
1.449585
1.680851
1.641512
2.115965
2.027750
2.573729
2.619624
3.892779
12.573004
63.423514
151.860714
300.819874
631.588697
964.584947
1015.684605
1015.684605
1015.684605
1015.684605
1015.684605
1015.684605
969.587564
662.946701
344.117880
185.349584
69.638491
35.078526
36.484599
49.060583
73.972940
93.965530
118.148923
133.456588
143.729448
141.199827
127.115846
110.226870
83.890557
61.455965
40.198565
27.897954
17.677546
13.114810
10.192990
9.531975
9.019971
9.093881
9.398460
9.666681
10.057688
10.287762
11.169910
12.209415
12.485981
13.709664
13.531446
13.714433
13.464689
13.237000
12.889504
12.628436
12.990832
12.125969
12.237430
12.062788
11.908412
11.662841
11.943579
11.564493
12.063980
11.856556
11.789799
12.270808
11.302829
12.212992
11.302829
11.008978
11.292696
##ZVALUE=295
0.812411
0.799894
0.898838
0.811815
0.661612
0.913739
0.907779
0.795722
0.855923
0.923872
0.815988
0.914931
0.958443
1.121759
1.107454
1.211762
0.967979
1.268983
1.398921
1.349449
1.721978
1.695752
1.515746
1.885891
2.065897
1.934767
2.313852
2.571940
3.094673
5.818605
21.915436
103.987455
242.274404
573.951006
911.109447
1015.684605
1015.684605
1015.684605
1015.684605
1015.684605
1015.684605
1015.684605
827.144980
446.224809
241.184831
86.544752
41.022897
25.338531
30.471683
49.248934
66.371560
91.749430
111.817718
131.465793
136.503577
135.038495
122.004747
101.888776
82.822442
57.523847
42.875409
26.826859
19.248724
12.709498
10.637641
9.970665
9.863973
9.946823
10.143518
10.767579
11.708736
12.113452
12.998581
13.241768
13.036728
12.907982
12.770891
12.463927
12.261868
12.217760
11.983514
11.920929
11.624694
11.366606
11.690855
11.729598
11.770725
12.065768
11.409521
11.887550
11.517406
11.122823
11.668801
11.256933
11.032820
11.476874
##ZVALUE=300
1.014471
0.981688
0.761747
0.717640
0.873804
0.890493
0.738502
0.916719
0.874996
1.095533
0.937581
1.115799
1.032948
1.049638
1.090765
0.837445
1.130700
1.217723
1.285672
1.405478
1.461506
1.158714
1.547933
1.629591
1.441836
1.787543
2.016425
1.896620
2.127886
2.529621
2.921820
3.401637
15.334487
57.689548
209.323764
423.429608
860.112906
1015.684605
1015.684605
1015.684605
1015.684605
1015.684605
1015.684605
1015.684605
973.125696
646.989942
320.024490
166.459680
57.565570
25.897622
21.005869
27.802587
45.228601
59.689879
83.712935
102.768540
122.648478
128.937960
128.128529
121.442676
101.261735
82.487464
57.474971
43.322444
27.501583
20.105839
13.825893
11.531711
10.889769
11.279583
11.209846
11.564493
12.326837
12.618899
12.830496
12.690425
12.129545
12.097955
12.405515
12.578964
12.080669
11.966825
11.688471
11.580586
11.740923
11.827946
11.659861
11.810660
11.231899
11.653900
11.145473
11.062622
11.470914
10.873675
10.789633
11.057854
##ZVALUE=305
0.686646
0.742674
0.942945
0.718832
0.832677
0.685453
0.806451
0.869632
0.851750
0.841618
0.807643
0.843406
0.991821
0.850558
0.969768
1.074672
0.911951
1.081824
1.004934
0.950694
1.311898
1.157522
1.492500
1.505613
1.370907
1.466870
1.852512
1.833439
1.857877
1.867414
2.031922
2.352595
2.776980
3.262758
6.510615
41.764975
127.508640
390.696526
700.614452
1015.684605
1015.684605
1015.684605
1015.684605
1015.684605
1015.684605
1015.684605
1015.684605
807.530880
508.228540
236.611962
112.980604
34.578443
18.050671
20.087957
26.531816
42.587519
58.542490
81.881881
98.007917
116.546750
124.609470
121.695995
114.257932
96.809864
80.389977
56.670904
41.270852
26.673675
19.929409
14.569759
12.879968
12.468696
12.421608
12.562871
13.154745
12.199879
11.822581
12.695789
12.115836
11.853576
11.829734
11.893511
11.663437
12.032986
12.009740
11.806488
11.612773
11.831522
11.282563
11.783838
11.322498
11.250973
11.080503
11.209846
11.313558
10.855794
##ZVALUE=310
0.742674
0.787973
0.629425
0.792742
0.692606
0.926852
0.783801
0.740886
0.744462
0.898838
0.850558
0.739694
0.897646
0.774860
0.827909
0.931621
0.962615
1.000762
0.975728
0.945926
1.070499
1.029968
1.298785
1.212955
1.425743
1.427531
1.388788
1.360774
1.525879
1.470447
1.805425
2.071857
2.147555
2.492666
2.545714
3.077984
3.998876
16.521811
59.121847
219.374895
463.075638
956.096649
1015.684605
1015.684605
1015.684605
1015.684605
1015.684605
1015.684605
1015.684605
1013.189554
719.900727
361.905694
192.319751
64.810514
25.187731
14.818907
16.606450
25.191903
35.347939
52.638650
69.328547
92.365742
105.433464
115.680695
118.527412
108.594894
96.269846
75.961947
59.939623
40.515661
30.514598
21.247864
16.943812
14.088750
12.354851
11.967421
12.591481
12.104511
11.458993
11.300445
11.383891
11.718869
11.718869
11.647940
11.796951
11.699796
11.665821
11.932850
11.590719
11.469722
11.747479
11.576414
11.511445
10.641813
10.515451
10.980964
##ZVALUE=315
0.766516
0.612736
0.649691
0.707507
0.722408
0.671744
0.785589
0.890493
0.822544
0.744462
0.895858
0.846982
0.976920
0.950694
0.882745
0.912547
1.006722
0.808835
0.976920
0.854731
0.873804
1.148582
1.069903
0.993609
1.151562
1.154542
1.364946
1.348853
1.399517
1.435876
1.394749
1.676679
1.641512
1.897812
2.001524
2.071857
2.335906
2.663732
3.048778
7.477999
29.560924
130.396485
290.758014
668.268800
1010.208726
1015.684605
1015.684605
1015.684605
1015.684605
1015.684605
1015.684605
1015.684605
921.528935
486.617684
263.050795
93.597770
35.475492
14.102459
12.841821
16.327500
22.335649
34.639835
47.266483
67.250729
83.462000
102.339983
109.864473
111.376643
105.286837
91.780424
75.660944
57.786703
43.210983
28.708577
21.204948
15.782714
13.340712
12.149811
11.778474
11.504889
11.588931
11.711717
11.853576
11.522770
11.918545
11.680722
11.713505
11.794567
11.619925
11.403561
11.429787
11.438727
11.229515
10.982752
10.913610
10.817647
##ZVALUE=320
0.716448
0.723600
0.699759
0.705719
0.833869
0.739694
0.640750
0.773668
0.678897
0.675917
0.669956
0.861883
0.802875
0.621676
0.648499
0.902414
0.795722
1.020432
0.903606
1.085997
1.060963
0.972748
1.074672
1.107454
1.053810
1.025796
1.012683
1.209974
1.054406
1.177788
1.288652
1.559854
1.483560
1.667738
1.665950
1.826882
1.936555
2.143979
2.434850
2.803802
3.078580
4.093647
12.085438
71.059465
186.751485
504.086614
840.981007
1015.684605
1015.684605
1015.684605
1015.684605
1015.684605
1015.684605
1015.684605
1015.684605
668.920875
382.857919
156.410933
66.445470
19.088984
12.485981
12.776852
15.139580
21.303892
29.241443
44.695735
60.098767
80.161691
93.106627
104.805827
106.816888
101.109743
89.947581
71.352720
56.374669
39.360523
29.441714
20.857453
16.141534
13.397932
12.139678
11.659861
11.719465
11.555552
11.487603
11.570454
11.686683
12.089610
11.528730
11.532903
11.240840
11.268854
11.092424
11.457801
10.861754
11.006594
##ZVALUE=325
0.713468
0.638962
0.927448
0.648499
0.764728
0.753999
0.739694
0.730753
0.837445
1.006722
0.775456
0.996590
0.838637
0.952482
0.884533
0.794530
0.767708
0.813603
0.859499
1.066923
0.872612
1.063943
1.057982
0.922680
1.142621
1.019835
1.189709
1.212955
1.138449
1.241565
1.204610
1.436472
1.365542
1.486540
1.662970
1.759529
1.804829
1.988411
2.236962
2.169609
2.244711
2.744794
2.872944
3.855824
6.980896
45.544505
125.362873
351.976752
646.634698
1015.812755
1015.812755
1015.812755
1015.812755
1015.812755
1015.812755
1015.812755
1015.812755
859.646797
522.124767
234.988928
110.114813
31.788945
14.151931
11.516809
12.317896
15.423894
20.448565
31.319857
43.460727
62.115788
76.809525
90.592504
100.419521
101.474524
95.290542
80.569983
67.744851
50.545931
38.405657
26.803613
19.991994
14.912486
13.484955
12.413859
11.782646
11.639595
11.613965
11.980534
11.468530
11.515617
11.531711
11.212826
10.975599
11.301637
11.076927
11.247993
##ZVALUE=330
0.690818
0.447631
0.595450
0.797510
0.502467
0.580549
0.617504
0.598431
0.740886
0.462532
0.641942
0.785589
0.753999
0.654459
0.673532
0.672936
0.868440
0.813603
0.689626
0.659823
0.747442
0.721812
0.793934
0.773668
0.866652
0.849962
1.141429
1.013875
0.940561
1.094937
0.929832
1.267791
1.335740
1.283884
1.226664
1.231432
1.254678
1.795888
1.516938
1.904964
1.944900
1.926422
2.094507
2.444983
2.817512
3.162622
4.244447
18.975735
65.292716
229.389071
459.303856
944.074988
1015.684605
1015.684605
1015.684605
1015.684605
1015.684605
1015.684605
1015.684605
1013.222933
701.466799
330.093503
169.459581
57.841539
21.799803
11.704564
11.078715
12.180805
14.026761
21.197796
29.088855
42.970777
56.669712
73.745847
85.888505
94.601512
95.161796
88.375807
78.751445
61.845779
48.861504
34.610629
26.748776
19.928813
16.007423
13.601780
12.127757
11.732578
11.533499
11.373758
11.184812
11.156797
11.260509
10.757446
10.854602
11.274815
##ZVALUE=335
0.472665
0.682473
0.614524
0.534654
0.705719
0.541806
0.610948
0.525713
0.694990
0.506639
0.600815
0.798702
0.731945
0.577569
0.581741
0.731945
0.780821
0.853539
0.863671
0.556707
0.649691
0.646710
0.707507
0.862479
0.743866
0.520945
0.912547
0.942945
0.870824
0.932813
0.825524
0.908971
1.022816
1.231432
1.394749
1.293421
1.268983
1.326799
1.397729
1.678467
1.523495
1.720786
1.997948
2.045631
2.279878
2.325773
2.742410
2.958775
3.550649
9.883642
35.681725
148.999691
331.400633
769.203901
1015.682817
1015.682817
1015.682817
1015.682817
1015.682817
1015.682817
1015.682817
1015.682817
879.825950
451.086760
229.824781
72.980523
28.414726
12.698770
10.993481
11.527538
12.238622
15.579462
19.545555
29.769540
39.849877
55.595636
67.992806
80.254674
87.348819
88.249445
83.034635
70.993900
60.642958
47.321916
37.564635
26.061535
20.698905
15.413761
13.439655
12.022853
11.358857
11.057854
11.055470
10.578632
10.494590
10.472536
##ZVALUE=340
0.684857
0.663996
0.727773
0.557899
0.709891
0.678897
0.640750
0.666976
0.820756
0.770688
0.682473
0.739694
0.919700
0.809431
0.763535
0.712872
0.782609
0.721812
0.919700
0.661612
0.989437
0.976920
0.831485
1.073480
0.829697
1.035929
0.976920
1.032948
1.160502
1.056790
0.976920
1.114607
1.107454
1.243949
1.239777
1.262426
1.273751
1.373887
1.461506
1.430511
1.372695
1.584888
1.700521
1.871586
2.045631
2.323985
2.523661
2.442598
2.980828
3.099442
3.720522
4.872680
24.306774
77.561736
257.306695
540.048480
1015.812755
1015.812755
1015.812755
1015.812755
1015.812755
1015.812755
1015.812755
1015.812755
1009.331942
662.890673
294.197798
134.295821
35.224557
15.512705
12.226701
12.263656
12.655854
12.901425
15.631914
19.797683
27.944446
37.086606
52.235723
63.865781
76.583624
82.492828
83.042979
79.628825
69.660544
59.529543
45.862794
36.394000
25.758743
19.830465
15.278459
12.839437
11.506677
10.959506
10.419488
10.397434
##ZVALUE=345
0.614524
0.631809
0.630617
0.381470
0.653863
0.541806
0.572801
0.732541
0.610948
0.690818
0.713468
0.558496
0.738502
0.735521
0.682473
0.609756
0.578761
0.715852
0.711679
0.714660
0.649691
0.712872
0.613928
0.922680
0.743866
0.843406
0.628829
0.695586
0.891685
0.767708
0.776649
0.999570
0.989437
1.054406
0.985861
1.063943
0.918508
1.141429
1.069903
1.179576
1.278520
1.463890
1.496673
1.590848
1.534820
1.694560
1.859665
2.036691
2.236962
2.244711
2.564788
2.896786
3.222823
3.880858
8.713603
53.737760
151.444674
434.325933
828.552842
1015.687585
1015.687585
1015.687585
1015.687585
1015.687585
1015.687585
1015.687585
1015.687585
821.990967
459.500551
191.471577
80.887675
24.087429
14.019608
12.475848
11.864901
11.480451
12.012720
14.233589
17.744899
25.995970
34.198761
48.062801
57.828426
69.609880
75.214505
77.109933
74.392557
65.997839
57.357550
45.305490
35.800934
25.639534
19.842982
15.067458
12.987852
11.169910
##ZVALUE=350
0.559688
0.709891
0.661612
0.707507
0.675917
0.519753
0.650883
0.666976
0.652671
0.647902
0.732541
0.727773
0.703931
0.641942
0.747442
0.647902
0.732541
0.672936
0.679493
0.706911
0.887513
0.830889
0.790954
0.774860
0.872612
0.807643
0.787973
0.917912
0.781417
0.848770
0.929832
0.880957
0.881553
1.044869
0.827909
0.965595
1.059771
1.170635
1.103878
1.261830
1.329780
1.024604
1.195669
1.342893
1.264811
1.477599
1.577735
1.742840
1.868606
1.827478
2.204776
2.348423
2.340674
2.653599
2.875924
3.497601
5.040765
25.909543
84.583759
272.558928
552.578568
1015.684605
1015.684605
1015.684605
1015.684605
1015.684605
1015.684605
1015.684605
1015.684605
969.429612
595.904589
269.423723
120.905638
33.045411
14.611483
11.389852
10.362864
10.075569
9.868741
10.500550
12.439489
17.407537
21.728873
31.274557
40.227771
51.872730
61.347485
68.747997
70.358515
68.589449
63.468814
52.049756
43.352842
31.939745
25.471449
18.264651
##ZVALUE=355
0.564456
0.633597
0.584722
0.602603
0.684857
0.736713
0.560880
0.642538
0.718832
0.532866
0.656843
0.613928
0.639558
0.602603
0.724792
0.746846
0.771880
0.575781
0.606775
0.779629
0.786781
0.635982
0.743866
0.849962
0.739694
0.691414
0.753999
0.768900
0.802875
0.830889
0.783801
0.841618
0.874996
0.935793
0.887513
0.838637
0.937581
0.960827
1.083612
1.063943
1.205802
1.191497
1.098514
1.233816
1.113415
1.287460
1.353621
1.297593
1.597404
1.753569
1.563430
1.885891
2.046824
2.109408
2.319813
2.287626
2.695918
3.023744
3.328919
12.064576
46.217442
180.859566
368.945599
789.088607
1015.684009
1015.684009
1015.684009
1015.684009
1015.684009
1015.684009
1015.684009
1015.684009
749.520659
317.871571
144.940615
41.966438
16.720891
10.318756
9.621978
9.090900
9.148717
9.011626
9.865761
11.533499
14.212728
20.418763
26.711822
36.998987
44.698715
54.562688
60.575604
63.951612
63.564777
57.762861
50.477982
40.784478
##ZVALUE=360
0.551939
0.547767
0.490546
0.518560
0.648499
0.680685
0.689626
0.544786
0.653863
0.585914
0.642538
0.692606
0.708699
0.663996
0.682473
0.740886
0.665784
0.691414
0.682473
0.764728
0.684857
0.662804
0.711679
0.830889
0.688434
0.823736
0.612736
0.880957
0.939965
0.849962
0.862479
0.859499
0.903606
0.905991
1.024604
1.102686
0.930429
0.862479
0.937581
1.089573
1.089573
1.078844
1.082420
1.135468
1.203418
1.272559
1.269579
1.316667
1.534820
1.329780
1.648664
1.663566
1.597404
2.069473
1.974702
2.058744
2.364516
2.590418
2.889633
3.096461
3.580451
6.179810
21.127462
97.340941
238.469839
592.833757
966.488719
1015.687585
1015.687585
1015.687585
1015.687585
1015.687585
1015.687585
1015.687585
911.033750
425.582528
208.878517
68.446994
24.104714
10.629892
9.489655
8.927584
8.776784
8.338690
8.553863
9.051561
9.880662
12.616515
16.079545
22.252798
29.176474
39.659739
46.816468
54.774880
57.891607
57.957768
##ZVALUE=365
0.650883
0.761747
0.625849
0.648499
0.873804
0.780821
0.690818
0.807643
0.755787
0.688434
0.841618
0.792742
0.770688
0.730753
0.943542
0.885725
0.754595
0.840425
0.882745
0.880957
0.620484
0.754595
0.778437
0.904799
0.846982
0.866652
0.939965
0.854731
0.895858
0.936985
1.015663
0.928640
0.891685
0.920892
1.058578
1.077652
1.046658
1.132488
1.101494
1.062751
1.208782
1.236796
1.270771
1.158714
1.191497
1.286864
1.167655
1.416802
1.306534
1.311898
1.526475
1.745820
1.774430
1.765490
1.679659
1.998544
2.036691
1.922846
2.264977
2.476573
2.639890
3.283620
3.380775
3.955960
12.049675
46.217442
179.267526
382.191539
862.640738
1015.774608
1015.774608
1015.774608
1015.774608
1015.774608
1015.774608
1015.774608
1015.774608
657.829642
278.261900
122.613907
31.458735
12.921691
9.188652
8.748770
8.248687
7.925630
7.580519
7.827878
7.913709
8.738637
10.749698
13.209581
19.461513
24.974942
34.172535
40.772557
##ZVALUE=370
0.580549
0.492930
0.621676
0.685453
0.506639
0.485778
0.592470
0.535846
0.529885
0.559688
0.580549
0.562668
0.587702
0.539422
0.637770
0.722408
0.684857
0.720620
0.675917
0.524521
0.680685
0.613928
0.517964
0.596642
0.489950
0.647902
0.890493
0.661612
0.892878
0.642538
0.718832
0.735521
0.936985
0.668764
0.725985
0.682473
0.935793
0.829697
0.737906
0.844598
0.905991
0.923872
0.971556
0.901818
1.217723
1.182556
1.149774
1.168847
1.095533
1.179576
1.369715
1.227856
1.085997
1.456738
1.352429
1.244545
1.467466
1.507998
1.670718
1.772642
1.845956
2.057552
2.264977
2.502799
2.920628
3.349781
5.578995
22.124648
123.961568
295.403004
675.100684
1015.684605
1015.684605
1015.684605
1015.684605
1015.684605
1015.684605
1015.684605
1015.684605
797.465444
367.191434
186.716914
64.517856
22.993684
9.072423
8.007884
7.537603
7.306933
7.160902
6.890893
6.716847
6.882548
7.725954
8.813739
12.129545
15.552640
##ZVALUE=375
0.464916
0.539422
0.397563
0.604987
0.678897
0.597835
0.558496
0.492930
0.398755
0.559688
0.683665
0.540614
0.507832
0.591874
0.435710
0.588894
0.445843
0.625849
0.696778
0.556707
0.619888
0.570416
0.508428
0.594854
0.668764
0.618696
0.813603
0.623465
0.583529
0.677705
0.733733
0.756979
0.745654
0.624657
0.597835
0.754595
0.654459
0.829697
0.845790
0.614524
0.797510
0.783801
0.892878
0.889897
0.969768
0.820756
0.894666
0.822544
1.063943
1.040697
1.195669
1.161695
1.199841
1.199841
1.212955
1.234412
1.371503
1.174808
1.354814
1.535416
1.714826
1.780987
1.744628
1.869798
2.277493
2.420545
2.760887
3.089905
4.123449
9.999871
58.996677
160.559416
457.864404
851.435661
1015.684605
1015.684605
1015.684605
1015.684605
1015.684605
1015.684605
1015.684605
990.510583
549.714565
303.652883
115.932822
47.502518
12.392998
8.187890
7.150769
6.970763
6.699562
6.477833
5.989671
6.296635
6.272793
6.834865
##ZVALUE=380
0.630617
0.549555
0.380874
0.509620
0.383854
0.374913
0.487566
0.488758
0.534654
0.526905
0.555515
0.601411
0.549555
0.584722
0.477433
0.630617
0.531673
0.335574
0.479817
0.574589
0.497699
0.471473
0.365973
0.533462
0.680685
0.650883
0.655651
0.557899
0.728965
0.603795
0.556707
0.688434
0.586510
0.629425
0.678897
0.547767
0.648499
0.687838
0.640750
0.558496
0.673532
0.540614
0.872612
0.727773
0.758767
0.786781
0.784993
0.817776
0.875592
0.912547
0.961423
1.011491
0.910759
0.979900
0.868440
1.021624
1.059771
1.140833
1.188517
1.171827
1.349449
1.150966
1.460910
1.448989
1.537800
1.795888
1.920462
2.157688
2.368689
3.146529
3.553629
6.275773
23.072958
111.663938
271.187425
670.287609
1015.684605
1015.684605
1015.684605
1015.684605
1015.684605
1015.684605
1015.684605
1015.684605
809.188485
387.199521
201.455951
66.967607
24.561882
8.603930
6.894469
6.329417
6.321669
6.089807
6.002784
5.845428
##ZVALUE=385
0.466704
0.522733
0.384450
0.434518
0.384450
0.397563
0.441670
0.536442
0.337958
0.403523
0.415444
0.546575
0.504851
0.346899
0.482798
0.487566
0.387430
0.498891
0.402927
0.462532
0.347495
0.456572
0.404716
0.481606
0.639558
0.588894
0.506639
0.457764
0.543594
0.557899
0.395775
0.567436
0.650883
0.661612
0.541806
0.632405
0.610948
0.579953
0.584722
0.592470
0.507832
0.598431
0.712872
0.683665
0.643730
0.648499
0.677705
0.835657
0.614524
0.860691
0.657439
0.988841
0.704527
0.872612
0.990629
0.774860
0.944734
0.948906
0.929832
1.112819
0.981688
1.121759
1.253486
1.281500
1.371503
1.412630
1.627803
1.878738
2.039671
2.456903
2.718568
2.825856
3.089905
4.117489
11.325479
63.008666
163.044930
431.892872
776.436925
1015.687585
1015.687585
1015.687585
1015.687585
1015.687585
1015.687585
1015.687585
1015.687585
578.076839
312.858820
118.851662
44.150949
10.541677
6.651878
5.999804
5.812645
5.591512
##ZVALUE=390
0.354648
0.358820
0.422597
0.441670
0.409484
0.443459
0.298619
0.341535
0.427961
0.379682
0.509620
0.382662
0.438690
0.444651
0.518560
0.444651
0.466704
0.355840
0.531673
0.429749
0.525713
0.595450
0.517964
0.615716
0.613928
0.368953
0.373721
0.481606
0.515580
0.481606
0.500679
0.634789
0.489950
0.506639
0.698566
0.666976
0.631809
0.410676
0.631809
0.548959
0.549555
0.478625
0.695586
0.496507
0.649691
0.759959
0.597835
0.751615
0.779629
0.791550
0.930429
0.528693
0.638962
0.813603
0.814795
0.922680
0.991821
0.895858
1.104474
1.021624
1.142621
1.108646
1.229644
1.225471
1.156926
1.527667
1.519918
1.712441
1.845956
2.083778
2.468824
2.762675
2.622604
2.981424
2.919436
3.452897
6.349683
39.772987
120.641589
352.240801
660.637021
1015.684605
1015.684605
1015.684605
1015.684605
1015.684605
1015.684605
1015.684605
1015.684605
866.398811
487.106442
185.415745
76.511502
17.414689
7.555485
6.236434
##ZVALUE=395
0.287890
0.461936
0.323653
0.381470
0.377893
0.280738
0.299811
0.427961
0.485778
0.336766
0.287890
0.460744
0.450611
0.472665
0.555515
0.462532
0.536442
0.501871
0.405908
0.469685
0.516772
0.468493
0.485778
0.425577
0.472665
0.606775
0.536442
0.473857
0.540614
0.514984
0.584722
0.503659
0.513792
0.605583
0.521541
0.621676
0.524521
0.629425
0.595450
0.405908
0.494719
0.576973
0.523925
0.733733
0.669956
0.718832
0.679493
0.556707
0.759959
0.685453
0.718832
0.726581
0.926852
0.749826
0.868440
0.944734
0.887513
0.941753
0.831485
0.881553
1.026988
0.874996
1.080632
1.093745
1.185536
1.344681
1.436472
1.610518
1.652837
2.041459
1.969934
2.203584
2.197623
2.355576
2.284646
2.313852
2.544522
2.846718
3.638864
17.481446
67.409873
236.702561
460.375547
923.765898
1015.684605
1015.684605
1015.684605
1015.684605
1015.684605
1015.684605
1015.684605
1002.379656
655.942559
290.414691
131.336451
37.618876
##ZVALUE=400
0.341535
0.362992
0.365973
0.193715
0.400543
0.391603
0.381470
0.381470
0.360608
0.388622
0.588894
0.236630
0.427961
0.349879
0.392795
0.622869
0.460744
0.319481
0.492930
0.532866
0.385642
0.388622
0.295639
0.507832
0.354648
0.408888
0.384450
0.482798
0.416636
0.442863
0.324845
0.465512
0.568628
0.510812
0.465512
0.706911
0.664592
0.573993
0.594854
0.569820
0.614524
0.582933
0.570416
0.561476
0.591874
0.751615
0.728965
0.691414
0.763535
0.586510
0.773668
0.709891
0.792742
0.846982
0.877976
0.697970
0.847578
0.843406
0.811815
0.968575
0.880957
0.859499
0.895858
0.981688
1.060963
1.270771
1.264811
1.482964
1.415610
1.688600
1.725554
1.893640
1.837611
1.782775
1.769662
1.886487
1.801848
2.130866
2.506971
2.817512
3.229976
9.987950
39.208531
148.412585
319.053531
696.475506
1013.372540
1015.684605
1015.684605
1015.684605
1015.684605
1015.684605
1015.684605
1015.684605
740.568638
370.654464
##END
