##TITLE=QP00651
##FORMAT=SPECTACLE-ASCII V-1.2
##DATA TYPE=ULTRAVIOLET SPECTRUM
##SECOND TYPE=ULTRAVIOLET SPECTRUM
##DATE=05/07/18
##TIME=14:58:42
##SPECTROMETER/DATA SYSTEM=SPECTACLE
##XUNITS=NM EM
##YUNITS=ENERGY
##YFACTOR=1
##FIRSTX=220
##LASTX=410
##NPOINTS=96
##3DDATA=Equidistant
##ZUNITS=NM EX
##FIRSTZ=210
##LASTZ=400
##ZPOINTS=39
##XYDATA=(Y..Y)
##ZVALUE=210
2.709627
2.480745
3.322959
3.171563
3.528595
3.136992
2.816916
3.693700
3.507733
3.445745
2.874732
3.754497
3.066659
3.277659
3.767610
3.158450
3.112555
3.974438
4.013777
4.763603
4.656911
4.377961
4.444718
4.153848
4.933476
5.783439
5.650520
5.911589
6.013513
6.227493
6.239414
6.794930
6.123781
6.417632
7.019639
6.281734
7.261634
7.220507
8.329749
8.214712
6.555915
7.629991
7.911921
8.356571
7.830858
7.738471
8.433461
8.516908
8.670688
7.897615
8.670688
9.066463
9.237528
9.190440
9.679794
8.266568
8.768439
9.709597
9.412766
10.095835
10.145903
10.939837
9.804964
9.188652
11.434555
10.948777
12.151599
13.439655
15.798807
17.814636
21.653771
22.291541
28.931499
32.609701
32.815933
33.681989
35.566688
32.069683
31.404495
28.636456
25.376678
24.359822
21.275878
19.159913
16.866922
14.731884
12.741685
11.595488
9.645820
9.381771
10.240674
10.083914
9.042621
10.869503
10.500550
10.481477
##ZVALUE=215
9.904504
8.588433
7.238984
6.353855
6.448627
5.651712
5.100965
5.776882
5.709529
5.475879
6.369948
4.976988
4.731417
4.769564
4.144907
3.569722
3.739595
3.150702
3.510714
3.862977
3.806949
4.427433
5.163550
5.307794
4.965663
5.121827
5.783439
6.687641
5.660653
6.259680
6.263852
5.990863
6.220937
7.135868
6.730556
7.424951
8.387566
8.270741
8.368492
7.825494
7.833838
7.920861
8.200407
7.924438
8.043647
7.921457
8.542538
8.936524
9.408593
8.659959
9.254813
8.932948
10.118484
10.197759
9.688735
11.177659
9.395480
10.623932
10.965466
10.764599
9.670854
11.264682
10.692477
10.158420
10.502934
10.480881
13.855696
13.353825
14.906526
17.808676
19.098520
24.114847
26.775599
28.131604
30.974746
33.429861
33.929944
31.716824
31.818748
25.993586
25.787950
23.743510
20.948648
17.060637
16.032457
15.334487
11.840463
12.090802
11.442900
10.599494
10.435581
10.488629
9.948611
10.552406
10.698438
10.581613
##ZVALUE=220
28.757453
28.546453
33.170581
31.461716
29.351711
20.598769
19.538999
14.309883
12.558699
12.042522
11.778474
13.698936
13.079643
11.155605
9.208918
8.464456
6.084442
5.613565
5.081892
4.425645
4.392862
5.065799
5.385876
5.342960
6.353855
5.966425
6.453991
6.287694
6.843805
7.056594
6.653666
6.677508
8.219481
7.661581
8.828640
7.930994
8.069873
9.958744
8.973479
8.001924
8.359551
9.093881
9.839535
9.991527
8.934736
9.242892
9.205937
10.000467
9.607673
9.558797
10.389686
9.485483
10.988712
9.789467
10.564923
10.323524
11.020899
11.653900
9.423494
10.871887
11.513829
10.658503
11.505485
12.437701
13.214946
11.760592
13.317466
14.593601
14.832616
16.685724
19.637942
25.484562
25.203824
28.314590
30.499697
31.989813
30.902624
30.425787
28.995872
27.150512
26.046634
25.577545
21.416545
18.176436
16.607642
14.603734
13.587475
11.871457
12.251735
12.608767
10.687709
12.169480
11.248589
11.170506
10.848641
10.835528
##ZVALUE=225
47.840476
52.159429
66.656470
86.683631
94.606876
94.521642
84.437728
70.316792
53.737760
35.855770
27.530789
25.133491
24.932623
24.442673
26.311874
25.657415
20.870566
17.779469
12.818575
10.308623
6.939769
6.528497
5.413890
6.740689
6.337762
6.445646
7.378459
6.871819
7.919669
8.168817
8.403659
8.951426
7.997751
9.433627
9.132624
9.633899
10.207891
9.655952
9.615421
10.960698
9.861588
10.861754
10.680556
10.799766
10.249615
10.415912
11.362433
10.970831
11.168718
11.808872
11.195540
12.485981
11.689663
12.768507
11.243820
11.779666
11.732578
12.512803
13.063550
12.438893
12.167692
12.734532
12.170672
14.264584
13.786554
14.979839
13.934970
14.885664
17.074943
19.620657
21.812916
24.155974
27.779937
29.976964
28.502941
29.737949
30.764937
29.430985
27.785897
25.414824
23.380518
20.755529
19.666553
18.472672
17.498732
15.495420
15.549660
13.957620
15.368462
13.558865
14.116764
12.522936
13.532639
14.016628
14.227629
14.397502
##ZVALUE=230
44.294000
50.570965
78.831911
129.670501
175.840855
210.269690
227.211714
232.420564
212.437510
176.424980
123.987794
87.326765
58.001876
47.639608
46.410561
47.815442
50.547719
49.639940
44.658780
37.982464
30.619502
17.801523
14.802814
9.850860
8.061528
7.828474
7.244945
7.880926
7.825494
9.085536
8.541942
8.969903
9.252429
9.663701
10.429621
9.377599
10.876656
12.086630
10.901690
11.077523
10.621548
10.013580
11.046529
11.441708
10.876656
12.158751
11.913776
12.464523
11.235476
12.925863
13.083816
13.703704
12.615919
14.557838
13.762712
12.599826
13.104677
14.854670
13.446808
15.402436
14.860630
14.296770
15.374422
15.577674
15.737414
16.385913
16.205907
16.871691
18.592477
22.155643
21.807551
25.465488
27.658939
30.246973
32.639503
31.426549
31.479001
29.946566
30.017495
27.250648
25.704503
24.406910
21.241903
19.530654
19.583702
18.024445
18.608570
18.162727
18.363595
16.622543
16.077757
15.841722
16.405582
15.430450
15.445948
16.994476
##ZVALUE=235
16.680956
17.714500
38.917661
90.883970
150.921941
238.599777
315.256715
407.615900
452.863574
454.818010
405.996442
333.255529
229.387879
168.387890
107.415915
85.849762
71.332455
75.134635
80.844760
80.756545
76.447725
67.444444
49.836636
37.805438
28.055906
15.299916
12.256503
9.455681
9.216666
7.902980
8.523464
9.371638
8.870959
9.023547
9.484887
10.095835
10.149479
10.440946
10.598898
11.412501
10.467768
11.270642
12.080669
11.191964
10.467768
12.875795
12.206435
11.579990
11.396408
11.884570
14.934540
13.042688
14.793873
14.201999
14.377832
14.845729
15.220642
15.436411
16.627908
16.033649
17.966628
17.367601
17.028451
18.633604
18.748641
20.727515
19.338727
20.502806
22.937655
23.786426
27.339458
29.950738
31.779408
35.346746
36.271811
35.196543
36.628842
34.253597
33.224821
31.908751
28.092861
28.743744
27.639866
25.228858
24.199486
24.522543
23.331642
21.411777
21.937490
22.304654
21.033883
22.174716
19.425750
20.428896
21.227598
20.961761
##ZVALUE=240
2.686977
2.850890
7.320642
21.906495
58.553815
112.478733
226.565599
346.654654
515.119433
617.465973
705.883503
714.336634
653.648973
524.702668
404.085517
252.155662
176.441669
117.025971
99.390745
99.038482
110.863447
118.445754
111.559629
98.662972
82.782507
63.705444
45.824647
31.254888
22.136569
16.402602
10.944605
9.924769
10.055900
9.894967
8.364916
9.993911
10.217428
11.042953
10.447502
10.567904
11.225939
11.272430
12.152791
12.212992
11.519790
12.987852
12.610555
13.717413
13.222694
13.652444
14.473796
14.701486
13.274550
15.003681
15.329719
16.837716
15.807748
15.673637
15.937686
18.026829
16.765594
18.031597
18.915534
19.206405
20.128489
20.136833
22.425652
22.261739
23.475885
27.211905
29.541850
31.454563
34.042597
34.306645
36.697984
38.957596
38.079619
36.907792
33.540726
35.787821
33.166409
32.199621
30.153990
29.089451
27.130842
28.458834
25.828481
26.405454
25.388598
27.598739
23.283958
25.187731
23.741722
24.138689
24.367571
24.664998
##ZVALUE=245
2.162457
2.438426
2.425909
3.050566
5.640984
18.614531
43.558478
122.721791
224.837661
350.866914
560.284853
708.330870
851.854682
887.587667
826.745033
735.435486
538.151860
396.566987
277.120471
160.607696
116.531849
103.803873
110.562444
125.483871
127.530694
122.835636
110.834837
91.667771
73.313713
51.293969
39.031506
24.189949
16.039610
11.637807
10.911822
9.499788
9.693503
9.711981
10.662675
10.600686
10.607839
10.587573
10.447502
9.714961
10.403991
10.400414
10.954738
11.236668
12.186766
12.703538
12.192726
12.514591
12.661815
13.405681
13.648868
14.311671
14.204979
14.847517
15.107989
15.597939
16.232729
17.199516
17.465949
16.796589
17.851591
18.907785
19.586682
21.933913
21.879673
24.238825
25.253892
27.625561
29.910803
32.587647
33.755898
34.201741
34.109950
33.404827
34.180880
31.861663
30.322671
28.198957
29.427409
27.715564
26.219487
26.499629
25.522709
24.831891
26.115775
22.736788
24.054646
25.577545
24.125576
24.563670
22.866726
24.062991
##ZVALUE=250
1.774430
2.027750
1.941919
1.987815
2.165437
2.327561
3.349781
9.741783
41.566491
91.472864
220.719576
365.132689
530.326962
776.571631
921.407938
1015.777588
1015.777588
923.619866
778.277516
543.550849
374.806523
237.836838
132.108927
100.229979
106.048584
118.038654
131.267905
136.899948
131.525993
122.961998
104.286671
76.581836
58.301687
36.194921
24.640560
15.371442
11.568666
9.819865
10.658503
9.462833
9.687543
10.475516
9.474754
10.624528
10.343790
9.868741
10.650754
11.548996
11.110902
11.480451
11.549592
11.483431
10.718703
11.323690
11.370778
12.064576
12.866855
13.279915
13.669729
15.043616
14.465451
15.383959
14.764667
15.361905
16.188622
17.362833
17.001629
17.531514
19.274950
21.986961
21.434426
23.915768
25.450587
27.736425
29.355884
28.993487
29.746890
29.722452
28.689504
27.037859
26.143789
26.747584
25.255680
25.752783
25.272965
23.374557
24.453998
23.533702
24.869442
23.595691
22.172928
22.764802
23.108721
22.718906
23.683906
24.397969
##ZVALUE=255
1.580715
1.396537
1.846552
1.727939
2.067685
1.737475
2.035499
2.505779
2.772808
4.772544
23.948550
64.481497
170.791745
299.206972
512.516499
731.954575
996.966958
1015.684605
1015.684605
1015.684605
995.389819
742.610693
525.269508
296.767950
173.835754
105.966926
92.240572
106.172562
125.584602
138.171911
146.376491
142.417550
129.522681
103.302002
82.148910
56.972504
40.966868
24.228692
16.486645
12.015700
10.322928
9.672642
8.745790
9.266734
10.221601
10.265708
10.172725
12.000799
11.398792
10.806918
11.512637
10.569692
10.933876
11.684895
11.348724
12.211800
11.651516
12.697577
13.238788
12.824535
12.862682
12.780428
14.645457
14.223456
14.899969
15.125871
16.277432
17.058849
17.152429
19.765496
21.163821
22.055507
23.791790
25.050640
25.502443
26.420951
25.524497
25.499463
25.807619
24.063587
23.226738
24.118423
23.293495
22.264719
23.199916
20.779967
21.855831
21.764636
21.526814
22.351742
20.515919
21.043420
21.314621
21.359921
20.867586
21.162629
##ZVALUE=260
1.512766
1.364946
1.445413
1.713634
1.531839
1.845956
1.757741
1.516938
2.218485
2.171993
2.245903
3.548861
10.915995
45.558810
103.036761
251.308680
427.993536
719.345808
965.885520
1015.684605
1015.684605
1015.684605
1015.684605
1001.109481
692.958832
466.730595
261.673927
158.157945
92.706680
86.574554
99.820495
125.908852
139.957666
149.621964
148.173571
129.965544
110.524893
82.952976
62.181950
39.808750
27.499795
16.641617
12.923479
10.217428
9.713769
10.315776
9.498000
9.475946
10.609627
9.601712
10.037422
9.765625
10.522604
10.648966
10.886788
10.432601
10.897517
11.069775
11.183619
12.419820
12.187958
11.529922
12.543797
12.591481
12.247562
13.529658
13.849735
15.915632
16.145706
16.736984
17.336607
18.960834
19.920468
21.462440
21.626949
22.244453
21.457672
21.577477
21.555424
21.721721
20.911694
21.745563
20.007491
19.622445
20.349622
19.861460
20.773411
20.905733
19.720793
20.274520
19.417405
20.128489
18.717647
18.407702
19.514561
20.384789
##ZVALUE=265
1.399517
1.325607
1.500845
1.343489
1.225471
1.522899
1.643896
1.619458
1.888871
1.907945
1.812577
2.011657
2.279878
2.677441
6.407499
31.888485
79.102516
208.279490
375.293493
703.401566
982.663631
1015.684605
1015.684605
1015.684605
1015.684605
1015.684605
907.349586
631.736517
339.386463
201.901793
122.806430
78.852773
83.970428
110.226870
131.473541
150.739551
156.700611
149.205923
133.587718
109.294653
87.519884
57.993531
40.548444
26.292801
16.678572
12.556911
9.871721
10.047555
10.186434
9.728670
10.017753
10.461807
10.509491
10.452867
10.393858
10.140538
10.834932
10.968447
11.267662
11.091828
11.245608
11.005998
12.212992
12.147427
12.302995
12.855530
13.131499
14.176965
14.858842
16.046762
16.737580
18.466711
19.412637
18.620491
20.313859
21.162629
21.158457
20.631552
20.106435
19.854903
18.898845
19.070506
18.318892
18.056631
18.461943
19.235611
18.443465
18.781424
18.806458
17.711520
18.984675
18.026829
19.349456
18.104911
18.882751
18.722415
##ZVALUE=270
1.438856
1.210570
1.293421
1.345873
1.408458
1.477599
1.390576
1.505613
1.653433
1.600981
1.848936
1.709461
1.826882
2.247691
2.262592
2.536774
3.137589
15.377998
44.372678
149.260759
315.454006
569.354892
982.340574
1015.684605
1015.684605
1015.684605
1015.684605
1015.684605
1015.684605
930.877924
653.656721
346.179008
196.809769
91.399550
70.607662
86.405873
109.081864
134.028792
152.865648
159.290433
151.794553
134.904981
115.735531
84.082484
62.831640
38.298965
26.827455
17.307997
13.402700
10.732412
9.686947
10.111928
10.543466
10.446906
10.564923
10.975599
10.568500
11.171699
11.015534
11.313558
11.080503
11.259913
11.231899
11.559725
11.956692
12.475848
12.292862
12.576580
13.681650
15.279651
15.997887
17.327666
18.373728
18.155575
19.008517
19.172430
19.136667
18.406510
18.203855
18.177629
17.790794
17.718673
16.762614
17.330647
16.062856
17.707944
17.517805
16.807914
17.830729
17.356873
17.178655
17.404556
16.707778
17.021894
17.712712
17.994642
##ZVALUE=275
1.182556
0.993609
1.297593
1.113415
1.243949
1.329780
1.449585
1.371503
1.600981
1.605749
1.665950
1.736879
1.715422
1.767874
1.894832
1.799464
2.218485
2.673864
2.879500
8.668900
32.123923
88.747740
251.702666
467.732549
862.948895
1015.684605
1015.684605
1015.684605
1015.684605
1015.684605
1015.684605
1015.684605
780.728459
417.750478
239.923596
101.631880
62.436461
62.589645
80.105662
109.650493
131.147504
148.109794
153.620839
148.103833
134.924650
108.141899
85.886717
61.917901
44.996738
26.898980
19.128919
13.816953
11.213422
10.253787
10.362864
10.174513
10.375977
9.790659
10.208488
10.931492
10.863543
10.990500
11.062622
11.151433
11.383891
12.118816
11.902452
12.458563
13.033748
13.943911
15.058517
16.145706
16.392469
17.876625
17.892718
18.047690
18.631816
17.882586
17.290711
17.210841
16.978979
15.966892
16.192794
15.743971
15.981793
15.931726
16.265512
16.272664
16.451478
16.500950
16.201735
15.955567
15.999675
16.282797
15.736818
16.364455
##ZVALUE=280
1.408458
1.385808
1.194477
1.382828
1.369715
1.403689
1.299977
1.389980
1.533628
1.400709
1.546741
1.628995
1.465678
1.418591
1.722574
1.812577
1.825690
2.204776
2.064705
2.376437
2.708435
3.825426
25.575757
79.431534
225.222707
398.117900
710.744858
989.524722
1015.885472
1015.885472
1015.885472
1015.885472
1015.885472
1015.885472
894.768834
506.883860
298.370719
126.292706
66.438913
46.512485
56.672692
82.430840
104.604959
130.649805
144.034624
151.787996
145.184994
129.898787
109.112859
82.638860
62.966943
41.551590
29.181838
18.224716
13.642907
11.182427
10.341406
9.884834
10.463595
10.569692
10.553598
10.814667
10.738969
11.341572
11.280775
11.689663
12.208819
12.588501
13.595819
13.892651
14.586449
15.555620
15.784502
16.263723
16.913414
17.296672
16.355515
17.311573
16.917586
15.913844
15.717745
15.549660
14.647841
14.918447
15.892982
15.204549
15.794635
15.230775
15.497804
15.871525
15.434623
15.171766
15.493631
14.842749
15.105605
15.093684
##ZVALUE=285
0.975728
0.939965
0.986457
1.223683
1.034737
0.864863
1.102686
1.084805
1.104474
1.108646
1.231432
1.425743
1.290441
1.339912
1.358986
1.262426
1.548529
1.780987
1.917481
1.753569
1.726747
2.093911
2.532601
2.558827
11.111498
41.971803
135.142803
269.810557
562.754869
837.471485
1015.684605
1015.684605
1015.684605
1015.684605
1015.684605
1015.684605
1015.684605
684.562922
422.509909
196.318626
98.233819
43.285489
37.889481
56.924820
74.678659
103.200674
122.292638
140.371919
147.379637
143.363476
132.479668
106.996894
88.789463
61.980486
43.686628
26.941895
18.687844
12.955666
11.420846
9.954572
10.213852
10.423660
10.730624
10.870695
10.684729
11.513829
11.721849
12.211800
12.542605
12.939572
13.815761
14.798641
14.710426
15.687943
15.362501
15.836954
16.018748
16.405582
15.627742
14.782548
14.946461
14.783740
14.883876
14.671683
14.412999
15.027523
14.916658
15.430450
14.930964
14.225841
14.545918
14.742613
14.430881
14.759898
14.425516
14.603734
##ZVALUE=290
0.961423
0.798702
1.032948
0.953674
1.118779
0.939965
1.199841
1.152754
1.113415
0.904799
1.088977
1.178980
1.313686
1.173615
1.392961
1.288652
1.259446
1.556873
1.422763
1.697540
1.703501
1.627803
1.780987
2.207756
2.459884
2.820492
4.069805
15.148520
77.701807
175.860524
334.546566
673.858523
987.348557
1015.684605
1015.684605
1015.684605
1015.684605
1015.684605
1015.684605
876.519680
580.150485
285.751820
145.097971
51.937699
30.344725
36.755800
50.091743
71.993470
92.323422
119.747519
134.707689
141.936541
141.182542
127.608776
109.507442
82.783699
61.566830
40.616989
29.853582
18.547773
14.520884
10.706782
10.835528
10.392666
10.495782
10.525584
11.236668
11.346936
12.099743
12.919903
13.182759
13.625622
14.663935
15.093684
15.128851
14.812946
14.568567
14.856458
15.248656
14.639497
14.531612
14.455914
14.632940
14.312863
14.350414
14.451742
14.708638
14.194846
13.840795
14.098883
14.101863
14.321804
13.875961
13.977885
13.542771
14.238954
##ZVALUE=295
0.888705
1.037717
0.895858
1.017451
0.754595
0.973940
1.038909
1.091957
0.982881
1.021624
1.198649
1.247525
1.163483
1.091957
0.921488
1.423955
1.204610
1.276731
1.356602
1.459718
1.507998
1.610518
1.760721
1.907945
1.786947
2.188683
2.534986
2.915859
2.944469
8.171797
32.922626
134.780407
281.487703
608.396530
934.723020
1015.684605
1015.684605
1015.684605
1015.684605
1015.684605
1015.684605
1015.684605
818.089843
431.388021
229.124427
80.036521
36.667585
24.048686
32.410622
48.371553
65.521002
90.688467
108.522773
129.134655
137.938857
133.056641
122.199655
99.915862
81.726909
57.172775
43.173432
26.669502
19.719601
13.569593
11.964440
10.538697
10.778904
11.374950
11.825562
12.107491
12.803674
13.485551
13.854504
14.498830
14.733672
14.773607
14.311671
14.516711
14.227629
13.743639
14.083982
13.895631
14.060736
14.149547
14.485717
14.276505
14.125705
14.367700
13.814569
14.123917
14.261603
13.991594
13.793707
13.985634
13.486743
13.361573
##ZVALUE=300
0.868440
0.955462
0.800490
0.998974
1.078844
0.897646
0.942945
0.739694
0.915527
0.942945
0.964999
0.856519
1.103878
1.058578
1.116991
1.146793
1.139641
1.177788
1.228452
1.068711
1.380444
1.550913
1.431704
1.456738
1.563430
1.746416
1.855493
2.066493
2.282858
2.605915
2.923608
3.671646
11.750460
69.759488
173.647404
435.463786
727.522969
1015.684605
1015.684605
1015.684605
1015.684605
1015.684605
1015.684605
1015.684605
1014.526486
605.871677
357.950926
151.650906
65.575838
23.749471
19.695759
29.866695
41.006804
62.866807
81.879497
105.503798
120.769739
130.927563
129.175782
117.880702
101.475716
77.443719
61.418414
41.665435
29.324889
19.016862
14.573932
12.399554
11.723638
12.372732
12.346506
13.183951
14.093518
13.743639
13.976693
14.153719
14.138818
14.263988
13.891459
13.429523
14.127493
13.878942
14.164448
13.991594
14.150739
14.333725
14.158487
13.876557
14.108419
14.072657
13.892651
13.234615
13.901591
13.804436
13.788939
13.758540
##ZVALUE=305
0.776649
0.769496
0.822544
0.705719
0.849962
1.025796
0.891685
0.939965
0.940561
0.830889
0.926852
0.975728
0.989437
0.867844
0.789762
0.997782
1.005530
1.177788
1.143813
1.172423
1.256466
1.376867
1.255870
1.522899
1.727939
1.564622
1.582503
1.435876
1.906753
2.040863
2.037883
2.480745
2.570748
2.943873
5.206466
35.942793
106.422901
317.177773
569.904447
994.997621
1015.682817
1015.682817
1015.682817
1015.682817
1015.682817
1015.682817
1015.682817
817.189813
505.167842
225.780606
105.211735
32.292604
17.174482
19.752979
26.580691
41.835904
57.227612
80.793500
96.721649
115.065575
122.825503
121.917725
113.870502
95.732808
79.919696
56.431890
42.079687
28.228760
20.654798
15.094876
13.621449
13.164878
13.393760
13.839602
13.511777
14.138818
14.095902
13.950467
13.687611
13.782978
13.295412
13.978481
14.252663
13.935566
13.970733
14.202595
14.284849
14.596581
13.976693
13.860464
13.980865
13.567805
13.444424
13.636947
13.707876
13.399720
##ZVALUE=310
0.780821
0.674725
0.808835
0.665784
0.734925
0.927448
0.797510
0.933409
0.756979
0.971556
0.781417
0.848770
0.843406
0.906587
1.022816
0.925660
0.952482
1.060963
1.142621
0.918508
1.147985
0.981688
1.171827
1.143813
1.336932
1.361966
1.552701
1.619458
1.594424
1.421571
1.653433
1.747608
2.025962
2.299547
2.404451
2.841949
3.539920
13.723969
48.906803
172.036886
359.501839
776.470900
1015.682817
1015.682817
1015.682817
1015.682817
1015.682817
1015.682817
1015.682817
1005.751491
710.675716
362.676978
194.168687
68.110824
24.839640
14.356971
16.461611
24.973750
34.893751
53.202510
69.092512
92.023611
104.559660
115.619898
117.654800
109.536648
97.031593
76.238513
59.130788
40.460825
30.695796
21.832585
17.437935
14.491677
14.133453
13.271570
12.978911
12.985468
13.028979
13.188720
13.402700
13.396740
13.734698
13.683438
13.428926
13.660789
13.997555
14.282465
13.601780
13.704896
13.520718
13.387799
13.358593
13.348460
13.081431
13.415813
##ZVALUE=315
0.823736
0.757575
0.802875
0.688434
0.806451
0.785589
0.829697
0.782609
0.781417
0.801682
0.872612
0.914931
0.624657
0.936985
0.992417
0.917912
1.130700
0.989437
1.000762
1.219511
1.018643
1.203418
1.030564
1.179576
1.470447
1.364946
1.261830
1.457930
1.303554
1.432896
1.641512
1.646876
1.748800
1.819730
1.843572
2.327561
2.760887
3.077984
3.269911
7.292628
28.127432
114.089847
247.654915
579.056740
955.957770
1015.765667
1015.765667
1015.765667
1015.765667
1015.765667
1015.765667
1015.765667
908.764005
470.706820
254.972577
91.317892
36.418438
13.773441
13.322830
16.514659
22.102594
34.895539
47.142506
66.691637
82.906485
101.664662
108.376741
110.072494
104.071498
88.530779
76.461434
57.275891
43.467879
29.590726
22.914410
17.380714
15.450716
13.659596
12.886524
12.979507
13.377666
13.113618
13.282895
13.130903
13.902783
13.293624
13.152957
13.354421
13.632774
14.005899
13.722777
13.466477
13.487935
12.861490
13.476610
13.025999
##ZVALUE=320
0.755787
0.761747
0.729561
0.651479
0.595450
0.707507
0.589490
0.656843
0.599623
0.624657
0.784993
0.712872
0.823736
0.836849
0.890493
0.791550
0.924468
0.838637
0.863671
0.755787
1.001954
0.878572
1.042485
0.992417
1.013875
1.150966
1.115799
1.020432
1.347661
1.195669
1.087785
1.453757
1.623631
1.476407
1.379848
1.846552
1.777411
2.161860
2.267957
2.563596
2.762675
3.664494
12.519956
66.315532
165.013671
426.439643
729.596615
1015.679836
1015.679836
1015.679836
1015.679836
1015.679836
1015.679836
1015.679836
1015.679836
652.840734
364.159942
142.886639
62.022805
18.744469
12.302995
12.415648
14.547706
21.169782
29.171705
46.251416
59.824586
78.962445
92.746615
104.616880
104.968548
99.768639
88.412762
69.924593
56.079626
40.401816
30.567646
21.156669
16.907454
14.270544
13.285875
12.493730
12.734532
13.377666
12.910962
12.798905
13.405681
13.052821
13.302565
13.404489
13.178587
12.920499
12.610555
12.687445
12.837648
12.454987
##ZVALUE=325
0.547767
0.659823
0.624657
0.623465
0.615716
0.708699
0.651479
0.744462
0.721812
0.671744
0.754595
0.718832
0.668764
0.883937
0.705719
0.737906
0.842810
0.794530
0.891685
0.842810
0.843406
1.041889
0.917912
0.867844
1.099706
0.950694
0.979900
1.019835
1.137853
1.119971
1.132488
1.087785
1.118779
1.218915
1.312494
1.487732
1.509786
1.660585
1.752973
1.816750
2.273917
2.344847
2.718568
2.986789
6.284714
40.869713
107.906461
291.889906
526.163578
972.124934
1015.684605
1015.684605
1015.684605
1015.684605
1015.684605
1015.684605
1015.684605
761.912465
467.113853
210.559964
99.965930
28.450489
13.772845
11.109710
11.601448
15.099645
20.103455
30.285716
41.853786
61.360598
75.873733
90.201497
98.770857
100.873709
94.194412
81.803799
68.300962
50.138831
39.719939
26.842952
20.588636
16.461611
14.571548
13.729930
12.799501
12.899637
13.037920
12.602806
12.667775
12.540817
13.179779
12.711883
12.457967
12.555718
12.367964
12.466908
##ZVALUE=330
0.587702
0.437498
0.736713
0.565648
0.581741
0.610948
0.747442
0.724792
0.591874
0.611544
0.612736
0.584722
0.663996
0.596642
0.812411
0.748634
0.876784
0.613928
0.699759
0.734925
0.728965
1.066923
0.732541
0.918508
0.885725
0.848770
0.827909
1.101494
0.933409
0.969768
0.922680
1.198649
1.186728
1.239777
1.437664
1.190901
1.258850
1.336932
1.499653
1.614690
1.676679
1.850724
1.966953
2.084970
2.332926
2.689958
4.074574
14.027953
71.838498
180.310011
444.571972
735.287666
1015.684605
1015.684605
1015.684605
1015.684605
1015.684605
1015.684605
1015.684605
1013.372540
579.298735
320.375562
125.799775
54.079890
16.366839
11.075735
10.341406
11.638999
15.055537
19.926429
31.264424
41.731596
57.350993
71.153641
86.138844
93.222857
93.875527
88.842511
76.275468
63.537955
47.699809
36.764741
27.337670
21.177530
16.260743
14.522672
13.029575
12.710690
12.540817
12.458563
12.265444
11.812449
11.943579
12.239814
11.967421
11.522770
##ZVALUE=335
0.640750
0.698566
0.629425
0.727773
0.465512
0.535846
0.648499
0.614524
0.621676
0.532866
0.739694
0.642538
0.759959
0.618696
0.532866
0.606775
0.641942
0.557899
0.738502
0.705719
0.742674
0.839829
0.743866
0.887513
0.836849
0.820756
0.967979
0.965595
1.042485
0.952482
1.004934
1.046658
1.088977
0.984669
1.007915
1.145601
1.129508
1.238585
1.271963
1.288652
1.399517
1.479983
1.757741
1.722574
1.918674
1.993775
2.198815
2.560616
2.990961
8.022785
31.136870
127.804875
277.363658
628.527999
981.829762
1015.690565
1015.690565
1015.690565
1015.690565
1015.690565
1015.690565
1015.690565
770.437717
387.718678
192.301869
61.019659
23.841858
11.386871
10.602474
11.186600
11.528730
14.608502
18.835664
29.299855
38.383603
55.367947
67.135692
80.675483
87.414980
87.879896
82.183480
71.503520
60.592890
48.143864
37.696958
27.301908
21.809936
15.905499
14.025569
12.647510
12.135506
11.683702
11.799932
11.552572
11.619925
11.776686
##ZVALUE=340
0.520945
0.563860
0.644922
0.526905
0.504851
0.649691
0.538826
0.595450
0.550747
0.598431
0.621676
0.494719
0.637770
0.653863
0.609756
0.679493
0.692606
0.555515
0.837445
0.793934
0.801682
0.640750
0.630617
0.721812
0.723600
0.742674
0.827909
0.819564
0.785589
0.868440
0.946522
0.901818
0.839829
1.063943
1.045465
1.014471
1.076460
1.099706
1.184940
1.134872
1.253486
1.447797
1.611710
1.394749
1.535416
1.703501
1.901984
1.942515
2.075434
2.429485
2.802610
3.676414
18.860698
63.219666
213.556886
434.339643
921.577811
1015.700698
1015.700698
1015.700698
1015.700698
1015.700698
1015.700698
1015.700698
990.051627
640.124679
282.999873
126.855969
31.815767
13.803840
10.989904
10.777712
11.507869
12.005568
14.561415
18.299818
26.986599
36.544800
51.928759
63.439608
76.229572
80.816746
82.379580
79.208612
69.179535
59.789419
46.104789
36.918521
26.151538
20.878911
16.075969
13.588667
12.121797
12.100935
11.389852
11.333823
##ZVALUE=345
0.574589
0.637770
0.568628
0.652671
0.564456
0.653863
0.587702
0.564456
0.504851
0.727773
0.580549
0.757575
0.505447
0.587702
0.603795
0.645518
0.540614
0.662804
0.697970
0.813603
0.754595
0.597835
0.665784
0.883937
0.723600
0.713468
0.951886
0.740886
0.786781
1.020432
0.993609
0.890493
0.878572
0.944734
0.952482
0.848770
1.028776
0.965595
1.102686
0.990629
1.077652
1.058578
1.307726
1.439452
1.501441
1.584888
1.483560
1.845956
1.688600
1.960993
2.110600
2.583861
2.733469
3.003478
7.915497
33.107400
139.251351
290.957689
636.911988
983.811021
1015.684605
1015.684605
1015.684605
1015.684605
1015.684605
1015.684605
1015.684605
960.621834
451.800823
217.804909
64.390898
24.160743
12.128949
11.484623
11.061430
10.670424
11.521578
12.978911
17.959476
24.234653
35.621524
45.807958
57.844520
66.762567
75.512528
77.047944
74.041486
67.789555
56.255460
46.987534
34.760833
27.176738
19.640923
16.115904
12.821555
12.205839
##ZVALUE=350
0.604987
0.595450
0.529885
0.565648
0.400543
0.641942
0.637770
0.610948
0.582933
0.658631
0.576973
0.597835
0.639558
0.677705
0.607967
0.634789
0.660419
0.504851
0.644922
0.532866
0.567436
0.707507
0.673532
0.671744
0.742674
0.721812
0.855923
0.666976
0.749826
0.866652
0.775456
0.832677
0.822544
0.816584
1.013875
0.930429
0.967979
1.022816
1.041889
1.049638
1.009703
1.001954
1.137853
1.215935
1.197457
1.147985
1.448989
1.375675
1.759529
1.582503
1.611710
1.770854
2.061725
2.296567
2.460480
2.659559
4.420877
15.668869
74.603558
177.950859
448.871851
776.656866
1015.684605
1015.684605
1015.684605
1015.684605
1015.684605
1015.684605
1015.684605
924.201608
464.382768
254.352689
95.360875
35.097599
12.340546
10.183454
9.874701
9.454489
9.442568
10.020733
12.471676
16.039610
22.409558
30.069947
41.598678
50.529838
60.895681
68.000555
70.007443
67.900419
61.802864
53.879619
42.165518
34.038424
24.847984
19.359589
##ZVALUE=355
0.519753
0.729561
0.597835
0.480413
0.548959
0.574589
0.507832
0.413656
0.709891
0.570416
0.616908
0.592470
0.629425
0.691414
0.733733
0.636578
0.691414
0.734925
0.728965
0.619888
0.707507
0.738502
0.676513
0.545979
0.777841
0.836849
0.840425
0.717640
0.693798
0.782609
0.850558
0.786781
0.811815
0.753999
0.867844
0.821948
0.925660
1.069903
1.067519
0.983477
0.974536
1.111627
1.139641
1.165867
1.064539
1.143813
1.193881
1.291633
1.437664
1.499653
1.427531
1.533628
1.738667
1.897812
1.837611
2.076626
2.327561
2.636909
3.165603
9.873509
37.649870
150.335431
310.234427
667.742491
997.885466
1015.684605
1015.684605
1015.684605
1015.684605
1015.684605
1015.684605
1000.897884
666.780472
289.935470
135.460496
37.632585
15.069842
9.539723
9.219646
9.099841
8.949637
9.166598
9.805560
11.467934
14.317632
20.327568
26.453733
36.853552
44.469833
54.509640
61.381459
64.090490
62.796474
58.186650
51.059723
41.694641
##ZVALUE=360
0.515580
0.626445
0.532866
0.604987
0.603795
0.689626
0.630617
0.483990
0.617504
0.597835
0.481606
0.540614
0.545979
0.494719
0.529885
0.600815
0.561476
0.615716
0.711679
0.690818
0.568628
0.558496
0.596642
0.786781
0.841618
0.632405
0.708699
0.730753
0.644922
0.945926
0.834465
0.849962
0.856519
0.888705
0.980496
0.960827
0.905991
0.916719
0.909567
0.755787
0.915527
1.012683
1.042485
1.145601
1.153946
1.223683
1.219511
1.006722
1.198649
1.268983
1.384616
1.463890
1.494884
1.586676
1.753569
1.851916
1.960993
1.996756
2.315640
2.606511
2.977848
4.816651
15.421510
73.339939
180.009604
456.278920
772.591829
1015.684605
1015.684605
1015.684605
1015.684605
1015.684605
1015.684605
1015.684605
784.018636
396.863818
202.224851
64.242482
23.595691
10.171533
9.144545
8.596778
8.425713
8.537769
8.798838
8.931756
9.707808
12.329817
16.042590
22.587776
29.352903
39.516687
46.271682
54.844618
56.793690
57.935715
##ZVALUE=365
0.642538
0.558496
0.713468
0.585914
0.479817
0.460744
0.595450
0.445843
0.730753
0.557899
0.564456
0.546575
0.525713
0.657439
0.662804
0.590682
0.693798
0.752807
0.597835
0.585914
0.627637
0.670552
0.551939
0.626445
0.647902
0.683665
0.652671
0.592470
0.754595
0.846982
0.678897
0.789762
0.858903
0.948906
0.709891
0.836849
0.885725
0.815988
0.820756
1.035929
0.967979
0.932813
0.916719
1.166463
0.955462
1.131892
1.092553
1.084805
1.085997
1.123548
1.285672
1.400709
1.328588
1.385808
1.550913
1.700521
1.593828
1.788735
2.022982
2.069473
2.272725
2.693534
2.989769
3.555417
7.101893
40.057898
115.361810
323.571563
594.704747
1015.684605
1015.684605
1015.684605
1015.684605
1015.684605
1015.684605
1015.684605
969.908834
532.775521
288.155675
101.861954
38.081408
11.642575
8.720756
8.471608
8.070469
7.814765
7.665753
7.821918
7.732511
8.540750
10.288954
14.124513
18.358827
25.214553
31.714439
41.054487
##ZVALUE=370
0.546575
0.649691
0.595450
0.604987
0.629425
0.589490
0.569820
0.475645
0.635982
0.507832
0.574589
0.613928
0.550747
0.691414
0.658631
0.572801
0.478625
0.601411
0.666976
0.660419
0.765920
0.434518
0.769496
0.740886
0.677705
0.797510
0.808835
0.835657
0.758767
0.757575
0.732541
0.779629
0.744462
0.646710
0.800490
0.718832
0.638962
0.918508
0.962615
0.977516
0.929832
0.895858
0.925660
0.971556
1.001954
0.892878
0.926852
1.043677
1.125932
1.172423
1.157522
1.005530
1.089573
1.280904
1.368523
1.355410
1.475811
1.485944
1.471639
1.858473
1.953840
1.971722
2.285838
2.668500
2.655983
3.100634
4.530549
23.076534
79.502463
258.564949
486.729741
931.707025
1015.718579
1015.718579
1015.718579
1015.718579
1015.718579
1015.718579
1015.718579
657.897592
358.698964
132.507682
57.505965
18.121600
9.543896
7.742643
7.234812
7.460713
7.228851
6.802678
6.860495
7.148981
7.853508
9.444952
12.139678
16.472936
##ZVALUE=375
0.425577
0.575781
0.584722
0.456572
0.567436
0.633597
0.530481
0.482798
0.553727
0.602603
0.445843
0.376701
0.505447
0.585914
0.559688
0.505447
0.476837
0.710487
0.482798
0.541806
0.649691
0.618696
0.636578
0.612736
0.715852
0.694990
0.626445
0.681877
0.628829
0.598431
0.681877
0.691414
0.701547
0.745654
0.705719
0.779629
0.903606
0.818968
0.740886
0.781417
0.774860
0.724792
0.632405
0.697970
0.859499
0.851750
0.868440
0.991821
0.967979
1.033545
0.982881
1.040697
1.116991
1.143813
1.207590
1.079440
1.163483
1.113415
1.181960
1.412630
1.395941
1.672506
1.736879
1.963973
2.094507
2.214909
2.396703
2.899766
3.438592
10.879636
38.962960
152.066946
334.929824
755.278468
1015.684605
1015.684605
1015.684605
1015.684605
1015.684605
1015.684605
1015.684605
967.060924
616.838932
285.453796
131.973624
36.678910
13.626814
7.688999
7.158518
6.759763
6.576777
6.634593
6.575584
6.487966
6.527901
7.189512
##ZVALUE=380
0.545979
0.594854
0.489950
0.387430
0.388622
0.566840
0.502467
0.471473
0.357628
0.415444
0.417829
0.329614
0.470877
0.625849
0.597835
0.502467
0.541806
0.518560
0.565648
0.584722
0.493526
0.505447
0.587702
0.524521
0.604987
0.625849
0.400543
0.526905
0.558496
0.550747
0.503659
0.588894
0.675917
0.808835
0.692606
0.706911
0.682473
0.603795
0.705719
0.590682
0.834465
0.727773
0.764728
0.715852
0.878572
0.773668
0.930429
0.841618
0.793934
0.796914
0.828505
0.946522
0.861883
0.890493
0.991821
1.041889
1.100898
1.036525
1.242757
1.294613
1.328588
1.417994
1.365542
1.521707
1.560450
1.679659
1.758933
2.375841
2.449751
2.833605
3.382564
6.404519
23.551583
110.778809
259.198546
607.279539
969.807506
1015.684605
1015.684605
1015.684605
1015.684605
1015.684605
1015.684605
1015.684605
859.357715
423.677564
211.103559
66.764951
23.090839
8.289814
6.842613
6.648898
6.430745
6.109476
6.174445
6.004572
##ZVALUE=385
0.516772
0.524521
0.389814
0.426769
0.342727
0.436902
0.368953
0.511408
0.558496
0.462532
0.372529
0.448823
0.665784
0.426769
0.412464
0.530481
0.335574
0.536442
0.458956
0.578761
0.478625
0.554919
0.504851
0.629425
0.716448
0.483990
0.438690
0.327826
0.625849
0.531673
0.589490
0.730753
0.626445
0.577569
0.564456
0.739694
0.520945
0.697970
0.744462
0.660419
0.628829
0.531673
0.679493
0.701547
0.611544
0.882745
0.647902
0.835657
0.827909
0.829697
0.872612
0.969768
0.812411
0.870824
0.826716
0.784993
0.850558
0.855923
1.041889
1.078844
1.191497
1.170635
1.288652
1.295805
1.348853
1.513958
1.588464
2.056956
2.068877
2.304912
2.718568
2.949834
3.042817
3.925562
11.454821
69.444776
177.930593
440.682769
777.626634
1015.684605
1015.684605
1015.684605
1015.684605
1015.684605
1015.684605
1015.684605
1004.933715
569.750667
315.408707
121.812820
45.386553
10.912418
6.753802
6.219745
5.876422
5.815625
##ZVALUE=390
0.376701
0.444651
0.444651
0.350475
0.464916
0.439882
0.359416
0.310540
0.424981
0.418425
0.355840
0.540614
0.260472
0.543594
0.392795
0.467896
0.410676
0.539422
0.433922
0.482798
0.472665
0.422597
0.483990
0.605583
0.487566
0.558496
0.674725
0.662804
0.485778
0.421405
0.528693
0.442863
0.509620
0.487566
0.476837
0.628829
0.570416
0.680685
0.699759
0.655651
0.788569
0.781417
0.630617
0.690818
0.792742
0.668764
0.614524
0.665784
0.703931
0.688434
0.599623
0.763535
0.777841
0.771880
0.865459
0.916719
1.022816
0.930429
0.981688
1.122952
1.041889
1.141429
1.168847
1.135468
1.223683
1.382828
1.566410
1.595616
1.874566
2.214909
2.248883
2.567768
2.535582
2.776980
2.757907
3.302693
5.082488
32.326579
110.526681
356.884599
674.453974
1015.684605
1015.684605
1015.684605
1015.684605
1015.684605
1015.684605
1015.684605
1015.684605
801.880956
457.242727
179.295540
77.481866
19.075871
8.016825
6.162524
##ZVALUE=395
0.376701
0.380874
0.355840
0.402927
0.366569
0.392795
0.389814
0.372529
0.467896
0.309944
0.381470
0.402927
0.400543
0.405908
0.447631
0.500679
0.262856
0.379682
0.379682
0.536442
0.550747
0.650883
0.528693
0.405908
0.257492
0.470877
0.481606
0.517964
0.491738
0.480413
0.957847
0.624657
0.458956
0.703931
0.624657
0.523925
0.538826
0.637770
0.649691
0.562668
0.702739
0.664592
0.716448
0.611544
0.605583
0.632405
0.673532
0.809431
0.828505
0.727773
0.613928
0.629425
0.741482
0.876784
0.869632
0.735521
0.871420
0.936985
0.854731
1.031756
0.832677
1.187921
0.987649
1.123548
1.196861
1.195669
1.405478
1.473427
1.774430
2.129674
2.124906
2.206564
2.130866
2.307892
2.393723
2.508759
2.720952
2.951622
3.645420
16.738772
64.090490
233.682990
456.236601
890.402794
1015.677452
1015.677452
1015.677452
1015.677452
1015.677452
1015.677452
1015.677452
988.620520
638.905764
274.458528
127.948523
38.097501
##ZVALUE=400
0.448823
0.445843
0.211596
0.367761
0.506639
0.344515
0.546575
0.542998
0.402927
0.496507
0.463724
0.451803
0.390410
0.371933
0.535846
0.488758
0.455976
0.587702
0.366569
0.450611
0.437498
0.328422
0.365973
0.535846
0.433922
0.454783
0.477433
0.570416
0.549555
0.440478
0.524521
0.457764
0.620484
0.521541
0.554919
0.555515
0.519753
0.590682
0.596642
0.642538
0.535846
0.612736
0.557899
0.636578
0.597835
0.762939
0.610948
0.616908
0.686646
0.848770
0.868440
0.693798
0.698566
0.820756
0.865459
0.688434
0.715852
0.918508
0.864863
0.798702
0.743866
0.754595
1.036525
1.107454
1.130700
1.258850
1.383424
1.613498
1.684427
2.029538
2.165437
2.053976
2.183914
2.178550
2.029538
1.905560
2.040863
2.161860
2.493858
2.763867
3.308654
9.545684
35.746694
145.368576
321.768522
734.770894
1015.681624
1015.681624
1015.681624
1015.681624
1015.681624
1015.681624
1015.681624
1015.681624
767.930746
384.525657
##END
