##TITLE=QP00301
##FORMAT=SPECTACLE-ASCII V-1.2
##DATA TYPE=ULTRAVIOLET SPECTRUM
##SECOND TYPE=ULTRAVIOLET SPECTRUM
##DATE=05/07/18
##TIME=15:14:01
##SPECTROMETER/DATA SYSTEM=SPECTACLE
##XUNITS=NM EM
##YUNITS=ENERGY
##YFACTOR=1
##FIRSTX=220
##LASTX=410
##NPOINTS=96
##3DDATA=Equidistant
##ZUNITS=NM EX
##FIRSTZ=210
##LASTZ=400
##ZPOINTS=39
##XYDATA=(Y..Y)
##ZVALUE=210
2.643466
3.265738
3.099442
3.184676
3.150702
3.150702
3.476739
3.463626
3.815889
3.208518
3.248453
3.902912
2.951622
2.981424
3.060699
3.446937
3.037453
3.622770
3.568530
4.303455
4.618764
3.982782
4.707575
4.970431
4.806519
5.519986
5.465746
5.827546
6.070733
5.777478
6.433725
7.421970
5.828738
6.713867
7.065535
7.299781
7.919669
7.951856
7.204413
7.200837
7.599592
7.561445
7.950664
7.629991
7.038713
8.478761
8.310676
8.193851
8.731484
9.181499
8.085966
8.817911
9.586811
8.869767
9.335876
9.094477
9.147525
9.879470
9.393692
9.522438
9.524822
10.555983
9.399652
9.621978
10.248423
11.135936
11.085868
11.948943
13.850927
16.538501
18.626451
22.675991
27.899742
30.099750
34.156442
33.234954
36.034584
32.025576
31.725764
29.620528
27.690530
23.993850
20.980835
17.030835
14.575720
12.472868
11.474490
10.936856
11.228919
9.804964
9.908676
10.366440
9.552836
9.882450
10.187626
10.512471
##ZVALUE=215
8.522868
8.374453
7.659793
6.637573
6.205440
5.200505
6.282926
5.436540
5.427599
6.706715
6.049871
5.952716
4.623532
4.030466
4.420877
3.960729
3.737807
3.231764
3.620982
4.204512
3.779531
4.334450
4.791617
4.866719
5.224943
4.756451
5.322695
6.293654
6.824732
6.733537
7.245541
6.919503
7.226467
6.086826
6.940961
6.546974
8.468628
7.768869
7.322431
6.807446
7.321835
7.456541
8.111596
8.179545
8.122921
8.012652
7.941723
8.297563
8.246899
7.254481
8.474588
9.173751
9.441972
8.601546
11.402965
8.223653
8.157492
9.548664
8.826852
8.805990
9.198785
10.453463
9.023547
9.925961
9.456873
9.947419
10.606647
12.140870
13.226867
14.207959
17.019510
21.741986
23.046732
26.537776
26.891828
29.818416
30.005574
27.836561
27.260780
25.859475
24.482608
21.507740
19.434690
16.262531
14.650822
13.005733
11.843443
10.642409
11.244416
10.320544
9.575486
8.977652
10.618567
10.063648
8.821487
10.322928
##ZVALUE=220
27.571917
27.544498
26.510954
28.777719
24.685860
22.394657
17.195940
14.432669
13.076663
10.555983
11.427999
12.332797
12.656450
11.799932
8.831620
8.881688
6.869435
5.443692
5.209446
4.476905
4.715919
4.885793
4.088879
4.970431
5.075932
5.233884
6.556511
7.189512
6.319880
6.697774
6.349683
6.948709
7.575750
7.403493
7.371902
7.142425
8.081794
7.556677
7.940531
8.465648
8.694530
7.715821
8.034706
8.723736
8.789897
8.311868
9.544492
9.498000
7.968545
9.554625
8.799434
9.229779
8.867979
9.498000
10.338426
9.611845
8.446574
10.221601
9.502769
10.866523
9.900928
9.758472
11.331439
10.898709
11.217594
10.981560
11.222959
13.688803
13.991594
16.449690
17.333627
20.723939
21.861792
26.750565
28.623939
30.778646
28.745532
28.081536
27.679801
26.726723
25.335550
22.674799
20.892620
17.174482
16.852617
14.316440
13.349652
12.763739
12.790561
11.368990
11.104941
11.799932
11.586547
12.082458
12.086630
12.319684
##ZVALUE=225
48.644543
50.060749
62.061548
79.437494
89.675784
82.533956
81.268549
63.018799
46.500564
36.939979
26.255846
23.748875
24.782419
25.789738
26.081800
25.478601
21.015406
17.223954
13.892651
9.671450
7.066727
5.861521
4.687905
6.162524
5.796552
5.843639
6.337762
6.017685
5.859733
6.978512
6.895661
6.877780
8.247495
7.926822
8.526444
8.623600
8.916855
8.981824
8.964539
8.435845
9.120703
9.032488
9.317994
9.036660
8.734465
8.847713
8.520484
9.485483
9.865761
10.626912
10.211468
9.656549
11.447668
10.935664
10.124445
10.235906
9.650588
10.372996
12.116432
11.383891
12.348890
12.447834
12.518764
11.572838
12.179613
12.912750
13.678670
15.665889
15.720725
15.744567
19.414425
22.002459
22.696853
25.005937
28.709769
28.829575
28.798580
28.072596
26.786923
24.983883
22.506714
20.915866
20.368695
17.965436
18.236637
16.212463
17.439723
14.709830
16.506910
14.846921
14.320612
14.059544
15.176535
14.284849
14.076829
13.754964
##ZVALUE=230
42.780638
45.205951
78.011751
115.279555
149.323940
194.982886
213.294625
210.909843
187.164545
143.182874
110.482574
73.114634
53.182840
46.194792
45.136809
48.433542
49.652457
48.924685
44.902563
34.808517
27.861595
19.397736
12.748837
10.140538
7.270575
6.786585
7.509589
7.574558
7.104874
7.404685
8.059740
8.244514
8.573532
8.599758
9.226799
8.906722
9.487867
8.665919
8.813739
9.630919
9.174943
9.906888
9.204745
10.055900
10.551810
10.643601
11.915565
10.848641
10.300875
10.055900
12.101531
10.719895
10.698438
12.200475
13.134480
11.666417
13.271570
13.412833
14.176965
13.458729
12.519956
13.312697
14.232993
15.352964
14.997721
16.180873
16.785860
17.283559
18.963814
22.485852
22.972822
26.161671
27.791858
30.028820
32.153726
32.961965
32.621622
31.728745
30.276775
29.920936
28.614998
27.555823
24.978518
24.974942
23.736954
22.464991
22.817850
20.831823
20.618439
20.659566
21.632910
21.182895
21.230578
20.514727
19.239783
20.318627
##ZVALUE=235
16.846657
18.550754
38.880706
86.956620
142.032504
229.597688
305.185914
388.439894
424.305797
430.324674
382.342935
316.032767
213.560462
155.943632
99.908710
82.603693
72.171688
75.103641
80.374479
79.398751
79.925656
65.621734
53.431988
35.933852
25.177598
17.223954
13.618469
9.559989
8.885860
8.766651
9.619594
9.989738
9.130836
8.605719
10.280609
9.142756
9.095669
10.678768
10.451674
10.924935
10.781884
10.291934
11.662841
11.099577
11.516809
10.691881
12.497902
12.607574
12.972951
13.172626
12.871623
12.824535
12.245774
14.689565
13.519526
15.447736
15.176535
15.953779
17.444491
16.227961
18.978715
19.250512
19.540787
18.810630
21.039844
20.985603
22.016764
23.573637
25.663972
27.393699
29.751658
32.501817
34.228563
36.716461
38.065910
38.368702
40.999651
39.216876
38.703680
38.270950
36.425591
35.386682
33.606887
33.172965
30.435920
31.858683
28.820634
31.028986
30.551553
28.333664
27.794838
29.656887
28.792620
27.753711
29.767752
28.002858
##ZVALUE=240
2.459884
2.599955
7.867813
18.736720
46.905875
113.266706
200.105906
360.924602
484.058857
620.144010
684.760809
706.046820
645.061731
517.963767
401.116014
263.763666
188.747644
126.795769
108.138919
101.123452
108.616948
112.780929
105.384588
95.368624
83.090663
62.256455
47.118664
31.698942
21.475554
15.908480
12.873411
10.583997
10.740757
9.782910
10.277629
9.412766
10.145903
11.226535
10.470748
10.206699
9.760857
10.732412
11.213422
11.743903
11.487603
11.341572
12.263656
12.849569
13.173819
13.200641
12.517571
13.358593
13.999939
14.302731
15.108585
15.363693
17.020702
18.000603
17.199516
19.002557
18.328428
20.287633
19.114614
19.705892
21.926761
21.736622
23.871660
25.931001
28.235912
28.717518
32.587647
33.169985
37.786961
39.861798
40.698647
41.642785
43.451786
42.216778
40.511489
42.372942
40.151477
39.251447
38.963556
39.073825
37.910938
38.474798
35.751462
35.126805
34.970641
38.413405
36.329627
35.131574
35.669804
35.514832
37.117600
33.981800
##ZVALUE=245
2.001524
1.948476
2.217889
3.030896
4.351735
15.991926
41.812658
116.691589
208.001733
364.680886
527.338982
707.171559
805.557966
838.043690
800.547600
659.455657
531.699657
349.826813
238.897800
143.836737
109.176636
100.431442
109.700561
119.380951
128.272772
122.831464
110.126734
96.717477
69.322586
55.022836
35.693645
25.039911
14.997721
11.226535
9.668469
9.505749
9.129643
9.853840
9.657741
9.573698
9.749532
9.430647
9.736419
9.731650
10.737777
9.366870
10.406971
10.651946
11.017919
11.187792
11.041760
11.564493
13.158917
12.862682
13.680458
14.802814
15.426874
14.808774
15.314817
15.711784
16.303658
17.688870
16.274452
16.884804
19.096732
20.393729
21.412969
22.644997
25.439858
26.684999
28.908849
32.333732
34.959912
34.412742
36.124587
37.755966
40.748715
39.364696
37.029982
36.227703
37.277937
36.004782
35.687685
36.226511
34.405589
35.667419
35.223961
36.608577
34.602880
35.575628
34.854412
35.802722
35.614967
34.709573
35.018921
33.497810
##ZVALUE=250
2.135634
1.819730
2.083778
2.411604
2.395511
2.400875
3.284812
12.971759
32.655597
75.302720
192.206502
334.465504
554.071665
712.268949
889.533758
965.671539
946.003795
856.250525
736.755729
495.655537
338.917971
180.687904
124.827623
94.106793
100.634694
120.599866
130.801797
135.389566
134.716630
120.777488
105.232000
75.203776
58.364868
35.507679
25.235415
14.838576
11.853576
8.950830
8.357763
8.707643
9.104609
9.330511
8.685589
8.542538
9.273887
9.270906
10.353923
9.859800
10.666847
10.807514
9.609461
10.110736
10.463595
10.160804
10.750890
12.000799
12.044907
13.328791
13.019443
13.439655
14.113784
14.793873
14.741421
16.344786
17.306805
17.831922
18.386841
20.420551
21.312833
21.387935
24.950504
28.705597
28.088689
31.223893
32.163858
33.181906
32.773614
34.698844
34.410954
35.462976
32.607913
33.667684
32.688975
32.979846
32.078624
31.668544
34.804940
33.805966
31.940937
33.354759
33.514500
33.570528
32.291412
32.866001
32.655001
34.043789
##ZVALUE=255
1.679659
1.761913
1.906753
1.845956
1.745820
2.115965
2.101660
2.364516
2.265573
7.483959
21.851659
78.595877
154.567957
324.354768
483.136773
733.598471
908.061862
1015.705466
1015.705466
1011.222601
888.743997
702.881813
436.447859
269.161463
144.352913
104.103684
90.381503
102.017522
122.386813
136.127472
145.891905
141.016841
130.425692
104.621649
83.343983
55.019855
38.422942
24.495721
16.073585
11.058450
9.168983
8.765459
8.258820
8.652806
8.911490
8.695722
8.686781
9.593964
9.006858
9.524822
9.902716
10.535717
9.793639
10.302663
10.625720
11.353493
11.606812
12.756586
12.287498
12.873411
13.161898
13.174415
13.624430
14.809966
14.630556
15.539527
17.775893
17.932653
19.417405
21.462440
21.837950
23.814440
25.603771
27.576685
28.624535
29.710531
30.147433
29.582977
30.507445
30.575991
29.857755
29.252768
30.155778
29.446483
30.361414
31.103492
30.914545
30.101538
30.631423
30.066967
30.070543
31.811595
31.469464
30.714869
29.730797
31.312704
##ZVALUE=260
1.605749
1.531839
1.651645
1.602769
1.661777
1.523495
1.680851
1.986623
1.696944
2.019405
2.370477
3.617406
12.165904
50.041676
111.569762
260.946751
422.549844
695.104003
902.859569
1015.684605
1015.684605
1015.684605
1015.684605
913.434625
601.289868
411.267877
233.662724
141.110420
88.816881
86.219907
105.753541
123.739839
142.724514
153.611898
146.403909
132.002831
110.733509
84.758997
62.116981
38.540959
26.293993
16.634464
12.000799
8.941889
8.761883
9.230971
9.592772
9.563565
8.661747
9.362698
10.043979
9.370446
9.968877
10.068417
11.144876
11.262894
11.782646
11.633635
12.434721
11.920929
12.824535
12.844801
13.489723
13.331771
14.301538
14.363527
15.628934
16.867518
17.048717
19.438863
20.966530
22.163987
23.350716
25.030971
25.511980
25.578737
27.579665
29.206872
27.634501
27.695894
28.020740
27.569532
26.946664
27.363896
27.878881
27.961731
28.434992
30.071735
28.903484
28.586984
28.921962
29.370785
29.328465
29.570460
29.167533
29.782653
##ZVALUE=265
1.274943
1.564622
1.517534
1.141429
1.331568
1.615882
1.544952
1.720786
1.680851
1.818538
1.873970
2.342463
2.385974
2.520680
8.615851
28.649569
97.863674
189.990997
394.675732
611.789823
940.444469
1015.684605
1015.684605
1015.684605
1015.684605
1015.684605
843.339562
548.253655
367.323756
205.308795
127.840638
81.896782
82.449913
110.979676
133.788586
153.693557
154.410005
147.243738
131.756663
107.911825
86.695552
57.761669
41.742921
24.288893
16.330481
11.387467
9.371638
9.030700
8.912683
9.718537
10.275841
9.556413
9.605885
9.444952
10.498762
10.674596
10.910630
11.080503
11.344552
11.768937
12.643933
11.999607
12.730956
12.459755
13.277531
14.470816
14.867783
15.906692
16.713738
17.495751
18.821955
21.319985
21.989942
22.641420
23.525953
24.664998
24.706721
25.056601
25.089979
24.820566
25.450587
25.082827
25.606751
24.936795
25.817752
26.600957
25.046468
26.110411
26.963949
28.158426
27.568936
27.561784
27.076602
27.767420
27.551651
27.749538
##ZVALUE=270
1.374483
1.218915
1.264811
1.256466
1.274943
1.286864
1.517534
1.414418
1.605749
1.700521
1.563430
1.681447
1.628995
2.235770
2.100468
2.296567
2.909899
13.920665
42.714477
139.014721
276.181698
481.078625
838.471651
1015.684605
1015.684605
1015.684605
1015.684605
1015.684605
986.352563
738.641024
499.864817
258.417726
143.042803
73.174834
65.528750
86.111426
105.723739
133.963823
149.914622
156.176686
149.867535
130.832791
113.836527
83.056688
61.912537
38.253665
25.946498
16.271472
12.558699
10.291934
9.436607
9.473562
9.912848
10.174513
10.228753
10.659695
10.034442
10.773540
10.577440
11.889935
11.768937
12.075901
11.870861
12.764931
12.741685
13.451576
15.024543
15.553832
15.959740
17.459989
17.967820
19.127727
20.047426
22.009611
22.555590
22.852421
24.090409
22.799969
24.473667
23.034811
23.421645
23.941994
24.110675
24.987459
23.673773
24.334788
25.516748
25.689602
25.798678
26.157498
25.651455
25.072694
25.235415
25.947690
26.275516
25.513768
##ZVALUE=275
1.049638
1.012683
1.183748
1.320839
1.215935
0.968575
1.156926
1.337528
1.515746
1.452565
1.510978
1.568794
1.822710
1.637936
1.565814
1.998544
2.210736
2.153516
2.875924
6.574988
25.294423
72.928667
219.966769
407.524705
750.285983
999.668837
1015.682817
1015.682817
1015.682817
1015.682817
1015.682817
997.337699
740.917921
398.313999
226.641893
94.687939
59.749484
62.278509
80.505610
108.863711
129.931569
148.389935
155.679584
148.487687
133.874416
107.724667
86.719990
60.630441
42.586923
26.246905
18.705726
12.680888
10.951757
9.651780
9.328723
10.364652
10.906458
10.774732
11.114478
11.977553
11.342764
11.711717
12.225509
13.027787
13.158917
13.200641
13.611913
15.611649
15.483499
16.457438
17.389655
19.213557
20.007491
21.020770
22.134781
22.425652
22.693872
22.898912
23.406744
23.062825
23.868680
23.174882
23.279786
22.913814
23.157001
23.209453
24.132729
23.439527
23.728609
23.902655
23.485422
24.831891
23.793578
24.047494
25.005937
24.076700
##ZVALUE=280
1.235604
1.039505
1.185536
1.182556
0.927448
1.249909
1.044869
1.181960
1.517534
1.239777
1.386404
1.207590
1.599789
1.352429
1.475811
1.546741
1.667738
1.743436
1.870990
2.232790
2.384782
3.322959
18.283725
58.849454
183.720589
336.314440
634.315014
934.661031
1015.684009
1015.684009
1015.684009
1015.684009
1015.684009
1015.683413
840.595961
476.888418
287.400484
133.607984
70.095658
46.159625
55.489540
82.563758
103.735924
131.203532
144.149661
150.299668
147.013664
130.258799
110.746622
83.174706
62.198639
40.867925
28.107762
17.621517
13.404489
10.614991
11.173487
10.839701
10.894537
10.696650
11.540651
11.938810
12.147427
12.969971
13.257861
13.702512
14.256835
14.946461
14.810562
16.709566
17.232895
18.679500
19.321442
20.231605
21.187663
21.698475
21.210909
21.168590
21.661520
22.377968
21.720529
22.055507
22.286773
22.628903
22.665858
23.227930
22.582412
23.452640
23.189783
23.387671
23.474693
23.182631
23.236871
23.148656
23.744702
23.185611
##ZVALUE=285
1.037717
0.965595
0.915527
1.012683
0.934601
1.057982
0.981688
1.093745
1.127720
1.069903
1.178980
1.437664
1.327991
1.338720
1.290441
1.420975
1.355410
1.525879
1.750588
1.747608
2.151728
2.202988
2.196431
2.669692
8.684993
32.828450
111.682415
226.557851
471.852422
749.462843
1011.582613
1015.681624
1015.681624
1015.681624
1015.681624
1015.681624
1014.205813
651.855469
395.873785
185.553432
96.705556
41.038990
37.804842
54.668784
74.907541
103.436708
122.470856
139.722824
145.787597
140.717626
130.809546
107.911825
88.604689
62.544942
44.692755
27.973652
19.189715
14.320612
11.715889
11.370778
10.975599
11.350513
12.362599
12.118816
12.587905
13.213754
13.972521
15.019774
15.255809
16.818643
17.753839
19.054413
19.064546
20.022988
20.654798
20.661950
20.955801
21.576881
21.128654
21.823645
21.340847
21.276474
22.045970
22.414923
21.531582
22.394657
22.771955
22.870898
22.571683
22.682548
23.506880
22.254586
23.312569
22.632480
22.891760
22.721887
##ZVALUE=290
0.887513
0.814795
0.716448
1.036525
0.957847
1.120567
0.854731
0.982881
1.170635
1.210570
1.113415
0.988841
0.956655
1.084805
1.344681
1.136661
1.270771
1.396537
1.601577
1.589656
1.772642
1.600981
2.231598
2.147555
2.374649
2.607703
3.226995
15.794635
51.168799
166.353583
319.966674
638.669729
941.902995
1015.684605
1015.684605
1015.684605
1015.684605
1015.684605
1015.684605
861.175656
567.991734
272.566676
136.805773
52.029490
30.938983
35.870671
48.834682
72.563887
92.816949
119.959712
133.763552
143.278837
143.231750
128.032565
108.614564
82.436800
62.308908
41.987896
29.754639
19.381642
15.638471
12.551546
12.300611
12.236834
13.096929
13.614893
14.062524
14.375448
15.199780
16.520619
17.728806
17.881989
19.027591
19.758940
19.772649
19.936562
20.646453
20.702481
20.739436
21.478534
21.509528
21.955967
22.238493
21.898746
22.345781
22.561550
22.042990
22.868514
22.375584
23.094416
21.778941
21.663904
22.622943
22.061467
22.259951
22.324920
##ZVALUE=295
0.915527
0.852942
0.888705
0.872612
0.869632
0.687838
0.754595
0.961423
0.967979
0.892878
1.035929
0.997782
1.149774
1.228452
1.358986
1.143813
1.218915
1.305938
1.336932
1.376867
1.431704
1.431704
1.730919
1.803637
2.138615
2.085567
2.239943
2.626777
3.122687
5.482435
20.704865
104.557872
246.789455
588.479638
930.719972
1015.684605
1015.684605
1015.684605
1015.684605
1015.684605
1015.684605
1004.970074
728.261471
381.557941
200.595856
68.313479
32.889843
24.317503
30.464530
47.479868
65.315962
91.885924
111.329556
130.603909
138.176680
133.645535
124.447942
102.503896
84.660649
59.515834
43.937564
28.846860
21.823645
16.086698
14.275908
13.735890
14.002919
14.497638
14.979839
16.324520
17.126799
18.479824
19.121766
20.126700
20.450950
21.209717
21.345615
21.618605
21.397471
21.125674
22.076964
21.441579
22.607446
22.307634
22.630692
22.717714
22.874475
22.215843
22.594929
22.293925
22.675991
22.288561
22.527575
22.028685
22.028685
22.280812
##ZVALUE=300
0.797510
0.957847
0.744462
0.659823
0.831485
0.985861
0.927448
0.824928
1.028776
0.910759
0.979900
0.817776
1.027584
1.070499
1.133680
1.012683
1.014471
1.202822
1.292825
1.351833
1.425743
1.336932
1.623631
1.616478
1.687407
1.754761
2.130866
1.936555
2.402663
2.585649
3.160834
3.666878
12.992620
47.836900
180.245042
371.820927
796.797872
1015.684605
1015.684605
1015.684605
1015.684605
1015.684605
1015.684605
1015.684605
968.243480
627.971888
303.428769
154.147744
52.839518
24.443865
21.693707
29.023886
44.037700
60.461760
85.466504
104.203820
124.761462
130.831003
130.201578
122.444630
102.499723
86.368918
62.685609
46.999454
31.445622
23.738742
18.287897
16.568899
16.287565
17.219782
17.940998
18.264651
19.236803
19.928813
21.038651
21.434426
21.200776
21.453500
22.200942
21.949410
22.589564
22.935867
22.694468
22.745728
23.095608
23.503900
23.359656
23.162961
23.517609
23.438931
22.818446
23.194551
22.887588
22.947788
22.522807
22.848845
##ZVALUE=305
0.884533
0.979900
0.864863
0.706911
0.903606
0.651479
0.790954
0.741482
0.753999
0.827909
0.915527
0.922680
0.872612
0.953674
0.965595
1.033545
1.035929
1.146793
1.244545
1.152754
1.176596
1.363754
1.259446
1.345873
1.395941
1.472831
1.787543
1.859665
1.895428
1.961589
2.323985
2.517700
2.742410
3.171563
5.458593
29.999614
87.034702
265.720487
502.133965
966.514945
1015.678644
1015.678644
1015.678644
1015.678644
1015.678644
1015.678644
1015.678644
865.819454
512.342453
215.457678
97.075701
30.814409
17.896891
20.822883
26.934743
43.560863
59.890747
82.879663
100.911856
118.078589
125.412941
124.765635
116.858482
100.576878
82.869530
60.277581
45.801997
32.533407
25.721788
20.273924
18.816590
19.762516
19.924641
20.967722
21.400452
21.913648
21.778941
21.581650
21.756887
22.811890
22.468567
22.656918
23.536682
23.939610
23.302436
23.970604
23.928881
24.230480
23.537874
23.850799
23.975968
23.152828
23.672581
22.674799
22.972822
23.050904
##ZVALUE=310
0.874996
0.768900
0.836849
0.884533
0.921488
0.887513
0.908971
0.886917
0.955462
0.917912
1.066923
0.965595
0.835657
0.926852
0.939965
1.129508
1.126528
1.023412
1.192689
1.225471
0.990629
1.332760
1.289845
1.219511
1.211762
1.532435
1.519918
1.540780
1.831651
1.831651
1.878738
2.157688
2.110600
2.220869
2.514720
2.892613
3.767610
16.562939
51.542521
163.670778
322.450995
675.621629
1003.810763
1015.749574
1015.749574
1015.749574
1015.749574
1015.749574
1015.749574
1015.749574
786.450505
360.856652
175.137520
55.959821
22.626519
15.488863
18.089414
27.100444
36.857724
55.838823
71.608424
94.771981
108.804703
118.850470
120.368004
112.508535
100.767612
81.667900
65.166950
46.734810
36.608577
28.284788
23.943782
21.880865
21.560788
21.722913
22.224784
21.991730
21.891594
22.506714
22.948980
23.254752
23.695827
24.111867
24.050474
24.508834
24.204850
23.761988
23.902655
23.967624
23.852587
24.026632
23.933649
23.338795
22.985935
23.342967
##ZVALUE=315
0.763535
0.753999
0.839829
0.831485
0.729561
0.640750
0.903606
0.785589
0.908971
0.778437
1.113415
0.927448
0.987649
0.899434
0.866652
0.930429
0.869632
0.953674
0.936985
1.050830
1.121759
0.987649
1.136661
1.141429
1.124740
1.236796
1.261830
1.284480
1.321435
1.527667
1.674891
1.804829
1.903772
1.806617
1.980662
2.369881
2.539754
2.583861
3.240705
7.714629
28.674603
116.559863
247.244835
548.960567
875.598788
1015.684605
1015.684605
1015.684605
1015.684605
1015.684605
1015.684605
1015.684605
1015.684605
604.733825
300.660729
88.449717
33.229589
15.026927
14.205575
18.088818
23.887753
36.995411
49.641728
69.668889
85.597634
104.639530
113.403797
115.171671
108.705759
94.688535
81.049800
62.574744
49.612522
36.134720
29.751658
24.555922
23.254752
21.744967
22.068620
22.162795
22.253990
22.925735
23.280978
23.572445
24.021864
23.905635
23.797750
24.639964
24.269819
24.122000
23.737550
23.751855
23.390651
23.485422
23.025870
23.286939
##ZVALUE=320
0.745654
0.738502
0.621676
0.870824
0.733733
0.707507
0.670552
0.815988
0.767708
0.870824
0.739694
0.919700
0.898838
0.827909
0.640750
0.922680
0.864863
0.824928
0.756979
0.782609
0.881553
0.821948
0.851750
0.909567
0.988841
1.127720
1.158714
1.117587
1.319647
1.273751
1.324415
1.370907
1.388788
1.559854
1.822710
1.603961
1.950860
2.042651
2.212524
2.605915
2.751946
3.413558
16.744733
60.892701
219.164491
427.825451
830.239654
1015.684605
1015.684605
1015.684605
1015.684605
1015.684605
1015.684605
1015.684605
1001.963615
688.261390
322.309732
164.726973
55.462718
22.422671
12.953877
13.170838
16.581416
22.098422
33.105612
45.567751
64.574480
80.791712
99.637508
109.140873
110.635757
105.654597
94.648600
79.874992
61.205626
50.032735
36.760569
30.241609
24.544597
23.345947
22.204518
21.809936
22.663474
22.993684
22.661686
23.204684
22.965670
23.233891
23.294687
23.597479
23.571849
23.126602
22.500753
23.029447
23.056865
22.807717
##ZVALUE=325
0.667572
0.602603
0.735521
0.501871
0.638962
0.476837
0.716448
0.700951
0.719428
0.696778
0.732541
0.673532
0.633597
0.798702
0.680685
0.903606
0.757575
0.670552
0.803471
0.666976
0.826716
0.979900
0.762939
0.816584
0.929832
0.948906
1.025796
1.103878
1.148582
1.055598
1.150966
1.087785
1.309514
1.199841
1.216531
1.376867
1.554489
1.483560
1.760721
1.787543
2.132654
2.161860
2.566576
2.744794
6.989837
31.642914
133.569837
291.361809
648.795962
995.252728
1015.684605
1015.684605
1015.684605
1015.684605
1015.684605
1015.684605
1015.684605
737.001896
374.004841
201.860666
71.088672
29.543638
13.313890
12.342930
13.821721
16.094446
22.980571
32.006502
48.372746
62.872767
83.068609
94.506741
104.366541
107.364655
101.084709
90.160966
74.719787
61.291456
44.744611
36.813617
29.011965
25.273561
24.068952
23.435950
22.279620
23.184419
23.352504
22.852421
23.359656
22.899508
23.139715
22.801757
22.882819
22.937655
22.744536
22.573471
##ZVALUE=330
0.596642
0.699759
0.583529
0.624657
0.528693
0.654459
0.505447
0.509620
0.707507
0.687838
0.598431
0.708699
0.618696
0.714660
0.704527
0.762939
0.777841
0.694990
0.810623
0.711679
0.795722
0.872612
0.836849
0.781417
0.865459
1.008511
0.895858
1.082420
0.933409
0.934601
1.005530
1.045465
1.075864
1.200438
1.265407
1.279712
1.393557
1.407862
1.581907
1.684427
1.714826
1.859665
1.759529
2.107620
2.346635
2.666712
3.607869
16.787648
56.945682
203.682780
407.366753
847.114921
1015.684605
1015.684605
1015.684605
1015.684605
1015.684605
1015.684605
1015.684605
898.994803
570.304990
261.349678
131.007433
45.415759
19.456744
12.149811
12.395978
13.808608
16.412735
23.791790
32.091737
46.384931
59.817433
80.045462
91.039538
100.106597
102.003813
95.450878
85.889697
69.899559
57.909489
43.668747
36.591887
29.851794
26.163459
23.487806
22.783875
22.682548
22.362471
22.534728
22.579432
22.312999
22.210479
21.988750
22.439957
22.243857
##ZVALUE=335
0.556707
0.619888
0.634789
0.630617
0.711679
0.713468
0.511408
0.425577
0.768900
0.654459
0.705719
0.611544
0.629425
0.605583
0.587702
0.681877
0.733733
0.723600
0.748634
0.722408
0.885725
0.704527
0.719428
0.813603
0.859499
0.860691
0.852942
0.948906
1.066923
0.963807
1.047850
0.998974
1.176000
0.965595
1.126528
1.061559
1.238585
1.245737
1.392961
1.474619
1.457930
1.570582
1.639724
1.695752
1.895428
2.154708
2.302527
2.731681
3.055930
8.691549
33.790469
132.695436
282.363892
631.394982
981.154442
1015.684605
1015.684605
1015.684605
1015.684605
1015.684605
1015.684605
1015.684605
773.162842
408.160686
206.414461
64.299703
25.222898
13.348460
12.678504
13.730526
15.204549
18.196702
23.704767
33.988953
44.929981
59.861541
73.111653
87.969899
94.280839
95.943809
91.064572
80.237985
69.121718
56.118965
46.754479
36.328435
30.055642
25.549531
23.707747
22.054911
21.546483
21.216869
20.901561
21.065474
21.038651
21.359921
##ZVALUE=340
0.633597
0.480413
0.426769
0.563860
0.492930
0.606775
0.633597
0.763535
0.710487
0.745654
0.553727
0.688434
0.653863
0.632405
0.552535
0.571609
0.651479
0.701547
0.549555
0.616908
0.566840
0.790954
0.677705
0.690818
0.834465
0.575781
0.922680
0.956655
0.894666
0.901818
0.804663
0.925660
0.834465
0.860691
1.023412
0.971556
1.035929
1.060963
1.103878
1.316667
1.102686
1.291633
1.362562
1.529455
1.675487
1.716614
1.950860
1.975894
2.245903
2.520680
2.854466
4.782677
17.181635
89.404583
211.938024
507.569909
836.165547
1015.684605
1015.684605
1015.684605
1015.684605
1015.684605
1015.684605
1015.684605
912.325978
459.940434
253.805518
100.862980
39.978623
15.201569
13.266802
13.772845
13.954639
15.951991
17.789602
23.918748
31.655431
44.014454
55.769682
71.878433
81.775784
89.083910
90.819001
86.232424
78.774691
65.719485
56.333542
44.052601
36.239624
28.688908
25.065541
22.305846
21.388531
20.805597
20.387769
20.079613
##ZVALUE=345
0.647902
0.628829
0.515580
0.444651
0.522733
0.670552
0.704527
0.606775
0.436902
0.608563
0.606775
0.551939
0.648499
0.598431
0.550747
0.566840
0.817776
0.664592
0.554919
0.688434
0.662804
0.656843
0.806451
0.761747
0.535846
0.760555
0.687838
0.668764
0.609756
0.809431
0.843406
0.801682
0.911951
0.877976
0.843406
0.779629
0.880957
0.992417
0.969768
0.959635
0.965595
1.145601
1.021624
1.179576
1.300573
1.396537
1.396537
1.562834
1.678467
1.797676
1.915693
2.183914
2.466440
3.211498
6.716847
46.528578
134.514570
362.281799
639.353991
1015.687585
1015.687585
1015.687585
1015.687585
1015.687585
1015.687585
1015.687585
994.375944
579.116940
314.386487
119.037628
53.167939
19.924641
14.156699
13.204813
13.466477
13.616681
14.754534
17.315745
21.333694
30.645728
39.784908
54.410696
63.766837
76.086521
81.912875
84.760785
81.975460
73.768497
65.515637
52.894950
43.883920
33.560991
28.348565
23.652911
21.519661
20.049810
##ZVALUE=350
0.457764
0.530481
0.410676
0.283718
0.646710
0.656843
0.647902
0.776649
0.586510
0.465512
0.456572
0.666976
0.648499
0.623465
0.711679
0.653863
0.616908
0.635982
0.605583
0.576973
0.579953
0.717640
0.517964
0.655651
0.571609
0.721812
0.652671
0.817776
0.699759
0.728965
0.823736
1.007915
0.865459
0.857711
0.841618
0.936985
1.046658
0.880957
0.862479
0.785589
1.056790
0.936985
1.135468
1.058578
1.008511
1.152754
1.166463
1.329780
1.457930
1.346469
1.529455
1.921654
1.861453
1.982450
2.223849
2.753735
4.251599
26.254654
80.539584
242.441893
456.174016
888.806581
1015.689969
1015.689969
1015.689969
1015.689969
1015.689969
1015.689969
1015.689373
725.193024
415.882468
163.119435
69.350600
21.763444
13.713837
12.444854
12.436509
12.482405
12.812614
14.553666
16.835928
21.930933
27.942657
36.431551
45.399666
58.760643
67.400932
75.458884
77.535510
75.932741
70.417523
59.525967
51.004887
40.267706
33.450723
26.832819
##ZVALUE=355
0.561476
0.475645
0.722408
0.444651
0.410676
0.552535
0.517964
0.556707
0.531673
0.487566
0.621676
0.476837
0.576973
0.556707
0.404716
0.490546
0.542998
0.665784
0.681877
0.592470
0.725985
0.613928
0.731945
0.593662
0.466704
0.675917
0.772476
0.826716
0.541806
0.642538
0.780821
0.750422
0.838637
0.896454
0.760555
0.769496
0.845790
0.815988
0.874996
0.814795
0.920892
0.714660
1.077652
1.079440
0.908971
1.072884
1.074672
1.089573
1.276731
1.282692
1.603961
1.551509
1.708865
1.856685
1.876950
1.899600
2.151728
2.489686
3.171563
7.873774
50.096512
133.536458
355.127454
625.641942
1015.647650
1015.647650
1015.647650
1015.647650
1015.647650
1015.647650
1015.647650
991.844535
572.437048
308.486819
106.131434
41.546822
15.428662
12.062788
11.896491
12.091994
12.022853
12.747645
13.872981
15.468597
19.277930
24.053454
32.816529
40.161610
52.350760
59.897900
67.493916
70.172548
68.867803
64.228773
56.131482
48.502684
##ZVALUE=360
0.558496
0.534654
0.530481
0.511408
0.557899
0.487566
0.566840
0.508428
0.555515
0.710487
0.675917
0.582933
0.578761
0.615716
0.638962
0.545979
0.670552
0.773668
0.511408
0.786781
0.679493
0.797510
0.814795
0.617504
0.544786
0.796914
0.733733
0.603795
0.786781
0.665784
0.521541
0.775456
0.772476
0.766516
0.785589
0.916719
0.902414
0.998974
0.815988
1.021624
0.985861
0.930429
1.061559
1.009703
1.148582
1.056790
1.078844
1.167655
1.320839
1.362562
1.374483
1.533628
1.533628
1.424551
1.774430
1.854897
1.702905
2.024770
2.256632
2.501607
3.052950
4.932880
17.523766
85.286498
211.124420
516.611934
838.853717
1015.684605
1015.684605
1015.684605
1015.684605
1015.684605
1015.684605
1015.684605
789.074898
401.095748
211.953521
70.182681
24.177432
11.984706
11.220574
11.328459
11.268854
11.625886
12.216568
12.479424
13.833642
17.119646
20.118952
27.445555
33.842921
44.481754
52.000880
59.801936
63.222647
63.830614
##ZVALUE=365
0.572801
0.475645
0.531673
0.459552
0.614524
0.541806
0.575781
0.469685
0.564456
0.528693
0.694990
0.704527
0.700951
0.626445
0.676513
0.646710
0.718832
0.590682
0.588894
0.754595
0.488758
0.656843
0.527501
0.705719
0.817776
0.709891
0.764728
0.599623
0.600815
0.783801
0.753999
0.660419
0.713468
0.914931
0.801682
1.049638
0.848770
0.998974
0.777841
1.082420
0.921488
0.936985
0.884533
1.068711
0.922680
0.957847
0.997782
1.259446
1.003742
1.337528
1.189709
1.220703
1.301765
1.429915
1.355410
1.416802
1.772642
1.687407
1.894832
2.106428
2.218485
2.504587
2.763867
3.431439
8.626580
32.742620
136.086941
298.369527
688.713789
1015.684605
1015.684605
1015.684605
1015.684605
1015.684605
1015.684605
1015.684605
862.161517
546.276569
256.213546
127.439499
37.977695
14.973879
10.469556
10.511875
10.417700
10.445714
10.531545
10.877848
11.078715
12.093782
14.700890
17.916560
24.038553
29.756427
38.299561
44.669509
##ZVALUE=370
0.491738
0.466704
0.452995
0.358820
0.523925
0.664592
0.585914
0.513792
0.630617
0.517964
0.625849
0.568628
0.425577
0.465512
0.413656
0.444651
0.541806
0.522733
0.661612
0.474453
0.598431
0.647902
0.600815
0.832677
0.536442
0.642538
0.842810
0.722408
0.678897
0.710487
0.344515
0.801682
0.497699
0.801682
0.523925
0.852942
0.894666
0.925660
0.597835
0.842810
0.770688
0.764728
0.822544
0.992417
0.975728
1.020432
0.842810
0.916719
1.207590
1.089573
0.991821
0.896454
1.100898
1.123548
1.047850
1.139641
1.247525
1.338720
1.524687
1.565814
1.619458
1.831651
1.928806
2.337694
2.307892
2.910495
4.379749
20.698905
72.444677
246.034861
465.833545
889.197588
1015.682817
1015.682817
1015.682817
1015.682817
1015.682817
1015.682817
974.847674
557.217598
319.486856
129.562616
59.792995
19.539595
10.854602
9.554625
9.478927
9.546876
9.478927
9.796619
9.868741
10.271668
10.751486
13.078451
15.790462
20.778775
##ZVALUE=375
0.432730
0.540614
0.599623
0.387430
0.432730
0.509620
0.463724
0.558496
0.471473
0.393987
0.580549
0.534654
0.397563
0.589490
0.391603
0.583529
0.477433
0.387430
0.539422
0.570416
0.442863
0.559688
0.605583
0.661612
0.437498
0.611544
0.643730
0.559688
0.568628
0.566840
0.650883
0.518560
0.648499
0.740886
0.730753
0.590682
0.722408
0.646710
0.820756
0.616908
0.766516
0.780821
0.717640
0.739694
0.812411
0.742674
0.813603
0.853539
0.904799
1.021624
0.848770
0.820756
1.062751
1.093745
1.055598
0.986457
1.021624
1.153946
1.154542
1.189709
1.203418
1.467466
1.441836
1.666546
1.729727
2.128482
2.136827
2.700686
3.185868
11.372566
39.152503
141.988397
312.789679
702.256560
1014.600992
1015.678644
1015.678644
1015.678644
1015.678644
1015.678644
1015.678644
691.666007
426.135659
205.294490
99.751949
31.008720
13.127923
9.185672
8.893609
8.625984
8.739829
8.593798
8.749962
8.934736
9.108782
9.919405
##ZVALUE=380
0.378489
0.375509
0.316501
0.483990
0.555515
0.562668
0.457764
0.499487
0.458956
0.524521
0.386834
0.304580
0.319481
0.327826
0.452995
0.423789
0.437498
0.465512
0.550747
0.442863
0.597835
0.412464
0.491738
0.443459
0.340939
0.465512
0.499487
0.611544
0.515580
0.554919
0.441670
0.523925
0.411868
0.626445
0.605583
0.633597
0.542998
0.715852
0.557899
0.807643
0.585914
0.679493
0.611544
0.510812
0.790954
0.640750
0.619888
0.719428
0.664592
0.757575
0.866652
0.782609
0.915527
0.961423
0.814795
0.745654
0.885725
1.036525
1.014471
1.019835
1.080632
1.156926
1.249909
1.341701
1.281500
1.529455
1.576543
2.059937
2.102852
2.703667
3.056526
5.178452
20.156503
98.225474
231.483579
554.975867
899.143815
1015.645862
1015.645862
1015.645862
1015.645862
1015.645862
1015.645862
934.121609
618.219972
296.319723
147.199631
47.881603
19.176602
9.122491
8.131862
7.982850
7.698536
8.134842
8.097887
8.229613
##ZVALUE=385
0.388622
0.358820
0.349879
0.372529
0.321865
0.407696
0.348687
0.476837
0.495911
0.591874
0.572801
0.457764
0.474453
0.540614
0.487566
0.381470
0.405908
0.335574
0.398755
0.488758
0.474453
0.580549
0.528693
0.414848
0.412464
0.482798
0.495911
0.563860
0.510812
0.437498
0.516772
0.440478
0.633597
0.653863
0.592470
0.625849
0.580549
0.559688
0.659823
0.508428
0.587702
0.666976
0.596642
0.619888
0.734925
0.588894
0.639558
0.699759
0.655651
0.774860
0.663996
0.674725
0.656843
0.805855
0.770688
0.708699
0.802875
0.739694
1.028776
0.897646
0.953674
1.083612
1.052618
1.171827
1.216531
1.143813
1.547933
1.605749
1.652837
2.082586
2.289414
2.547503
2.822876
3.594756
9.968877
55.395961
142.981410
371.999741
663.979650
1015.684605
1015.684605
1015.684605
1015.684605
1015.684605
1015.684605
1015.684605
790.320635
444.491506
248.166919
90.181828
34.999847
10.375977
7.451773
7.450581
7.322431
7.034540
##ZVALUE=390
0.414848
0.379682
0.350475
0.287890
0.206828
0.352859
0.343919
0.486970
0.427961
0.509620
0.395775
0.489950
0.454783
0.473857
0.438690
0.440478
0.431538
0.602603
0.393987
0.474453
0.350475
0.442863
0.565648
0.581741
0.606775
0.358820
0.377893
0.583529
0.407696
0.493526
0.477433
0.451803
0.583529
0.639558
0.526905
0.574589
0.537634
0.641942
0.596642
0.522733
0.552535
0.667572
0.492930
0.691414
0.621676
0.625849
0.634789
0.638962
0.522733
0.594854
0.584722
0.521541
0.724792
0.666976
0.744462
0.776649
0.862479
0.895858
0.982881
1.116991
0.990629
0.895858
1.118779
0.898838
0.909567
1.046658
1.273751
1.477599
1.779795
1.865625
1.985431
2.282858
2.295971
2.331734
2.505779
2.828836
5.151629
32.313466
99.776387
291.019678
538.945794
979.431868
1015.684605
1015.684605
1015.684605
1015.684605
1015.684605
1015.684605
1015.684605
624.624491
350.909829
135.836601
59.108734
15.896559
7.926822
7.095933
##ZVALUE=395
0.469685
0.436902
0.410676
0.485778
0.363588
0.294447
0.322461
0.521541
0.529885
0.530481
0.449419
0.471473
0.291467
0.398755
0.510812
0.493526
0.340939
0.452995
0.593662
0.406504
0.464916
0.367761
0.406504
0.453591
0.520945
0.559688
0.516772
0.571609
0.530481
0.491738
0.535846
0.566840
0.472665
0.560880
0.438690
0.705719
0.473857
0.644922
0.499487
0.611544
0.639558
0.675917
0.523925
0.682473
0.677705
0.534654
0.614524
0.611544
0.717640
0.552535
0.717640
0.754595
0.682473
0.836849
0.674725
0.734925
0.667572
0.914931
0.727773
0.771880
0.845790
0.969768
0.869632
0.926852
1.079440
1.048446
1.127720
1.443624
1.503825
1.688600
1.891851
1.680851
1.788735
1.944900
2.001524
2.043843
2.211928
2.394915
2.996922
14.189482
55.240989
198.230743
385.356545
754.136443
1015.684605
1015.684605
1015.684605
1015.684605
1015.684605
1015.684605
1015.684605
758.676529
463.474989
205.483437
94.208717
28.618574
##ZVALUE=400
0.388622
0.476837
0.319481
0.264645
0.282526
0.285506
0.344515
0.317693
0.243783
0.251532
0.460744
0.300407
0.431538
0.281930
0.364780
0.348687
0.458956
0.483990
0.374913
0.448823
0.444651
0.479817
0.542998
0.432730
0.422597
0.503659
0.455976
0.436902
0.506639
0.438690
0.462532
0.565648
0.544786
0.510812
0.497699
0.625849
0.446439
0.476837
0.530481
0.551939
0.625849
0.467896
0.460744
0.522733
0.434518
0.633597
0.564456
0.616908
0.522733
0.639558
0.548959
0.559688
0.685453
0.699759
0.758767
0.653863
0.756979
0.668764
0.815988
0.942945
0.918508
0.854731
1.039505
0.898838
0.839829
0.717640
1.181960
1.195669
1.261830
1.584888
1.552701
1.510978
1.557469
1.640916
1.794696
1.736879
1.626611
1.822710
2.062917
2.161860
2.856851
5.561709
32.883883
98.225474
288.015008
524.449944
943.405032
1015.684605
1015.684605
1015.684605
1015.684605
1015.684605
1015.684605
947.358608
544.390678
321.137905
##END
