##TITLE=QP00652
##FORMAT=SPECTACLE-ASCII V-1.2
##DATA TYPE=ULTRAVIOLET SPECTRUM
##SECOND TYPE=ULTRAVIOLET SPECTRUM
##DATE=05/07/18
##TIME=15:01:55
##SPECTROMETER/DATA SYSTEM=SPECTACLE
##XUNITS=NM EM
##YUNITS=ENERGY
##YFACTOR=1
##FIRSTX=220
##LASTX=410
##NPOINTS=96
##3DDATA=Equidistant
##ZUNITS=NM EX
##FIRSTZ=210
##LASTZ=400
##ZPOINTS=39
##XYDATA=(Y..Y)
##ZVALUE=210
3.202558
2.591610
3.140569
2.946854
2.832413
3.624558
3.320575
4.100800
3.346801
3.776550
3.889799
2.922416
3.169775
3.668666
3.276467
3.897548
4.045963
3.592968
4.628897
3.868937
4.446507
6.058812
5.750656
5.661845
5.790591
5.037785
5.754828
6.478429
6.379485
5.934834
6.009936
6.244779
6.592870
7.822514
7.211566
7.900596
7.386804
8.054972
7.614493
7.820725
8.699894
8.963943
8.732677
8.003712
8.609891
9.587407
9.011626
10.129809
10.666847
9.864569
9.930730
9.742975
10.583997
10.276437
10.974407
10.810494
10.523796
10.173917
11.184812
10.613799
10.909438
11.042953
11.001825
11.975765
12.557507
12.775660
14.132857
14.788508
17.137527
19.236803
23.976564
26.424527
33.044815
34.808517
37.098527
37.001967
38.655996
38.269758
38.863420
36.927462
32.941699
30.846596
27.415752
24.931431
22.605658
17.774701
14.051795
12.791753
11.448860
10.570884
10.754466
10.742545
11.494756
11.915565
11.471510
11.841655
##ZVALUE=215
8.744597
8.777976
8.405447
6.570816
6.091595
5.637407
5.117655
6.186962
5.567670
5.609989
6.071925
5.061626
4.808903
4.768968
3.871918
4.164577
3.983974
3.673434
4.531741
4.437566
4.663467
4.205704
5.776882
4.955530
6.189942
5.623698
5.068779
6.710887
6.953478
6.068945
6.200671
6.239414
6.935596
6.957650
7.109642
7.944703
8.296967
7.663965
7.133484
8.764863
8.239746
7.882714
8.771420
8.905530
9.213686
9.475946
8.516908
8.969903
9.571910
9.622574
9.889603
9.649992
9.565949
10.562539
10.341406
10.140538
10.889769
10.024905
11.829734
10.341406
11.564493
11.310577
11.102557
11.009574
12.087822
12.266636
12.712479
14.528632
15.653968
16.955733
20.229816
25.094748
27.796626
30.403733
32.939911
32.423735
34.171939
34.210682
33.637881
29.785633
28.034449
25.099516
23.113489
19.165874
17.111897
14.852881
13.834834
12.032986
10.717511
10.208488
10.926723
10.947585
11.506677
9.745955
11.712909
10.997653
##ZVALUE=220
30.973554
33.315420
34.846663
33.872724
31.082630
24.002790
21.478534
14.125705
13.581514
12.351871
12.925863
13.782978
13.358593
13.037920
10.780692
8.701682
7.300973
5.843639
5.692840
4.303455
5.157590
6.004572
6.309748
6.811619
6.165504
6.234646
6.293654
7.384419
6.891489
7.758737
7.509589
7.881522
7.969737
8.229613
8.119941
8.310676
8.351803
9.904504
8.818507
9.610653
10.265708
10.031462
10.015965
8.917451
9.900928
10.368824
10.634661
10.742545
10.583997
10.619760
11.058450
11.884570
10.450482
11.610985
11.235476
11.852980
11.921525
11.831522
12.148619
10.845661
11.508465
11.757612
11.472702
11.560917
11.950731
12.057424
14.260411
14.591813
16.345978
18.183589
21.322966
25.404692
27.794838
31.533837
34.570694
35.545826
37.387609
34.661889
34.193993
29.394627
30.422807
25.857687
24.737716
21.781921
18.564463
17.594695
14.086962
13.473630
12.626648
11.371970
11.142492
11.168718
10.706782
11.459589
11.405945
10.515451
##ZVALUE=225
54.429770
56.222677
71.840882
92.183948
95.797777
96.410513
90.526938
68.829656
54.714680
40.510893
28.552413
24.172664
25.879741
28.501749
27.823448
23.284554
22.899508
18.334985
13.377666
10.541677
7.126927
6.488562
5.505681
6.103516
6.550550
6.742477
7.261634
8.190870
7.195473
7.860661
8.498430
8.138418
9.104609
10.045767
10.028481
9.639859
9.287000
8.583665
10.404587
9.580851
10.316968
10.516644
10.271668
9.783506
10.349751
10.801554
10.146499
11.209846
11.231899
11.236668
10.938644
11.674762
11.594892
12.921691
11.392832
12.991428
12.035966
12.962818
11.704564
12.919903
13.229847
14.020801
14.634728
12.717843
14.245510
13.934970
15.362501
16.613603
15.730858
20.183921
23.361444
25.281906
28.567910
34.025908
33.912659
33.126473
31.764507
32.993555
31.268597
31.251907
27.187467
25.664568
22.897720
20.251870
18.465519
17.047524
15.429854
15.913844
13.744831
14.264584
12.594461
12.481809
13.801455
12.969971
13.322830
14.153719
##ZVALUE=230
47.056675
50.969720
81.346631
134.769678
172.388554
213.993788
237.858891
240.231752
220.811963
167.698860
126.231909
89.910626
58.593750
50.442815
47.546625
50.213933
51.460862
50.368905
45.495629
37.454963
28.087497
21.710992
13.605952
9.928942
7.346869
8.331537
8.433461
8.568764
8.661747
8.514524
8.843541
9.500980
8.078814
8.756518
9.043813
10.470748
10.551810
9.767413
11.200905
11.064410
12.197495
11.166930
10.251999
11.087656
11.976957
12.527704
11.990666
12.408495
12.079477
12.985468
12.475848
11.922717
13.762712
12.975931
13.818741
15.581846
13.667941
13.176799
13.409853
15.805960
13.363957
14.782548
14.243722
15.517473
15.034676
15.935898
17.358661
18.918514
19.542575
21.684766
23.665428
26.052594
28.084517
32.748580
33.893585
34.367442
33.970475
32.230616
30.955672
30.149817
28.784871
25.237799
22.716522
21.949410
20.901561
18.554926
17.635822
17.458797
16.644597
15.521646
16.338825
13.883710
15.786886
15.671849
17.185807
15.586615
##ZVALUE=235
16.715527
18.064976
39.897561
97.878575
161.810517
263.240933
337.715745
444.624424
504.419804
505.228639
456.209779
358.228683
250.508785
174.699426
108.201504
85.179806
75.125694
75.496435
80.956817
84.081888
77.773929
65.572858
52.272677
37.211776
25.240779
16.828775
14.240742
10.756850
9.818673
9.552836
9.882450
9.700656
9.896755
10.367632
11.127591
10.296702
10.521412
11.149645
11.883974
11.729598
12.044907
10.690689
12.405515
12.312531
11.699796
10.807514
11.635423
13.420582
12.606978
12.833476
12.773871
14.981627
14.071465
14.373660
14.723539
14.240742
14.519691
16.777515
15.187860
17.138720
16.884804
18.382668
18.199682
17.426610
17.826557
19.154549
18.872619
19.723773
21.350980
25.294423
27.828813
31.768680
34.617782
37.491918
38.372874
41.714907
39.262772
38.257837
37.501454
37.023425
33.163428
31.097531
28.767586
26.241541
26.294589
24.334788
22.295713
21.346807
21.169782
20.436645
20.021796
20.673871
21.548867
21.279454
18.555522
19.831657
##ZVALUE=240
2.832413
2.758503
10.277629
28.447509
83.421469
158.872604
329.065919
495.565534
740.576982
881.416798
988.428593
960.165858
860.676765
667.157769
514.740944
298.369527
199.753642
126.606822
105.304718
102.757812
108.818412
116.108656
113.666654
102.596879
83.675981
68.108439
48.965812
35.630465
25.858879
18.326640
14.076829
12.055635
11.479855
11.952519
11.637807
12.197495
12.497902
11.980534
12.075901
12.681484
11.478662
12.732744
12.838840
12.662411
13.616681
15.009642
14.128685
13.769865
14.542937
15.049577
13.342500
14.131665
14.434457
15.719533
15.565753
15.727878
15.958548
17.254949
18.825531
16.315579
19.284487
18.156767
17.888546
20.044446
19.655824
22.609830
22.801757
24.657845
25.730729
30.580759
34.103990
36.643744
40.154457
43.751597
48.539639
45.301914
43.938756
47.384501
42.307973
39.207935
37.682652
36.135912
33.831596
31.493902
29.373765
26.877522
27.484894
25.275946
25.614500
25.766492
24.443865
22.580624
24.794936
23.240447
24.598837
24.052858
##ZVALUE=245
2.499819
2.431870
2.233982
2.611876
7.199645
23.788810
84.130764
175.516009
383.067727
588.163733
877.933502
1015.684605
1015.684605
1015.684605
1015.684605
884.315968
695.689917
441.393852
291.453004
170.452595
117.997527
103.946924
110.312700
125.185847
132.728815
124.634504
111.189485
97.622871
74.488521
55.589676
41.128993
25.702715
17.796755
14.313459
12.885928
11.252761
12.902617
11.717677
10.959506
11.978745
11.537671
12.930632
13.030767
12.477636
12.395978
12.397766
12.618899
12.962818
11.945963
12.327433
13.329983
13.587475
13.206601
12.634993
12.629628
13.264418
14.594793
14.356971
15.154481
14.479756
17.724633
14.419556
16.235709
16.549826
16.908646
17.081499
18.688440
19.282699
23.574829
25.974512
30.025840
31.271577
34.793615
36.402941
36.482811
36.953688
35.779476
33.262968
34.476519
35.042763
31.989813
28.733611
28.303862
26.244521
24.578571
23.933649
23.263693
22.566915
21.840930
22.114515
23.797750
22.021532
22.838712
21.805763
23.270845
21.488667
##ZVALUE=250
1.849532
2.115965
1.878738
2.383590
2.004504
2.884865
3.380775
15.207529
42.060614
99.022985
248.676538
443.555713
746.665597
956.742764
1015.684605
1015.684605
1015.684605
1015.684605
976.585746
668.188930
443.000793
233.258605
151.683688
104.755759
103.361607
122.131705
134.783983
136.700869
134.485960
115.990639
101.829767
77.690482
59.823990
38.951635
26.441813
15.726686
11.884570
11.416674
9.657741
10.110736
10.490417
10.219812
9.601712
10.163784
10.367632
9.531975
10.682940
9.977818
10.021925
11.057854
11.386871
10.612607
11.037588
12.435913
11.388659
11.401772
11.674762
11.995435
12.891889
13.014674
13.409853
12.719631
14.248490
14.174581
14.093518
15.087724
15.178919
17.793775
18.189549
19.710660
21.628737
24.014711
25.697947
29.270649
29.022694
30.891895
30.844808
30.631423
28.331876
26.488900
27.143955
25.047660
22.978783
23.250580
23.079515
21.154881
21.337867
19.805431
21.839738
20.842552
20.496845
20.126700
20.093918
19.655824
20.589828
21.098852
##ZVALUE=255
1.239777
1.090765
1.538992
1.317859
1.736879
1.368523
1.717806
1.740456
2.240539
5.800724
34.486651
88.879466
181.092620
388.685465
603.660941
928.892493
1015.107036
1015.107036
1015.107036
1015.107036
1015.106440
904.317498
562.463403
358.299017
182.619691
119.705796
93.121529
102.824569
125.468969
137.039423
144.680738
139.381886
128.069520
103.589892
83.998442
56.734681
38.900971
24.457574
16.710758
10.335445
9.056926
8.607507
8.783937
8.625984
8.755922
8.562803
9.350777
8.603930
9.212494
8.997917
9.435415
9.343624
9.732842
10.378957
9.689927
10.103583
10.743737
10.840893
10.816455
10.421872
10.972619
10.893941
11.481643
10.992885
12.165904
12.155771
14.185905
14.678836
14.448762
17.512441
18.601418
20.453930
21.720529
24.398565
23.896694
25.427938
25.794506
24.541616
25.378466
23.716688
22.141933
21.463633
21.107793
20.555854
19.418597
19.024611
17.968416
19.146800
18.984675
19.132495
18.802881
18.479824
17.956495
18.642545
17.483830
18.575788
##ZVALUE=260
1.618862
1.834631
1.679659
1.593828
1.964569
2.091527
1.807809
1.787543
2.502799
2.386570
2.846718
3.525615
13.086796
56.156516
125.109553
307.134986
513.343811
875.180960
1015.684605
1015.684605
1015.684605
1015.684605
1015.684605
1015.684605
830.887556
554.558039
305.378437
175.368786
102.605820
90.631843
99.386573
127.342939
141.202807
152.252913
149.276853
132.132769
113.441944
81.537962
61.890483
37.365556
27.045608
16.245842
11.627674
9.762645
9.002686
9.408593
8.600950
8.992553
8.632541
9.656549
10.045767
9.784698
9.251833
9.643435
9.311438
9.718537
10.273457
10.384917
10.334849
10.180473
10.158420
10.931492
11.298656
10.529757
11.600852
11.738539
12.795925
13.544559
13.800859
15.505552
17.415881
17.784834
20.594001
22.094846
21.164417
21.332502
21.216869
21.324754
21.510720
20.024776
18.606782
19.187927
18.291473
16.966462
18.560886
17.819405
17.253757
17.476678
16.814470
16.771555
17.566681
17.058849
17.566681
16.314983
17.497540
17.544627
##ZVALUE=265
1.373887
1.288652
1.332760
1.315475
1.525879
1.715422
1.482964
1.863837
1.869798
1.915693
2.162457
2.018809
2.075434
2.749562
8.062720
38.551688
93.154907
237.514973
424.266458
820.582509
1015.576720
1015.576720
1015.576720
1015.576720
1015.576720
1015.576720
1015.576720
818.776488
431.861877
255.409479
125.612617
85.546970
82.781911
110.718608
133.535862
149.189830
155.952573
151.045918
134.161711
108.419657
84.382892
58.878660
38.719773
23.229718
16.204715
10.879636
9.825826
9.606481
9.131432
9.046793
8.853674
9.312630
8.906722
9.178519
9.450912
9.362698
9.791851
9.745955
9.597540
9.988546
9.585619
10.031462
10.379553
10.576844
10.444522
10.958910
11.524558
12.042522
13.147593
14.445782
15.018582
17.200708
18.666983
18.722415
19.318461
20.106435
19.513965
18.951893
18.652678
17.041564
17.142892
17.172694
16.810894
15.189648
15.754700
16.017556
15.257597
15.484691
16.187429
15.307665
15.606880
15.777946
16.294718
15.636683
15.735626
15.726686
##ZVALUE=270
1.238585
1.108646
1.285672
1.466870
1.478791
1.453757
1.617670
1.486540
1.658797
1.578927
1.955628
2.030730
1.981854
2.124906
2.405643
2.750754
3.628731
16.860962
50.874949
160.347819
315.845609
562.144518
989.236832
1015.684605
1015.684605
1015.684605
1015.684605
1015.684605
1015.684605
1015.684605
773.533583
376.055837
201.226473
88.843703
68.964958
86.121559
109.391809
133.841634
148.148537
158.796906
155.709982
134.028792
113.485456
83.794594
61.543584
37.876964
26.374459
16.419888
12.640953
9.945631
9.478927
9.082556
9.003878
9.085536
9.272695
8.951426
9.238720
9.232759
8.762479
9.212494
9.110570
9.584427
9.517670
10.053515
10.417700
10.508895
10.324717
10.988712
11.933446
12.914538
14.316440
16.410947
16.141534
17.982721
17.950535
18.233657
17.658472
16.869903
15.882850
15.421510
15.313625
14.605522
14.185905
14.822483
14.101863
14.668703
14.385581
14.043450
13.877749
13.966560
14.582872
14.031529
13.912916
14.272928
14.290810
14.875531
##ZVALUE=275
1.227856
1.457930
1.436472
1.160502
1.259446
1.241565
1.468658
1.354814
1.384616
1.422763
1.657605
1.565814
1.762509
1.738667
1.923442
2.070665
2.180934
2.371669
2.927780
9.157658
33.987761
94.977617
263.679624
487.825871
910.886526
1015.684605
1015.684605
1015.684605
1015.684605
1015.684605
1015.684605
1015.684605
958.302617
498.065948
276.256800
110.784769
63.998699
62.993765
81.103444
108.601451
129.401684
148.466825
156.076550
147.701502
133.736730
106.362700
85.767508
58.887601
42.880774
25.781989
18.182993
11.891723
10.206699
8.976460
8.987784
8.539557
8.096695
8.772612
8.615851
9.194613
8.755922
9.133816
9.823442
9.208918
9.571910
9.478927
10.201931
10.001659
11.655688
11.791587
12.852550
14.483929
14.971495
15.453696
16.267896
16.106963
16.112924
15.733838
14.832616
14.876723
14.077425
13.991594
13.338923
13.081431
12.574792
13.003945
13.076663
12.987852
12.818575
13.226867
12.387633
13.371706
13.237000
13.038516
13.372898
13.147593
##ZVALUE=280
1.099706
1.137853
1.075864
1.214743
1.252890
1.207590
1.345873
1.344681
1.426935
1.129508
1.436472
1.358986
1.283884
1.518726
1.718998
1.978874
1.873970
2.214909
2.182722
2.510548
2.880692
3.853440
23.506880
72.908998
215.579867
387.847424
726.027489
1008.430719
1015.684605
1015.684605
1015.684605
1015.684605
1015.684605
1015.684605
1013.487577
608.880520
361.492634
152.709484
73.186755
47.015548
56.407452
82.742572
106.084943
130.633712
144.580603
150.888562
145.225525
127.601624
109.922886
81.088543
60.740709
39.387941
27.811527
16.459823
11.824965
8.890629
8.199811
8.266568
8.354783
8.319616
8.787513
8.489490
8.674860
8.744597
9.635687
9.194613
9.853840
9.823442
10.322928
10.585785
11.655688
13.189912
13.546944
14.645457
14.402866
14.509559
14.441609
14.253855
13.777614
12.684464
13.948679
12.512803
13.011694
12.255907
11.952519
11.801720
11.806488
11.828542
11.983514
11.420846
11.579990
11.627674
11.941791
11.824965
12.071729
12.603998
##ZVALUE=285
1.133680
1.085997
1.109838
0.804663
1.193881
1.092553
1.075864
0.936985
1.098514
1.366735
1.243949
1.176000
1.260638
1.354814
1.389980
1.224875
1.484752
1.673698
1.793504
1.941919
2.061725
2.477765
2.896786
3.120899
8.672476
49.281716
118.294954
301.619768
515.642762
929.664969
1015.684605
1015.684605
1015.684605
1015.684605
1015.684605
1015.684605
1015.684605
817.063451
510.334969
233.286619
110.810995
44.925809
38.384795
55.290461
73.505640
103.322864
124.138594
141.098499
145.961642
142.127872
130.616426
107.767582
86.647868
61.839819
43.463707
25.610924
17.451644
11.472702
9.627938
8.367896
8.333921
8.684993
8.642673
8.587837
8.782744
8.584857
9.158850
9.702444
10.128617
11.038780
11.469722
12.328625
12.724996
13.736486
13.830662
13.243556
13.552904
13.594627
12.720823
12.361407
12.555718
12.149811
11.728406
11.325479
11.880994
11.768937
11.348724
11.464953
11.690855
11.681914
11.383891
11.324883
10.444522
11.324883
11.530519
11.301637
##ZVALUE=290
1.241565
1.045465
1.189709
1.204610
0.932813
1.081824
1.164675
1.014471
1.166463
1.103878
1.136661
1.324415
1.317859
1.262426
1.465678
1.635551
1.679659
1.522899
1.678467
1.771450
1.844764
1.877546
1.937747
2.279878
2.787709
3.087521
4.429817
16.918778
81.399679
175.974369
402.881503
685.040951
1002.453566
1015.740037
1015.740037
1015.740037
1015.740037
1015.740037
1015.740037
1015.740037
736.911893
370.577574
186.894536
65.060854
34.434795
36.532879
49.779415
72.978735
92.273951
119.491816
132.041574
141.849518
140.399933
125.390887
108.507872
82.644820
60.672760
38.628578
27.744770
17.283559
12.665987
9.513497
8.665919
8.899570
8.594990
9.218454
9.240508
9.787679
10.041595
10.605454
11.433959
12.559891
12.724996
13.518929
13.259649
12.909770
13.346672
13.061762
12.502670
11.913776
11.936426
11.694431
11.330843
11.342764
11.296868
11.229515
11.218786
10.960698
11.473894
11.416674
11.272430
11.040568
10.914803
10.771751
10.699630
11.130571
##ZVALUE=295
0.917912
0.949502
0.776649
0.833869
0.898838
0.761747
0.887513
1.005530
1.001954
1.015663
1.094937
1.001954
1.229644
1.057982
1.214743
1.430511
1.338720
1.398921
1.324415
1.523495
1.668930
1.562834
1.896620
2.002716
1.940727
2.177954
2.498627
3.020763
3.493428
7.108450
30.004978
128.572583
280.111432
624.000430
966.814756
1015.684605
1015.684605
1015.684605
1015.684605
1015.684605
1015.684605
1015.684605
945.580602
490.509868
258.723497
88.225603
39.662719
24.820566
32.217503
48.829913
65.606833
90.724826
110.233426
130.114555
136.261582
132.942796
122.210979
100.072622
81.939697
57.823658
41.375756
25.233626
17.986894
12.338758
10.105968
9.063482
8.789897
9.609461
9.676814
10.013580
10.750890
11.798739
12.421608
12.687445
12.450814
12.878776
12.268424
12.333989
12.132525
11.548996
11.905432
11.126995
11.188984
11.065602
11.517406
10.834932
11.071563
11.076927
10.735989
10.819435
10.879636
10.794997
10.737777
10.404587
10.429621
10.336637
##ZVALUE=300
0.918508
0.875592
0.890493
0.881553
0.890493
0.851750
0.924468
0.742674
0.919700
0.830889
1.060963
0.883937
1.046658
0.983477
0.946522
1.079440
1.192689
1.146793
1.354814
1.489520
1.390576
1.591444
1.775622
1.572967
1.684427
1.845956
1.983643
2.129674
2.415776
2.540946
2.765656
3.769994
12.954473
81.061721
192.876458
460.851789
765.979886
1015.684605
1015.684605
1015.684605
1015.684605
1015.684605
1015.684605
1015.684605
1015.684605
708.161592
406.066775
163.688660
69.697499
24.090409
20.742416
29.911995
41.520000
63.080788
81.914663
104.806423
119.135976
128.816962
128.368735
116.304755
101.486444
78.386664
60.498714
40.801764
29.051900
17.669797
13.587475
10.947585
10.225773
10.494590
11.172891
11.294484
12.328625
12.358427
12.288690
12.570620
12.405515
12.299418
11.828542
11.686683
11.709929
11.344552
11.583567
11.451840
10.859966
10.885000
10.982752
11.096597
10.525584
10.601878
10.320544
10.448694
10.572672
10.394454
10.518432
10.189414
##ZVALUE=305
0.800490
0.804663
0.983477
0.803471
0.806451
0.884533
0.693798
0.737906
1.062751
0.885725
0.988841
0.810623
1.006722
1.043677
1.030564
1.267791
1.176596
1.224875
1.315475
1.203418
1.112819
1.099706
1.276731
1.566410
1.627803
1.865625
1.657605
1.838803
2.171993
2.055764
2.348423
2.649426
2.802610
3.412962
7.370710
52.581429
142.996907
378.866792
650.129914
1015.684605
1015.684605
1015.684605
1015.684605
1015.684605
1015.684605
1015.684605
1015.684605
998.260975
657.299757
287.134647
126.663446
36.322474
18.281937
20.174980
26.885867
43.030977
57.514906
79.490542
97.106695
114.832520
122.664571
121.268630
112.827420
94.512701
77.733994
55.354834
41.272640
26.175976
19.506812
14.592409
12.323856
12.692809
12.050867
12.340546
12.157559
11.935830
11.917949
11.981726
11.335611
11.232495
11.147857
11.222959
11.165738
11.041760
11.717677
10.925531
11.470914
11.262894
11.253953
11.099577
10.739565
10.508895
10.722876
10.568500
10.363460
10.199547
##ZVALUE=310
0.902414
0.783801
0.957847
0.917912
0.984669
0.654459
0.914931
0.867844
0.849962
0.846982
0.870824
0.724792
0.820756
1.096725
0.772476
0.913739
1.058578
1.081824
1.145601
1.253486
1.122952
1.342893
1.222491
1.295805
1.301765
1.434684
1.477599
1.527667
1.642704
1.808405
1.759529
2.082586
2.164841
2.494454
2.755523
3.047585
3.964901
18.692613
67.659616
233.215690
456.547737
907.853842
1015.670896
1015.670896
1015.670896
1015.670896
1015.670896
1015.670896
1015.670896
1015.670896
957.422853
484.233499
246.766806
75.160861
26.824474
14.597774
17.271638
25.656819
34.737587
53.630471
68.322420
91.389418
104.283690
114.779472
116.688609
108.099580
95.945597
75.534582
59.150457
41.146874
30.465722
20.746589
16.889572
13.551712
12.781620
12.155771
11.649728
11.342764
11.400580
11.203885
10.926723
10.781884
10.953546
11.355877
10.988712
11.183619
11.045933
11.388659
10.829568
11.034608
11.011958
10.627508
10.208488
10.665655
10.210872
10.320544
##ZVALUE=315
0.666976
0.867844
0.661612
0.759959
0.882745
0.793934
0.719428
0.755787
0.770688
0.720620
0.825524
0.816584
1.058578
0.840425
0.951886
0.993609
1.137853
0.952482
1.013875
1.109838
0.985861
1.103878
1.294613
1.290441
1.202822
1.191497
1.252890
1.354814
1.433492
1.474619
1.621842
1.756549
1.693964
1.988411
2.133846
2.301931
2.688766
3.243685
3.311634
7.882714
33.019781
147.832632
331.077576
728.682876
1015.691757
1015.691757
1015.691757
1015.691757
1015.691757
1015.691757
1015.691757
1015.691757
1015.691757
581.704974
316.023827
111.409426
41.071773
14.402866
13.374686
16.925931
21.834970
34.618974
46.936870
66.946745
82.299709
100.088716
107.199550
110.030770
103.503466
91.241598
75.339675
56.530833
42.711496
28.522611
21.898746
15.716553
13.233423
11.842847
11.491776
10.866523
11.045933
11.103749
10.750890
10.912418
10.795593
11.040568
10.927916
10.926723
11.089444
10.889769
10.914803
10.857582
10.441542
10.805726
10.258555
10.047555
##ZVALUE=320
0.827909
0.786781
0.696778
0.816584
0.786781
0.871420
0.854731
0.667572
0.704527
0.749826
0.761747
0.903606
0.712872
0.986457
0.841618
0.888705
0.778437
1.022816
0.921488
0.973940
1.032948
0.968575
0.905991
0.989437
1.284480
1.155734
1.198649
1.267791
1.217723
1.297593
1.319647
1.373887
1.749992
1.633763
1.678467
1.877546
2.003908
2.394915
2.283454
2.751946
3.023744
4.185438
13.513565
78.146458
207.975507
550.486445
912.067890
1015.684605
1015.684605
1015.684605
1015.684605
1015.684605
1015.684605
1015.684605
1015.684605
716.022849
404.546857
167.246461
71.419477
20.262599
12.428761
12.221932
14.351606
20.583868
29.472709
45.743585
59.391856
78.230500
93.706846
104.680657
106.182694
99.996924
88.649988
70.367455
55.706501
39.043427
28.823614
19.753575
15.871525
12.380481
11.587739
11.277795
10.681748
11.039972
10.794997
10.943413
11.082888
10.886788
10.445714
10.758638
10.739565
10.651946
10.423660
10.392666
10.727644
10.690689
##ZVALUE=325
0.646710
0.591874
0.545979
0.783801
0.752807
0.732541
0.983477
0.906587
0.754595
0.756979
0.835657
0.718832
0.780821
0.981688
0.860691
0.814795
0.778437
0.843406
0.756979
0.834465
1.008511
1.011491
0.882745
0.991821
1.059771
0.924468
1.029968
1.214743
1.190901
1.261830
1.344681
1.516938
1.442432
1.483560
1.604557
1.616478
1.704693
1.894832
2.173781
2.290606
2.379417
2.549887
2.915859
3.285408
6.713867
45.333505
125.485063
347.437859
647.262931
1015.684605
1015.684605
1015.684605
1015.684605
1015.684605
1015.684605
1015.684605
1015.684605
942.091942
558.641553
232.741833
104.926825
29.134750
13.564825
10.611415
11.665821
14.888644
19.526482
30.804873
42.585731
61.082840
75.579882
91.422796
98.574758
100.763440
94.867945
81.153512
67.343712
49.838424
37.158728
25.609732
19.949675
14.487505
12.579560
11.377931
11.137724
10.607839
10.859966
10.868907
10.660887
10.665655
10.635853
10.660887
10.572672
10.020733
10.039806
10.370612
##ZVALUE=330
0.725985
0.576973
0.606775
0.625849
0.785589
0.722408
0.640750
0.728965
0.722408
0.689626
0.723600
0.630617
0.646710
0.791550
0.747442
0.851750
0.698566
0.836849
0.679493
0.904799
0.804663
0.890493
0.816584
0.934601
0.839829
1.054406
1.060963
0.872612
1.034737
0.975728
1.164675
1.288652
1.251698
1.293421
1.518726
1.621842
1.567602
1.467466
1.630783
1.892447
1.832843
2.124906
2.230406
2.453923
2.821684
3.457665
4.342794
21.712780
73.846579
247.853994
486.452579
963.322520
1015.687585
1015.687585
1015.687585
1015.687585
1015.687585
1015.687585
1015.687585
1015.687585
771.029592
341.451764
161.721706
51.927567
19.153953
11.096597
10.838509
11.999607
14.510751
20.918846
29.090643
42.136908
55.433512
73.684454
84.217787
92.572570
92.863441
86.275935
76.801777
60.554743
47.706962
34.332871
25.957823
19.156933
15.199780
12.405515
11.881590
10.872483
10.617971
10.394454
10.018945
10.369420
9.965897
10.236502
10.119677
10.070801
##ZVALUE=335
0.644922
0.643730
0.612736
0.608563
0.416636
0.674725
0.710487
0.700951
0.507832
0.710487
0.588894
0.592470
0.622869
0.733733
0.681877
0.799894
0.811815
0.670552
0.647902
0.715852
0.795722
0.807643
0.900626
0.907779
0.887513
0.754595
0.874996
1.041889
0.992417
1.163483
1.065731
1.146793
1.213551
1.061559
1.162887
1.294613
1.195669
1.345873
1.518726
1.637936
1.684427
1.762509
1.828671
1.982450
2.128482
2.381802
2.803802
3.012419
3.576875
10.042787
41.604638
168.429017
354.008675
779.963732
1015.673876
1015.673876
1015.673876
1015.673876
1015.673876
1015.673876
1015.673876
1015.673876
957.524776
474.549532
238.655806
77.657700
28.202534
11.947751
10.960698
10.966659
12.017488
15.154481
19.438863
29.561520
39.375424
54.693818
66.530704
79.717636
86.391568
87.391734
81.915855
71.269870
59.811473
44.590831
35.468936
25.046468
19.488931
14.733672
12.525916
11.209846
10.568500
10.338426
9.962916
10.029674
9.873509
9.992719
##ZVALUE=340
0.642538
0.554919
0.614524
0.624657
0.462532
0.638962
0.690818
0.649691
0.785589
0.662804
0.733733
0.623465
0.819564
0.539422
0.628829
0.807643
0.635982
0.706911
0.774860
0.702739
0.723600
0.803471
0.862479
0.694990
0.837445
0.802875
0.812411
0.967979
0.943542
0.899434
1.033545
1.046658
0.981688
1.151562
1.068711
1.176000
1.200438
1.210570
1.198649
1.477599
1.384616
1.504421
1.465678
1.787543
1.706481
1.956820
2.166629
2.417564
2.428889
2.763867
3.127456
5.307794
18.456578
101.229548
251.432657
614.396930
983.192921
1015.684605
1015.684605
1015.684605
1015.684605
1015.684605
1015.684605
1015.684605
1015.684605
644.368529
341.704488
123.877525
43.764710
14.402866
12.047887
11.482835
11.840463
12.584925
14.527440
19.681454
26.652813
37.982464
49.530864
65.209866
74.231625
80.771446
81.442595
77.464581
69.692731
57.004690
46.218634
34.096837
26.150942
18.213987
14.884472
12.110472
11.088848
10.097623
9.848475
9.735823
##ZVALUE=345
0.665784
0.614524
0.577569
0.541806
0.664592
0.585914
0.669956
0.508428
0.573993
0.620484
0.611544
0.683665
0.823736
0.760555
0.717640
0.603795
0.612736
0.600815
0.762939
0.694990
0.715852
0.825524
0.826716
0.755787
0.647902
0.727773
0.772476
0.785589
0.823736
0.861883
1.156926
0.842810
0.963807
1.024604
1.203418
0.968575
1.172423
1.162887
1.256466
1.206994
1.266599
1.199841
1.386404
1.360774
1.600981
1.560450
1.712441
1.784563
2.009869
2.159476
2.334714
2.878904
2.911687
3.748536
9.334683
64.286590
176.807046
466.284752
805.462599
1015.686989
1015.686989
1015.686989
1015.686989
1015.686989
1015.686989
1015.686989
1015.686989
884.580612
494.415760
186.302662
76.241493
21.673441
12.510419
11.330843
10.688901
10.544658
11.226535
13.239980
16.846657
25.461912
34.097433
47.207475
56.777000
68.016648
73.270798
75.886846
73.211789
65.273643
56.842566
43.935776
35.000443
24.114847
18.737912
13.881922
11.830926
10.255575
##ZVALUE=350
0.715852
0.682473
0.610948
0.700951
0.703931
0.657439
0.633597
0.577569
0.747442
0.543594
0.643730
0.684857
0.778437
0.667572
0.667572
0.595450
0.679493
0.816584
0.628829
0.764728
0.807643
0.705719
0.735521
0.683665
0.800490
0.926852
0.946522
0.933409
1.002550
0.967979
1.133680
0.891685
0.932813
0.957847
0.974536
1.089573
1.092553
1.109838
1.132488
1.144409
1.244545
1.169443
1.320839
1.393557
1.350641
1.353621
1.541972
1.687407
1.798868
1.894832
1.966953
2.267957
2.419949
2.723932
2.942681
3.646612
4.940629
33.212900
108.130574
338.478684
635.283589
1015.684605
1015.684605
1015.684605
1015.684605
1015.684605
1015.684605
1015.684605
1015.684605
1004.737616
653.452873
294.009447
125.639439
30.751824
13.675690
11.207461
10.134578
9.950995
9.711981
10.476708
12.413859
16.947985
21.892786
30.751824
39.155483
51.887631
59.784651
67.954659
69.852471
67.678690
61.515570
51.429868
42.803884
32.366514
25.314689
18.527508
##ZVALUE=355
0.695586
0.705719
0.695586
0.728965
0.635982
0.643730
0.609756
0.664592
0.697970
0.687838
0.691414
0.646710
0.611544
0.736713
0.642538
0.560880
0.574589
0.653863
0.670552
0.777841
0.905991
0.742674
0.922680
0.871420
1.074672
0.903606
0.776649
0.884533
0.817776
0.970960
0.999570
0.915527
1.071692
0.853539
0.770688
0.895858
0.891685
0.979900
1.021624
1.119971
1.243949
1.172423
1.225471
1.371503
1.350641
1.328588
1.421571
1.533628
1.616478
1.752973
1.653433
1.899600
2.195835
2.238750
2.353787
2.704859
3.017783
3.473759
3.883839
14.294982
55.817962
222.630501
465.371013
952.152610
1015.684605
1015.684605
1015.684605
1015.684605
1015.684605
1015.684605
1015.684605
1015.684605
836.054683
371.575952
173.236728
46.266913
17.231703
10.397434
9.894967
9.370446
8.960962
9.285808
9.562969
11.334419
14.263988
19.751787
26.251674
36.350489
44.673681
54.173470
60.072541
63.311458
61.987638
56.996942
50.219893
40.280819
##ZVALUE=360
0.718832
0.568628
0.706911
0.629425
0.694990
0.600815
0.688434
0.713468
0.730753
0.609756
0.793934
0.827909
0.625849
0.742674
0.697970
0.734925
1.007915
0.946522
1.009703
0.790954
0.889897
0.796914
0.844598
0.742674
0.859499
0.940561
0.895858
0.879765
0.815988
0.942945
0.965595
1.076460
1.003742
1.038909
1.146793
1.148582
1.101494
1.028776
1.139641
1.126528
1.183748
1.357794
1.206994
1.342893
1.196861
1.449585
1.425743
1.520514
1.508594
1.613498
1.744628
1.785755
1.819730
1.935959
2.145767
2.387762
2.560616
2.587438
2.940893
3.530979
4.109740
6.821752
23.170710
117.364526
298.863649
757.426023
1015.684605
1015.684605
1015.684605
1015.684605
1015.684605
1015.684605
1015.684605
1015.684605
993.072987
525.234938
274.922848
93.172789
30.926466
11.121631
9.656549
9.338856
9.035468
8.781552
8.668900
8.809566
9.821653
12.618899
16.177893
22.773743
29.048920
39.180517
46.006441
53.981543
57.084560
56.538582
##ZVALUE=365
0.634789
0.718832
0.795722
0.611544
0.806451
0.629425
0.728965
0.644922
0.539422
0.672936
0.816584
0.750422
0.779629
0.642538
0.857711
0.843406
0.735521
0.775456
0.793934
0.838637
0.768900
0.860691
0.780821
0.821948
0.890493
0.870824
0.874996
0.913739
0.879765
0.914931
0.829697
1.070499
0.992417
1.010895
1.021624
1.108646
1.190901
1.097918
0.996590
1.168847
1.179576
1.163483
1.311898
1.323819
1.379848
1.412630
1.384616
1.374483
1.640916
1.631975
1.568794
1.651645
1.925826
1.844764
1.978874
2.048612
2.163649
2.293587
2.656579
2.715588
3.194809
3.676414
4.159808
4.944801
9.813905
60.974956
178.844929
514.801741
953.785777
1015.684605
1015.684605
1015.684605
1015.684605
1015.684605
1015.684605
1015.684605
1015.684605
826.449990
464.925766
171.434879
60.948730
14.274716
10.025501
8.922815
9.147525
8.333921
7.970929
8.124709
8.062720
8.971691
10.513663
14.280677
18.488765
26.152730
32.764673
41.555762
##ZVALUE=370
0.704527
0.645518
0.618696
0.675917
0.586510
0.694990
0.642538
0.743866
0.770688
0.542998
0.625849
0.662804
0.663996
0.726581
0.697970
0.749826
0.779629
0.695586
0.904799
0.625849
0.707507
0.866652
0.776649
0.737906
0.682473
0.716448
0.693798
0.834465
0.715852
0.846982
0.864863
0.822544
0.769496
1.014471
0.978708
0.884533
1.107454
1.057982
1.054406
1.080632
1.155734
1.250505
1.016855
1.196861
1.160502
0.984669
1.120567
1.123548
1.205802
1.297593
1.407862
1.414418
1.435876
1.470447
1.612902
1.691580
1.654625
1.796484
2.023578
2.115965
2.410412
2.560616
2.680421
2.996922
3.387928
3.985763
5.472898
27.598739
102.793574
360.852480
711.078644
1015.679836
1015.679836
1015.679836
1015.679836
1015.679836
1015.679836
1015.679836
1015.679836
826.020837
468.773842
185.013413
82.452893
24.179816
10.753870
8.149743
7.960796
7.568598
7.372499
7.126927
7.006526
7.197857
8.029938
9.525418
11.686683
16.174912
##ZVALUE=375
0.514984
0.657439
0.694990
0.543594
0.640750
0.707507
0.767708
0.627637
0.672936
0.696778
0.514984
0.535846
0.669956
0.640750
0.715852
0.693798
0.691414
0.852942
0.524521
0.662804
0.643730
0.601411
0.636578
0.656843
0.600815
0.710487
0.679493
0.709891
0.754595
0.684857
0.745654
0.884533
0.769496
0.700951
0.877976
0.882745
0.903606
0.861883
0.925660
0.846982
1.100898
0.912547
0.965595
1.010895
0.983477
1.042485
0.903606
1.120567
0.904799
1.075864
1.162887
1.065731
1.122952
1.259446
1.258850
1.408458
1.438856
1.513958
1.542568
1.543760
1.639724
1.943707
2.014637
2.311468
2.453923
2.744794
2.926588
3.526807
4.221797
12.696981
45.392513
182.608962
430.393815
983.000994
1015.684605
1015.684605
1015.684605
1015.684605
1015.684605
1015.684605
1015.684605
975.878835
612.731576
288.630724
139.476657
41.480660
15.043616
8.198619
7.675886
7.317662
7.009506
6.633997
6.439686
6.417632
6.457567
6.734729
##ZVALUE=380
0.467896
0.442863
0.434518
0.478625
0.419617
0.454783
0.407696
0.399947
0.305772
0.420809
0.390410
0.220537
0.401735
0.421405
0.413656
0.486970
0.426769
0.457764
0.601411
0.442863
0.622869
0.409484
0.501871
0.544786
0.507832
0.434518
0.572801
0.401735
0.423789
0.409484
0.309944
0.507832
0.623465
0.623465
0.551939
0.496507
0.655651
0.580549
0.588894
0.562668
0.867844
0.695586
0.668764
0.639558
0.776649
0.662804
0.805855
0.754595
0.750422
0.862479
0.789762
0.778437
0.971556
0.971556
0.915527
1.042485
1.004934
1.240969
1.305938
1.351833
1.264811
1.577735
1.478791
1.534820
1.582503
1.882911
2.062917
2.440810
3.066659
3.434420
3.996491
6.731749
23.774505
122.165680
304.808617
790.660977
1015.569568
1015.569568
1015.569568
1015.569568
1015.569568
1015.569568
1015.569568
1015.569568
868.901014
389.886498
188.956857
59.400797
22.146702
8.590817
7.267594
6.457567
6.239414
6.216764
6.133914
5.899668
##ZVALUE=385
0.468493
0.513792
0.520945
0.642538
0.509620
0.548959
0.382662
0.435710
0.419617
0.275970
0.545979
0.627637
0.543594
0.538826
0.607967
0.566840
0.652671
0.622869
0.496507
0.578761
0.511408
0.494719
0.619888
0.655651
0.529885
0.583529
0.665784
0.648499
0.663996
0.642538
0.743866
0.609756
0.663996
0.636578
0.657439
0.791550
0.655651
0.683665
0.610948
0.863671
0.738502
0.614524
0.797510
0.656843
0.751615
0.702739
0.720620
0.735521
0.795722
0.872612
0.959635
1.019835
1.069903
0.892878
0.879765
1.024604
1.090765
1.106858
1.206994
1.209974
1.198649
1.394749
1.463890
1.485944
1.542568
1.738667
1.950860
2.400875
2.407432
2.885461
3.146529
3.699660
4.007816
4.684925
11.715889
63.436627
169.271827
466.284752
906.946659
1015.684605
1015.684605
1015.684605
1015.684605
1015.684605
1015.684605
1015.684605
1015.684605
722.880960
374.794006
131.711960
46.983957
11.624694
7.494688
6.621480
6.373525
6.146431
##ZVALUE=390
0.383854
0.340939
0.558496
0.590682
0.575781
0.454783
0.510812
0.539422
0.448823
0.484586
0.540614
0.492930
0.455976
0.482798
0.532866
0.624657
0.480413
0.395775
0.422597
0.568628
0.572801
0.452995
0.534654
0.491738
0.395775
0.593662
0.593662
0.550747
0.593662
0.509620
0.649691
0.620484
0.571609
0.491738
0.643730
0.680685
0.771880
0.632405
0.714660
0.647902
0.605583
0.811815
0.749826
0.916719
0.860691
0.796914
0.765920
0.713468
0.717640
0.811815
0.932813
0.880957
0.661612
0.969768
0.907779
0.954866
1.023412
0.961423
1.095533
1.218915
1.218915
1.330972
1.047850
1.242757
1.383424
1.681447
1.638532
1.933575
2.160668
2.279878
2.724528
3.038645
3.024936
3.207922
3.136992
3.678799
6.144643
35.694838
111.573935
347.106457
673.442483
1015.684605
1015.684605
1015.684605
1015.684605
1015.684605
1015.684605
1015.684605
1015.684605
963.273644
544.035435
199.870467
80.747604
18.672943
8.218884
6.239414
##ZVALUE=395
0.470877
0.421405
0.221729
0.379682
0.441670
0.282526
0.485778
0.627637
0.518560
0.570416
0.559688
0.402927
0.413656
0.493526
0.465512
0.683665
0.436902
0.323653
0.602603
0.474453
0.446439
0.549555
0.437498
0.514984
0.549555
0.613928
0.557899
0.514984
0.579953
0.730753
0.642538
0.707507
0.567436
0.636578
0.598431
0.709891
0.664592
0.489950
0.682473
0.641942
0.608563
0.650883
0.589490
0.735521
0.692606
0.868440
0.849962
0.893474
0.841618
0.919700
0.761747
0.859499
0.861883
0.869632
0.805855
0.916719
0.774860
1.077652
0.882745
1.164675
1.218915
1.104474
1.149774
1.239777
1.362562
1.425743
1.634955
1.686811
1.888871
2.168417
2.524853
2.557635
2.525449
2.664924
2.615452
2.612472
2.984405
3.324747
4.231930
22.023916
77.586770
254.559517
489.895940
965.248942
1015.684605
1015.684605
1015.684605
1015.684605
1015.684605
1015.684605
1015.684605
1015.684605
808.776021
360.266566
158.875585
42.231679
##ZVALUE=400
0.411868
0.341535
0.550747
0.357628
0.463724
0.477433
0.656843
0.393987
0.346899
0.375509
0.467896
0.518560
0.491738
0.591874
0.610948
0.516772
0.558496
0.534654
0.506639
0.414848
0.341535
0.497699
0.510812
0.524521
0.528693
0.419617
0.446439
0.574589
0.599623
0.583529
0.519753
0.518560
0.491738
0.597835
0.695586
0.453591
0.515580
0.848770
0.667572
0.711679
0.584722
0.674725
0.567436
0.690818
0.561476
0.836849
0.744462
0.752807
0.721812
0.729561
0.769496
0.877976
0.833869
0.875592
0.883937
0.950694
0.818968
0.948906
0.804663
1.068711
1.155734
1.062751
1.163483
1.124740
1.192689
1.440644
1.489520
1.723766
1.954436
1.966953
2.163649
2.211928
2.326965
2.218485
2.260804
2.211928
2.275705
2.470613
2.528429
2.983809
3.410578
12.702942
47.904849
170.329809
357.155800
777.470469
1015.684605
1015.684605
1015.684605
1015.684605
1015.684605
1015.684605
1015.684605
1015.684605
917.539001
454.652905
##END
