##TITLE=QP00351
##FORMAT=SPECTACLE-ASCII V-1.2
##DATA TYPE=ULTRAVIOLET SPECTRUM
##SECOND TYPE=ULTRAVIOLET SPECTRUM
##DATE=05/07/18
##TIME=15:29:23
##SPECTROMETER/DATA SYSTEM=SPECTACLE
##XUNITS=NM EM
##YUNITS=ENERGY
##YFACTOR=1
##FIRSTX=220
##LASTX=410
##NPOINTS=96
##3DDATA=Equidistant
##ZUNITS=NM EX
##FIRSTZ=210
##LASTZ=400
##ZPOINTS=39
##XYDATA=(Y..Y)
##ZVALUE=210
2.842546
3.156662
2.821684
3.260970
3.029704
3.079772
3.130436
3.493428
3.215671
3.301501
2.884865
3.174543
3.059506
2.698898
3.248453
3.023744
3.180504
3.246665
3.386736
3.341436
3.745556
5.248785
3.819466
4.117489
4.555583
4.323721
5.308986
4.590750
5.930662
5.398989
5.883574
5.351901
5.937815
5.981922
5.836487
7.373691
5.988479
6.713867
6.392598
5.697608
7.445812
6.327629
7.051826
7.786751
7.904768
7.473826
7.494688
7.527471
7.147789
8.281469
6.902814
7.622838
7.951856
8.602738
8.065701
8.825660
9.124875
8.530617
7.998943
7.821918
8.492470
8.503795
8.343458
9.344816
9.699464
9.649992
9.715557
10.581613
11.565685
13.803840
16.657710
18.129945
22.038817
24.684668
26.339889
27.974844
25.643706
25.048852
24.932623
24.813414
22.926927
18.780828
18.228889
16.100407
14.707446
12.394786
10.399818
8.829832
7.792711
7.815957
9.009838
6.878972
8.926988
8.303523
9.330511
9.186864
##ZVALUE=215
7.896423
8.571744
8.004904
6.319880
5.773902
5.648732
5.496740
5.440712
5.952716
5.895495
5.876422
5.025864
4.409552
4.233718
4.512668
3.703833
3.693700
3.683567
4.286766
3.440976
4.262924
4.699826
4.792809
4.730821
4.712939
4.727840
4.792809
4.812479
5.537868
5.747676
6.754994
6.183982
5.871654
6.494522
6.311536
6.771684
7.614493
6.343722
5.967617
6.873608
7.428527
6.345510
7.482767
8.352995
6.772876
8.338690
7.290840
8.122921
8.562803
8.238554
8.151531
8.885860
7.279515
8.677840
8.285642
8.100867
8.625984
8.739829
9.145737
8.503795
9.177923
9.039640
8.934736
9.441972
8.926988
8.392930
10.446906
12.268424
12.431741
14.139414
16.225576
16.857982
21.850467
23.003817
23.589730
24.274588
26.018620
24.349689
23.327470
22.231936
21.789670
18.286705
16.859770
13.764501
12.232661
11.613965
9.782910
9.368658
9.026527
7.803440
8.429885
7.845759
8.608699
9.366870
8.171797
8.822680
##ZVALUE=220
24.407506
26.429892
28.215647
27.868748
23.498535
20.477772
18.212795
13.807416
10.876656
12.315512
12.835860
14.368892
12.216568
11.622906
10.793805
7.348657
6.162524
5.600452
4.780889
4.593730
4.537702
4.525781
4.543662
4.499555
4.732609
4.445910
5.346537
5.546808
6.688833
5.395412
5.782843
6.585717
6.491542
6.265640
6.906986
7.416606
7.458925
6.605983
6.256700
7.146597
6.517768
7.051826
7.012486
7.182956
7.754564
6.675720
8.023977
7.829666
8.015633
7.553697
7.931590
7.695556
7.907748
8.123517
7.580519
8.498430
8.699894
8.330941
9.534955
8.289814
8.586645
8.746982
9.420514
8.281469
10.302663
10.425448
10.869503
11.193752
12.202859
15.151501
14.540553
18.640757
19.016862
22.208691
21.745563
24.837852
22.713542
21.773577
23.274422
20.257831
20.214915
19.470453
16.562939
13.865829
12.078881
10.564923
10.286570
9.349585
9.136796
9.780526
8.152723
7.840991
9.853840
8.265972
8.623600
9.063482
##ZVALUE=225
45.077801
47.308803
58.883429
75.272918
81.063509
80.652833
73.653460
57.891607
43.492913
36.465526
28.823614
24.003983
24.386644
26.787519
26.350617
24.330616
18.558502
16.748905
13.459921
10.246634
7.136464
5.823970
5.035996
6.056428
5.727410
5.475879
4.998446
5.996823
6.592870
6.341934
7.112622
6.583929
6.583929
7.709861
6.997585
7.613897
7.932782
7.524490
7.748604
7.039905
6.884933
8.449554
8.460879
7.817745
8.026958
8.298755
8.488894
8.311868
8.387566
8.349419
9.717941
8.423924
9.800792
8.914471
8.708835
10.115504
8.524656
9.381771
9.090900
9.350777
10.171533
11.497736
10.822415
10.246634
11.015534
10.061860
12.930632
12.448430
13.556480
13.826489
15.918612
17.722845
20.488501
21.557808
21.305680
23.033619
22.156835
21.934509
21.228790
19.812584
18.630624
17.278790
15.689731
14.682412
13.595819
13.091564
11.562705
11.346936
10.622740
10.478497
10.939837
10.702610
10.692477
10.457635
10.191798
9.765625
##ZVALUE=230
40.363669
41.274428
77.962875
106.380582
141.716599
180.017948
196.512938
199.649930
183.632970
142.017007
112.308860
74.765682
55.146813
46.023726
46.177506
47.514439
49.992800
47.756433
43.593645
37.490726
27.443767
19.102693
12.516975
9.727478
6.911755
6.324649
6.857514
7.133484
7.426739
6.377697
6.875992
7.004738
7.434487
7.656813
7.498860
7.978678
7.345676
7.652640
8.336902
8.490682
8.181930
8.077621
8.824468
7.485747
8.227825
8.369684
8.658767
7.739663
9.213686
8.509755
10.597706
8.445978
10.598898
9.871721
9.791851
10.100603
10.413527
11.185408
10.398626
10.326505
10.753870
10.365844
11.238456
11.358857
12.133718
13.485551
13.126731
14.472604
14.855862
16.449690
17.502904
20.018816
21.468997
23.259521
26.168823
25.466681
25.771856
24.061799
22.115707
21.220446
21.748543
18.112659
17.257929
16.592741
16.337633
14.438629
13.838410
13.671517
13.841987
12.798905
12.264848
12.882948
13.184547
13.907552
14.084578
13.788939
##ZVALUE=235
13.577938
16.442537
37.873983
73.126554
138.647556
200.615525
286.967754
354.084969
396.346450
391.356945
339.082479
281.415582
218.243003
137.374997
103.043914
73.103905
70.766807
73.817968
78.721642
82.165003
77.222586
67.903996
50.062537
37.824512
24.457574
17.150640
12.434721
8.941889
7.991791
7.541776
7.798672
7.487535
7.465482
8.583665
8.848906
9.205937
7.476807
9.167790
8.483529
8.720756
8.197427
9.580851
9.266734
10.570884
9.997487
8.983612
9.949803
10.974407
9.377599
9.722710
11.113882
11.588931
10.858774
10.769963
11.071563
11.290908
11.137724
12.297630
12.636781
13.590455
12.833476
13.152957
14.770627
13.920665
15.224814
15.311837
14.571548
16.043782
17.103553
19.652843
20.861626
23.841858
25.174618
25.856495
29.014945
28.125644
29.507875
27.733445
25.727749
27.229786
23.903847
22.584796
21.422505
20.521879
21.398664
17.712712
19.544959
17.319918
17.290711
17.346740
16.708970
16.897917
17.784834
16.250610
17.156601
16.562939
##ZVALUE=240
2.497435
3.055930
6.311536
22.726655
47.874451
108.279586
179.333687
312.492847
425.821543
562.801957
617.372990
622.839928
571.578741
453.902483
351.997018
257.713795
165.059566
121.934414
95.687509
99.021792
112.129450
116.074681
106.551647
100.331903
80.847740
63.523650
50.678849
30.762553
21.925569
14.228821
11.761785
9.942651
9.916425
9.020567
9.618998
9.763837
8.559823
8.238554
9.465814
9.436607
9.342432
8.670688
10.361671
10.022521
8.950830
9.187460
10.790825
9.493828
9.642839
10.387897
9.842515
11.352897
11.166930
12.227893
12.308955
12.748837
11.393428
12.283921
12.281537
12.011528
12.827516
14.527440
13.852715
14.166832
16.231537
15.969872
16.061664
17.311573
18.835664
21.534562
23.168921
25.019646
26.992559
28.819442
32.336712
30.481815
30.633807
30.527711
28.810501
28.113723
26.963949
24.859905
24.942756
22.739768
22.086501
22.176504
20.607710
22.099614
22.285581
21.086931
20.849705
19.646883
21.003485
18.593669
18.344522
21.262765
##ZVALUE=245
2.156496
2.385974
2.443790
2.436638
4.964471
13.505816
47.201514
97.728968
215.866566
336.176753
519.834757
656.916499
747.181773
786.042809
750.082731
630.813837
507.147908
339.459777
240.045786
141.643882
112.107992
101.188421
107.155442
121.638775
127.929449
124.506950
114.214420
93.658566
72.201490
53.432584
37.716627
21.955967
15.288591
10.701418
8.521676
8.567572
8.488894
9.420514
8.957982
8.599758
9.119511
8.081794
8.746982
9.501576
9.075999
7.617474
9.756684
9.176731
9.604692
9.976625
9.656549
9.700656
9.271502
11.383891
10.061860
10.443926
11.015534
10.957718
11.219978
11.834502
11.211634
12.721419
13.243556
13.505816
13.705492
14.447570
16.768575
15.954971
17.643571
19.824505
21.114945
23.073554
24.522543
26.528835
26.424527
28.076768
28.654933
26.318431
25.070906
25.209785
23.913980
23.897886
23.302436
22.419691
21.382570
19.833446
20.355582
20.493865
20.611882
20.342469
20.772815
19.200444
18.862486
19.039512
18.729568
19.512773
##ZVALUE=250
1.722574
1.616478
1.886487
2.034903
1.710653
2.290606
2.940893
9.543896
37.419796
84.994435
199.957490
329.847932
490.817428
691.205859
815.593600
918.215513
908.043981
811.442733
687.537789
475.122929
327.245593
211.597681
121.285915
96.654892
103.863478
114.699602
130.055547
138.016939
133.409500
120.716691
102.458596
80.889463
58.645606
36.847591
25.030971
13.765693
10.278821
7.659793
7.930994
8.493662
8.399487
8.062720
7.719994
7.993579
7.880926
7.778406
7.771850
8.139610
8.376837
8.098483
8.886456
8.928776
9.399652
9.627938
10.430813
9.977818
10.041595
9.922981
11.036992
10.620952
10.771751
10.436773
11.784434
11.794567
12.909770
13.787746
14.249682
13.820529
15.516877
18.225908
18.443465
19.540787
21.601915
23.017526
24.960637
23.351908
24.360418
24.008751
22.831559
21.411777
20.937920
21.020770
21.124482
20.781755
20.098686
19.500852
18.770695
18.868446
20.076632
19.576550
17.704964
18.947721
18.021464
18.367767
19.063950
17.838478
##ZVALUE=255
1.949668
2.072453
1.781583
1.807809
1.736879
2.183914
2.159476
2.229810
2.483726
5.289912
28.759837
69.127679
140.456557
299.529433
462.577939
704.375505
866.423845
1003.865600
1015.768647
979.281664
848.523974
664.520860
419.296026
267.523527
143.148899
104.487538
92.649460
103.618503
124.314427
138.731003
144.953728
140.807629
130.466819
105.108619
83.036423
55.558681
38.558841
23.001432
13.964772
8.988976
8.271933
7.522702
7.031560
6.525517
7.348657
7.624626
7.642508
7.578731
8.453727
8.087754
8.215904
8.979440
8.481741
9.304881
9.562969
9.252429
9.185672
9.298921
9.103417
9.810925
9.769797
10.885000
10.935664
11.601448
11.684895
11.437535
11.498928
12.678504
13.757944
15.757680
15.489459
17.559528
18.103719
19.319654
20.708442
20.971894
21.188855
19.873977
20.041466
19.529462
18.668771
17.885566
18.164515
17.546415
17.228723
17.583966
17.926693
18.198490
16.863942
17.737746
17.420650
17.569661
17.898679
16.753674
17.983913
16.523600
##ZVALUE=260
1.706481
1.519918
2.104640
1.584888
1.630783
1.666546
1.602769
1.863837
1.934767
2.461672
2.464652
3.643632
11.193752
47.830939
108.067989
258.282423
421.769619
675.157905
889.152884
1015.727520
1015.727520
1015.727520
1015.727520
841.321945
557.629466
376.175642
212.545991
131.125450
85.533857
84.956884
100.143552
123.204589
141.370893
151.696801
145.930648
128.477812
108.800530
80.480576
59.596896
37.231445
24.589896
13.691783
10.381937
7.756948
7.271767
7.498860
7.636547
7.201433
7.861853
7.566810
8.343458
9.574890
9.268522
8.765459
8.794665
8.915663
9.630919
9.416938
9.295940
9.960532
10.001659
10.344982
10.350943
10.311604
10.630488
11.027455
10.953546
11.741519
12.901425
14.341474
14.344454
15.927553
16.900897
17.945766
18.613935
18.977523
18.768907
18.024445
17.313957
18.109679
17.045736
16.818643
16.888976
16.320944
16.362667
15.210509
15.964508
15.666485
15.467405
16.863942
15.596747
15.956759
17.147660
16.006827
16.911626
15.760660
##ZVALUE=265
1.089573
1.504421
1.281500
1.528859
1.547933
1.430511
1.493692
1.739860
1.756549
1.834631
1.858473
2.144575
2.278686
2.743602
6.669760
22.838712
86.683631
182.924867
405.200720
629.136562
957.981944
1015.686989
1015.686989
1015.686989
1015.686989
1005.480886
797.387958
496.068597
320.727825
163.985491
98.036528
72.470903
81.805587
108.183622
128.652453
147.930980
154.436827
145.259500
133.960843
105.574727
84.818602
55.939555
38.381815
23.180842
14.845729
9.689927
8.263588
7.972717
8.137822
7.573962
8.289814
8.776784
8.412600
8.631945
9.553432
8.632541
8.738637
9.658933
9.129643
9.712577
9.872913
9.729862
9.499788
9.250641
10.297894
10.116696
10.587573
11.412501
12.395978
13.901591
13.657808
14.883876
15.289783
16.790628
16.851425
16.250610
16.830564
17.232895
15.612841
15.634894
15.661716
14.739633
14.933944
14.979839
14.647841
14.441609
15.027523
14.510751
14.659762
15.118718
14.978647
14.547706
14.903545
14.304519
14.655590
15.284419
##ZVALUE=270
1.243949
1.300573
1.227856
1.172423
1.377463
1.389980
1.305938
1.353621
1.682639
1.348853
1.402497
1.502633
1.626611
2.271533
1.897812
2.044439
3.367662
16.504526
53.328872
172.103643
339.241028
574.112535
971.724987
1015.684605
1015.684605
1015.684605
1015.684605
1015.684605
995.627642
742.302537
494.800806
253.842473
137.648582
70.705414
64.457655
85.316896
106.467605
135.597587
147.025585
157.464743
149.864554
134.027600
114.759803
81.800818
60.506463
35.955906
25.087595
15.226603
10.608435
8.103848
7.834435
8.163452
7.593632
8.279681
8.320808
8.729696
8.418560
9.030700
9.172559
8.599758
9.399652
9.086728
9.046793
9.551644
9.565949
9.845495
10.548830
11.093616
10.855794
12.211800
12.671947
13.380647
14.896989
14.859438
15.336871
15.757680
15.913844
15.005469
15.418530
14.946461
14.145970
13.451576
13.331771
13.533831
13.160706
13.798475
13.814569
13.580918
13.625622
13.417602
13.227463
13.291836
14.200807
13.446808
13.722777
14.180541
##ZVALUE=275
1.192689
1.271963
1.300573
1.185536
1.275539
1.323819
1.104474
1.336932
1.421571
1.401901
1.541972
1.586676
1.629591
1.541972
1.817942
1.987815
2.084970
2.184510
2.655983
6.335974
26.354790
83.564520
259.633660
484.792590
885.636806
1015.667915
1015.667915
1015.667915
1015.667915
1015.667915
1015.667915
970.433950
673.879981
348.533988
194.667578
84.348917
55.950880
61.006546
79.610944
107.406974
127.560496
147.342682
154.606700
148.714781
134.674907
107.102990
84.446669
59.562922
42.481422
24.522543
16.624928
11.142492
8.812547
8.398890
8.148551
8.170605
8.109808
7.799864
7.997751
8.357763
8.768439
9.008646
8.690953
8.553863
9.178519
9.835958
9.260774
10.103583
10.109544
11.341572
12.180805
12.715459
13.198853
14.218688
14.343858
14.654994
14.579892
14.624000
14.349818
13.879538
13.465881
13.358593
12.128949
12.548566
12.413859
12.249947
12.959838
12.704730
12.272596
12.312531
12.584925
11.949539
12.524724
12.640953
12.500882
12.877584
##ZVALUE=280
0.874996
1.128912
1.082420
1.165867
0.916719
1.117587
1.042485
1.211762
1.278520
1.026988
1.433492
1.385808
1.517534
1.342893
1.437664
1.635551
2.043843
1.942515
2.035499
2.456903
2.472997
4.026890
14.014840
69.223642
175.140500
421.559811
684.036016
1015.684605
1015.684605
1015.684605
1015.684605
1015.684605
1015.684605
1015.684605
819.515586
462.516546
264.915824
112.289786
58.537722
44.408441
57.027936
81.246495
104.060769
130.536556
145.314932
151.457787
146.126747
127.916932
109.841824
81.571937
61.401725
39.007664
26.075840
16.292930
11.461973
8.765459
8.410811
8.273721
8.529425
8.476973
7.990599
8.036494
8.691549
8.381605
9.034872
8.914471
9.660721
9.884834
10.666847
11.155605
11.188984
12.357831
12.615919
13.389587
13.420582
13.798475
13.772845
13.028979
13.594627
12.567639
12.524724
12.435913
11.795759
11.906624
11.932850
11.823773
11.482835
12.363791
12.358427
11.583567
11.996627
11.973977
11.933446
11.884570
11.914968
11.686683
##ZVALUE=285
0.995994
0.980496
1.042485
1.112819
0.912547
1.025796
1.156926
1.249909
1.237988
1.484752
1.270771
1.410842
1.393557
1.377463
1.430511
1.520514
1.502633
1.880527
1.636744
1.762509
1.863837
2.202988
2.421737
2.856851
9.090900
30.606985
107.876658
228.036642
502.041578
801.278949
1015.746593
1015.746593
1015.746593
1015.746593
1015.746593
1015.746593
1015.746593
656.531453
401.029587
184.227824
89.944601
39.207935
36.339760
53.887963
73.469877
105.690956
123.387575
141.985416
148.559809
143.128633
132.306814
108.307600
86.351633
60.842633
43.287873
26.414990
17.014742
11.615753
9.395480
8.783937
8.284450
7.900000
8.043647
8.696914
9.487867
9.186864
9.722710
9.590983
10.065436
10.664463
10.812879
12.151599
12.281537
13.080835
12.903810
12.748837
12.908578
12.143850
12.791753
12.063980
11.679530
12.133718
11.865497
11.351705
12.009740
11.232495
10.723472
12.239814
11.288524
11.618733
11.545420
11.425614
11.451840
11.529922
11.890531
11.176467
##ZVALUE=290
0.828505
0.960827
0.829697
0.982881
0.966787
1.061559
1.068711
1.002550
0.916719
1.113415
0.927448
1.134872
1.401901
1.292825
1.328588
1.215935
1.425743
1.250505
1.363754
1.506805
1.509786
1.978874
1.954436
2.081990
2.314448
2.894998
3.241897
16.638637
52.550435
165.529847
316.003561
650.646687
972.023606
1015.684605
1015.684605
1015.684605
1015.684605
1015.684605
1015.684605
838.481784
545.005798
263.746977
135.190487
48.988461
29.466748
35.273433
48.455596
74.270964
94.873905
119.008422
133.888721
142.752528
139.471889
127.602816
107.528567
80.365539
61.022639
39.628744
27.540922
16.418695
12.217760
9.372830
8.660555
8.441806
8.744597
9.104609
8.688569
10.084510
9.862781
10.406971
10.734797
11.425614
11.972785
11.876822
12.135506
12.096763
12.295842
11.729598
11.793971
11.502504
11.652708
11.466742
11.610985
11.170506
11.189580
11.281967
11.543632
10.806918
11.339784
11.468530
10.866523
10.786653
10.559559
10.569692
11.021495
10.961890
##ZVALUE=295
0.665784
1.068711
0.632405
0.809431
0.707507
0.903606
1.013875
0.827909
0.984669
0.988841
0.908971
0.982881
0.994802
0.817776
1.064539
0.999570
1.129508
1.320839
1.152754
1.334548
1.439452
1.334548
1.541972
1.549721
1.569986
1.853704
2.177954
2.225637
2.856851
6.400943
23.787618
99.752545
216.325521
495.247841
784.893036
1015.684605
1015.684605
1015.684605
1015.684605
1015.684605
1015.684605
985.921025
698.941946
364.011526
192.711949
67.979693
32.018423
23.135543
29.992461
48.116446
66.341758
93.367696
109.439492
128.779411
135.986805
136.533976
122.866631
101.286769
80.640912
57.869554
42.171478
25.977492
17.906427
12.288690
9.819865
9.199977
8.640885
8.812547
9.292960
9.973645
10.626912
11.375546
11.484623
11.571646
12.135506
11.929870
11.535883
11.481643
11.471510
11.371970
11.475682
11.068583
11.125803
11.369586
11.311769
10.990500
10.921955
11.410713
11.173487
11.136532
11.029840
10.560751
10.605454
10.764599
10.777712
10.272861
##ZVALUE=300
0.832677
0.725985
0.718832
0.562668
0.873804
0.725985
0.804663
0.819564
0.787973
0.815988
0.803471
0.812411
1.061559
0.748634
0.991821
1.005530
0.915527
0.960827
0.976920
1.236796
1.285672
1.142621
1.221895
1.269579
1.403689
1.677871
1.773834
1.686811
2.099872
2.261996
2.827644
2.906919
12.967587
46.963692
161.356926
318.099856
646.985769
965.569019
1015.684605
1015.684605
1015.684605
1015.684605
1015.684605
1015.684605
843.704939
544.333458
269.588828
142.398477
49.947500
23.368001
20.211935
27.525425
43.695569
60.284734
84.075928
102.751851
122.375488
129.181743
128.225684
119.145513
101.417899
82.232952
59.027672
43.053627
26.387572
18.824935
12.785792
11.000633
9.407997
9.476542
9.932518
10.424852
11.092424
11.356473
11.464953
11.769533
11.011958
11.399984
11.256933
11.364818
11.207461
11.025667
11.157990
11.206865
10.999441
10.708570
11.072755
10.712743
11.203885
10.839701
10.715723
10.883808
10.559559
10.274649
10.237694
10.351539
##ZVALUE=305
0.731945
0.818968
0.825524
0.867844
0.877976
0.862479
0.776649
0.905991
0.785589
0.755787
0.846982
0.836849
0.991821
0.841618
1.008511
0.960827
0.995994
0.942945
1.018643
1.124740
1.171827
0.965595
1.153946
1.041889
1.292825
1.354814
1.396537
1.742840
1.685619
1.711845
1.982450
1.837611
2.284646
2.855659
4.947782
30.641556
85.598826
248.267651
457.183719
853.798985
1015.684605
1015.684605
1015.684605
1015.684605
1015.684605
1015.684605
1015.684605
703.293681
439.009666
198.215842
94.604492
30.711889
16.424656
18.681884
26.064515
41.468740
56.881905
79.770684
98.459721
115.318894
122.442842
121.723413
113.258958
95.032454
78.114867
55.477619
38.942695
26.138425
19.197464
13.021827
11.922717
10.533929
11.017919
11.051893
11.237860
11.240840
11.422634
10.964870
11.315942
10.950565
11.185408
11.123419
11.399984
11.165738
11.327863
11.406541
11.693835
11.242628
11.244416
10.930896
11.249781
10.542870
10.737777
10.421872
10.581613
10.495782
##ZVALUE=310
0.625849
0.675917
0.739694
0.644922
0.933409
0.725985
0.752807
0.643730
0.789762
0.904799
0.882745
0.879765
0.792742
0.932813
0.746846
0.797510
0.935793
0.890493
0.932813
0.872612
0.928640
1.084805
1.005530
1.132488
1.099706
1.270771
1.156926
1.259446
1.514554
1.652837
1.688600
1.733899
1.828671
2.116561
1.985431
2.322793
2.989769
14.291406
49.505830
159.536600
317.497849
662.115812
983.194709
1015.684605
1015.684605
1015.684605
1015.684605
1015.684605
1015.684605
942.772031
622.037649
304.316878
157.250762
51.786900
20.780563
13.242960
16.075969
24.264455
34.224987
52.866936
68.857670
90.614557
104.925632
115.925670
115.994811
107.463002
95.931888
75.320005
57.467818
40.021539
29.500723
19.605756
15.460849
12.600422
11.432767
10.963678
11.248589
10.995865
10.549426
11.048913
10.977983
10.924935
11.218786
11.397600
11.262894
11.328459
11.213422
10.930896
10.652542
10.533929
10.462999
10.877848
10.699630
10.656714
10.467768
10.451674
##ZVALUE=315
0.514984
0.560880
0.686646
0.553727
0.505447
0.476837
0.563860
0.378489
0.447631
0.536442
0.490546
0.582933
0.558496
0.667572
0.667572
0.553727
0.615716
0.799894
0.612736
0.835657
0.619888
0.850558
0.838637
0.807643
1.015663
0.666976
1.007915
1.101494
0.971556
1.148582
1.156926
1.267791
1.400709
1.393557
1.692772
1.900792
1.980662
2.331734
2.615452
7.172823
30.450821
123.690963
261.855721
558.981895
895.694494
1015.506983
1015.506983
1015.506983
1015.506983
1015.506983
1015.506983
1015.506983
822.098851
441.903472
238.227844
84.160566
32.454729
12.495518
11.787415
15.266538
21.280646
34.337640
46.682954
65.980554
83.549619
100.999475
109.337568
111.511946
105.132461
88.942647
75.044632
55.260658
41.189790
27.332902
20.133853
14.703870
12.527704
11.512637
10.988712
10.407567
10.663867
10.531545
10.900497
10.939837
10.793805
10.620952
11.100769
10.937452
11.101961
10.674000
10.684729
10.620952
10.530949
9.969473
9.990931
10.165572
##ZVALUE=320
0.644922
0.618696
0.665784
0.686646
0.679493
0.590682
0.759959
0.859499
0.647902
0.660419
0.613928
0.703931
0.783801
0.842810
0.858903
0.750422
0.831485
0.806451
0.768900
0.817776
0.833869
0.942945
0.931621
1.018643
1.054406
1.045465
1.161695
1.157522
0.948906
1.136661
1.128912
1.239777
1.622438
1.469851
1.682639
1.703501
1.663566
1.889467
1.928806
2.356768
2.561808
3.489852
13.613701
74.800849
182.354450
445.171595
712.409616
1015.684605
1015.684605
1015.684605
1015.684605
1015.684605
1015.684605
1015.684605
1015.684605
595.126748
331.285000
133.465528
54.947734
16.384721
11.183619
11.501908
13.945699
19.953847
28.358698
44.443607
58.584809
80.504417
92.820525
103.938580
105.700493
99.583864
89.151859
69.780946
55.167675
38.059950
28.702617
19.573569
15.274882
12.620687
11.469722
11.223555
10.915995
10.934472
10.756850
10.822415
11.311769
10.660887
10.963678
10.858774
10.830760
10.682940
10.459423
10.542870
10.716915
10.025501
##ZVALUE=325
0.536442
0.635982
0.629425
0.528693
0.682473
0.452995
0.590682
0.618696
0.563860
0.580549
0.804663
0.794530
0.512600
0.664592
0.811815
0.743866
0.791550
0.671744
0.865459
0.893474
0.842810
0.713468
0.903606
0.912547
0.945926
0.916719
0.854731
1.027584
0.897646
1.016855
1.237988
1.192689
1.148582
1.207590
1.263618
1.323819
1.520514
1.571774
1.730919
1.959801
1.887679
2.162457
2.411604
2.712011
9.000897
38.053989
142.711997
288.037658
608.501434
960.154533
1015.684605
1015.684605
1015.684605
1015.684605
1015.684605
1015.684605
1015.684605
786.070824
406.512618
220.197439
76.316595
29.024482
11.341572
10.288954
10.753870
13.175607
19.912720
28.037429
44.674873
59.710741
78.512430
90.622902
99.782944
99.891424
93.588829
83.730817
65.799952
51.455498
35.830736
26.442409
18.341541
14.500618
12.505651
11.618733
11.350513
10.978580
11.317730
11.121631
10.589957
10.774732
10.760427
10.625720
10.496974
10.438561
10.061860
10.088682
##ZVALUE=330
0.478625
0.561476
0.579953
0.672936
0.481606
0.547767
0.539422
0.480413
0.594854
0.565648
0.730753
0.806451
0.850558
0.710487
0.613928
0.638962
0.670552
0.860691
0.826716
0.772476
0.731945
0.724792
0.749826
0.839829
0.775456
0.924468
0.809431
0.764728
1.017451
0.991821
1.128912
1.045465
1.035929
1.279712
1.191497
1.261830
1.277924
1.090765
1.486540
1.569986
1.521707
1.860857
1.816750
2.127886
2.234578
2.815723
3.791451
20.411611
67.687631
220.139623
416.572690
825.155973
1015.684605
1015.684605
1015.684605
1015.684605
1015.684605
1015.684605
1015.684605
862.434506
538.887978
242.908001
120.818615
39.941669
16.475916
10.136962
10.064840
11.150837
13.801455
20.316839
28.435588
42.095780
55.801868
73.951483
85.817575
93.719959
94.375610
87.691545
77.309608
60.694814
48.136711
33.959746
25.873780
18.557906
15.149713
12.483597
11.835694
11.137724
10.419488
10.292530
10.180473
9.927750
10.102987
10.246634
10.327697
9.828806
##ZVALUE=335
0.584722
0.561476
0.547767
0.433922
0.605583
0.579953
0.542998
0.561476
0.559688
0.606775
0.614524
0.561476
0.622869
0.598431
0.594854
0.656843
0.546575
0.679493
0.668764
0.753999
0.736713
0.705719
0.622869
0.859499
0.735521
0.748634
0.715852
0.725985
0.867844
0.787973
0.891685
0.829697
0.906587
0.952482
1.041889
0.942945
1.125932
1.204610
1.271963
1.298785
1.239777
1.338720
1.682639
1.688600
2.024770
2.015829
2.310872
2.401471
3.022552
6.608963
43.107867
122.107863
348.342657
632.320642
1015.684605
1015.684605
1015.684605
1015.684605
1015.684605
1015.684605
1015.684605
1015.684605
694.748759
415.809751
173.004866
75.439811
22.210479
11.620522
10.137558
10.555983
11.838675
14.132857
19.962788
27.239919
39.891601
51.860809
67.937970
78.518987
87.096691
88.765621
81.982613
72.816610
58.939457
48.223734
34.931898
26.848912
19.073486
14.894605
12.564659
11.024475
10.600686
10.480881
9.970665
9.896755
10.030866
9.905696
##ZVALUE=340
0.596642
0.510812
0.458956
0.447631
0.468493
0.495911
0.502467
0.472665
0.607967
0.590682
0.629425
0.559688
0.611544
0.518560
0.522733
0.694990
0.578761
0.506639
0.709891
0.766516
0.704527
0.773668
0.842810
0.824928
0.699759
0.705719
0.780821
0.812411
0.720620
0.820756
0.794530
0.963807
0.797510
0.909567
0.863671
0.934601
1.022816
1.027584
1.144409
1.112819
1.086593
1.330972
1.460910
1.637936
1.598597
1.710653
1.612902
1.753569
1.924634
2.275705
2.654791
4.128814
13.838410
76.197982
191.747546
497.846603
849.632621
1015.684605
1015.684605
1015.684605
1015.684605
1015.684605
1015.684605
1015.684605
968.807936
505.743623
272.103548
101.890564
37.631989
12.530684
10.390878
10.328889
10.452867
11.617541
13.649464
19.480586
26.154518
38.444996
49.652457
65.525770
75.298548
82.527995
82.396865
77.668428
70.188642
57.202578
46.183467
33.668876
26.075840
18.927455
14.440417
11.721849
10.457635
9.682775
9.703636
9.478927
##ZVALUE=345
0.468493
0.570416
0.596642
0.544786
0.458956
0.460744
0.606775
0.598431
0.424981
0.487566
0.507832
0.518560
0.426769
0.506639
0.512600
0.661612
0.503659
0.469685
0.897646
0.584722
0.725985
0.717640
0.755787
0.696778
0.707507
0.937581
0.788569
0.790954
0.604987
0.647902
0.837445
0.781417
0.859499
0.862479
0.924468
0.852942
0.914931
0.880957
0.970960
0.883937
0.931621
0.885725
1.065731
1.178980
1.278520
1.358986
1.483560
1.561642
1.662970
1.824498
2.150536
1.980662
2.581477
3.078580
7.281899
48.645735
134.160519
364.078879
656.265020
1015.692949
1015.692949
1015.692949
1015.692949
1015.692949
1015.692949
1015.692949
1015.692949
675.476789
382.941961
149.376988
65.006614
19.323826
11.242628
10.312796
9.811521
9.989738
10.185838
12.291670
16.018748
25.148988
33.795834
47.754645
57.706833
68.301558
73.800683
76.557994
73.733926
64.873695
56.834817
44.672489
34.402609
23.947954
18.951893
13.849735
11.546612
10.212660
##ZVALUE=350
0.447631
0.410676
0.535846
0.516772
0.674725
0.787973
0.609756
0.514984
0.553727
0.537634
0.455976
0.532866
0.773668
0.544786
0.581741
0.631809
0.659823
0.653863
0.610948
0.695586
0.694990
0.713468
0.582933
0.544786
0.784993
0.672936
0.613928
0.713468
0.873804
0.789762
0.853539
0.794530
0.770688
0.679493
0.917912
0.852942
0.968575
0.845790
1.078844
0.975728
0.948906
1.061559
1.111627
1.099706
1.169443
1.246929
1.261830
1.455545
1.402497
1.514554
1.711845
1.877546
1.965761
2.188683
2.469420
2.726912
4.239678
23.972988
84.968805
274.021626
521.835685
983.521938
1015.685797
1015.685797
1015.685797
1015.685797
1015.685797
1015.685797
1015.685797
777.930617
469.827652
209.226608
91.818571
25.314689
12.179613
9.753704
9.289980
8.929968
8.818507
9.903908
11.440516
16.464591
21.875501
31.433702
39.025545
52.838922
61.554909
68.897605
71.048737
68.088770
62.162876
51.788688
43.575764
32.118559
25.067925
18.280745
##ZVALUE=355
0.461936
0.427961
0.530481
0.624657
0.436902
0.444651
0.357628
0.460744
0.561476
0.575781
0.344515
0.384450
0.406504
0.384450
0.636578
0.603795
0.576973
0.671744
0.699759
0.545979
0.619888
0.611544
0.359416
0.557899
0.601411
0.596642
0.646710
0.594854
0.664592
0.718832
0.514984
0.733733
0.645518
0.722408
0.697970
0.824928
0.819564
0.803471
0.866652
0.945926
0.697970
0.811815
0.887513
0.902414
1.036525
0.902414
1.088977
1.198649
1.151562
1.408458
1.514554
1.580715
1.459718
1.663566
2.000928
2.252460
2.106428
2.684593
3.055930
11.473894
44.410825
175.487399
358.457565
738.746524
1015.571952
1015.571952
1015.571952
1015.571952
1015.571952
1015.571952
1015.571952
962.303877
596.377850
255.128741
120.406747
35.519600
14.344454
9.369850
9.038448
8.496642
8.626580
8.598566
8.922815
11.112690
13.638735
19.629598
26.004910
36.336780
44.254661
54.197907
60.247779
63.399673
62.306523
55.865645
49.638748
39.863586
##ZVALUE=360
0.529885
0.650883
0.734925
0.503659
0.511408
0.460744
0.604987
0.444651
0.611544
0.549555
0.637770
0.524521
0.708699
0.621676
0.681877
0.549555
0.699759
0.613928
0.534654
0.595450
0.656843
0.557899
0.766516
0.771880
0.887513
0.794530
0.688434
0.701547
0.652671
0.801682
0.715852
0.818968
0.753999
0.872612
1.155734
1.007915
0.789762
1.002550
0.989437
0.990629
0.949502
0.930429
1.079440
1.050830
0.988841
1.282692
1.133680
1.150966
1.256466
1.505613
1.398921
1.385808
1.438856
1.590848
1.707673
1.975894
1.744628
1.974702
2.305508
2.818704
3.026724
5.034804
17.776489
84.601641
202.839971
498.161912
824.489594
1015.684605
1015.684605
1015.684605
1015.684605
1015.684605
1015.684605
1015.684605
757.348537
355.673432
176.767707
60.541630
22.102594
9.625554
8.487701
7.993579
8.162856
7.837415
7.962584
8.478761
9.519458
12.040734
15.203953
21.928549
28.860569
39.523840
46.980977
54.471493
56.933761
57.506561
##ZVALUE=365
0.622869
0.566840
0.472665
0.524521
0.561476
0.443459
0.510812
0.619888
0.666976
0.573993
0.590682
0.690818
0.517964
0.714660
0.623465
0.668764
0.773668
0.596642
0.670552
0.738502
0.759959
0.771880
0.528693
0.736713
0.835657
0.767708
0.799894
0.659823
0.837445
0.666976
1.014471
0.851750
0.730753
0.764728
0.901818
0.865459
0.839829
0.935793
0.907779
0.947714
1.007915
0.974536
0.920892
0.942945
1.033545
1.024604
1.137853
1.133680
1.087785
1.208782
1.271963
1.274943
1.402497
1.381636
1.572967
1.652837
1.719594
1.703501
1.965761
2.081990
2.169609
2.590418
2.923608
3.410578
6.653666
41.283965
114.074945
311.585665
585.142970
1015.727520
1015.727520
1015.727520
1015.727520
1015.727520
1015.727520
1015.727520
899.284482
475.651622
251.323581
87.053776
32.241940
10.576844
8.227825
7.889867
7.668734
7.443428
7.225871
7.244945
7.395744
8.212924
9.722710
13.560653
18.191934
26.129484
32.903552
41.361451
##ZVALUE=370
0.512600
0.615716
0.511408
0.558496
0.368953
0.549555
0.430942
0.508428
0.582933
0.537634
0.707507
0.645518
0.561476
0.513792
0.483990
0.501871
0.498891
0.493526
0.494719
0.629425
0.730753
0.537634
0.611544
0.672936
0.626445
0.602603
0.714660
0.659823
0.452995
0.679493
0.749826
0.641942
0.720620
0.650883
0.672936
0.633597
0.764728
0.749826
0.835657
0.663996
0.745654
0.700951
0.652671
0.883937
1.012683
0.881553
0.948906
1.105666
0.996590
0.877976
1.107454
1.126528
1.080632
1.152754
1.210570
1.170635
1.278520
1.320839
1.342893
1.540780
1.662970
1.700521
1.883507
2.287626
2.394915
2.899766
4.084706
20.598769
69.988966
226.776004
425.843000
822.173953
1015.685797
1015.685797
1015.685797
1015.685797
1015.685797
1015.685797
1015.685797
589.622855
318.567753
118.451715
51.547885
16.213655
8.534789
7.234812
6.827712
6.589890
6.799698
6.634593
6.401539
6.823540
7.042885
8.814931
11.308789
16.292930
##ZVALUE=375
0.361800
0.520945
0.553727
0.544786
0.620484
0.443459
0.501871
0.459552
0.479817
0.550747
0.625849
0.415444
0.496507
0.628829
0.502467
0.441670
0.607967
0.540614
0.676513
0.646710
0.646710
0.719428
0.525713
0.502467
0.640750
0.495911
0.539422
0.689626
0.503659
0.504851
0.666976
0.689626
0.494719
0.531673
0.676513
0.669956
0.690818
0.635982
0.619888
0.775456
0.746846
0.776649
0.783801
0.821948
0.800490
0.876784
0.755787
0.776649
0.725985
0.987649
1.002550
0.818968
0.863671
0.910759
0.966787
1.040697
1.280904
1.091957
1.134872
1.126528
1.317859
1.293421
1.587868
1.643896
1.658797
2.051592
2.207756
2.617836
3.168583
10.023713
35.797954
134.632587
288.430452
636.245012
971.794724
1015.679836
1015.679836
1015.679836
1015.679836
1015.679836
1015.679836
788.300633
486.360788
231.433511
109.421611
30.786991
11.759996
7.070899
6.742477
6.269813
6.230474
5.971789
5.742908
5.798936
5.826950
6.671548
##ZVALUE=380
0.446439
0.551939
0.406504
0.462532
0.506639
0.461936
0.408888
0.611544
0.504851
0.588894
0.556707
0.512600
0.505447
0.553727
0.623465
0.582933
0.551939
0.610948
0.461936
0.469685
0.596642
0.273585
0.514984
0.509620
0.489950
0.590682
0.619888
0.480413
0.578761
0.577569
0.557899
0.640750
0.693798
0.727773
0.609756
0.580549
0.660419
0.598431
0.752807
0.798702
0.547767
0.666976
0.741482
0.774860
0.753999
0.768900
0.895858
0.874996
0.671744
0.772476
0.811815
0.796914
0.773668
0.882745
1.007915
1.135468
0.975728
0.925660
1.141429
1.038909
1.201630
1.333952
1.336932
1.335740
1.394749
1.629591
1.862645
1.915693
2.356768
3.112555
3.056526
6.221533
24.333000
111.846924
244.480968
530.131459
855.082870
1015.754938
1015.754938
1015.754938
1015.754938
1015.754938
1015.754938
973.349810
651.796460
306.743979
156.449676
56.208968
20.677447
7.753968
6.271601
6.336570
5.895495
5.626678
5.700588
5.465746
##ZVALUE=385
0.664592
0.527501
0.436902
0.433922
0.584722
0.593662
0.474453
0.531673
0.571609
0.542998
0.656843
0.637770
0.406504
0.524521
0.511408
0.412464
0.508428
0.484586
0.454783
0.756979
0.568628
0.487566
0.551939
0.636578
0.534654
0.535846
0.584722
0.499487
0.561476
0.670552
0.459552
0.749826
0.654459
0.797510
0.683665
0.492930
0.742674
0.693798
0.500679
0.675917
0.774860
0.801682
0.807643
0.708699
0.707507
0.672936
0.708699
0.671744
0.855923
0.834465
0.810623
0.891685
0.906587
0.695586
0.776649
0.925660
0.965595
1.027584
0.973940
1.066923
1.254678
1.146793
1.261830
1.210570
1.289845
1.325607
1.587868
1.733899
1.945496
2.198815
2.462864
2.623796
2.945662
3.745556
11.821985
70.484877
174.103975
420.639515
709.899664
1015.805602
1015.805602
1015.805602
1015.805602
1015.805602
1015.805602
1015.805602
828.027725
438.818932
244.448781
97.179413
36.945939
9.590983
5.994439
5.893707
5.411506
5.340576
##ZVALUE=390
0.361800
0.455976
0.444651
0.484586
0.245571
0.434518
0.450611
0.355840
0.447631
0.355840
0.311732
0.409484
0.448823
0.414848
0.509620
0.406504
0.450611
0.418425
0.432730
0.425577
0.413656
0.458956
0.379682
0.406504
0.482798
0.430942
0.463724
0.520945
0.496507
0.472665
0.652671
0.679493
0.515580
0.457764
0.670552
0.547767
0.665784
0.664592
0.644922
0.489950
0.509620
0.563860
0.465512
0.715852
0.596642
0.719428
0.656843
0.645518
0.688434
0.567436
0.701547
0.730753
0.680685
0.713468
0.697970
0.685453
0.830889
0.878572
0.931621
0.963807
1.014471
0.827909
1.077652
1.160502
1.111627
1.186728
1.461506
1.459718
1.574755
1.852512
1.949668
2.092719
2.342463
2.409816
2.459884
2.942681
5.474687
36.018491
114.048719
337.547660
614.729524
1015.684605
1015.684605
1015.684605
1015.684605
1015.684605
1015.684605
1015.684605
1015.684605
649.444461
371.577740
149.099827
64.985752
17.491579
7.367730
5.576611
##ZVALUE=395
0.339746
0.299811
0.416636
0.571609
0.480413
0.362992
0.366569
0.457764
0.372529
0.351667
0.480413
0.392795
0.456572
0.456572
0.512600
0.454783
0.407696
0.447631
0.504851
0.377893
0.386834
0.431538
0.459552
0.444651
0.481606
0.444651
0.493526
0.500679
0.423789
0.491738
0.566840
0.531673
0.515580
0.580549
0.493526
0.512600
0.733733
0.574589
0.583529
0.698566
0.527501
0.376701
0.542998
0.606775
0.650883
0.581741
0.678897
0.618696
0.523925
0.606775
0.679493
0.611544
0.851750
0.681877
0.682473
0.758767
0.874996
0.783801
0.815988
0.813603
0.898838
1.001954
1.092553
0.852942
1.045465
0.980496
1.371503
1.339912
1.577735
1.728535
1.934767
1.926422
2.072453
2.019405
1.954436
2.179742
2.222657
2.475977
3.854632
13.804436
83.866715
202.806592
479.665995
800.457001
1015.684605
1015.684605
1015.684605
1015.684605
1015.684605
1015.684605
1015.684605
882.127881
466.064811
251.012444
92.459917
36.759973
##ZVALUE=400
0.436902
0.356436
0.439882
0.466704
0.253916
0.480413
0.394583
0.319481
0.426769
0.401735
0.371933
0.357628
0.527501
0.446439
0.348687
0.427961
0.500679
0.306964
0.560880
0.415444
0.483990
0.614524
0.469685
0.285506
0.508428
0.426769
0.560880
0.332594
0.443459
0.486970
0.465512
0.487566
0.590682
0.632405
0.423789
0.445843
0.490546
0.533462
0.545979
0.493526
0.543594
0.514984
0.431538
0.606775
0.634789
0.581741
0.560880
0.631809
0.624657
0.669956
0.647902
0.756979
0.579953
0.610948
0.795722
0.729561
0.650883
0.624657
0.783801
0.799894
0.825524
0.938773
0.988841
0.756979
0.957847
1.027584
1.096725
1.442432
1.476407
1.543760
1.640916
1.884699
1.912713
1.746416
1.649857
1.671910
1.779795
1.881719
2.247691
2.389550
2.965927
6.578565
40.867925
118.694901
337.081552
610.858798
1015.684605
1015.684605
1015.684605
1015.684605
1015.684605
1015.684605
1015.684605
989.632010
565.543771
331.763625
##END
