##TITLE=FQP00602
##FORMAT=SPECTACLE-ASCII V-1.2
##DATA TYPE=ULTRAVIOLET SPECTRUM
##SECOND TYPE=ULTRAVIOLET SPECTRUM
##DATE=03/01/18
##TIME=14:06:52
##SPECTROMETER/DATA SYSTEM=SPECTACLE
##XUNITS=NM EM
##YUNITS=ENERGY
##YFACTOR=1
##FIRSTX=220
##LASTX=410
##NPOINTS=96
##3DDATA=Equidistant
##ZUNITS=NM EX
##FIRSTZ=210
##LASTZ=400
##ZPOINTS=39
##XYDATA=(Y..Y)
##ZVALUE=210
1.831651
2.266765
2.432466
2.168417
2.401471
2.780557
2.080798
2.144575
2.796650
2.579689
2.498627
1.797676
2.017617
1.810789
2.278686
2.481937
2.339482
2.607703
2.622604
2.409816
2.360940
2.304912
2.873540
3.509521
2.868772
2.941489
3.481507
3.590584
4.512668
4.928708
4.207492
4.844666
5.032420
5.057454
5.031824
5.248785
5.748868
5.293489
4.865527
5.643964
5.185604
5.401969
5.305409
5.360842
5.101562
4.165769
5.184412
4.739761
4.397631
4.733801
4.622936
4.641414
5.000830
3.752708
5.044937
4.126430
4.153848
5.090833
5.201697
4.700422
3.837943
4.632473
4.559755
4.692674
5.038977
4.497766
4.571676
4.633665
5.378723
5.849600
6.614923
7.774830
9.294748
10.880828
11.733770
12.617707
11.927485
12.114644
12.318492
12.628436
13.515949
12.181997
10.375977
8.051991
7.153749
6.921887
5.729795
5.155802
3.992915
4.514456
4.592538
4.441738
5.127788
5.772710
5.265474
5.252957
##ZVALUE=215
5.229712
4.528761
5.145669
4.999638
3.782511
3.923774
4.375577
4.593730
4.736781
4.609823
5.492568
5.025864
3.277659
3.689528
2.474785
2.599955
2.494454
2.449751
2.338886
2.121925
2.595782
3.313422
2.606511
2.822876
3.997684
4.426837
3.923774
5.057454
5.071759
5.640984
6.412864
6.009936
6.344914
7.110834
7.292628
6.944537
7.772446
8.034706
7.417798
7.386804
7.598996
7.021427
6.597638
6.466508
6.595850
5.848408
6.372929
5.688667
5.797744
5.268455
5.017519
5.675554
4.840493
5.123615
5.233884
5.451441
4.917979
5.012751
4.198551
4.437566
4.071593
4.751682
4.213452
4.607439
4.788637
5.508661
5.044937
5.566478
6.387830
5.647540
6.359816
6.477833
7.910728
9.651780
9.717941
10.151863
10.140538
10.058880
10.243654
9.642839
10.165572
9.570718
8.600950
6.997585
7.642508
5.991459
4.922748
5.253553
5.579591
4.687905
5.125999
5.328655
4.574656
4.242659
4.823804
4.744530
##ZVALUE=220
15.596747
15.564561
16.441941
16.660690
16.632676
14.045835
13.445616
10.672808
8.658767
10.124445
10.315776
11.653900
11.356473
10.708570
9.595752
6.720424
4.420877
4.312992
3.937483
2.759695
2.789497
2.098680
2.634525
3.057718
3.672838
4.682541
4.491806
6.342530
6.935596
7.868409
9.071827
9.623766
10.405779
10.543466
10.861754
12.131929
11.494756
10.874867
10.589957
10.474920
9.846687
10.149479
10.340810
9.942651
8.451939
8.172989
7.946491
7.406473
6.498694
6.720424
6.862879
6.995797
6.505847
6.029606
5.922914
5.727410
6.601810
5.673766
5.859733
5.344748
5.416870
5.446672
5.645752
5.005598
5.606413
5.699992
4.563928
6.165504
5.594492
6.721616
7.729530
8.247495
7.883906
8.136630
8.615851
8.820891
10.389686
10.880828
9.378791
10.241866
9.536743
8.865595
8.752942
8.107424
7.218719
7.626414
6.411672
5.495548
5.871654
5.992651
5.924702
6.726980
6.331801
6.104708
6.098747
5.528927
##ZVALUE=225
24.217963
25.150776
36.179423
43.562651
49.639940
51.504970
47.537684
39.236546
30.207634
25.267601
21.487474
23.242831
23.325682
24.542809
24.092793
23.624897
19.519925
15.795827
12.232661
8.188486
5.598664
4.415512
3.386736
4.114509
3.892779
5.400777
5.360842
6.626844
7.871985
9.327531
10.256767
11.130571
11.182427
13.627410
13.619661
14.157891
14.135838
13.556480
13.778806
12.137890
13.570786
11.986494
11.812449
12.429953
11.301637
10.155439
10.000467
8.551478
9.598732
9.032488
8.175969
10.420680
8.084774
8.352995
7.367730
7.433891
7.806420
6.852746
7.526875
7.206798
7.283688
7.760525
6.887913
7.913709
6.622672
7.922649
7.776618
8.159876
8.351803
8.560419
9.331703
10.140538
10.413527
11.513829
11.027455
11.302829
11.636615
11.777878
13.192892
11.864901
10.107756
12.162924
10.545850
10.810494
9.678602
10.299683
9.521842
9.575486
9.193420
9.267926
9.577870
9.571910
10.721684
10.173917
9.845495
9.427667
##ZVALUE=230
21.773577
24.832487
40.414929
67.822933
90.763569
112.342834
124.803782
129.763484
123.463869
93.090534
73.006749
53.144693
41.469932
42.250752
43.565631
48.518777
48.198700
47.556758
41.472912
35.676956
24.269819
18.088818
10.492802
7.757545
5.399585
4.925728
5.959868
7.061958
8.285642
8.094907
8.725524
9.924769
11.055470
12.475848
12.883544
11.716485
12.123585
13.623834
13.195872
13.865829
13.387799
13.917685
13.318658
11.957884
12.199879
11.258721
11.511445
10.418892
10.454655
11.011958
9.391904
9.900928
10.855794
9.146929
9.502769
9.336472
9.817481
9.095669
9.723902
9.099841
9.415746
9.870529
9.210706
10.046959
10.890961
10.623932
11.416674
11.177659
12.408495
13.439655
14.334917
14.192462
14.351606
15.833974
16.907454
16.973615
19.418597
18.610954
17.683506
17.979741
16.363859
17.048717
16.619563
15.415549
15.637875
14.743805
16.918778
16.247630
16.522408
16.535521
16.262531
14.006495
15.739799
14.823675
16.258955
15.738606
##ZVALUE=235
9.664893
10.276437
29.148459
50.641894
100.334883
152.008533
227.242708
294.672847
335.733891
342.231989
287.328959
240.416527
182.891488
113.593936
85.768700
68.011880
73.119998
79.964995
78.939795
79.692602
75.819492
63.979626
48.555732
35.602450
23.851991
14.805794
10.194778
7.900000
7.814765
7.767677
7.445812
9.108782
9.641647
10.090470
9.692907
11.007786
11.327863
10.791421
10.726452
11.348724
12.035966
10.915995
11.769533
11.693835
10.732412
11.221766
11.130571
11.449456
11.893511
10.814667
11.301637
10.342598
10.319948
10.732412
10.709763
10.656714
10.674596
10.761619
12.209415
10.833740
11.726618
12.444854
13.693571
14.040470
14.114976
14.532804
14.323592
15.513897
15.981793
18.300414
18.415451
19.789934
21.513700
24.215579
22.746921
22.001863
24.051666
23.573637
25.168657
25.245547
23.758411
24.184585
24.144650
24.190545
24.956465
24.447441
25.455952
24.528503
22.895932
23.250580
24.032593
22.752881
22.178888
22.707582
25.332570
22.397637
##ZVALUE=240
2.471805
1.502633
5.378723
14.219880
46.584606
90.553761
186.606646
285.403728
428.998470
519.150496
574.459434
576.637983
515.784621
404.330492
309.633613
186.844468
133.052468
101.967454
94.513893
103.675723
111.305714
119.115710
113.448501
104.014874
83.560944
70.386529
45.998693
31.593442
18.406510
13.561845
9.509921
9.115934
8.078814
8.935928
9.280443
9.217858
10.203719
11.222959
10.674000
11.090636
11.497736
11.834502
11.328459
12.307763
10.379553
12.302995
11.369586
11.732578
10.317564
10.747910
11.666417
11.333823
12.760758
10.927916
12.366772
11.786819
11.627674
13.817549
12.700558
12.657642
12.655854
13.949871
14.323592
15.368462
15.874505
16.034842
16.501546
19.764900
20.193458
23.113489
22.217631
23.898482
25.939941
28.047562
27.593970
31.117797
30.464530
28.838515
29.569864
30.355453
30.189753
29.284954
28.079748
31.276941
30.548573
28.668642
30.492544
31.293631
28.784871
30.829906
32.607913
29.963851
29.958487
30.112863
32.688975
31.376481
##ZVALUE=245
1.616478
1.993775
1.867414
2.077818
3.668666
9.243488
31.998754
74.413419
172.689557
270.408988
434.326530
539.344549
623.359680
652.752519
616.421700
506.846905
407.884717
258.845687
176.453590
113.046765
97.635984
98.921657
113.620758
125.569701
130.956769
128.279924
110.922456
98.667741
71.265697
55.960417
38.785934
24.729967
16.992688
10.572672
11.060834
9.541512
9.816885
10.795593
11.620522
10.661483
11.806488
11.484623
11.159778
12.773871
11.278987
11.961460
11.861920
11.730790
12.453794
10.522604
10.915995
10.310411
12.006760
10.386705
10.733604
10.890961
10.827780
10.607839
11.483431
11.749864
11.995435
12.570620
12.609959
12.996793
14.389753
15.121698
15.968680
15.852451
17.761588
17.481446
20.056963
21.661520
22.386909
24.015903
24.205446
25.546551
25.345683
26.485920
26.914477
27.947426
27.797818
28.951764
26.996732
27.452707
30.943751
30.125976
29.717684
30.795932
30.913949
30.839443
31.112432
32.019615
31.537414
29.584765
29.942989
31.820536
##ZVALUE=250
1.591444
1.364946
1.539588
1.519918
1.696944
1.562834
2.532601
7.682443
32.602549
68.137646
158.998966
254.127979
365.543962
502.794981
587.390661
628.120899
613.809824
534.460545
439.590812
303.162932
206.988454
139.516592
97.720623
88.208914
106.052756
121.049881
135.466456
143.637657
135.820508
124.646425
102.716684
81.343651
62.854886
40.385723
26.091933
17.210841
14.595985
11.789799
12.579560
13.106465
12.180805
12.568831
12.671947
13.685822
12.925863
12.616515
12.791753
11.964440
12.083650
11.537671
11.930466
11.309981
11.741519
10.918975
11.424422
10.937452
10.444522
11.923909
11.732578
10.947585
11.503696
12.040734
11.396408
12.384653
13.219714
13.610721
13.734698
14.590621
16.724467
16.926527
18.420815
19.515753
20.375848
22.389889
22.666454
22.471547
24.505854
25.359988
25.964975
27.005672
26.937723
28.034449
26.403666
27.549863
28.601885
28.296709
28.095841
30.012727
28.256774
29.546618
31.081438
30.115843
29.609799
30.152798
30.057430
29.040575
##ZVALUE=255
1.187921
1.269579
1.191497
1.458526
1.546741
1.363754
1.587868
1.471639
1.658797
3.361702
16.255975
47.140718
121.872425
207.104683
343.096852
472.249985
609.892011
674.560666
701.926947
640.134811
546.171665
382.338762
273.317695
159.600973
108.358860
84.754825
86.961985
112.288594
129.010677
147.215724
153.380632
150.146484
133.867860
111.986995
92.553496
64.077973
48.236847
30.747652
23.931861
19.220710
16.476512
15.941858
15.985966
16.438961
15.119910
15.203953
14.321804
14.458895
14.432669
13.576746
13.222694
13.001561
12.620687
12.800694
12.810826
11.734962
11.905432
12.270808
11.652708
11.333823
12.199879
11.367798
11.996627
13.016462
12.283921
13.403893
13.216734
13.897419
14.191866
15.891790
16.752481
17.811656
18.631816
19.585490
20.487905
22.025704
23.204684
22.364855
24.444461
25.092959
25.865436
24.709702
25.019646
26.477575
26.463866
25.619864
27.201772
27.596951
26.639700
28.737783
27.323961
27.860999
28.876662
30.391812
28.975606
29.284954
##ZVALUE=260
0.816584
0.793934
1.005530
0.835657
1.119971
1.009703
1.056790
0.982881
1.163483
1.049638
1.382828
1.640916
6.216764
25.558472
60.837865
153.650641
259.578824
428.113937
566.361547
722.931623
773.066878
766.337514
660.874844
523.765683
340.520740
228.758454
136.641860
93.830824
79.346895
88.629723
112.354755
140.505433
155.496597
163.580775
162.104964
146.156549
124.537945
96.163750
76.512694
52.491426
38.206577
28.184652
24.763942
19.940734
19.865632
18.225908
18.162727
16.929507
16.804934
16.218424
16.008615
14.511943
14.560819
14.201999
13.908744
12.637973
12.880564
12.903810
11.906624
12.187958
12.086630
11.704564
11.762977
11.966825
12.775660
13.201833
13.316870
13.890862
14.556646
15.456676
15.890598
16.815662
16.817451
16.920567
19.161701
19.885898
21.224618
20.168424
22.330880
22.132993
22.795796
21.921992
23.226738
23.060441
23.496747
24.907589
24.827719
24.851561
25.612712
26.452541
26.054978
27.001500
26.972890
26.282668
26.866794
28.398633
##ZVALUE=265
0.870824
0.591874
0.889897
0.856519
0.793934
0.938773
1.033545
1.308918
1.369715
1.070499
1.201630
1.371503
1.451969
1.405478
3.112555
15.153885
37.969947
110.489726
215.076804
412.829518
585.078001
746.147633
874.494910
865.944624
752.030611
628.917813
447.416902
310.426950
175.451636
115.735531
83.522797
77.184439
95.215440
126.663446
150.704980
169.407725
176.407695
168.188810
156.325698
125.871897
101.672411
73.427558
56.937933
39.491653
30.457973
24.435520
21.377802
20.136833
19.348860
18.187761
17.337799
16.591549
15.491843
14.205575
14.592409
13.583899
13.139844
13.325810
13.195872
12.307763
12.450814
12.806654
11.912584
12.290478
12.011528
12.388825
12.812614
13.289452
13.762712
15.082955
15.367866
15.907884
16.774535
17.203689
18.708706
19.428730
18.888712
20.159483
20.179749
21.198988
20.717978
22.198558
23.244619
22.550821
23.354888
22.500753
24.019480
24.249554
24.705529
24.770498
24.314523
25.105476
25.076866
26.147962
26.032925
26.183724
##ZVALUE=270
0.967979
1.001954
0.890493
0.859499
0.892878
0.830889
1.024604
0.909567
1.105666
1.132488
1.052618
1.255870
1.178980
1.295805
1.484752
1.645684
1.751781
7.608533
20.397902
71.256757
162.245631
307.092667
558.706522
753.179789
941.275954
982.889533
911.184549
788.374543
578.965545
423.033834
289.475918
158.733726
100.470781
71.467757
76.063871
103.805661
127.467513
155.738592
171.459913
179.006457
172.241926
155.965686
130.758882
99.577904
77.517629
51.168799
39.226413
28.437972
23.762584
20.096898
17.999411
16.988516
17.012954
16.007423
15.904903
14.350414
13.535619
13.115406
12.890697
12.770891
12.585521
12.104511
12.371540
12.514591
12.739897
12.132525
13.303757
12.776852
14.026761
14.413595
15.016794
16.264915
16.173720
17.737746
17.653704
18.442869
18.191934
19.228458
20.284653
20.545721
21.429658
21.746755
21.585822
22.953749
21.580458
22.037625
22.813678
23.219585
23.134947
24.613738
23.157001
23.357868
23.029447
24.414659
24.215579
24.610758
##ZVALUE=275
0.776649
0.853539
0.740886
0.573993
0.659823
0.788569
0.509620
0.796914
0.738502
0.736713
0.937581
0.854731
0.897646
0.866652
0.840425
1.036525
1.152754
1.130700
1.502633
3.702641
12.265444
35.457015
110.832453
221.782923
456.406474
638.341904
851.934552
976.597667
994.544625
905.869603
771.956444
543.965697
375.322700
196.874738
120.732784
69.874525
61.588883
75.031519
94.209909
127.221942
147.154927
166.678429
175.479650
164.867640
149.189830
122.019649
97.951889
70.391893
53.244829
34.930706
26.177764
18.992424
16.596913
14.890432
14.302731
13.044477
13.072491
13.386607
13.136864
12.941957
12.101531
12.026429
11.763573
12.343526
12.284517
12.529492
12.296438
13.751984
13.934970
14.407635
14.610887
16.466975
15.904903
17.119646
17.157793
18.436909
19.160509
18.717647
19.160509
20.711422
19.768476
20.694733
20.609498
20.813942
21.846890
21.984577
21.532774
21.678805
22.745728
22.099614
22.762418
21.836758
22.234917
22.783875
22.760630
23.627877
##ZVALUE=280
0.602603
0.588894
0.728965
0.779629
0.786781
0.498891
0.747442
0.791550
0.838637
0.752807
0.746846
0.800490
0.888705
0.733733
0.979900
0.870824
1.052618
1.090765
1.097918
1.439452
1.525879
1.863837
7.876754
25.218725
82.376599
165.603757
343.628526
537.656546
799.065828
970.800519
1015.750766
1012.471914
890.694857
634.196997
449.366570
245.056748
146.717429
73.169470
49.626827
50.171614
65.148473
92.607737
114.407539
143.439770
157.805681
164.407492
156.658888
139.615536
121.271610
89.152455
67.958832
44.525862
31.370521
20.291805
15.423894
12.196898
11.938810
10.803938
11.360645
11.675954
11.340976
11.706948
12.009740
12.618899
12.701750
12.618899
12.871623
13.317466
13.718605
14.548898
14.563799
15.730858
15.841722
16.757846
17.600656
18.202662
17.976761
18.536448
18.955469
19.594431
19.982457
19.708872
19.744635
20.579696
20.768642
21.485686
21.465421
21.483898
21.090508
21.061897
22.014976
21.640658
21.699667
23.068786
21.723509
22.004843
##ZVALUE=285
0.559688
0.611544
0.503659
0.500679
0.506639
0.549555
0.682473
0.399947
0.670552
0.629425
0.663996
0.720620
0.675917
0.846982
0.704527
0.835657
0.766516
0.812411
0.882745
0.882745
1.037717
1.105666
1.263618
1.537800
3.652573
12.782812
44.293404
92.396736
208.537579
332.925916
517.773628
655.546784
793.683529
832.219720
761.785507
651.831031
461.782813
315.738916
166.847706
101.101995
47.551990
34.430623
40.915608
54.864883
81.443787
103.724003
129.699707
145.378709
153.339505
150.942802
135.113597
114.398599
86.096525
65.484643
43.616891
29.507875
18.677711
13.729930
11.397600
10.646582
10.568500
10.203719
10.787845
11.099577
11.666417
11.780858
12.947917
13.058782
13.535619
14.554858
14.678836
15.208721
16.433597
16.039610
16.402602
17.948747
17.927885
18.464923
18.370748
18.809438
19.754767
19.699931
20.321608
20.435452
21.080971
21.147728
21.393895
21.243691
21.657944
21.528602
21.572709
21.146536
22.123456
21.135807
21.163821
21.645427
##ZVALUE=290
0.501871
0.407696
0.461936
0.399947
0.569820
0.589490
0.419617
0.536442
0.566840
0.495911
0.652671
0.605583
0.521541
0.434518
0.894666
0.857711
0.594854
0.762939
0.787973
0.911951
0.807643
0.872612
0.836849
0.965595
1.199841
1.186728
1.682639
5.311966
22.986531
55.537820
111.543536
234.380960
362.017751
551.523566
663.333535
751.015544
743.018985
641.745925
530.327559
357.269645
237.730742
119.081736
66.242814
30.639768
25.227666
36.076903
50.171614
74.095726
94.669461
120.295882
136.481524
146.401525
143.638849
128.105879
110.026002
82.495809
63.579679
40.233731
28.960705
18.785596
14.080405
11.128783
10.557771
10.775924
11.662841
12.014508
12.429953
13.482571
13.720989
14.235973
15.053749
15.593767
16.586781
16.680956
17.475486
17.948747
18.089414
18.531680
19.223690
19.383430
19.542575
20.039678
20.436645
21.629930
21.280646
21.658540
21.350980
21.182895
21.708608
21.387935
22.016764
21.968484
21.863580
21.465421
21.534562
21.955967
##ZVALUE=295
0.468493
0.576973
0.363588
0.339746
0.549555
0.477433
0.485778
0.401735
0.674725
0.504851
0.304580
0.485778
0.476837
0.443459
0.471473
0.799894
0.427961
0.555515
0.666976
0.693798
0.627637
0.660419
0.779629
0.876784
0.880957
0.916719
1.014471
0.988841
1.454949
2.439618
11.777878
33.365488
92.974901
171.949863
322.212577
453.572869
614.992976
704.894662
732.416511
686.829686
565.672517
436.787009
273.254514
171.789527
80.157518
41.201711
21.416545
20.579696
31.668544
45.557618
68.840981
88.445544
114.960670
129.639506
138.127804
136.000514
121.572614
106.215477
80.173612
61.958432
40.896535
30.297637
19.869804
15.160441
12.691617
12.510419
12.228489
12.750626
13.511777
14.021993
15.126467
15.682578
16.384721
17.510653
17.768741
18.368959
18.864870
19.147992
19.592643
20.205975
20.563602
20.353794
20.736456
21.776557
21.454692
21.522641
22.456646
21.101832
21.983981
21.480918
21.819472
22.035837
21.369457
21.780729
21.641850
21.909475
##ZVALUE=300
0.464916
0.350475
0.396967
0.356436
0.394583
0.504851
0.298619
0.412464
0.554919
0.456572
0.420809
0.608563
0.454783
0.407696
0.461936
0.500679
0.490546
0.431538
0.450611
0.517964
0.611544
0.691414
0.665784
0.756979
0.857711
0.796914
0.851750
0.794530
0.831485
0.958443
1.110435
1.168847
5.242825
17.834902
59.996843
119.363666
242.010951
366.988778
540.934801
643.021464
724.362731
716.908574
623.964667
515.762568
341.565609
224.892497
112.845898
61.250925
25.082827
15.920997
18.937588
26.584864
42.006969
60.505867
84.681511
104.212761
124.107599
131.890774
130.901933
123.393536
102.691650
85.252523
59.570670
44.834614
29.742718
22.271872
17.052889
14.383793
14.232993
14.349818
14.862418
15.780926
16.453862
17.064810
17.777681
18.212795
18.918514
19.405484
20.129681
20.676851
21.177530
21.487474
21.989942
22.366643
22.093654
22.934675
22.626519
22.117496
22.033453
22.480488
22.048950
22.138953
22.247434
21.985769
21.184683
21.885633
##ZVALUE=305
0.391603
0.310540
0.371933
0.386834
0.394583
0.287890
0.288486
0.377893
0.569820
0.593662
0.383854
0.394583
0.426769
0.548959
0.513792
0.580549
0.368953
0.363588
0.479817
0.485778
0.653863
0.639558
0.617504
0.806451
0.809431
0.712872
0.744462
0.925660
0.754595
0.691414
0.803471
0.900626
0.883937
1.277924
2.378821
12.203455
33.431649
96.031427
171.842575
319.283605
447.563529
600.126982
684.712529
716.775656
667.649508
527.907014
413.397551
259.799957
162.056684
74.230433
37.948489
15.750527
12.660623
17.440915
25.305748
41.255951
58.789849
82.607865
99.232793
118.395686
126.739740
124.936700
117.177963
98.400712
81.743598
59.558749
44.348836
29.843450
22.537708
18.273592
16.304851
16.153455
16.778708
17.833710
17.476678
18.451810
19.468665
20.173788
21.038651
21.173954
21.596551
22.122860
22.473931
23.023486
23.414493
22.763610
22.619963
23.207664
22.999644
23.232698
23.114681
22.738576
22.389889
22.784472
22.927523
22.496581
##ZVALUE=310
0.339746
0.319481
0.342727
0.475645
0.345707
0.380874
0.420809
0.338554
0.495911
0.408888
0.444651
0.438690
0.578761
0.399947
0.418425
0.437498
0.483990
0.482798
0.507832
0.561476
0.391603
0.397563
0.350475
0.564456
0.660419
0.632405
0.740886
0.777841
0.807643
0.616908
0.770688
0.642538
0.990629
0.721812
1.077652
1.065731
1.181960
5.194545
17.254949
56.122541
111.458898
234.663486
351.543427
518.812537
622.383952
700.505972
692.747831
600.371957
495.219827
330.966711
220.433474
110.524893
59.558749
23.034811
12.571812
11.592507
14.494658
23.887753
34.438968
54.437518
70.764422
93.936920
108.960867
119.952559
121.935606
112.111568
100.841522
79.986453
62.716603
43.730736
34.498572
24.706721
21.261573
18.836856
18.428564
18.566847
19.614697
19.974709
20.586848
21.414757
22.004843
22.422671
22.965670
23.250580
23.136735
23.404956
23.715496
23.836493
23.758411
23.064613
23.062825
23.293495
22.784472
23.101568
22.883415
22.585988
##ZVALUE=315
0.309944
0.193715
0.176430
0.402927
0.356436
0.378489
0.439882
0.425577
0.301600
0.295639
0.538826
0.326633
0.317693
0.354648
0.345707
0.351667
0.278950
0.341535
0.377893
0.513792
0.365973
0.480413
0.379682
0.380874
0.510812
0.546575
0.457764
0.396967
0.683665
0.628829
0.630617
0.870824
0.734925
0.778437
0.785589
0.876784
0.814795
0.842810
1.174808
1.881719
10.576844
30.436516
87.325573
160.913467
305.586457
432.177782
582.359433
658.221841
690.982938
651.518703
526.625514
409.955978
256.021619
162.467957
74.981451
37.646890
14.008880
9.810925
10.807514
14.141798
22.564530
32.441616
50.390959
66.924691
88.856816
102.986693
114.210844
116.082430
107.415915
95.643997
76.080561
61.977506
45.805573
35.458803
27.277470
23.482442
20.826459
20.644665
21.322966
20.768642
22.278428
22.269487
22.417903
23.173690
23.524761
23.623705
24.070740
24.152994
24.212599
23.689866
24.391413
23.939610
23.605824
23.240447
23.431778
23.386478
##ZVALUE=320
0.377893
0.235438
0.177622
0.318885
0.419617
0.204444
0.333786
0.414848
0.445843
0.399947
0.400543
0.369549
0.303984
0.414848
0.387430
0.317693
0.337958
0.392795
0.384450
0.440478
0.461936
0.348687
0.497699
0.429749
0.462532
0.598431
0.439882
0.512600
0.445843
0.615716
0.524521
0.592470
0.584722
0.556707
0.562668
0.563860
0.612736
0.830889
0.841618
1.025796
1.067519
1.312494
4.058480
20.627975
50.191879
128.504634
212.652683
359.698534
475.698709
604.601502
659.264922
649.755001
587.406754
452.739596
331.045985
187.152624
108.408928
46.557784
23.324490
11.141896
9.560585
11.313558
13.969541
21.039844
31.154752
47.787428
63.598752
83.302855
97.406507
110.467672
111.449957
104.901791
93.284845
75.084567
62.683821
47.268867
37.822723
28.631687
25.159717
22.551417
22.333860
22.591949
22.889972
23.730993
23.197532
24.126768
23.561716
23.881793
23.976564
24.229884
24.306774
23.590922
24.069548
23.649931
23.382902
23.284554
##ZVALUE=325
0.303984
0.230670
0.312924
0.376701
0.265837
0.336766
0.324845
0.372529
0.276566
0.340939
0.394583
0.180602
0.458956
0.446439
0.450611
0.307560
0.352859
0.340939
0.313520
0.167489
0.325441
0.145435
0.439882
0.243783
0.406504
0.529885
0.450611
0.452995
0.399947
0.618696
0.557899
0.606775
0.474453
0.459552
0.570416
0.670552
0.633597
0.474453
0.645518
0.670552
0.684857
0.848770
0.996590
1.010895
2.339482
12.697577
32.857656
88.927746
159.000754
294.110775
410.466790
548.955798
620.205998
646.399856
600.040555
481.304526
364.564657
223.239660
136.343837
61.421990
32.186508
13.645887
9.711981
9.795427
11.283755
15.487671
20.598769
32.169819
45.124888
65.611601
79.995990
96.865892
103.395581
106.723905
101.415515
87.845922
74.750781
57.900548
46.604872
35.579801
29.833913
26.069880
24.405718
23.643970
24.120808
23.534894
23.618937
24.019480
24.142861
23.986697
23.546815
23.336411
23.636818
23.743510
23.348927
23.652911
##ZVALUE=330
0.402927
0.318885
0.251532
0.221729
0.294447
0.207424
0.222921
0.364780
0.309944
0.259876
0.207424
0.286698
0.145435
0.276566
0.380874
0.342727
0.236630
0.325441
0.413656
0.445843
0.506639
0.289679
0.367761
0.313520
0.349879
0.303984
0.413656
0.350475
0.340939
0.276566
0.507832
0.461936
0.474453
0.590682
0.456572
0.524521
0.372529
0.606775
0.516772
0.748634
0.441670
0.702739
0.917912
0.699759
0.777841
1.006722
1.299977
5.344748
17.815828
58.109760
110.823512
224.155784
330.524445
476.775765
568.310618
627.020001
609.135628
512.547493
413.434505
269.882679
174.472928
84.245801
44.716597
18.899441
11.504889
9.864569
10.367632
12.203455
15.057921
22.725463
31.449795
46.280622
60.301423
79.508424
91.669559
99.630952
102.725625
95.331669
87.115765
71.338415
59.044957
43.931603
36.978722
30.587912
26.662946
24.857521
23.557544
23.118854
23.706555
23.349524
23.322701
22.874475
22.806525
22.569895
23.040771
22.979975
##ZVALUE=335
0.448823
0.352859
0.489950
0.485778
0.586510
0.487566
0.445843
0.411868
0.356436
0.498891
0.500679
0.536442
0.413656
0.517964
0.505447
0.390410
0.417829
0.453591
0.627637
0.593662
0.528693
0.566840
0.504851
0.652671
0.476837
0.470877
0.409484
0.608563
0.661612
0.504851
0.553727
0.733733
0.570416
0.576973
0.623465
0.742674
0.592470
0.818968
0.712872
0.754595
0.781417
0.686646
0.936985
0.865459
0.875592
0.978708
1.177788
1.114607
1.212955
2.640486
8.891821
34.558773
74.516535
164.611936
262.994766
416.006446
514.158607
594.427586
607.019663
541.482568
455.801487
313.552618
215.119720
114.012957
60.487986
25.009513
13.896823
10.503531
10.161996
11.239648
12.927651
16.281605
21.752715
32.165647
43.552518
61.322451
73.443651
88.099837
95.152855
97.386837
92.663765
81.067681
70.607662
57.651997
47.856569
37.368536
31.453967
27.010441
24.865866
22.947788
22.581816
22.279620
22.096634
22.324920
22.234917
22.604465
##ZVALUE=340
0.479817
0.269413
0.300407
0.363588
0.548959
0.474453
0.308752
0.376701
0.551939
0.444651
0.372529
0.339746
0.461936
0.349879
0.447631
0.482798
0.339746
0.493526
0.350475
0.447631
0.506639
0.359416
0.494719
0.445843
0.416636
0.363588
0.675917
0.435710
0.424981
0.570416
0.588894
0.466704
0.664592
0.581741
0.356436
0.601411
0.661612
0.616908
0.644922
0.648499
0.647902
0.764728
0.630617
0.604987
0.841618
0.810623
0.786781
1.001954
0.988841
0.736713
1.099706
1.341701
4.168749
21.157861
51.803589
127.215981
213.422775
347.827673
450.632572
551.193953
582.422614
552.685857
482.744575
358.482003
254.217982
135.757923
77.201724
34.502745
17.312765
10.438561
10.136962
11.164546
11.792779
13.563633
16.621947
23.330450
31.677485
44.004917
56.470633
73.793530
84.388852
91.791749
92.856884
88.337660
80.598593
67.713857
56.928992
44.311881
37.143826
29.857755
25.944710
23.353696
22.076964
21.386743
21.672845
21.379590
##ZVALUE=345
0.151992
0.202656
0.138879
0.356436
0.214577
0.296831
0.156760
0.095963
0.055432
0.166893
0.255704
0.282526
0.124574
0.206828
0.301600
0.302792
0.241995
0.246763
0.294447
0.246763
0.205636
0.178814
0.183582
0.342727
0.417829
0.238419
0.429749
0.445843
0.302792
0.323653
0.476837
0.292659
0.276566
0.356436
0.380874
0.214577
0.317693
0.369549
0.468493
0.346899
0.457764
0.336766
0.430942
0.596642
0.395775
0.223517
0.621676
0.552535
0.718832
0.604987
0.689626
0.684857
0.822544
0.858903
2.069473
11.891723
32.148957
86.835623
154.336691
276.336670
378.263593
496.214628
553.529859
560.393929
508.361459
390.697718
292.069912
174.230933
101.440549
43.103695
22.183657
12.142658
10.594726
10.704994
10.935664
12.094975
13.263822
16.508698
21.119714
30.305982
39.850473
55.488944
65.177679
76.659918
82.610846
86.393952
82.928538
76.406002
66.583753
54.451823
44.887662
34.670830
29.049516
24.217963
22.105575
20.512938
##ZVALUE=350
0.234842
0.171661
0.218749
0.285506
0.270605
0.243783
0.138879
0.128746
0.114441
0.011921
0.150800
0.069737
0.073910
0.318885
0.124574
0.283718
0.239611
0.361800
0.156760
0.111461
0.181794
0.169873
0.180602
0.130534
0.202656
0.277758
0.273585
0.251532
0.213981
0.113845
0.282526
0.234842
0.330806
0.206828
0.109673
0.198483
0.312924
0.354648
0.302792
0.345707
0.443459
0.376701
0.401735
0.286698
0.433922
0.343919
0.337958
0.398755
0.496507
0.567436
0.478625
0.590682
0.693798
0.645518
0.725985
0.621676
1.074672
5.497932
18.199682
56.316853
110.163689
217.587948
315.284729
440.297723
515.782833
551.716685
522.523522
430.218577
329.960585
198.025703
123.802423
59.682727
30.560493
13.348460
10.536909
10.166764
10.710955
11.014938
11.967421
13.845563
15.621781
22.075772
27.363896
37.051439
46.714544
60.159564
68.189502
76.738000
79.118609
77.046752
71.975589
60.553551
51.946640
40.633678
33.791661
26.771426
##ZVALUE=355
0.356436
0.282526
0.378489
0.147820
0.303984
0.056624
0.202656
0.125766
0.311732
0.154972
0.113845
0.198483
0.108480
0.162721
0.082850
0.192523
0.244975
0.251532
0.251532
0.205636
0.213981
0.268817
0.314713
0.098944
0.153780
0.300407
0.243783
0.213981
0.366569
0.386834
0.324845
0.522733
0.353456
0.221729
0.331998
0.420809
0.338554
0.455976
0.369549
0.518560
0.262856
0.287890
0.336766
0.402927
0.369549
0.500679
0.442863
0.418425
0.528693
0.563860
0.493526
0.370741
0.458956
0.546575
0.509620
0.746846
0.719428
0.728965
0.928640
2.697706
9.430647
36.527514
75.001717
158.309937
250.015855
384.789705
466.323495
525.351763
521.359444
443.970561
355.155468
232.053995
145.250559
67.423582
35.984516
16.417503
10.589957
9.436607
9.799600
10.512471
10.821819
11.837482
12.598634
15.255809
18.168688
24.629831
31.917691
42.359829
50.924420
61.517954
67.781806
71.623921
70.494413
65.149665
58.128834
48.517585
##ZVALUE=360
0.179410
0.171661
0.118613
0.312924
0.262856
0.148416
0.263453
0.290871
0.179410
0.244975
0.239611
0.265837
0.212789
0.333786
0.359416
0.300407
0.257492
0.327826
0.223517
0.255704
0.230670
0.137687
0.201464
0.322461
0.411868
0.422597
0.273585
0.347495
0.361800
0.316501
0.315905
0.341535
0.144839
0.280738
0.393987
0.318885
0.350475
0.390410
0.270605
0.438690
0.398755
0.329614
0.284910
0.346899
0.351667
0.176430
0.283718
0.331998
0.324845
0.366569
0.381470
0.420809
0.364780
0.427961
0.660419
0.727773
0.622869
0.536442
0.725985
0.797510
1.145601
1.178980
4.968643
16.022921
52.416921
100.740790
200.302005
293.700695
422.076583
489.876866
511.869788
475.735664
381.495953
288.125873
172.026753
105.076432
47.510862
23.846626
11.337996
9.313822
9.506941
9.443760
10.093451
10.267496
10.854602
11.740923
13.132691
15.838742
21.149516
26.189685
35.901666
43.851733
53.978562
60.036778
64.482689
65.143704
##ZVALUE=365
0.259876
0.227690
0.258684
0.380874
0.254512
0.319481
0.398755
0.223517
0.343919
0.124574
0.259876
0.185966
0.275970
0.393987
0.297427
0.300407
0.363588
0.257492
0.294447
0.256896
0.334978
0.309944
0.431538
0.373721
0.188947
0.303984
0.479817
0.415444
0.370741
0.438690
0.745654
0.500679
0.239611
0.312924
0.299811
0.405908
0.484586
0.405908
0.361800
0.331998
0.457764
0.278950
0.314713
0.294447
0.311732
0.394583
0.360608
0.349879
0.549555
0.393987
0.449419
0.451803
0.474453
0.487566
0.442863
0.576973
0.495911
0.515580
0.664592
0.666976
0.740886
0.809431
1.011491
1.091957
1.984835
10.790825
28.292537
75.765848
139.556527
257.458687
347.048640
444.218516
491.231680
480.521917
422.053933
311.546922
221.870542
124.903917
68.794489
27.819872
14.278889
8.585453
8.381605
8.727908
8.829832
9.111762
9.239912
9.952784
10.237694
11.705756
13.577938
18.020868
22.996664
31.019449
38.026571
47.204494
##ZVALUE=370
0.261664
0.207424
0.114441
0.145435
0.071526
0.144839
0.192523
0.103712
0.153780
0.284910
0.189543
0.134706
0.215769
0.188947
0.131726
0.200868
0.134706
0.288486
0.280738
0.088811
0.146627
0.225902
0.196695
0.150800
0.280738
0.269413
0.208616
0.250936
0.289679
0.219941
0.198483
0.249743
0.138879
0.233650
0.259876
0.182986
0.268817
0.218749
0.392795
0.303984
0.271797
0.311732
0.249743
0.251532
0.253916
0.264645
0.287890
0.371933
0.225902
0.317693
0.290871
0.381470
0.363588
0.362992
0.283718
0.294447
0.388622
0.318885
0.509620
0.555515
0.606775
0.559688
0.697970
0.596642
0.646710
0.744462
1.249909
5.476475
17.438531
56.498647
105.853677
203.636885
298.624635
416.947603
479.335785
492.284894
452.748537
356.202722
262.298584
147.897601
84.259510
35.587549
18.571615
10.036826
7.810593
7.694960
7.609725
8.325577
8.323789
8.728504
9.028912
9.839535
10.656714
12.827516
15.438795
20.829439
##ZVALUE=375
0.189543
0.110865
0.142455
0.223517
0.307560
0.373721
0.233650
0.174642
0.259876
0.282526
0.095963
0.088811
0.231862
0.271797
0.043511
0.065565
0.100732
0.265837
0.236630
0.333786
0.305772
0.164509
0.198483
0.126958
0.222921
0.217557
0.271797
0.264645
0.204444
0.227690
0.243783
0.444651
0.145435
0.211596
0.271797
0.411868
0.328422
0.362992
0.293851
0.198483
0.309944
0.281930
0.273585
0.219941
0.305772
0.355840
0.189543
0.186563
0.343919
0.298619
0.327826
0.331998
0.278950
0.339746
0.312924
0.421405
0.436902
0.418425
0.204444
0.400543
0.431538
0.386834
0.307560
0.447631
0.396967
0.492930
0.564456
0.784993
0.850558
2.954602
9.704828
34.045577
72.027445
156.891942
242.778659
357.033014
426.758528
467.531681
452.919602
373.384953
287.943482
176.861882
113.285780
57.431459
30.975938
12.870431
8.004904
7.058978
6.912947
7.444620
7.432699
7.788539
8.014441
8.427501
8.963943
9.455681
##ZVALUE=380
0.259876
0.203848
0.158548
0.200868
0.047684
0.008941
0.192523
0.199676
0.143647
0.090599
0.117421
0.020862
0.107884
0.293851
0.155568
0.102520
0.190735
0.063777
0.258684
0.150800
0.230670
0.127554
0.166893
0.186563
0.183582
0.265837
0.230670
0.344515
0.281930
0.318885
0.138879
0.183582
0.173450
0.336766
0.111461
0.291467
0.146627
0.209808
0.257492
0.185966
0.033975
0.197887
0.351667
0.208616
0.162721
0.309944
0.302792
0.185966
0.154972
0.224710
0.203848
0.225902
0.331998
0.316501
0.411868
0.206828
0.281930
0.365973
0.336766
0.432730
0.374913
0.422597
0.396967
0.409484
0.613928
0.487566
0.571609
0.674725
0.631809
0.686646
0.776649
1.431704
5.089641
23.758411
55.293441
127.160549
205.763578
316.865444
397.560596
460.121632
460.079908
399.688482
324.356556
218.731761
147.360563
73.933601
40.520430
16.600490
9.237528
6.729960
6.613731
6.830692
6.615520
7.123947
7.155538
7.389784
##ZVALUE=385
0.033975
0.102520
0.008941
0.201464
0.272989
-0.048876
0.182986
0.154972
0.118613
0.012517
0.108480
0.014901
0.090599
0.054836
0.225902
0.164509
0.244975
0.145435
0.246763
0.080466
0.168681
0.154972
0.233650
0.141859
0.367761
0.220537
0.277758
0.246763
0.241995
0.217557
0.193715
0.240803
0.218749
0.120997
0.273585
0.239611
0.273585
0.271797
0.268817
0.154972
0.275970
0.331998
0.306964
0.240803
0.161529
0.313520
0.272989
0.175834
0.302792
0.278950
0.300407
0.291467
0.352859
0.242591
0.369549
0.354648
0.189543
0.175834
0.264645
0.405908
0.322461
0.427961
0.415444
0.370741
0.365973
0.473857
0.494719
0.483990
0.539422
0.718832
0.552535
0.615716
0.697970
0.877976
2.797842
9.802580
36.566854
77.783465
166.295767
253.181458
367.250443
426.410437
455.780625
440.206528
368.650556
291.956663
185.514688
118.900537
56.794882
29.672980
12.164712
7.341504
5.772710
5.912781
5.925894
6.081462
##ZVALUE=390
0.088811
0.129938
0.179410
0.051856
0.225902
0.049472
0.238419
0.078678
0.223517
0.150800
0.193715
0.016689
0.133514
0.146627
0.130534
0.148416
0.240803
0.258684
0.322461
0.103712
0.355840
0.234842
0.113845
0.262856
0.043511
0.044703
0.095963
0.172853
0.153780
0.147820
0.269413
0.266433
0.192523
0.341535
0.076890
0.224710
0.208616
0.356436
0.237823
0.272989
0.303984
0.232458
0.279546
0.325441
0.056624
0.380874
0.306964
0.206828
0.408888
0.247955
0.281930
0.215769
0.377893
0.315905
0.270605
0.376701
0.269413
0.282526
0.322461
0.372529
0.189543
0.177622
0.379682
0.289679
0.369549
0.279546
0.322461
0.383854
0.512600
0.491738
0.577569
0.482798
0.575781
0.608563
0.639558
0.774860
1.455545
5.635619
26.065707
59.634447
136.688948
212.785006
317.289829
393.666625
456.087589
465.969443
422.157645
356.351733
246.501565
168.858767
87.463856
46.492815
17.800927
8.690953
5.647540
5.590916
##ZVALUE=395
0.017881
0.115633
0.166893
0.132918
0.113845
0.125766
0.102520
0.098944
0.177622
0.046492
0.152588
-0.040531
0.161529
0.196695
0.149608
0.241995
0.184774
0.208616
0.165701
0.266433
0.156760
0.071526
0.084639
0.186563
0.161529
0.163913
0.113845
0.317693
0.374913
0.224710
0.356436
0.305772
0.277758
0.198483
0.236630
0.364780
0.207424
0.178814
0.353456
0.303984
0.156760
0.255704
0.133514
0.305772
0.320673
0.289679
0.229478
0.149608
0.270605
0.097752
0.193715
0.233650
0.225902
0.052452
0.280738
0.268817
0.257492
0.315905
0.231862
0.301600
0.259876
0.303984
0.483990
0.359416
0.272989
0.329614
0.389814
0.497699
0.490546
0.559688
0.424981
0.471473
0.565648
0.491738
0.545979
0.607967
0.701547
0.794530
0.782609
3.850460
13.719797
47.591925
89.901686
169.294477
250.277519
362.514853
429.695845
476.316810
464.167595
396.566987
315.228701
201.089978
129.640698
57.802796
28.785467
11.184812
##ZVALUE=400
0.204444
0.187755
0.220537
0.125766
0.237823
0.140667
0.077486
0.188947
0.229478
0.175834
-0.003576
0.230670
0.151992
0.174642
0.209808
0.173450
-0.027418
0.238419
0.236630
0.028610
0.277758
0.111461
0.105500
0.150800
0.196695
0.296831
0.255704
0.181794
0.210404
0.186563
0.296831
0.105500
0.307560
0.104904
0.126958
0.234842
0.330806
0.358820
0.375509
0.222921
0.046492
0.292659
0.251532
0.245571
0.172853
0.181794
0.245571
0.159740
0.383854
0.254512
0.270605
0.355840
0.270605
0.353456
0.328422
0.266433
0.194907
0.329614
0.328422
0.278950
0.393987
0.212789
0.249743
0.303984
0.307560
0.343919
0.375509
0.445843
0.390410
0.478625
0.379682
0.653863
0.618696
0.626445
0.434518
0.444651
0.385642
0.579953
0.774860
0.586510
0.670552
2.210736
7.072687
27.799606
59.089661
130.051970
207.201838
317.682624
390.853882
451.840758
459.041595
402.507782
333.006978
229.330659
153.347850
79.675913
##END
