##TITLE=FQP00601
##FORMAT=SPECTACLE-ASCII V-1.2
##DATA TYPE=ULTRAVIOLET SPECTRUM
##SECOND TYPE=ULTRAVIOLET SPECTRUM
##DATE=03/01/18
##TIME=14:03:27
##SPECTROMETER/DATA SYSTEM=SPECTACLE
##XUNITS=NM EM
##YUNITS=ENERGY
##YFACTOR=1
##FIRSTX=220
##LASTX=410
##NPOINTS=96
##3DDATA=Equidistant
##ZUNITS=NM EX
##FIRSTZ=210
##LASTZ=400
##ZPOINTS=39
##XYDATA=(Y..Y)
##ZVALUE=210
2.707839
2.066493
2.281666
2.815723
2.733469
2.253652
3.265738
2.682805
2.984405
3.007650
2.715588
2.573729
2.816916
2.499819
3.469586
2.746582
2.930760
3.896952
3.996491
4.194975
3.930926
3.646612
4.631877
5.850792
5.299449
6.116629
5.883574
6.076694
5.884767
6.031990
5.501509
6.719828
6.500483
6.482601
5.867481
6.870627
6.680489
7.519722
7.499456
6.679893
7.540584
8.242726
7.401705
7.576942
8.313656
8.278489
8.083582
8.822680
8.178949
7.893443
7.849932
8.643866
8.286834
8.773804
9.310842
9.267926
9.188652
9.273887
10.212660
9.822845
10.281801
8.177757
9.982586
10.160804
9.136796
10.162592
10.991693
11.941791
14.352798
16.865730
19.090772
22.821426
27.108788
27.140975
30.805469
33.484697
33.064485
34.400821
31.044483
30.613542
27.724504
25.777817
23.899674
19.827485
17.163754
14.120936
11.600852
10.278821
8.677840
9.204745
9.236932
9.714961
9.225607
9.826422
10.074973
9.847879
##ZVALUE=215
6.177425
7.037520
6.313920
6.407499
5.537868
4.528761
4.649758
5.571842
5.119443
5.577803
4.691482
4.513860
4.487634
3.679991
2.999902
3.278852
3.421903
3.923774
3.689528
3.750920
4.183650
4.474521
4.367828
4.730821
3.872514
4.481673
4.829764
5.553961
5.339980
5.225539
6.718636
5.138516
7.164478
5.787611
6.373525
5.567670
6.980896
6.945729
6.546974
6.316900
7.546544
7.367730
6.998777
6.133914
7.022619
7.100701
7.393956
7.265806
6.405711
7.229447
7.117987
7.553697
6.778836
7.585883
7.008910
7.102489
7.060766
7.816553
8.997917
7.385612
7.448792
6.646514
7.013679
7.885695
7.785559
7.462502
8.850694
9.319782
11.054873
11.330843
14.409423
16.413927
18.776655
21.292567
24.691820
25.670528
26.718974
23.947954
24.866462
24.650693
23.265481
18.248558
18.364787
15.716553
12.414455
12.319684
9.603500
8.142591
8.566976
8.365512
7.770658
8.259416
7.933974
8.574724
7.236600
8.395910
##ZVALUE=220
22.610426
24.934411
25.995970
26.559830
25.478601
19.411445
16.660690
11.728406
10.321736
12.503862
11.535883
12.114644
10.868907
11.758804
10.157824
7.203817
5.560517
5.693436
4.291534
4.252791
4.377961
4.311800
4.575849
4.873872
4.711747
6.052852
6.326437
5.558729
5.654693
6.641746
6.460547
6.545782
6.986856
7.639527
7.937551
8.005500
8.725524
8.129478
7.625818
7.626414
7.570982
7.512569
7.288456
7.560849
8.477569
8.275509
6.496906
7.973909
7.500648
8.163452
8.770823
7.774830
8.188486
8.205771
8.662939
9.197593
8.113980
9.386539
8.120537
8.599758
8.503795
8.505583
8.324981
8.506775
8.578897
9.543896
10.002851
10.947585
11.566877
14.597774
15.573502
17.771721
21.214485
24.324656
26.696920
27.507544
31.104684
30.669570
28.300881
27.595758
29.019713
25.748610
23.489594
20.927787
17.585754
14.495850
12.410879
11.510849
10.157824
9.292960
8.941889
8.920431
9.460449
9.485483
10.180473
9.559989
##ZVALUE=225
49.650669
55.183768
69.287419
86.319447
92.207789
94.390512
81.589818
61.445832
45.590997
34.922957
24.745464
22.177696
24.580956
24.583936
24.969578
24.697781
21.875501
16.720891
14.277697
9.644628
6.191730
5.952716
4.458427
5.224943
5.783439
5.518794
6.176829
6.107688
6.468892
7.264614
8.680820
7.696748
8.466840
8.787513
7.447600
8.724928
9.427667
8.869767
8.953810
9.171963
9.426475
9.282827
9.219646
9.444952
8.568764
9.468794
9.326935
9.135604
9.032488
9.768605
9.209514
10.156631
8.983612
9.573698
9.684563
9.816885
10.716915
9.957552
9.725690
9.393692
9.422898
10.829568
9.355545
10.001659
10.527968
12.324452
12.187958
13.958812
12.850761
16.749501
17.745495
18.646717
21.042824
24.845600
24.800897
25.873780
25.924444
24.696589
24.775863
22.485852
22.243857
22.517443
21.964908
18.940568
18.288493
15.800595
13.731718
14.138818
14.098883
12.988448
11.831522
12.602806
12.050867
12.856722
12.647510
12.672544
##ZVALUE=230
50.308704
52.108765
88.565946
145.998001
195.537806
228.490829
245.782733
228.632689
200.891495
164.700747
108.593702
77.626705
51.139593
44.611692
47.230721
47.384501
53.276420
50.438643
44.051409
35.853982
28.480887
18.533468
13.729930
8.069873
6.509423
6.159544
6.425977
7.216930
7.907748
8.662939
7.055998
8.102655
8.806586
9.137988
8.718967
10.787845
10.473728
9.042621
8.977652
9.485483
9.433627
9.484887
9.274483
9.922981
9.163618
9.069443
8.521676
8.779764
8.782744
8.389950
8.974671
8.993745
9.174943
9.170771
10.354519
9.555817
8.808970
9.755492
10.296702
9.864569
10.342598
10.568500
11.262894
11.997819
11.378527
12.405515
12.378693
13.327599
14.232993
16.297698
17.211437
18.822551
20.808578
24.249554
22.940636
23.954511
25.468469
23.268461
23.211837
23.021698
21.927953
21.473765
19.558668
20.395517
19.525886
19.180775
17.927885
18.583536
17.498732
19.071698
16.769767
18.151999
17.816424
16.731620
16.858578
16.700625
##ZVALUE=235
14.052987
15.580654
35.740733
87.642670
146.264434
234.292746
318.394899
396.435857
427.009463
417.920947
354.451537
285.264850
190.781951
139.188766
90.141892
75.627565
68.867803
73.965788
79.881549
81.765652
78.048706
62.965751
50.494671
33.125877
24.911761
15.509725
10.302663
7.876754
7.589459
7.830858
7.294416
7.876754
7.058978
7.586479
8.212924
7.753968
8.006692
8.572936
8.533597
8.063912
8.014441
9.233952
9.086728
8.468628
8.760691
8.212924
10.033846
9.116530
8.138418
8.734465
9.319782
9.061694
8.804798
9.482503
10.910630
10.109544
10.389686
11.262894
11.651516
12.828708
12.337565
12.180805
12.491941
13.207793
15.042424
13.761520
15.021563
16.321540
18.426776
18.699765
21.517873
21.803975
23.005605
26.886463
27.251840
28.558969
29.526949
28.355718
29.090643
28.823614
27.363896
27.933717
28.009415
24.626851
24.924874
24.606586
25.759935
23.674965
26.937723
25.353432
24.675727
24.299622
22.999644
25.344491
24.541616
23.857951
##ZVALUE=240
2.256632
2.317429
7.858872
21.771789
57.114959
107.705593
220.633745
339.067578
503.856540
602.629781
663.892627
640.223622
572.747588
434.005857
325.392485
205.888748
143.530965
100.579858
91.883540
99.862814
111.956000
114.705563
117.632747
101.580620
83.593726
68.678856
47.337413
33.114552
19.085407
12.670755
8.990765
7.281899
7.346869
7.018447
7.362962
7.646680
7.639527
7.672906
8.814931
7.966757
8.486509
7.851720
8.887649
8.258820
9.514689
8.953810
8.069873
8.697510
8.530617
8.924603
9.146929
9.744763
10.021925
9.675622
9.084940
10.901690
9.730458
10.675788
11.083484
11.572838
11.638999
11.391640
12.342930
13.403893
15.502572
16.243458
17.741919
18.680692
18.721819
21.910667
23.129582
24.553537
26.842952
30.544996
30.542612
30.395985
33.163428
34.848452
32.167435
33.273697
34.092665
34.165978
34.199953
33.248663
33.122897
31.998754
30.070543
30.960441
31.588674
31.852722
31.469464
30.528903
33.411980
32.841563
31.533837
31.565428
##ZVALUE=245
1.567602
1.835823
1.811981
2.048612
5.085468
19.473433
47.712922
125.513673
224.042535
420.422554
569.264889
748.133659
849.691629
860.602856
808.413029
702.061653
519.907475
371.064544
210.189819
144.212842
104.377866
104.045868
117.672682
129.088759
196.185708
127.055645
115.355849
94.555616
76.117516
51.422715
34.681559
20.084977
13.791919
8.759499
7.106662
7.747412
7.284880
6.810427
7.739663
7.106662
7.371902
7.703900
7.522702
8.051991
7.453561
8.694530
7.935762
7.864833
8.596778
7.535815
7.880926
7.591844
7.990599
10.095835
10.175705
9.332895
9.386539
10.120869
10.539889
10.654926
11.723638
11.871457
13.254881
12.753606
14.172792
14.350414
16.578436
17.562509
19.032955
20.084977
21.636486
24.709702
25.332570
26.953816
30.586720
30.720830
30.588508
31.756759
32.217503
32.439828
32.401681
31.941533
31.810999
32.521486
30.739903
30.019879
32.459497
32.237768
31.830668
30.640960
33.360720
30.916929
31.205416
31.278729
31.462908
34.026504
##ZVALUE=250
1.356602
1.215935
1.240969
1.564622
1.795888
2.039671
2.239943
13.029575
37.701726
104.497671
209.385753
409.509540
589.026809
816.555619
943.361521
1010.473967
948.411822
799.837708
641.142726
411.333442
259.558558
168.591738
104.158521
91.186762
105.942488
121.558905
136.482716
139.314532
132.979751
122.787952
100.652575
80.283880
57.641864
33.447742
23.105741
13.755560
9.490848
8.011460
8.033514
7.541776
8.196831
7.549524
8.544922
8.130670
8.115768
8.347631
7.964969
8.083582
7.774830
8.598566
8.030534
8.645654
7.403493
8.300543
8.413792
8.866787
7.898808
9.494424
9.177923
9.845495
10.652542
10.741949
10.252595
11.402965
11.754632
13.046861
12.930632
15.935898
17.247796
17.701983
19.351840
21.186471
23.110509
26.006699
25.678873
26.634932
28.734803
29.364824
28.806925
30.163527
29.618740
29.705763
30.068755
30.262470
30.150414
30.776858
30.165911
30.664802
31.445622
32.907724
31.157732
32.357574
30.583739
30.758977
32.885671
31.013489
##ZVALUE=255
1.408458
1.400709
1.572967
1.183748
1.162887
1.312494
1.610518
1.675487
2.197623
4.833937
24.616718
60.695410
138.645768
333.230495
529.263616
797.271729
973.052979
1015.858650
1015.858650
931.275487
752.479434
559.586883
315.634608
196.707845
106.869936
85.536838
88.841915
105.254650
126.317739
143.079758
148.688555
145.025849
134.454966
106.237531
86.378455
55.881739
38.329959
22.758842
15.808940
10.039806
9.141564
8.307695
9.370446
8.423924
9.213686
8.261800
8.559823
7.997751
8.445978
8.542538
8.447766
8.312464
8.063912
8.125901
8.396506
8.661747
9.064674
9.498596
9.326935
9.059906
9.273887
10.098815
10.332465
10.074973
12.007952
12.178421
12.150407
14.557838
15.477538
17.346740
16.879439
19.921660
21.110773
22.666454
23.248792
25.855899
25.637746
25.512576
26.990771
29.491782
28.383732
26.516914
30.448437
27.607679
28.975606
29.019713
28.252602
28.652549
28.177500
29.908419
30.035973
28.850436
29.804707
29.411912
31.484962
30.670762
##ZVALUE=260
1.093745
1.081824
1.270771
1.300573
1.112819
1.451969
1.407862
1.309514
1.357794
1.559854
1.651645
2.483726
9.142756
26.262403
86.397529
205.134749
443.236828
665.661693
890.640020
1015.750766
1015.750766
1015.750766
912.531018
643.319488
438.899994
240.123868
150.492787
90.617537
77.088475
85.188746
106.934905
135.344863
149.114728
155.369639
152.265429
132.596493
114.653707
84.226727
61.704516
38.743615
25.081635
16.081929
12.088418
9.538531
9.378791
8.630753
9.199977
9.927750
9.420514
9.346604
8.983612
9.100437
9.470582
8.969903
9.411573
8.924603
8.336902
8.917451
9.086728
9.308457
9.629726
9.944439
10.389686
11.163950
11.750460
12.535453
12.958646
13.143420
13.861656
15.821457
17.057657
18.540621
19.954443
21.288991
21.758676
23.783445
24.152994
23.743510
26.050806
26.473999
26.739836
26.365519
26.307702
26.482940
26.772618
27.230978
25.271773
26.624799
27.750731
28.494000
27.564764
28.342605
28.879642
28.885603
28.200746
28.410554
##ZVALUE=265
0.930429
0.834465
0.959635
1.047850
1.083612
1.365542
1.517534
1.457930
0.991821
1.216531
1.344681
1.588464
1.808405
1.960993
4.233718
18.249750
48.758984
145.465732
295.769572
588.054657
849.554539
1015.743017
1015.743017
1015.743017
1000.332832
812.069774
557.982922
359.987617
188.806653
116.707683
71.277618
69.975853
81.860423
113.488436
134.691596
156.461596
162.080526
153.046846
140.231848
110.799670
91.149807
60.681701
42.006969
25.149584
18.854737
12.211800
10.687709
9.808540
10.096431
10.117888
9.177923
9.258986
9.684563
9.684563
8.883476
9.299517
10.044575
10.453463
10.160804
10.106564
10.682940
11.014938
10.675788
11.781454
11.880994
12.374520
11.689663
12.680888
14.131665
15.074611
16.436577
17.976761
18.450618
19.955635
21.128654
21.657944
21.877885
22.613406
23.723841
24.440885
24.362803
24.530888
24.847984
25.099516
24.130940
24.597645
25.558472
25.743842
25.713444
26.041865
25.572777
26.719570
25.918484
26.470423
28.658509
28.556585
##ZVALUE=270
0.856519
1.011491
0.961423
1.097918
0.788569
1.071692
1.009703
1.011491
0.894666
1.065731
1.093745
1.157522
1.410842
1.462698
1.504421
1.530647
2.400875
6.913543
21.665692
74.205995
164.639950
393.110514
628.138781
955.625772
1015.750766
1015.750766
1015.750766
963.366032
750.424862
478.857756
310.505629
146.934986
89.281797
59.127808
62.708855
90.066791
113.321543
139.733553
156.403780
162.352920
156.915784
140.114427
118.179917
86.804628
64.506531
40.018559
27.813911
18.190742
13.821721
10.965466
10.410547
10.121465
9.857416
10.389686
10.205507
10.518432
10.557771
10.215640
10.508895
10.442734
10.879636
11.355877
11.141896
11.312962
12.430549
12.136698
13.094544
13.455749
13.696551
14.770627
15.791655
16.099811
17.669797
18.529892
18.863678
19.913912
20.372868
21.913648
21.264553
22.011995
21.589994
23.427606
22.876859
22.745728
23.713708
24.179816
24.115443
24.475455
23.777485
24.845600
24.791956
25.027990
24.739504
25.673509
25.206804
25.485754
##ZVALUE=275
0.592470
0.811815
0.510812
0.502467
0.581741
0.965595
0.874996
0.893474
0.864863
0.996590
0.841618
0.958443
0.946522
1.126528
0.930429
1.059771
1.381636
1.445413
1.597404
3.434420
13.822913
38.634539
113.376975
220.330954
422.524810
586.785674
773.893595
885.629654
924.426913
864.177942
753.594637
550.693870
388.484597
208.917856
120.402575
62.546730
49.035549
63.970685
84.358454
112.999678
135.532618
156.231523
160.957575
154.074430
140.977502
111.306906
88.739991
61.192513
44.063926
27.113557
19.477606
13.297796
10.488629
9.305477
10.179877
10.063648
10.175705
9.619594
9.284616
10.233521
10.623932
11.143684
11.550784
11.504889
12.206435
13.049841
12.330413
12.632608
14.080405
15.070438
15.631914
16.564727
16.794801
18.440485
18.292665
19.456744
20.673871
20.077825
19.709468
20.363927
21.349788
20.960569
21.049976
21.954775
21.975636
22.785664
23.100972
22.596717
22.256970
22.990704
22.760630
23.264885
23.577809
23.604631
23.514628
24.084449
##ZVALUE=280
0.795722
0.721812
0.640750
0.674725
0.746846
0.600815
0.716448
0.814795
0.772476
0.835657
0.727773
0.761747
0.854731
0.811815
0.976920
0.983477
0.879765
1.283884
1.151562
1.327991
1.260638
1.948476
7.705688
27.251840
85.205436
156.567693
297.378898
448.650718
658.730865
794.959664
910.289884
923.153758
821.767449
692.322850
473.856926
312.187672
161.010623
89.774728
45.833588
44.113994
60.691833
82.671642
112.464428
131.163597
150.870681
156.183839
151.646733
136.690736
112.056732
86.688995
58.656931
42.421818
26.378632
17.694831
12.313724
10.437965
9.976625
9.881854
10.413527
10.109544
10.696650
10.846853
11.504889
11.422634
12.359619
12.660623
12.924671
13.544559
14.483929
15.048981
15.584826
16.481876
17.230511
17.591715
17.810464
18.724799
19.570589
19.002557
20.214915
20.263791
20.995736
21.677613
21.698475
21.159649
22.052526
22.228956
22.094846
22.507906
22.967458
22.342801
22.081733
22.747517
22.065639
22.586584
23.083687
22.861958
##ZVALUE=285
0.740886
0.659823
0.482798
0.469685
0.703931
0.530481
0.615716
0.676513
0.564456
0.694990
0.698566
0.702739
0.825524
0.805855
0.796914
0.773668
0.929832
0.766516
0.918508
0.816584
1.069903
1.247525
1.382828
1.472831
3.477931
16.824603
42.198896
110.080838
193.761587
350.771546
489.091873
675.962567
789.565444
877.918601
868.082643
764.485002
639.184713
421.608686
274.114609
133.090615
68.343878
35.303831
37.185550
55.633783
76.353550
106.960535
126.226544
144.348741
150.096416
146.346688
134.531856
110.186934
86.898804
60.720444
43.540001
26.905537
18.424988
12.320876
10.828972
10.038614
10.406971
11.230707
10.945797
11.480451
11.670589
12.367964
13.290644
13.804436
14.380813
14.786720
15.197992
16.223788
16.558766
17.554760
17.821789
18.556714
18.839836
18.847585
19.860864
20.348430
19.738674
20.738840
21.164417
21.722913
21.706820
21.378994
21.763444
21.975636
21.786690
21.490455
22.741556
22.197962
22.536516
22.735000
21.893978
22.118688
##ZVALUE=290
0.464916
0.352859
0.570416
0.656843
0.615716
0.646710
0.540614
0.676513
0.487566
0.524521
0.576973
0.492930
0.716448
0.826716
0.529885
0.698566
0.827909
0.761747
0.600815
0.943542
0.918508
0.768900
1.099706
1.013875
1.063943
1.227856
1.854897
5.392432
25.466681
60.380697
77.035427
242.910981
379.077792
579.268932
704.768896
841.140747
884.474516
838.145614
749.005675
560.420752
391.474962
206.909776
107.326508
37.371516
25.438666
34.990907
50.038695
74.494481
95.117688
120.733976
136.868954
146.230459
143.914819
127.927661
109.420419
81.291795
60.818791
39.615631
28.330684
18.081665
13.977885
11.303425
10.878444
11.093616
12.174845
12.189746
12.979507
13.096929
13.848543
14.871955
15.414953
15.362501
16.348958
18.227696
17.888546
18.024445
18.410683
18.821955
19.821525
19.966960
20.195842
21.135807
20.948648
21.463633
21.670461
21.905899
21.567941
22.179484
21.183491
22.181869
21.650791
22.203922
21.787882
22.391677
21.722913
21.616817
##ZVALUE=295
0.417829
0.549555
0.344515
0.306964
0.508428
0.474453
0.538826
0.570416
0.469685
0.598431
0.626445
0.619888
0.575781
0.613928
0.576973
0.574589
0.573993
0.537634
0.781417
0.808835
0.867844
0.775456
0.913739
1.072884
1.006722
1.033545
0.969768
1.254678
1.396537
2.569556
8.794665
36.939979
83.504915
198.326707
319.894552
511.887670
651.336908
810.067654
892.641544
925.624967
886.699557
751.555562
578.830838
345.578790
198.922753
68.708658
28.731823
21.588802
29.073954
48.076510
64.279437
91.923475
112.269521
130.165815
139.000416
135.984421
123.370886
102.276802
83.475709
58.941841
43.400526
27.203560
20.307899
14.614463
12.840629
12.204647
12.627840
12.897849
13.777614
14.252663
15.360713
15.937686
16.383529
17.620921
17.456412
18.458962
18.898845
19.303560
19.537807
20.081997
20.508766
20.871758
21.846890
21.366477
21.921992
21.598935
21.791458
22.059679
21.906495
22.094846
21.685958
21.841526
21.538734
21.495819
21.782517
21.616817
##ZVALUE=300
0.501871
0.532866
0.453591
0.534654
0.462532
0.365973
0.352859
0.448823
0.618696
0.664592
0.575781
0.501871
0.502467
0.614524
0.535846
0.341535
0.567436
0.594854
0.706911
0.776649
0.758767
0.662804
0.746846
0.780821
0.891685
0.924468
0.993609
1.044869
1.192689
1.245737
1.237988
1.524687
4.488826
22.386909
55.143833
139.813423
242.365003
424.844623
564.913750
727.326870
834.918618
910.161734
898.388624
798.595548
664.528608
425.274968
269.646645
119.596720
52.310824
18.724799
17.466545
27.483702
39.985776
62.249899
81.274509
107.367635
122.555494
131.530762
131.507516
119.340420
103.525519
79.533458
62.657595
42.417645
31.804442
21.181703
16.468763
14.602542
14.236569
14.445782
15.041828
16.078949
16.003847
17.279983
18.501878
18.748641
18.643737
19.766688
19.854903
20.692945
21.538734
21.442771
21.738410
22.036433
22.622943
22.457838
22.417903
22.674799
22.667646
22.120476
22.277832
21.982789
22.097826
22.149682
22.275448
21.817684
##ZVALUE=305
0.294447
0.278950
0.354648
0.393987
0.577569
0.372529
0.365973
0.317693
0.532866
0.539422
0.320673
0.424981
0.431538
0.581741
0.475645
0.503659
0.498891
0.641942
0.506639
0.598431
0.686646
0.571609
0.698566
0.720620
0.786781
0.512600
0.692606
0.867844
0.876784
0.829697
0.901818
1.003742
1.058578
1.470447
2.375841
12.438893
35.309792
100.423694
184.662938
339.550972
479.098558
650.793910
762.990713
863.696933
881.907940
815.870762
728.086829
547.096729
386.213660
200.232863
99.379420
28.987527
14.422536
17.217994
25.051832
42.274594
58.443546
82.465410
99.711418
119.149685
125.063658
124.909878
116.442442
98.112822
80.837607
58.640838
43.541789
30.399561
23.228526
18.064976
16.979575
16.430616
16.758442
17.434955
17.887950
18.857718
19.740462
20.167828
20.646453
20.924807
21.698475
21.904707
22.334456
22.244453
23.267865
22.464991
22.978783
23.691654
23.010969
23.090839
23.191571
23.307800
21.990538
22.325516
22.522807
22.287965
##ZVALUE=310
0.422597
0.296831
0.317693
0.400543
0.416636
0.490546
0.331998
0.430942
0.536442
0.484586
0.388622
0.589490
0.488758
0.483990
0.556707
0.370741
0.480413
0.352859
0.547767
0.633597
0.466704
0.590682
0.603795
0.584722
0.538826
0.500679
0.778437
0.723600
0.696778
0.639558
0.835657
0.895858
1.022816
1.023412
1.182556
1.115799
1.410842
5.723834
18.178821
60.779452
123.498440
262.495875
404.918790
597.415566
719.840527
815.636516
819.453597
754.149556
667.819977
518.717766
387.537479
235.318542
141.112804
54.638982
21.026731
11.859536
15.369654
24.643540
35.082698
54.627657
71.048737
94.637871
109.037757
119.585991
121.230483
113.133788
100.487471
81.013441
63.637495
44.495463
33.722520
24.972558
21.105409
18.687844
18.507838
19.310713
19.655824
19.891858
20.396709
21.647811
21.656752
21.822453
22.620559
22.790432
22.933483
23.329854
23.849607
23.506880
23.834705
23.447871
23.678541
23.194551
22.864938
22.772551
22.732615
22.610426
##ZVALUE=315
0.369549
0.352859
0.325441
0.355840
0.318885
0.374913
0.361800
0.451803
0.465512
0.332594
0.497699
0.400543
0.393987
0.520945
0.462532
0.369549
0.481606
0.436902
0.276566
0.660419
0.663996
0.464916
0.553727
0.551939
0.570416
0.414848
0.585914
0.689626
0.638962
0.653863
0.594854
0.733733
0.850558
0.816584
0.951886
1.160502
0.882745
1.100898
1.491904
2.667904
10.199547
41.872859
93.171597
222.247839
371.230841
602.845550
747.978687
876.680613
903.983712
821.161866
701.231956
508.223772
370.365977
211.429000
128.078461
55.774450
25.147796
10.845661
11.040568
15.810728
21.370649
35.478473
49.688816
69.997907
87.016821
105.510950
113.804936
114.768744
108.863711
94.201565
79.804659
60.059428
48.018694
34.173727
27.481914
22.886992
21.509528
20.786524
20.735860
21.121502
21.814704
22.172928
22.531748
22.659898
23.237467
23.813844
23.809671
24.312735
23.718476
23.575425
23.681521
23.601651
23.499727
23.150444
23.214817
23.490787
##ZVALUE=320
0.315905
0.429749
0.335574
0.493526
0.437498
0.352859
0.413656
0.495911
0.253916
0.347495
0.402927
0.395775
0.458956
0.481606
0.369549
0.402927
0.423789
0.482798
0.529885
0.593662
0.462532
0.581741
0.353456
0.599623
0.599623
0.304580
0.494719
0.537634
0.539422
0.681877
0.697970
0.674725
0.646710
0.882745
0.718832
0.735521
0.819564
0.983477
0.992417
1.087785
1.337528
1.636744
5.059838
25.479794
65.557957
173.406601
292.577744
488.287807
655.193925
846.563578
921.449661
892.094970
786.615610
581.060648
413.689613
224.447846
127.779841
56.446791
28.343797
12.605786
9.888411
11.450648
14.299750
21.938682
30.610561
48.964620
63.834786
83.990693
99.291801
110.095739
112.247467
104.728937
93.942881
76.428652
61.990619
45.047998
36.485791
28.705597
24.694800
22.746921
22.882819
22.888780
22.645593
23.253560
23.421645
23.486614
23.567677
24.004579
23.553967
23.897886
23.458600
23.514628
23.647547
23.332834
23.633838
23.305416
##ZVALUE=325
0.230670
0.303984
0.362992
0.294447
0.477433
0.446439
0.445843
0.293851
0.183582
0.335574
0.273585
0.265837
0.342727
0.411868
0.360608
0.497699
0.374913
0.199676
0.403523
0.349879
0.494719
0.396967
0.476837
0.376701
0.549555
0.594854
0.401735
0.590682
0.614524
0.534654
0.614524
0.639558
0.723600
0.481606
0.516772
0.707507
0.840425
0.781417
0.582933
0.866652
1.028776
1.036525
1.227856
1.290441
2.736449
14.963746
39.300919
103.438497
185.335875
359.268785
507.395864
700.351596
809.547901
844.434500
779.219866
602.394938
445.925593
266.094804
160.295963
71.384907
35.371780
14.752746
10.115504
9.870529
11.336803
15.981793
20.976663
32.530427
45.327544
64.705610
81.005692
96.830726
104.737878
106.611848
101.282001
86.682439
74.534416
58.657527
46.360493
34.607649
29.032826
24.887919
23.765564
22.409558
22.679567
22.770762
23.299456
22.901893
22.960901
23.287535
22.789836
22.959709
22.604465
22.807717
22.841692
22.996664
##ZVALUE=330
0.313520
0.221729
0.202656
0.158548
0.322461
0.423789
0.343919
0.238419
0.341535
0.268817
0.301600
0.307560
0.416636
0.470877
0.443459
0.307560
0.257492
0.417829
0.320673
0.357628
0.407696
0.364780
0.405908
0.422597
0.378489
0.348687
0.371933
0.416636
0.488758
0.595450
0.423789
0.499487
0.374913
0.619888
0.550747
0.505447
0.595450
0.671744
0.636578
0.701547
0.700951
0.742674
0.936985
0.905991
1.128912
1.065731
1.528859
6.880760
22.150874
70.913434
133.605599
262.305737
380.698442
541.398525
638.406873
701.093674
682.035685
578.974485
467.125773
307.788849
201.135874
96.967816
52.118897
20.979643
11.935830
9.928942
10.428429
12.121797
15.212893
22.876859
30.846596
45.700669
59.446692
79.122782
91.225505
100.200772
103.119612
96.240640
86.512566
70.674419
57.399869
43.723583
36.677718
29.180646
26.610494
23.725629
22.763610
22.601485
22.593737
22.087693
22.366643
21.637678
22.003651
21.923780
21.990538
22.078753
##ZVALUE=335
0.297427
0.292659
0.160933
0.293851
0.436902
0.372529
0.324845
0.360608
0.233650
0.386834
0.284910
0.235438
0.300407
0.215769
0.207424
0.196695
0.285506
0.318885
0.292659
0.371933
0.483990
0.284910
0.324845
0.352859
0.436902
0.420809
0.353456
0.416636
0.299811
0.374913
0.285506
0.335574
0.356436
0.318885
0.393987
0.701547
0.575781
0.473857
0.432730
0.691414
0.865459
0.600815
0.726581
0.769496
0.850558
0.810623
0.897646
0.914931
1.140833
3.289580
12.179613
49.076676
100.330710
220.297575
342.810750
521.231890
638.262630
726.288557
726.884604
639.939904
534.886718
366.066694
250.401497
134.264827
72.972775
27.871728
14.745593
10.389686
10.142922
11.099577
12.620687
16.319752
21.543503
32.179952
43.356419
60.865879
74.120760
87.704659
95.326900
96.579790
92.429519
80.415606
69.893599
56.276917
46.622753
36.212802
30.036569
25.364757
23.368597
22.227764
21.198988
21.389723
21.445751
20.989776
21.203756
21.037459
##ZVALUE=340
0.150800
0.179410
0.071526
0.392795
0.223517
0.328422
0.233650
0.206828
0.375509
0.419617
0.285506
0.336766
0.195503
0.319481
0.376701
0.207424
0.208616
0.132918
0.280738
0.318885
0.228882
0.194907
0.374913
0.450611
0.420809
0.400543
0.461936
0.411868
0.540614
0.344515
0.424981
0.489950
0.560880
0.408888
0.415444
0.409484
0.534654
0.593662
0.512600
0.507832
0.481606
0.622869
0.650883
0.511408
0.618696
0.536442
0.683665
0.867844
0.824928
0.809431
1.108646
1.606941
5.352497
27.618408
67.063570
169.144869
279.978514
451.859832
580.224991
692.754984
726.778507
669.633746
577.104688
427.846909
303.004980
164.265633
94.566941
40.807724
19.293427
11.139512
10.155439
10.850430
11.409521
13.726950
16.276836
23.229718
30.089617
44.032931
55.769682
71.879625
81.784725
90.257525
91.009736
86.097717
78.534484
66.031814
55.963993
43.604970
36.357641
29.334426
24.935603
21.645427
21.103621
20.235777
20.492673
20.318627
##ZVALUE=345
0.239611
0.133514
0.364780
0.292659
0.298619
0.548959
0.265837
0.165701
0.368953
0.331998
0.350475
0.252724
0.359416
0.299811
0.255704
0.248551
0.318885
0.390410
0.297427
0.377893
0.364780
0.435710
0.240803
0.298619
0.362992
0.377893
0.403523
0.505447
0.426769
0.342727
0.442863
0.422597
0.401735
0.665784
0.568628
0.318885
0.407696
0.465512
0.479817
0.426769
0.380874
0.392795
0.539422
0.573993
0.618696
0.786781
0.599623
0.689626
0.707507
0.735521
0.811815
1.051426
1.130700
1.124740
3.089905
12.383461
53.505898
112.512708
238.223672
366.081595
555.362701
673.148036
756.722689
740.896463
636.530519
522.728562
357.388854
238.989592
116.880536
61.455965
24.069548
13.188720
10.864735
10.885596
11.283755
11.659861
13.421774
15.733838
21.704435
28.422475
41.599870
52.894950
66.482425
74.760914
84.215999
85.820556
81.749558
76.052547
64.052939
55.007935
42.910576
35.457611
27.667880
23.984909
21.119714
20.237565
##ZVALUE=350
0.295639
0.301600
0.213981
0.222921
0.124574
0.303984
0.178814
0.158548
0.258684
0.203848
0.383854
0.315905
0.383854
0.268817
0.328422
0.301600
0.108480
0.220537
0.186563
0.186563
0.266433
0.324845
0.295639
0.377893
0.281930
0.255704
0.424981
0.377893
0.268817
0.312924
0.330806
0.344515
0.290871
0.399947
0.412464
0.298619
0.398755
0.320673
0.398755
0.458956
0.312924
0.465512
0.524521
0.513792
0.439882
0.584722
0.435710
0.385642
0.680685
0.633597
0.715852
0.681877
0.856519
0.876784
0.924468
1.121759
1.644492
6.747842
36.644936
85.142851
199.132562
328.563452
518.999696
638.279915
744.205713
760.987997
688.684583
577.688813
390.449762
263.264775
136.863589
74.208975
29.143691
15.220642
10.492802
10.171533
10.374784
10.983944
12.100935
13.241768
16.261935
20.001531
27.840734
35.658479
48.051476
58.162808
69.600940
75.362921
78.191757
76.342821
68.517923
61.444640
49.536824
40.775537
31.899810
27.401447
##ZVALUE=355
0.251532
0.238419
0.386834
0.297427
0.312924
0.221729
0.515580
0.317693
0.206828
0.200868
0.342727
0.266433
0.327826
0.341535
0.172853
0.221729
0.292659
0.143647
0.336766
0.235438
0.292659
0.207424
0.183582
0.314713
0.484586
0.314713
0.364780
0.409484
0.336766
0.259876
0.375509
0.411868
0.167489
0.254512
0.537634
0.285506
0.303984
0.421405
0.501871
0.449419
0.493526
0.675917
0.634789
0.430942
0.595450
0.408888
0.425577
0.659823
0.508428
0.585914
0.730753
0.780821
0.669956
0.744462
0.740886
0.829697
0.890493
0.859499
1.210570
4.852414
18.810630
68.011880
134.053826
263.063908
391.812921
564.356446
665.342808
732.045770
720.955729
610.193014
495.915413
328.312516
209.379792
94.176531
46.902895
17.781854
10.833740
9.983778
9.747744
10.554790
10.869503
11.622906
12.450814
15.049577
18.275976
24.498701
31.723976
42.133927
50.861835
61.093569
68.048835
71.401596
70.162416
64.054728
57.729483
47.444701
##ZVALUE=360
0.201464
0.209808
0.253916
0.349879
0.153780
0.227690
0.245571
0.343919
0.296831
0.303984
0.342727
0.388622
0.131726
0.365973
0.250936
0.169873
0.212789
0.316501
0.392795
0.360608
0.432730
0.356436
0.325441
0.340939
0.254512
0.282526
0.368953
0.307560
0.477433
0.380874
0.316501
0.306964
0.424981
0.343919
0.405908
0.358820
0.345707
0.344515
0.227690
0.519753
0.503659
0.354648
0.397563
0.505447
0.585914
0.528693
0.453591
0.435710
0.556707
0.709891
0.724792
0.580549
0.625849
0.663996
0.830889
0.785589
0.802875
0.784993
0.878572
0.936985
1.083612
1.943707
7.000566
32.160878
74.531436
178.474784
294.135809
469.719768
585.576892
679.364800
693.230629
622.070432
521.235466
355.051756
236.793756
117.497444
62.826872
25.138855
12.976527
9.096861
9.246469
9.562969
9.532571
10.220408
10.579824
11.284947
12.858510
16.059875
19.682646
26.813745
34.055710
45.316815
52.457452
60.555935
64.152479
64.282417
##ZVALUE=365
0.234842
0.268817
0.105500
0.128746
0.248551
0.358820
0.281930
0.115633
0.255704
0.310540
0.148416
0.260472
0.188947
0.283718
0.105500
0.018477
0.241995
0.195503
0.332594
0.358820
0.262856
0.442863
0.354648
0.255704
0.306964
0.351667
0.398755
0.256896
0.350475
0.378489
0.383854
0.314713
0.284910
0.288486
0.358820
0.345707
0.375509
0.267625
0.456572
0.338554
0.434518
0.184774
0.374913
0.336766
0.383854
0.556707
0.384450
0.455976
0.443459
0.481606
0.565648
0.370741
0.525713
0.574589
0.457764
0.541806
0.544786
0.719428
0.718832
0.692606
0.982881
0.845790
0.986457
1.150966
2.402663
13.950467
37.996769
100.101829
186.353922
335.544944
449.265838
569.467545
621.098876
612.792969
542.080998
407.618880
299.270749
166.424513
95.031857
36.920905
16.969442
8.984804
8.332729
8.548498
8.792877
8.957982
9.115934
9.521842
9.789467
11.347532
13.209581
17.707944
22.193789
30.776858
37.651658
46.981573
##ZVALUE=370
0.171661
0.156760
0.109673
0.276566
0.119805
0.088811
0.134706
0.334978
0.211596
0.156760
0.188947
0.162721
0.279546
0.313520
0.091791
0.171661
0.137687
0.278950
0.197887
0.188947
0.257492
0.274777
0.247955
0.272989
0.339746
0.168681
0.253916
0.317693
0.237823
0.278950
0.262856
0.321865
0.307560
0.171661
0.303984
0.358820
0.369549
0.359416
0.241995
0.371933
0.338554
0.383854
0.505447
0.250936
0.345707
0.593662
0.454783
0.415444
0.325441
0.412464
0.285506
0.289679
0.462532
0.408888
0.372529
0.432730
0.443459
0.479817
0.630617
0.591874
0.538826
0.600815
0.767708
0.693798
0.783801
0.764728
1.335740
6.268620
20.845532
69.040656
132.062435
255.253911
368.164778
501.718521
564.248562
577.666759
530.463457
411.793590
308.767557
177.116990
102.448463
43.857694
22.304654
10.530949
7.890463
7.639527
7.761717
8.043647
8.020997
8.151531
8.656979
9.295940
10.459423
12.484789
15.274882
20.378828
##ZVALUE=375
0.281930
0.104904
0.238419
0.167489
0.312924
0.217557
0.284910
0.229478
0.173450
0.253916
0.310540
0.163913
0.269413
0.443459
0.355840
0.308752
0.201464
0.093579
0.310540
0.386834
0.127554
0.161529
0.235438
0.267625
0.324845
0.303984
0.292659
0.206828
0.282526
0.140667
0.236630
0.215769
0.339746
0.315905
0.274777
0.228882
0.182986
0.347495
0.265837
0.304580
0.240803
0.371933
0.379682
0.253916
0.343919
0.381470
0.368953
0.289679
0.373721
0.393987
0.244975
0.358820
0.550747
0.436902
0.441670
0.443459
0.483990
0.399947
0.297427
0.461936
0.486970
0.637770
0.442863
0.538826
0.559688
0.709891
0.853539
0.794530
0.943542
2.861619
10.823607
39.597750
85.895658
192.018747
300.386548
446.783900
527.248979
565.302968
538.077950
438.171625
337.920785
208.788514
135.020614
69.566965
36.805868
14.525652
8.446574
6.977916
6.863475
7.343888
7.406473
7.924438
7.962584
8.240938
8.203983
9.295940
##ZVALUE=380
0.379682
0.353456
0.288486
0.404716
0.280738
0.222921
0.161529
0.349879
0.357628
0.161529
0.242591
0.332594
0.171661
0.342727
0.401735
0.270605
0.259876
0.593662
0.377893
0.489950
0.391603
0.380874
0.337958
0.381470
0.260472
0.252724
0.386834
0.144839
0.367761
0.288486
0.420809
0.266433
0.368953
0.232458
0.335574
0.427961
0.370741
0.473857
0.509620
0.476837
0.404716
0.350475
0.443459
0.412464
0.578761
0.327826
0.408888
0.513792
0.435710
0.440478
0.501871
0.488758
0.485778
0.670552
0.548959
0.475645
0.425577
0.467896
0.458956
0.330806
0.391603
0.448823
0.499487
0.571609
0.582933
0.643730
0.668764
0.777841
0.705719
0.928640
0.901818
1.796484
5.726814
26.610494
62.096715
145.581961
232.286453
365.066528
455.731750
531.884432
531.572700
456.003547
378.354788
265.573859
182.241797
93.812943
50.407648
20.161867
10.508895
7.117987
6.658435
6.505847
6.729960
6.913543
7.311702
7.441640
##ZVALUE=385
0.188947
0.235438
0.153780
0.137687
0.209808
0.313520
0.260472
-0.034571
0.040531
0.164509
0.172853
0.064969
0.128746
0.169873
0.164509
0.217557
0.099540
0.115633
0.110865
0.252724
0.330806
0.129938
0.287890
0.123978
0.024438
0.110865
0.055432
0.208616
0.178814
0.149608
0.116825
0.266433
0.370741
0.349879
0.277758
0.275970
0.350475
0.157952
0.330806
0.316501
0.135899
0.204444
0.162721
0.133514
0.256896
0.161529
0.195503
0.215769
0.307560
0.247955
0.227690
0.184774
0.395775
0.326633
0.328422
0.220537
0.256896
0.256896
0.241995
0.362992
0.371933
0.307560
0.272989
0.317693
0.340939
0.340939
0.447631
0.571609
0.661612
0.610948
0.744462
0.848770
0.880957
1.088977
2.727509
14.900565
39.461851
101.665854
178.718567
312.358737
413.531661
505.753756
529.736876
506.219864
445.979834
337.194800
247.735977
141.282678
85.029602
36.957860
16.468763
7.013679
5.700588
5.892515
6.114841
6.292462
##ZVALUE=390
0.061989
0.272989
0.155568
0.055432
0.141859
0.176430
0.104904
0.139475
0.192523
0.162721
0.127554
0.194907
0.165701
0.092983
0.116825
0.184774
0.258684
0.169873
0.217557
0.196695
0.278950
0.130534
0.214577
0.230670
0.244975
0.409484
0.115633
0.096560
0.202656
0.216961
0.164509
0.240803
0.368953
0.386834
0.378489
0.314713
0.311732
0.157952
0.303984
0.172853
0.280738
0.259876
0.207424
0.260472
0.241995
0.274777
0.277758
0.164509
0.306964
0.262856
0.331998
0.231862
0.233650
0.220537
0.342727
0.242591
0.186563
0.240803
0.225902
0.215769
0.403523
0.339746
0.253916
0.200868
0.403523
0.493526
0.507832
0.582933
0.402927
0.526905
0.677705
0.616908
0.540614
0.661612
0.743866
0.826716
1.473427
5.991459
28.469563
65.543652
157.399774
248.777866
374.796987
463.047624
540.970564
547.447801
486.798882
406.233668
279.749632
193.498731
103.376508
56.538582
22.408962
10.344982
5.756617
5.614758
##ZVALUE=395
0.149608
0.134706
0.178814
0.188947
-0.020862
0.104904
0.206828
0.066757
0.158548
0.369549
0.138879
0.322461
0.311732
0.105500
0.171661
0.061989
0.134706
0.189543
0.088811
0.107884
0.048876
0.071526
0.193715
0.211596
0.124574
0.128746
0.203848
0.211596
0.153780
0.253916
0.430942
0.161529
0.129938
0.227690
0.292659
0.223517
0.218749
0.257492
0.339746
0.083447
0.231862
0.200868
0.234842
0.137687
0.112653
0.060797
0.309944
0.150800
0.346899
0.302792
0.379682
0.312924
0.318885
0.155568
0.125766
0.166893
0.269413
0.304580
0.301600
0.305772
0.259876
0.349879
0.399947
0.452995
0.272989
0.194907
0.299811
0.380874
0.522733
0.561476
0.550747
0.627637
0.486970
0.490546
0.681877
0.766516
0.711679
0.800490
1.087785
4.257560
15.283823
52.917600
101.154447
195.002556
290.283561
425.115824
507.800579
557.379723
542.707443
460.602641
365.492702
232.519507
151.180625
69.682598
35.901666
13.497472
##ZVALUE=400
0.183582
0.196695
0.105500
0.099540
0.283718
0.220537
0.043511
0.070930
0.174642
0.255704
0.068545
0.195503
0.078678
0.106692
0.233650
0.188947
0.137687
0.184774
0.183582
0.127554
0.142455
0.161529
0.200868
0.202656
0.172853
0.234842
0.039935
0.211596
0.231862
0.209808
0.170469
0.189543
0.070930
0.137687
0.189543
0.134706
0.374913
0.068545
0.276566
0.277758
0.238419
0.224710
0.154972
0.177622
0.195503
0.322461
0.300407
0.151992
0.169873
0.325441
0.271797
0.274777
0.285506
0.297427
0.219941
0.241995
0.363588
0.245571
0.171661
0.348687
0.357628
0.325441
0.258684
0.405908
0.301600
0.323653
0.465512
0.532866
0.462532
0.552535
0.561476
0.593662
0.483990
0.565648
0.461936
0.532866
0.651479
0.598431
0.712872
0.781417
0.854731
1.782775
8.905530
24.323463
70.177913
128.169656
241.414905
334.565639
449.724793
500.895977
503.975749
457.402468
350.361466
256.782770
148.541927
90.367794
##END
