##TITLE=FQP00651
##FORMAT=SPECTACLE-ASCII V-1.2
##DATA TYPE=ULTRAVIOLET SPECTRUM
##SECOND TYPE=ULTRAVIOLET SPECTRUM
##DATE=03/01/18
##TIME=14:22:48
##SPECTROMETER/DATA SYSTEM=SPECTACLE
##XUNITS=NM EM
##YUNITS=ENERGY
##YFACTOR=1
##FIRSTX=220
##LASTX=410
##NPOINTS=96
##3DDATA=Equidistant
##ZUNITS=NM EX
##FIRSTZ=210
##LASTZ=400
##ZPOINTS=39
##XYDATA=(Y..Y)
##ZVALUE=210
2.678633
2.998710
1.969934
2.790689
2.774596
2.840757
3.068447
2.710819
2.358556
2.841949
3.246665
2.966523
2.834797
2.844930
3.511906
3.606677
4.086494
4.602671
3.936887
4.305840
4.315972
4.478693
4.935861
5.395412
6.370544
6.574988
6.173849
7.322431
7.305741
8.079410
7.398725
8.676648
8.752942
9.686947
9.356737
8.939505
9.651780
10.207891
10.423660
9.912848
10.031462
10.959506
10.004640
10.486841
9.531975
10.321736
10.924935
10.045767
10.830760
10.168552
9.979606
10.025501
10.111928
10.301471
9.713769
10.261536
10.275841
9.954572
10.978580
11.043549
11.133552
11.163950
11.774898
10.647774
11.149645
11.753440
11.779666
14.156699
17.845631
19.624829
23.746490
26.613474
29.785633
35.235882
39.883852
43.526888
43.481588
44.217706
45.395494
45.417547
41.924715
37.722588
36.635995
29.069781
22.648573
19.293427
14.880896
12.786984
11.820793
11.188984
11.705756
8.672476
10.935664
11.292696
10.306835
10.551810
##ZVALUE=215
10.262728
10.125637
8.292794
7.652640
6.125569
4.821420
5.175471
6.394982
5.182624
5.929470
4.945993
4.860759
5.591512
4.512668
4.159808
4.296899
4.338622
4.673600
5.080700
4.881620
4.760623
5.232692
5.547404
6.200671
6.328821
7.615685
7.062554
8.074641
10.450482
10.484457
10.387897
12.015700
11.328459
13.491511
12.952685
13.510585
12.580752
12.733936
13.683438
13.589859
13.701916
13.099909
12.535453
12.165904
12.858510
12.155771
11.911988
12.258887
12.729764
11.861920
12.153983
12.329817
12.651682
12.524724
13.264418
10.775924
11.807680
11.203885
11.891723
11.531711
11.143684
11.702776
11.887550
13.235807
12.924671
13.814569
13.852715
15.616417
15.254617
19.375682
23.620725
25.845766
31.300783
35.190582
37.444830
41.603446
42.770505
42.732954
45.899749
41.569471
39.882660
35.525560
30.784607
26.000738
21.005869
17.889738
15.725493
13.868809
12.568831
10.934472
11.831522
11.947751
12.028813
11.513829
11.882782
11.531711
##ZVALUE=220
36.653876
35.333633
40.272474
43.506622
39.023757
33.587813
26.782751
17.983913
14.794469
13.040900
12.280941
13.176799
11.227727
11.820793
10.286570
8.389950
7.190704
5.897880
5.770922
6.176829
6.920695
6.393790
6.430745
7.049441
7.610917
9.014606
9.757876
10.706782
12.758970
14.760494
15.947819
17.769933
17.899871
18.840432
19.089580
20.029545
19.665956
18.356442
18.566847
19.645691
19.525886
16.780496
18.928647
15.928745
16.477704
16.104579
16.242862
14.724731
15.754700
15.446544
15.340447
14.394522
13.898611
14.933944
13.862848
13.540983
15.227795
14.994740
15.252829
13.697743
13.912916
13.434887
14.080405
14.654994
14.433861
14.939904
15.742779
16.586781
18.419623
22.738576
24.295449
29.521585
34.408569
37.355423
41.224957
42.631626
44.689775
43.933988
45.359731
42.450428
44.226646
36.361814
35.268664
29.846430
27.119517
19.736886
17.555952
14.476776
13.234615
11.825562
12.135506
12.061000
10.359883
11.685491
12.297630
11.609793
##ZVALUE=225
68.748593
72.419643
98.254681
126.879811
146.595836
149.265528
136.917830
114.401579
85.055828
63.917637
39.220452
30.248761
25.189519
27.158856
27.593970
26.655793
20.954609
19.058585
14.363527
10.648966
9.144545
6.918907
6.587505
7.251501
8.829832
9.537935
11.197925
12.788773
14.629960
17.557740
18.466711
21.187663
20.958781
23.279786
24.757981
24.521947
24.461746
23.304820
22.681952
22.717714
22.040606
20.437837
20.606518
20.852685
17.269850
19.979477
18.838644
18.321872
18.234849
16.825795
16.756654
16.873479
16.326904
15.839934
15.516877
15.677810
15.743971
15.333891
13.631582
15.469790
13.868809
14.850497
14.316440
16.033649
14.829636
15.824437
15.849471
16.577840
18.471479
20.734668
24.133921
25.630593
30.207634
31.989813
35.827756
38.178563
38.746595
34.810901
34.948587
32.484531
32.911897
25.921464
22.667646
21.181703
18.943548
17.238855
16.144514
13.605952
13.321638
13.181567
11.946559
12.320876
12.240410
12.304783
12.285709
13.409853
##ZVALUE=230
54.100752
62.861443
98.990798
171.934962
232.096910
299.896598
333.761573
341.809988
317.642689
250.291824
190.758705
118.007660
78.680515
51.118731
47.667623
49.839616
51.333904
48.443675
43.120980
37.002563
27.512908
20.907521
14.489889
12.197495
9.340644
10.659695
11.313558
12.344718
14.293790
16.498566
16.902685
19.189715
21.082759
19.514561
21.260977
20.704865
22.719502
21.681786
22.249818
20.889640
21.433830
20.465851
18.113852
19.694567
18.584728
17.514825
17.581582
16.698837
15.409589
17.402768
15.319586
15.677810
15.496612
15.585423
14.287829
15.066862
14.127493
14.569759
14.266968
14.959574
14.162660
14.426708
13.929605
14.814734
15.174747
14.925599
16.173720
16.603470
16.022921
17.601848
21.050572
22.843480
25.658607
27.465820
29.881597
31.103492
31.649470
29.978752
30.329823
29.889941
24.545789
22.877455
20.744801
18.695593
17.574430
17.202497
15.989542
14.883876
15.557408
14.383793
14.413595
14.117956
13.991594
13.423562
15.173554
13.611913
##ZVALUE=235
17.153621
19.006729
43.617487
99.605918
167.706609
272.987485
367.003679
482.384562
531.405807
535.497665
481.727719
391.765833
267.089605
193.486810
121.529698
89.522600
76.588988
81.994534
84.254742
85.143447
78.320503
63.575506
52.009821
36.870837
27.855635
17.761588
13.655424
11.569858
11.560917
12.586713
13.195872
14.206767
15.889406
15.463829
15.732646
15.190840
15.877485
15.872717
16.590953
14.851689
15.631914
15.972853
16.553998
15.461445
15.677810
14.842749
14.474988
14.046431
13.261437
14.191866
13.118982
13.627410
13.607740
12.982488
14.402866
14.457703
13.956428
13.348460
13.843775
13.712645
13.124943
13.755560
14.557838
14.462471
14.026761
14.035702
14.718771
14.835596
16.970634
18.600821
20.731688
20.946860
26.127696
25.998950
26.879907
29.209852
28.524995
29.848814
30.749440
28.504729
27.774572
22.694468
20.400882
19.855499
19.618869
18.916726
17.008781
17.351508
16.581416
17.120838
16.527772
16.852617
17.485619
17.612576
16.335845
15.907884
##ZVALUE=240
2.170801
2.563596
8.618832
22.375584
58.885813
111.537576
210.294724
324.968696
468.685627
554.828644
625.564456
617.951751
572.490692
463.379622
358.103514
238.636732
176.682472
119.378567
101.000667
103.457570
111.301541
122.759938
116.384625
108.769536
85.534453
68.232417
47.673583
34.415722
23.868680
16.479492
13.722777
12.710690
11.941791
13.730526
13.895631
14.026761
14.968514
14.438629
16.728640
17.095804
18.210411
17.697811
17.287731
16.587973
15.621781
14.659762
16.724467
17.123818
17.155409
17.121434
17.756820
16.635656
16.603470
15.745759
16.727448
17.242432
17.663836
18.554926
16.223788
17.360449
16.341805
16.331673
16.494989
19.538999
16.484857
18.708706
18.673539
20.132661
22.084713
23.140907
24.483800
27.774572
31.457543
31.893849
36.427975
38.468838
36.252737
37.216544
36.862493
34.969449
33.850670
32.795668
31.449795
29.077530
27.088523
24.375916
26.030540
24.935603
24.283528
24.502873
24.598837
23.273826
24.172664
23.656487
24.544597
23.647547
##ZVALUE=245
1.708865
1.786947
2.251863
2.409816
7.126927
21.158457
75.570941
176.451802
413.987637
640.015602
979.015827
1015.750766
1015.750766
1015.750766
1015.750766
987.238884
769.765973
474.887490
310.181975
167.811513
119.614601
108.234882
119.959712
132.246614
135.207772
129.558444
115.608573
103.010535
78.587532
60.300827
43.886900
29.349923
22.780895
17.907619
16.343594
17.199516
17.345548
18.302798
17.871857
17.496943
18.544793
19.497871
19.617677
20.395517
18.293858
20.125508
21.234751
18.763542
19.349456
19.141436
18.055439
18.103719
17.942786
18.045902
17.745495
16.749501
15.595555
17.949939
17.300844
18.225908
17.972589
17.447472
17.697811
17.268658
19.743443
18.207431
20.048618
23.279786
23.838878
25.764704
28.908849
30.596852
33.005476
36.811829
39.449930
43.331981
44.098496
41.745901
43.894649
45.029521
40.996671
40.904880
35.216808
33.686757
29.738545
26.721954
25.954843
25.125742
26.238561
23.294687
22.942424
24.303794
25.038719
23.737550
25.142431
23.339987
##ZVALUE=250
2.036691
1.823902
1.847744
2.103448
2.493858
2.789497
5.194545
21.133423
92.916489
203.899741
475.327969
753.400922
1008.682847
1015.750766
1015.750766
1015.750766
1015.750766
1015.750766
980.312824
630.186796
400.669575
250.938535
134.263635
107.244849
113.330483
125.648975
142.925978
146.228671
144.299865
131.594539
113.280416
88.959932
68.915486
44.630766
35.316944
25.854707
21.971464
21.598935
21.337867
20.392537
21.274686
21.714568
20.669699
20.216703
20.928979
20.689964
19.474626
19.520521
18.003583
17.357469
18.248558
17.334819
17.355680
16.870499
15.321970
14.980435
15.574694
14.437437
14.531612
15.376806
14.328957
13.872981
14.527440
14.005899
14.463663
15.865564
17.343760
16.549826
17.862916
20.335913
21.684766
23.120642
26.534796
28.656721
29.317737
30.441880
33.198595
31.975508
32.046437
31.537414
29.562712
28.846860
25.114417
25.383830
23.840666
22.970438
23.039579
21.855831
21.425486
20.793676
21.955967
20.284653
20.876527
20.498633
22.261739
21.215677
##ZVALUE=255
1.348853
1.459718
1.555681
1.563430
1.643896
1.651645
1.920462
1.961589
2.494454
7.304549
46.892762
113.343596
228.775740
470.749736
711.351037
1015.750766
1015.750766
1015.750766
1015.750766
1015.750766
1015.750766
998.297930
623.423457
378.260612
171.845555
114.889741
97.564459
112.855434
137.493610
153.828859
160.684586
159.033537
143.058896
120.446682
101.449490
71.390867
52.927732
38.183928
32.310486
25.265813
23.692846
22.944808
24.019480
22.691488
22.817850
21.964908
20.832419
21.154881
20.261407
18.977523
19.374490
17.803907
17.000437
16.119480
15.955567
15.586615
15.572906
15.633702
13.010502
13.443828
13.689995
14.532804
13.989806
13.528466
15.338659
14.647841
15.260577
15.231967
16.355515
16.909838
18.958449
20.514727
22.455454
25.266409
26.858449
26.754737
28.655529
28.466582
26.877522
26.771426
26.846528
25.721788
23.753643
23.260713
21.067858
21.578670
21.059513
20.818710
20.336509
19.856691
19.867420
20.291805
20.550489
20.411611
19.977689
20.287633
##ZVALUE=260
1.311898
1.659989
1.580715
1.657605
1.477599
1.465678
1.826882
1.892447
2.252460
2.153516
2.484918
3.203750
11.147857
49.454570
126.773715
331.470966
590.566993
1008.456945
1015.781760
1015.781760
1015.781760
1015.781760
1015.781760
1015.781760
879.201889
553.750396
272.426009
154.891610
94.218850
98.047853
117.602944
146.582723
162.876844
177.624822
174.801946
157.975554
138.055682
103.797913
83.166957
59.058666
45.679808
35.475492
30.932426
26.297569
24.554729
23.470521
23.239851
21.682978
21.931529
19.500852
19.528866
18.904805
17.675757
16.294718
16.725659
15.131831
15.440583
14.655590
13.959408
14.683604
13.849735
12.782812
12.394786
13.229847
13.072491
13.954639
12.737513
14.117956
14.953613
16.893744
17.483830
19.574761
21.280646
21.805763
22.912621
25.576949
23.965836
24.104714
24.546981
22.713542
22.369623
21.459460
21.928549
20.055771
19.884706
19.378662
18.649697
18.334985
19.533634
18.658638
18.836856
18.709898
18.876791
19.494891
19.081831
18.879771
##ZVALUE=265
1.319647
1.292825
1.426935
1.424551
1.262426
1.459718
1.699924
1.693964
1.729727
1.708865
1.966953
2.388954
2.428889
2.923608
6.147623
30.588508
78.689456
229.364038
429.158807
846.000910
1015.781760
1015.781760
1015.781760
1015.781760
1015.781760
1015.781760
893.411040
597.378016
308.594704
178.777575
105.139613
90.393424
109.757781
133.555532
162.719488
176.051855
184.216499
179.044008
157.444477
136.957765
106.794834
83.531737
57.778955
43.233633
31.454563
26.799440
23.184419
21.247864
20.888448
19.445419
18.258691
18.085837
17.449856
16.051531
14.903545
14.336705
14.241934
13.171434
12.450814
12.649894
12.148619
12.066960
12.178421
11.467934
11.665821
11.811852
11.757612
12.642741
12.540817
13.305545
14.340878
15.249848
15.149713
16.492605
15.764832
17.276406
17.187595
16.958714
17.325878
16.678572
16.192794
16.479492
16.322732
16.300678
16.113520
15.683770
16.124845
16.626716
15.351772
16.328692
15.882850
15.965700
16.284585
15.611649
15.900731
17.344952
##ZVALUE=270
0.819564
0.838637
0.941753
1.103878
0.793934
0.820756
1.089573
1.097918
0.934601
1.052618
1.147985
1.242757
1.316667
1.629591
1.767874
1.897812
2.418756
11.332631
37.563443
128.374696
250.811577
425.595641
719.707012
919.716954
1015.750766
1015.750766
1015.750766
1011.327505
790.326595
593.629479
406.311750
214.841962
133.096576
83.847642
84.990859
110.194683
134.711862
161.416531
175.767541
181.941986
177.775621
155.752897
134.203434
102.037787
75.589418
51.199794
38.690567
27.475953
22.707582
18.451810
16.415715
15.397668
14.893413
14.224648
13.198853
13.062954
12.320876
11.616945
11.506677
10.934472
11.154413
11.185408
10.460615
9.880662
10.492802
10.413527
10.288954
9.936690
10.521412
11.135936
12.460947
13.152957
12.526512
13.552904
13.299584
14.102459
13.666749
15.186667
14.998913
14.483929
14.821887
13.647676
14.091730
14.345646
13.831854
14.122725
14.373660
14.156699
14.325976
14.635921
14.267564
13.831854
14.589429
13.976693
14.170408
15.016794
##ZVALUE=275
0.516772
0.645518
0.564456
0.748634
0.599623
0.857711
0.655651
0.664592
0.651479
0.689626
1.021624
0.934601
1.028776
0.905991
1.121759
1.276731
0.989437
1.437664
1.739860
4.573464
22.731423
76.170564
228.585601
421.036482
763.484836
991.634727
1015.532613
1015.532613
1015.532613
1015.532613
1015.532613
767.598748
531.933904
276.773572
164.898634
83.660483
65.733790
76.689720
97.049475
125.868917
148.777962
166.217685
173.145533
162.343979
149.141550
119.206905
97.357631
70.359707
50.117970
33.024549
24.082661
17.305613
13.901591
12.346506
12.631416
11.819601
11.178851
11.317730
10.593534
10.529757
10.814667
10.201931
10.414720
10.332465
11.056662
10.703802
11.135936
11.118650
11.296868
12.190938
12.327433
12.862682
13.399720
13.857484
15.078783
14.529824
15.821457
14.867783
15.469790
14.607906
14.701486
14.122725
14.244914
14.245510
13.569593
14.031529
13.597608
14.112592
13.722777
13.278723
13.719797
13.013482
13.962984
12.790561
13.790727
13.783574
##ZVALUE=280
0.722408
0.871420
0.618696
0.703931
0.828505
0.782609
0.739694
0.751615
0.806451
0.855923
1.073480
1.023412
1.082420
1.160502
1.291633
1.180768
1.353621
1.487732
1.756549
1.849532
2.082586
2.466440
13.461709
59.653521
189.644694
335.940719
622.248650
889.157653
1015.750766
1015.750766
1015.750766
1015.750766
1015.750766
944.933891
680.115819
374.648571
222.829580
98.324418
58.698654
50.923824
64.167976
90.106726
113.318563
139.761567
153.255463
161.433816
156.039000
137.616992
119.336843
85.581541
65.746903
42.460561
29.599667
18.938780
14.002919
11.520982
10.544658
10.367632
10.760427
10.704994
11.236668
11.014938
11.248589
11.593699
11.289716
11.754632
11.572838
11.578798
12.071729
12.363791
13.089776
13.612509
13.942719
13.362765
15.436411
14.980435
15.500784
15.381575
15.961528
14.602542
15.123487
15.046597
14.002919
14.111996
14.169812
13.935566
13.648868
14.247894
14.047623
13.910532
13.568997
14.049411
13.700724
13.681650
14.204979
13.809800
##ZVALUE=285
0.615716
0.716448
0.759959
0.693798
0.641942
0.632405
0.677705
0.865459
0.872612
0.797510
0.963807
0.853539
0.861883
0.710487
1.189709
0.951886
1.051426
1.031756
1.288652
1.606941
1.549721
1.759529
2.100468
2.250671
6.017685
24.912953
110.464692
235.100985
481.294990
731.160641
1015.750766
1015.750766
1015.750766
1015.750766
1015.750766
1015.750766
981.899500
679.045916
345.283747
189.197659
73.339939
39.317608
41.113496
55.201650
81.319809
103.969574
131.741762
145.490766
153.709650
149.322748
131.549835
114.626884
85.281730
64.956546
42.391419
29.269457
18.182993
14.454722
11.860728
11.632442
10.877848
11.125803
11.444688
11.287928
11.476874
12.247562
12.523532
12.509823
12.847781
13.865829
14.356971
14.590621
15.014410
15.648603
15.731454
15.828609
15.943646
15.518665
16.121864
15.352964
15.309453
15.047789
14.909506
15.095472
14.117956
14.624000
14.067888
14.420748
13.598800
13.955832
14.595985
13.738871
13.760924
12.961626
13.398528
13.121963
##ZVALUE=290
0.664592
0.734925
0.832677
0.756979
0.805855
0.828505
0.836849
0.808835
0.794530
0.904799
0.685453
0.939965
0.985861
0.928640
0.933409
1.219511
1.187921
1.264811
1.197457
1.154542
1.372695
1.411438
1.580715
1.772642
2.318621
2.311468
3.296733
9.305477
52.040815
151.278973
333.265662
725.055933
1015.750766
1015.750766
1015.750766
1015.750766
1015.750766
1015.750766
1015.750766
969.365835
646.916628
307.324529
148.445964
49.778819
29.230714
38.030744
52.184463
75.137615
96.613765
123.609900
139.501691
149.157643
148.376822
130.289793
111.996531
83.822608
64.033866
42.919517
30.571818
19.961596
15.361905
13.056993
12.698770
12.584925
12.437701
12.936592
12.755990
12.788773
13.847947
14.749765
15.107989
15.125871
15.860796
16.215444
16.076565
15.995502
16.472936
16.357899
15.982985
16.075969
15.179515
15.136600
15.272498
15.068650
14.710426
15.207529
14.540553
15.005469
14.357567
14.017820
14.072657
14.148951
13.217926
13.893843
13.952851
13.264418
##ZVALUE=295
0.740886
0.794530
0.542998
0.693798
0.893474
0.743866
0.752807
0.672936
0.654459
0.774860
0.904799
0.746846
0.949502
0.843406
0.971556
0.744462
1.053810
0.975728
1.087785
1.096725
1.232624
1.265407
1.355410
1.370907
1.417994
1.571774
1.977682
2.029538
2.484918
4.430413
22.886992
67.316890
168.206692
450.567007
780.307651
1015.750766
1015.750766
1015.750766
1015.750766
1015.750766
1015.750766
1015.750766
858.277678
442.995429
239.246488
81.062913
34.366846
24.356842
32.686591
49.811602
68.137646
95.197558
114.556551
134.065747
142.298937
138.857961
127.163529
104.557872
86.127520
62.240958
46.464801
29.070973
22.415519
16.127825
13.810992
13.396740
13.088584
13.595819
13.618469
14.674664
15.267730
15.279651
16.222596
16.843677
16.682744
16.518831
16.119480
16.060472
15.838742
16.122460
15.456676
15.066862
15.658736
14.869571
14.759898
14.864802
14.818907
14.795661
14.062524
14.477968
13.538599
13.669729
13.624430
13.574958
13.600588
13.059974
##ZVALUE=300
0.602603
0.506639
0.529885
0.662804
0.676513
0.722408
0.693798
0.769496
0.727773
0.673532
0.778437
0.561476
0.920892
0.690818
0.704527
0.722408
1.007915
0.758767
1.018643
1.259446
1.110435
1.002550
1.080632
1.141429
1.132488
1.290441
1.392961
1.663566
1.654625
1.870990
2.437830
3.008842
16.103983
54.876804
170.412660
310.641527
614.341497
926.585793
1015.750766
1015.750766
1015.750766
1015.750766
1015.750766
1015.750766
989.762545
685.710907
352.201462
189.331770
65.396428
26.109815
22.233725
30.106902
47.119856
62.774420
88.165998
108.170509
128.336549
134.081841
133.904815
124.239922
104.966760
85.991621
62.382817
47.695637
31.582713
23.499727
17.589927
15.091896
14.348626
14.194846
15.038848
15.713573
16.273856
16.164780
16.458631
16.109943
16.054511
15.583634
15.127659
15.713573
15.299916
15.656948
15.375614
15.217662
15.340447
15.301704
14.958978
15.001893
14.368892
14.039874
13.977885
13.652444
13.406873
13.168454
12.895465
13.136864
##ZVALUE=305
0.504851
0.406504
0.501871
0.449419
0.329614
0.565648
0.649691
0.674725
0.498891
0.564456
0.710487
0.626445
0.679493
0.709891
0.830889
0.789762
0.728965
0.801682
0.613928
0.894666
0.918508
0.940561
0.799894
0.977516
1.064539
1.229644
1.165867
1.319647
1.468658
1.350641
1.648664
1.837611
2.051592
2.206564
5.748868
23.296475
99.235773
213.675499
449.040532
675.208569
998.705626
1015.745997
1015.745997
1015.745997
1015.745997
1015.745997
1010.356545
779.830813
438.071489
245.284438
92.129707
38.981438
17.276406
19.010901
29.604435
41.847825
65.842867
82.237720
105.368495
119.448900
127.553940
128.296614
117.318630
102.597475
78.422427
62.619448
43.068528
31.348467
21.537542
17.633438
15.551448
15.066862
14.962554
14.997721
15.341640
15.481710
15.175939
15.488863
14.822483
15.125871
15.131831
15.399456
14.815927
15.203953
14.906526
14.203787
14.264584
14.660954
14.178753
13.933778
13.771653
13.534427
13.601780
13.440847
13.393760
13.154745
##ZVALUE=310
0.507832
0.494719
0.514984
0.552535
0.591874
0.450611
0.363588
0.546575
0.594854
0.654459
0.471473
0.470877
0.669956
0.471473
0.621676
0.568628
0.568628
0.538826
0.700951
0.567436
0.729561
0.727773
0.757575
0.907779
0.711679
0.946522
1.005530
1.162887
1.074672
1.226664
1.161695
1.165867
1.657605
1.551509
1.564622
1.803637
2.212524
7.606745
24.737716
87.938905
185.335875
415.698886
681.228638
1015.750766
1015.750766
1015.750766
1015.750766
1015.750766
1015.750766
820.748806
521.296859
242.861509
120.424628
42.289495
18.870831
13.402700
16.853809
25.466681
36.187768
55.069923
73.102713
96.671581
110.222697
120.874643
121.373534
112.397671
100.326538
77.926517
61.371922
42.929649
32.105446
22.966862
18.530488
15.622973
14.482737
13.865829
14.868975
14.631748
14.566779
14.414787
14.019608
14.436841
14.222860
14.111996
14.318824
14.454722
13.717413
14.283657
14.353991
13.666749
13.581514
13.259649
13.112426
12.834668
12.892485
12.492537
##ZVALUE=315
0.464916
0.497699
0.517964
0.335574
0.512600
0.513792
0.477433
0.460744
0.442863
0.439882
0.405908
0.463724
0.703931
0.448823
0.565648
0.670552
0.555515
0.475645
0.651479
0.594854
0.782609
0.617504
0.636578
0.641942
0.640750
0.900626
1.008511
0.990629
1.028776
0.985861
0.808835
1.171827
1.161695
1.315475
1.293421
1.365542
1.567602
1.782775
1.762509
3.452897
10.951757
45.283437
108.946562
287.703872
526.318550
966.275930
1015.750766
1015.750766
1015.750766
1015.750766
1015.750766
985.102654
666.147470
308.445692
149.434805
47.832727
21.054745
12.207627
12.743473
16.188622
22.898912
35.939813
49.247742
68.840981
87.137818
105.426908
114.076734
114.325881
108.171701
92.128515
76.934695
57.849884
44.479966
29.537678
22.639632
17.533898
15.144944
14.310479
13.536811
13.344884
13.480783
13.802648
13.717413
13.711452
13.733506
13.673902
13.700724
13.612509
13.787746
13.441443
13.090968
13.142824
13.001561
12.973547
12.330413
12.338758
##ZVALUE=320
0.271797
0.293851
0.524521
0.393987
0.478625
0.287890
0.416636
0.494719
0.383854
0.409484
0.485778
0.456572
0.571609
0.516772
0.436902
0.417829
0.585914
0.565648
0.523925
0.525713
0.667572
0.536442
0.542998
0.552535
0.622869
0.798702
0.771880
0.818968
0.740886
0.736713
0.875592
0.860691
0.847578
1.028776
1.033545
1.180768
1.161695
1.127720
1.479983
1.523495
1.656413
2.264977
5.667806
25.264621
65.801740
195.915699
361.473560
675.902963
967.177749
1015.750766
1015.750766
1015.750766
1015.750766
1008.968949
745.136738
391.819477
206.465721
75.440407
32.575727
13.234615
10.143518
11.365414
13.862848
20.876527
29.955506
46.734810
61.127543
81.682801
94.960928
106.466413
108.685493
100.990534
90.423822
70.872903
56.528449
40.768981
30.595660
20.756721
17.167926
13.853908
13.207793
13.162494
12.952685
13.196468
12.785792
12.744665
13.102889
12.810826
12.919903
12.850761
12.684464
12.610555
12.478828
12.694597
12.311935
12.582541
##ZVALUE=325
0.387430
0.422597
0.179410
0.131726
0.167489
0.357628
0.342727
0.393987
0.393987
0.327826
0.242591
0.452995
0.335574
0.366569
0.443459
0.414848
0.546575
0.525713
0.413656
0.547767
0.520945
0.607967
0.500679
0.499487
0.613928
0.563860
0.770688
0.790954
0.512600
0.609756
0.634789
0.759959
0.703931
0.760555
0.762939
0.933409
0.857711
1.079440
0.816584
0.984669
1.184940
1.372695
1.518726
1.456738
3.101826
16.600490
46.382546
129.888654
250.446796
501.239896
719.187856
987.587571
1015.750766
1015.750766
1015.750766
799.661875
593.989491
356.899500
218.198895
96.316934
47.113895
16.260743
9.984970
8.972883
10.009408
13.661981
18.601418
29.367805
41.828752
62.011480
76.503754
93.362927
99.293590
101.618767
94.947815
81.502795
67.785978
50.694942
38.437843
26.636720
20.467639
15.467405
13.976693
13.018847
13.045669
12.706518
12.533665
12.554526
12.433529
12.004972
12.401938
12.438893
12.061596
11.871457
12.257695
12.050867
##ZVALUE=330
0.293851
0.286698
0.246763
0.391603
0.468493
0.379682
0.494719
0.273585
0.241995
0.227690
0.297427
0.398755
0.290871
0.384450
0.395775
0.414848
0.306964
0.353456
0.420809
0.472665
0.358820
0.447631
0.324845
0.363588
0.606775
0.394583
0.489950
0.548959
0.362992
0.454783
0.545979
0.499487
0.605583
0.535846
0.847578
0.671744
0.669956
0.715852
0.772476
0.850558
0.872612
0.891685
0.907779
1.067519
1.118779
1.409650
1.637936
6.694794
22.962689
84.566474
168.754458
360.047817
550.944805
824.924707
989.624858
1015.752554
993.402600
771.647692
582.076907
347.572565
213.102698
93.694925
48.220754
19.249916
10.926723
8.064508
8.400679
9.766817
12.757778
19.347668
27.795434
42.390823
56.266785
74.314475
86.587667
94.385743
94.303489
88.503957
78.828931
62.054992
48.778653
34.353733
27.428865
20.280480
16.752481
13.768673
12.881756
12.336969
12.248755
12.044907
12.172461
12.107491
11.896491
11.594892
11.625886
11.443496
##ZVALUE=335
0.404716
0.400543
0.399947
0.409484
0.421405
0.301600
0.290871
0.156760
0.323653
0.306964
0.309944
0.297427
0.370741
0.362992
0.395775
0.346899
0.397563
0.427961
0.425577
0.376701
0.410676
0.337958
0.404716
0.369549
0.477433
0.350475
0.533462
0.473857
0.347495
0.382662
0.439882
0.483990
0.468493
0.658631
0.531673
0.522733
0.517964
0.576973
0.648499
0.662804
0.674725
0.684857
0.860691
0.930429
1.050830
0.928640
1.015663
1.084805
1.202822
2.856851
10.027885
40.580630
89.410543
215.307474
370.427966
626.104474
802.045465
940.046906
944.210887
802.652836
636.873841
396.826863
252.433419
126.926899
66.929460
24.769902
12.993813
8.372664
8.076429
8.439422
9.845495
12.897849
17.583966
28.000474
38.404465
55.240989
68.256855
82.260966
87.985992
88.552833
84.490776
72.906613
62.029958
47.770739
37.630796
26.876926
21.073818
15.775561
13.781786
12.544990
11.629462
11.424422
11.401772
11.500716
11.034608
11.202693
##ZVALUE=340
0.318885
0.165701
0.222921
0.340939
0.178814
0.155568
0.345707
0.135899
0.222921
0.251532
0.314713
0.182986
0.313520
0.397563
0.297427
0.348687
0.184774
0.229478
0.311732
0.327826
0.381470
0.290871
0.468493
0.469685
0.325441
0.286698
0.296831
0.379682
0.393987
0.344515
0.390410
0.288486
0.368953
0.341535
0.382662
0.490546
0.537634
0.578761
0.748634
0.597835
0.681877
0.373721
0.598431
0.637770
0.630617
0.783801
0.763535
0.831485
0.842810
1.049638
1.042485
1.568794
4.860759
23.613572
57.098866
148.540735
261.551738
466.210842
640.812516
836.767554
909.681916
858.199000
728.513002
502.972603
330.269933
158.936977
85.261464
34.877658
16.346574
8.804798
8.024573
8.091927
8.576512
10.081530
12.514591
18.872619
26.122928
37.805438
50.051808
66.399574
76.342821
83.426833
83.759427
79.010725
71.472526
58.470964
47.827959
35.135746
27.172565
20.080805
16.207695
12.763739
11.715889
11.054873
10.854602
10.788441
##ZVALUE=345
0.300407
0.263453
0.292659
0.204444
0.207424
0.244975
0.258684
0.387430
0.300407
0.263453
0.132918
0.236630
0.292659
0.216961
0.340939
0.265837
0.274777
0.214577
0.303984
0.372529
0.290871
0.194907
0.383854
0.285506
0.407696
0.356436
0.325441
0.253916
0.373721
0.361800
0.424981
0.476837
0.346899
0.307560
0.415444
0.372529
0.492930
0.379682
0.566840
0.565648
0.362992
0.469685
0.501871
0.483990
0.619888
0.517964
0.480413
0.538826
0.639558
0.785589
0.690818
0.773668
0.920892
1.059771
2.544522
10.164976
42.465925
87.189674
183.439851
286.436677
462.848544
598.849654
733.072758
766.766667
691.964030
571.988821
373.323560
235.000849
101.766586
49.143434
18.793941
10.308623
7.896423
7.718801
7.951856
8.268952
9.226799
11.477470
16.926527
23.520589
36.229491
46.718717
59.554577
68.445802
76.429844
78.324676
73.942542
68.315864
55.883527
45.885444
34.604669
26.740432
18.909574
15.348792
12.223721
11.526942
##ZVALUE=350
0.138879
0.289679
0.200868
0.165701
0.238419
0.183582
0.140667
0.146627
0.265837
0.397563
0.299811
0.373721
0.137687
0.328422
0.320673
0.323653
0.142455
0.297427
0.179410
0.135899
0.131726
0.298619
0.335574
0.180602
0.349879
0.313520
0.249743
0.268817
0.317693
0.319481
0.296831
0.222921
0.390410
0.384450
0.454783
0.346899
0.270605
0.386834
0.516772
0.422597
0.467896
0.385642
0.336766
0.294447
0.439882
0.508428
0.583529
0.533462
0.521541
0.669956
0.655651
0.499487
0.453591
0.812411
0.734925
0.846982
1.406670
6.422997
20.096898
62.784553
119.726658
239.687562
351.012945
505.120754
620.455742
708.609819
698.310733
597.729683
460.144877
264.270902
154.671669
68.475604
31.890869
11.665821
7.975698
7.371902
7.453561
7.625818
7.922649
9.086728
11.305809
16.239882
21.433830
30.817986
39.357543
52.503943
61.818957
69.716573
72.130561
69.266558
63.221455
52.814484
43.525696
32.323599
25.237799
18.376708
##ZVALUE=355
0.299811
0.336766
0.336766
0.391603
0.344515
0.285506
0.402927
0.326633
0.257492
0.435710
0.337958
0.469685
0.433922
0.521541
0.354648
0.250936
0.543594
0.315905
0.271797
0.366569
0.369549
0.424981
0.414848
0.415444
0.416636
0.517964
0.404716
0.558496
0.410676
0.526905
0.514984
0.329614
0.365973
0.335574
0.414848
0.492930
0.480413
0.416636
0.491738
0.588894
0.345707
0.542998
0.533462
0.545979
0.609756
0.609756
0.579953
0.810623
0.661612
0.706911
0.758767
0.710487
0.714660
0.623465
0.794530
0.795722
0.835657
1.113415
1.327991
5.576611
20.592809
65.206885
121.681690
237.286687
352.940559
510.053635
609.874725
689.675808
699.352026
624.669790
517.321825
340.629816
207.696557
88.089705
42.192936
15.883446
9.114742
7.141829
7.035732
7.229447
7.450581
7.722974
8.419752
10.642409
13.344884
19.305944
25.886893
36.964417
45.590997
55.987835
62.040687
64.802766
63.882470
58.086514
50.631762
41.035414
##ZVALUE=360
0.261664
0.255704
0.147820
0.159740
0.288486
0.118613
0.293851
0.246763
0.305772
0.242591
0.083447
0.185966
0.227690
0.386834
0.327826
0.290871
0.342727
0.217557
0.111461
0.337958
0.301600
0.315905
0.267625
0.207424
0.356436
0.283718
0.327826
0.293851
0.311732
0.354648
0.474453
0.423789
0.365973
0.328422
0.316501
0.366569
0.521541
0.408888
0.425577
0.430942
0.433922
0.556707
0.517964
0.525713
0.528693
0.541806
0.446439
0.485778
0.442863
0.358820
0.640750
0.467896
0.593662
0.623465
0.697970
0.717640
0.774860
0.973940
0.949502
1.023412
1.048446
1.975894
8.469820
43.120980
96.270442
215.682983
343.457460
524.944663
650.043488
752.298832
761.041641
689.413548
583.830476
409.516692
277.546644
135.806799
69.609880
24.914742
11.217594
7.075667
6.650686
6.593466
6.662607
6.706715
7.034540
7.611513
8.822680
11.300445
15.185475
21.961927
29.257536
40.029883
47.493577
55.298805
58.378577
58.277845
##ZVALUE=365
0.292659
0.372529
0.308752
0.335574
0.393987
0.420809
0.281930
0.175834
0.319481
0.522733
0.168681
0.242591
0.295639
0.333786
0.366569
0.195503
0.373721
0.443459
0.414848
0.483990
0.377893
0.553727
0.501871
0.518560
0.402927
0.357628
0.437498
0.421405
0.403523
0.532866
0.359416
0.494719
0.485778
0.494719
0.399947
0.630617
0.555515
0.449419
0.508428
0.569820
0.502467
0.406504
0.493526
0.433922
0.439882
0.531673
0.545979
0.531673
0.565648
0.629425
0.589490
0.706911
0.680685
0.670552
0.710487
0.829697
0.752807
0.860691
0.912547
0.842810
1.102686
0.998974
1.308918
1.531839
2.717972
14.179945
38.763881
107.378960
205.503702
389.983654
527.309775
665.225983
712.430477
663.864017
562.267900
394.650698
277.899504
151.824951
84.549785
32.061934
14.413595
7.035732
6.126761
6.260872
6.148815
6.345510
6.280541
6.665587
6.907582
7.758737
9.591579
13.596416
18.175840
26.846528
33.707619
42.441487
##ZVALUE=370
0.222921
0.138879
0.149608
0.200868
0.151992
0.088811
0.197887
0.268817
0.161529
0.320673
0.249743
0.275970
0.301600
0.278950
0.332594
0.276566
0.339746
0.255704
0.282526
0.256896
0.272989
0.235438
0.182986
-0.016689
0.220537
0.220537
0.142455
0.099540
0.292659
0.334978
0.263453
0.387430
0.286698
0.347495
0.360608
0.277758
0.264645
0.222921
0.217557
0.378489
0.262856
0.378489
0.373721
0.259876
0.347495
0.500679
0.553727
0.360608
0.350475
0.508428
0.341535
0.493526
0.376701
0.413656
0.321865
0.449419
0.488758
0.573993
0.497699
0.619888
0.622869
0.554919
0.528693
0.784993
0.757575
0.744462
1.329780
6.010532
20.159483
63.919425
118.487477
223.356485
320.291519
446.363688
506.615639
519.364476
475.955606
373.442769
276.524425
156.444907
89.080930
36.281943
18.259883
8.297563
6.013513
5.680919
5.673766
5.688667
5.541444
5.290508
5.510449
5.925894
6.821752
8.541942
11.249781
16.266704
##ZVALUE=375
0.280738
0.307560
0.439882
0.422597
0.360608
0.317693
0.405908
0.467896
0.274777
0.335574
0.342727
0.331998
0.378489
0.409484
0.420809
0.423789
0.431538
0.341535
0.442863
0.374913
0.434518
0.367761
0.445843
0.491738
0.399947
0.442863
0.402927
0.551939
0.536442
0.401735
0.510812
0.407696
0.479817
0.527501
0.601411
0.473857
0.422597
0.506639
0.477433
0.492930
0.354648
0.475645
0.374913
0.510812
0.449419
0.517964
0.511408
0.420809
0.569820
0.498891
0.458956
0.467896
0.531673
0.502467
0.404716
0.560880
0.456572
0.629425
0.613928
0.640750
0.459552
0.592470
0.544786
0.663996
0.675917
0.909567
0.933409
0.860691
1.210570
2.826452
13.980865
35.761595
90.620518
161.313415
281.824470
375.452638
472.090840
513.124466
487.864614
422.765613
299.782753
212.248564
118.428469
67.476630
28.418899
13.691783
6.424785
5.423427
5.132556
5.291700
5.224943
5.195737
5.276799
5.166531
5.720854
5.790591
##ZVALUE=380
0.466704
0.479817
0.444651
0.512600
0.577569
0.607967
0.458956
0.611544
0.474453
0.329614
0.568628
0.503659
0.478625
0.497699
0.619888
0.380874
0.508428
0.511408
0.591874
0.415444
0.610948
0.547767
0.448823
0.513792
0.517964
0.525713
0.564456
0.591874
0.432730
0.531673
0.592470
0.659823
0.581741
0.632405
0.520945
0.552535
0.593662
0.515580
0.619888
0.586510
0.417829
0.666976
0.700951
0.619888
0.504851
0.831485
0.651479
0.630617
0.611544
0.584722
0.630617
0.698566
0.645518
0.622869
0.698566
0.654459
0.673532
0.762939
0.582933
0.589490
0.689626
0.847578
0.671744
0.752807
0.643730
0.919700
0.965595
0.906587
0.956655
0.994802
1.149774
1.732707
5.896688
26.490688
60.706735
138.754845
222.406983
344.351530
430.079699
502.087474
503.430963
430.983901
357.859731
248.571634
168.536901
83.183646
44.113994
16.875863
8.621812
5.396605
4.980564
4.965663
4.958510
4.974604
4.931688
5.221963
##ZVALUE=385
0.149608
0.113845
0.155568
0.255704
0.046492
0.022650
0.250936
0.322461
0.090599
0.233650
0.110865
0.114441
0.173450
0.272989
0.153780
0.180602
0.283718
0.025630
0.160933
0.247955
0.166893
0.237823
0.184774
0.227690
0.282526
0.160933
0.026822
0.173450
0.166893
0.287890
0.282526
0.332594
0.399947
0.316501
0.268817
0.256896
0.240803
0.260472
0.110865
0.203848
0.253916
0.255704
0.237823
0.217557
0.292659
0.233650
0.122786
0.251532
0.259876
0.403523
0.268817
0.314713
0.366569
0.356436
0.248551
0.396967
0.128746
0.337958
0.307560
0.365973
0.317693
0.320673
0.315905
0.342727
0.403523
0.503659
0.476837
0.445843
0.488758
0.500679
0.638962
0.712872
0.864863
1.050830
2.535582
14.715791
38.746595
97.118616
171.186924
299.268961
392.279029
477.097631
497.125983
467.408895
407.504439
296.072960
209.794641
115.407705
65.930486
28.005838
12.923479
5.358458
4.541874
4.258752
4.144907
4.300475
##ZVALUE=390
0.221729
0.121593
0.288486
0.097752
0.152588
0.171661
0.241995
0.176430
0.186563
0.131726
0.199676
0.183582
0.231862
0.134706
0.232458
0.224710
0.178814
0.088811
0.156760
0.127554
0.161529
0.175834
0.226498
0.063777
0.255704
0.259876
0.291467
0.162721
0.327826
0.258684
0.163913
0.269413
0.228882
0.255704
0.152588
0.208616
0.283718
0.191927
0.300407
0.297427
0.366569
0.264645
0.209808
0.282526
0.242591
0.332594
0.221729
0.344515
0.306964
0.277758
0.131726
0.364780
0.446439
0.375509
0.339746
0.362992
0.507832
0.340939
0.254512
0.282526
0.400543
0.270605
0.333786
0.357628
0.180602
0.473857
0.334978
0.395775
0.414848
0.456572
0.589490
0.591874
0.642538
0.834465
0.644922
0.848770
1.405478
7.862449
23.985505
72.442889
135.139823
246.868730
334.458947
430.446863
482.320786
492.546558
452.919006
357.732773
272.232890
166.657567
97.707510
40.697455
19.197464
6.758571
4.332662
4.159808
##ZVALUE=395
0.150800
0.175834
0.187755
0.304580
0.116825
0.178814
0.227690
0.165701
0.191927
0.191927
0.269413
0.057817
0.135899
0.043511
0.140667
0.284910
0.134706
0.179410
0.164509
0.006557
0.146627
0.237823
0.219941
0.102520
0.063777
0.277758
0.219941
0.206828
0.223517
0.235438
0.205636
0.255704
0.360608
0.243783
0.329614
0.255704
0.349879
0.174642
0.110865
0.253916
0.335574
0.252724
0.271797
0.276566
0.359416
0.281930
0.175834
0.369549
0.302792
0.225902
0.237823
0.060797
0.291467
0.210404
0.258684
0.316501
0.353456
0.271797
0.335574
0.285506
0.275970
0.326633
0.364780
0.309944
0.284910
0.374913
0.371933
0.487566
0.473857
0.467896
0.618696
0.698566
0.686646
0.705719
0.705719
0.414848
0.583529
0.711679
0.892878
4.353523
15.949607
53.563714
100.426674
187.914968
276.011825
397.639871
466.408730
508.818626
492.768884
417.152643
326.865911
203.866959
127.415657
56.785941
28.124452
10.464787
##ZVALUE=400
0.152588
0.030994
0.282526
0.383854
0.133514
0.103712
0.172853
0.256896
0.208616
0.227690
0.191927
0.131726
0.056624
0.221729
0.023842
0.161529
0.284910
0.133514
0.129938
0.007749
0.189543
0.177622
0.059605
0.124574
0.242591
0.144839
0.217557
0.163913
0.194907
0.272989
0.314713
0.274777
0.337958
0.287890
0.452995
0.195503
0.278950
0.233650
0.161529
0.239611
0.208616
0.156760
0.213981
0.233650
0.336766
0.295639
0.351667
0.220537
0.328422
0.346899
0.244975
0.397563
0.233650
0.103712
0.299811
0.233650
0.182986
0.265837
0.253916
0.382662
0.229478
0.362992
0.261664
0.263453
0.346899
0.335574
0.444651
0.457764
0.439882
0.507832
0.451803
0.573993
0.650883
0.659823
0.526905
0.501871
0.634789
0.448823
0.456572
0.670552
0.809431
2.205968
8.409619
31.140447
66.044927
144.978762
228.911638
353.729725
437.288880
505.920649
514.921546
449.776649
372.684598
247.760415
164.951682
84.532499
##END
