##TITLE=QP00652
##FORMAT=SPECTACLE-ASCII V-1.2
##DATA TYPE=ULTRAVIOLET SPECTRUM
##SECOND TYPE=ULTRAVIOLET SPECTRUM
##DATE=03/01/18
##TIME=14:19:31
##SPECTROMETER/DATA SYSTEM=SPECTACLE
##XUNITS=NM EM
##YUNITS=ENERGY
##YFACTOR=1
##FIRSTX=220
##LASTX=410
##NPOINTS=96
##3DDATA=Equidistant
##ZUNITS=NM EX
##FIRSTZ=210
##LASTZ=400
##ZPOINTS=39
##XYDATA=(Y..Y)
##ZVALUE=210
2.284646
2.298951
2.261996
2.328753
2.509952
2.622604
2.440810
2.506971
2.914667
2.680421
1.978874
2.275705
2.370477
1.748800
2.567768
1.985431
2.746582
2.799630
2.603531
3.068447
2.957582
3.322959
3.337860
3.108978
2.984405
3.232956
3.466606
3.358722
3.478527
4.007816
4.301667
4.838705
4.202724
3.990531
4.188418
4.218817
4.460812
4.473925
5.740523
4.491806
4.873872
4.082918
5.053878
5.280972
5.236864
4.973412
5.106926
5.279779
5.043745
5.778670
4.999638
5.351901
5.428791
6.877780
5.677938
6.327629
7.336736
6.603599
6.318688
6.346703
5.735755
5.553961
5.547404
6.251931
6.523728
6.958842
6.901622
8.701682
8.219481
11.374950
12.973547
13.437867
16.121864
16.851425
17.857552
19.464493
20.456910
20.089746
20.668507
16.884804
17.502904
15.678406
13.679862
11.314750
10.758638
8.112788
7.858872
6.918907
7.332563
7.114410
6.761551
6.505847
6.941557
6.410480
5.998611
7.008910
##ZVALUE=215
5.741715
5.578995
5.718470
3.998876
4.754663
4.696846
4.606843
4.420877
4.911423
4.701614
4.542470
3.694892
4.193783
3.024936
2.660751
2.738833
3.222823
2.739429
2.922416
3.329515
3.254414
3.161430
3.723502
4.211664
3.599524
3.996491
3.482699
4.449487
4.430413
4.219413
5.091429
5.099773
4.990697
4.867911
5.338788
4.836917
5.620718
5.248785
5.957484
5.889535
5.299449
5.787611
5.849600
4.926920
6.236434
5.635619
6.821752
6.250739
6.385446
6.178617
6.409883
6.950498
6.996989
6.910563
7.586479
6.813407
6.412864
8.063912
7.604957
7.223487
6.698966
7.455945
7.907748
7.171631
8.088946
7.922649
7.912517
9.410977
10.170937
11.908412
12.413859
14.866590
17.071962
19.821525
21.085739
23.792982
25.232434
22.188425
23.752451
21.612644
19.019842
17.055869
16.094446
12.852550
10.909438
9.726882
8.648634
9.306669
7.490516
7.235408
8.165836
6.571412
6.051660
7.042885
7.494688
7.689595
##ZVALUE=220
16.937852
18.314719
20.538568
20.086765
19.828677
17.612576
14.518499
11.600852
11.339784
10.293722
10.422468
11.862516
12.467504
9.424686
8.800626
6.535649
5.805492
4.299879
3.631711
3.141761
4.118681
3.932714
3.476739
4.909635
4.138947
4.705787
3.787875
4.688501
5.142689
5.791783
4.735589
5.559921
5.623698
5.444884
5.706549
6.704926
5.213618
6.483793
6.101727
5.984902
5.973577
6.034970
6.859899
6.804466
6.408691
7.257462
7.190704
6.898642
7.381439
7.271767
6.820560
6.982684
7.668734
6.924868
8.719563
7.410645
7.619858
6.699562
7.725954
7.474422
8.136630
8.350611
7.840991
8.316636
7.671714
7.831454
8.414984
9.512901
10.450482
11.803508
13.609529
15.715957
17.399788
18.530488
19.585490
22.449493
23.131967
23.072958
21.735430
19.809604
20.116568
16.717911
15.563965
13.925433
12.445450
10.391474
9.163618
8.449554
8.150935
8.657575
8.218884
8.346438
8.882880
7.886887
9.042621
9.409785
##ZVALUE=225
31.484962
32.734871
42.613745
59.705973
65.556765
67.322850
62.726736
54.724813
43.113828
37.618876
29.660463
26.192665
24.774671
27.366877
24.327636
24.880767
19.160509
17.698407
12.701750
8.597970
6.012917
5.003810
3.978610
4.042983
4.472733
4.946589
4.449487
4.918575
5.597472
5.110502
5.914569
4.905462
6.713867
5.766749
6.585717
6.050467
6.217957
6.889701
5.736947
6.198883
6.528497
6.550550
6.630421
6.724000
7.217526
6.540418
7.484555
7.112622
7.039905
7.576942
7.234812
7.805824
8.560419
7.562637
8.147955
8.658767
8.347631
7.864833
8.220673
7.920861
8.137822
8.266568
7.774830
8.616447
9.210706
9.284616
9.847879
10.758638
11.276603
12.398958
12.038946
14.432669
17.195940
17.556548
19.204617
20.583868
20.348430
20.789504
19.337535
17.134547
18.316507
14.330745
12.730956
12.282729
10.992885
10.916591
10.641813
9.880662
9.208918
9.035468
10.241866
9.501576
10.661483
11.066794
9.871721
10.946989
##ZVALUE=230
27.589798
29.406548
52.941442
75.471997
110.945702
137.235522
164.008737
164.926648
149.639845
133.544803
100.377798
76.391697
58.053732
48.779845
43.683648
51.151514
51.147938
50.918460
44.768453
35.153627
25.399923
20.538568
12.176633
9.817481
5.981922
4.490614
4.535913
4.649758
5.010962
5.149841
6.187558
6.289482
6.009936
5.732775
5.843639
6.428957
6.237626
6.806850
6.343722
6.795526
7.282495
7.351637
6.623864
7.191896
6.413460
7.238984
7.314682
7.714629
6.893873
8.523464
8.582473
7.493496
8.342862
8.199811
8.840561
8.099675
7.767677
8.729696
8.317828
10.254979
8.595586
9.136796
9.355545
8.905530
10.391474
9.815693
10.667443
11.093616
12.322664
12.668967
15.913844
15.881658
17.733574
19.569993
19.806623
18.972754
18.920898
20.220876
18.193722
16.799569
17.973781
15.826821
14.438629
15.286803
13.321638
13.387799
12.844801
11.854768
12.156963
11.886954
11.226535
10.890961
10.582805
11.845827
11.075735
11.038780
##ZVALUE=235
10.295510
11.336803
24.721622
57.789683
94.749928
164.251924
217.234492
282.107592
317.717791
321.216583
288.646817
238.005519
168.506503
122.723579
84.990859
76.301694
70.957541
79.426765
82.455873
86.197853
74.780583
62.006712
52.586794
35.582781
25.048852
15.328526
10.607839
7.385612
5.483627
6.455779
6.055832
5.898476
6.061792
6.529689
5.682707
7.213950
6.585717
6.230474
6.456971
5.945563
7.086992
6.887913
6.996989
6.937981
7.097721
7.886887
6.731749
8.291602
7.438660
7.235408
8.112788
7.080436
7.619858
8.487701
8.200407
7.349849
8.899570
9.909868
7.863641
10.671616
9.381771
9.665489
9.222627
10.558963
10.650754
11.831522
11.650920
12.960434
13.494492
15.610456
15.973449
18.017888
20.518899
22.719502
21.376610
21.824837
23.270845
21.204948
21.484494
21.096468
19.996762
19.023418
17.164946
18.896461
17.082691
15.833974
15.760660
16.464591
14.732480
15.341640
16.436577
15.943646
13.942719
14.249682
15.985966
14.649630
##ZVALUE=240
2.115965
2.512932
6.443858
14.265776
39.860606
79.659820
159.563422
241.673589
372.545719
453.812480
522.120595
530.692935
497.016907
395.616889
308.415890
199.890733
144.723654
106.514692
96.030831
103.086829
111.840963
118.688941
116.261840
104.903579
83.176494
64.109564
45.191646
30.733943
17.062426
11.476874
9.678602
6.608963
6.759763
7.252693
7.821918
7.131696
8.208752
7.243752
7.155538
6.324649
7.393956
6.896853
7.458925
7.096529
8.358955
8.141994
7.518530
7.198453
8.020997
9.176731
8.056760
8.403659
9.447932
7.511973
9.645820
8.496642
8.465648
8.666515
8.837581
11.009574
10.897517
10.631680
11.541843
11.846423
12.190938
12.438893
14.016628
14.316440
16.572475
18.069744
19.437671
20.591617
22.469759
23.921728
25.891662
26.574731
26.337504
27.459860
25.777817
24.810433
24.395585
22.631884
21.013618
22.181869
20.373464
20.639896
20.932555
19.021630
18.419623
19.628406
19.107461
18.816590
17.493963
19.314885
18.724799
19.633770
##ZVALUE=245
1.751781
1.696944
1.836419
1.494884
4.298687
10.516644
36.877990
79.969764
174.313784
270.081758
425.907969
529.699922
621.106625
665.401816
647.511482
544.776917
436.896682
299.426913
208.521485
131.944418
102.659464
99.753737
115.338564
124.023557
130.595565
127.854943
109.024644
93.179941
71.055889
51.193833
35.105944
22.320747
13.167858
9.797812
7.305741
7.130504
6.548762
6.474853
6.200671
7.494688
7.075667
7.018447
7.616878
7.577538
7.368922
7.194877
7.251501
8.114576
8.136630
7.472634
7.853508
7.924438
7.755756
7.826686
8.311868
9.177923
9.596944
9.343624
9.036660
10.685921
9.686947
10.055900
10.954738
11.027455
10.877848
12.043715
12.428761
13.130903
15.680790
15.971661
17.481446
19.371510
20.437837
22.721887
23.839474
25.554895
24.371743
24.145842
24.839640
22.061467
22.309422
21.115541
21.268725
19.914508
20.713806
20.882487
18.684864
18.861890
20.325780
20.682812
19.177794
19.607544
19.858479
21.105409
19.378662
19.296408
##ZVALUE=250
1.355410
1.501441
1.498461
1.722574
1.638532
1.499653
2.403855
12.505651
35.533905
73.788762
172.058940
288.944840
461.430550
582.200885
713.587999
768.263936
757.315755
679.023862
582.129955
409.381986
277.583599
157.218575
113.171935
94.372630
103.403926
123.298764
134.123564
143.193603
135.075450
121.303797
103.705525
73.285699
55.993795
34.166574
21.936893
12.288690
8.515716
6.473660
6.699562
6.179810
6.037951
6.029606
6.526709
6.208420
6.458759
5.621910
6.792545
6.493926
6.073713
6.700754
7.027984
6.812811
7.621646
7.127523
8.045435
6.744862
7.462502
6.883740
7.354617
7.833838
7.760525
9.129643
8.531809
8.773804
9.351969
9.774566
10.152459
11.755824
12.604594
12.819767
14.556646
17.387867
16.382933
19.149780
19.493699
20.380616
20.466447
20.428896
20.362735
18.941760
19.497871
20.361543
19.143820
18.100739
20.604730
18.861890
18.684864
18.637776
18.834472
17.687678
17.871857
19.117594
18.281937
16.529560
18.740892
18.856525
##ZVALUE=255
1.098514
1.179576
1.324415
1.073480
1.091957
1.295805
1.457930
1.277924
1.955628
4.621744
21.973848
59.172511
125.334859
258.856416
394.525528
602.104664
722.971559
837.119818
857.903957
779.495835
667.199492
520.476699
326.557755
210.891962
120.489597
90.903640
87.510943
104.692578
127.543807
139.634609
144.241452
144.946575
130.924582
105.506778
82.452893
54.045916
36.937594
20.948648
13.518929
7.949471
6.715655
6.808639
6.381869
5.647540
5.628467
5.617738
5.607605
5.820990
5.482435
6.122589
6.345510
6.160736
6.172657
6.675720
6.621480
6.150603
6.734729
7.072687
6.321669
7.521510
7.298589
7.925630
7.870793
8.617640
8.555651
8.502603
9.354949
9.874701
10.699630
12.433529
13.372898
13.610721
15.236735
16.980767
16.843677
17.318726
16.615987
18.561482
18.318892
18.129945
18.053651
18.477440
17.314553
17.454624
16.242862
16.745925
18.214583
17.912984
16.149879
17.437935
16.762614
16.788840
16.747713
17.719865
17.288923
17.422438
##ZVALUE=260
1.112819
1.134872
1.094937
1.080632
1.319647
1.363754
1.263618
1.095533
1.620650
1.411438
1.827478
2.463460
7.329583
31.560659
71.335435
176.794529
297.383666
498.589873
661.069751
865.967870
952.503681
967.092514
857.021809
697.178841
460.508466
312.948823
177.982450
114.100575
78.304410
85.543990
107.561946
127.994418
145.235658
155.854821
150.384903
133.682489
110.715628
81.313848
60.177445
37.140846
23.589730
13.275743
9.343624
6.188750
5.833507
6.085634
6.108880
5.703568
6.150603
6.217957
6.660819
6.050467
6.339550
6.452799
6.290674
5.956888
6.444454
6.091595
6.855726
6.592870
6.656647
6.900430
6.980896
7.359982
8.121729
8.702874
8.909702
9.587407
10.181665
11.223555
11.180639
12.563467
13.513565
14.198422
15.398860
15.323758
15.517473
15.470982
16.040802
15.476942
15.653968
15.739799
16.007423
15.836954
16.504526
15.869737
16.185641
15.690923
15.997887
15.586615
16.282797
16.116500
16.352534
17.497540
16.978979
17.427802
##ZVALUE=265
0.967979
1.000762
0.951886
1.087785
1.103878
1.194477
1.144409
1.189709
1.426935
1.315475
1.549721
1.359582
1.607537
1.992583
3.955960
21.427870
55.322647
141.337514
252.151489
472.086668
668.451786
848.872662
1015.750766
1015.750766
975.471735
847.280025
628.061891
441.461802
246.188641
150.761604
97.228885
70.181489
84.747672
110.847950
133.711696
154.410601
157.291889
148.032904
133.184791
107.870698
84.065795
55.902600
38.428903
22.059679
13.809800
8.370876
7.528663
6.616712
6.546974
6.360412
6.852746
6.266832
6.653666
6.353855
6.194711
6.690621
6.471872
6.344914
7.174611
7.215738
7.007718
6.724596
7.196665
7.126927
7.410645
7.856488
8.312464
9.277463
9.720922
10.526776
10.996461
11.945963
12.840629
13.457537
14.094710
14.545918
14.528632
14.805794
14.470816
14.965534
14.765859
14.788508
15.584826
14.082789
15.448928
14.377832
14.973879
14.854670
15.236735
14.746785
15.431643
14.839768
15.952587
14.851689
15.751719
16.262531
##ZVALUE=270
0.882745
0.916719
0.912547
0.967979
0.877976
0.882745
0.821948
0.843406
1.123548
0.915527
1.268983
1.092553
1.197457
1.353621
1.502633
1.759529
2.466440
10.799766
30.541420
98.873973
201.785564
354.298949
626.261830
851.442814
1015.750766
1015.750766
1015.750766
1015.750766
861.923695
664.657950
471.620560
251.214504
146.180987
74.417591
65.283775
86.631775
109.723806
135.937929
153.380632
160.373449
153.191686
135.580897
113.075972
81.246495
61.412454
34.726858
23.439527
13.286471
10.161996
7.243752
6.807446
6.404519
6.725788
6.904602
6.975532
6.929636
7.486939
7.449985
7.164478
6.693602
7.064939
6.803870
7.557869
7.818937
8.051991
7.671714
8.553863
8.445978
8.906722
9.925961
10.510683
11.776686
12.608767
13.773441
13.619661
13.594627
13.743639
14.406443
14.026761
13.908744
14.055967
13.506413
13.967752
13.712645
13.444424
13.588667
13.865829
13.897419
13.933778
14.181733
14.293790
14.238954
13.432503
14.074445
14.176965
14.786720
##ZVALUE=275
0.732541
0.973940
0.849962
0.712872
0.889897
0.867844
1.086593
0.927448
1.133680
0.878572
0.890493
0.857711
1.005530
1.106858
1.151562
1.398921
1.304746
1.710653
1.881719
4.794598
17.884970
53.132772
159.089565
296.619534
559.387803
761.663914
1002.679467
1015.750766
1015.750766
1015.750766
1015.750766
813.664794
580.708981
316.457748
183.086991
81.193447
55.877566
61.322451
79.199672
110.163689
131.891966
149.840713
156.165957
147.844553
135.455728
107.478499
84.783435
58.754683
41.228533
23.313761
15.509725
9.689927
6.957650
6.681681
6.349683
6.273985
6.856918
6.258488
6.729960
6.953478
6.815791
7.527471
7.290840
7.375479
7.702708
7.896423
8.248687
8.633733
9.266734
9.590983
10.420680
11.324883
11.951923
12.505651
13.287663
13.302565
13.714433
13.513565
13.452768
12.946725
12.756586
13.304949
12.903810
12.465715
13.097525
12.889504
12.897849
12.468696
13.095737
13.145804
13.308525
12.993813
13.020635
12.881756
13.214946
13.683438
##ZVALUE=280
0.663996
0.683665
0.698566
0.825524
0.626445
0.684857
0.672936
0.724792
0.604987
0.921488
0.870824
0.849962
0.996590
1.047850
1.199841
0.940561
1.409650
1.271963
1.355410
1.287460
1.857877
1.995564
10.968447
38.981438
123.770833
226.978660
434.757471
639.459491
921.314955
1015.750766
1015.750766
1015.750766
1015.750766
790.261030
577.563643
323.389769
192.137957
87.710619
52.634478
42.204857
55.085421
82.469583
106.125474
132.530928
145.361423
153.182745
147.239566
128.807425
108.992457
82.391500
59.725642
37.626624
24.595857
14.118552
9.362698
7.400513
6.748438
6.436706
6.674528
6.735921
7.223487
6.967783
7.632971
7.247925
7.799864
7.595420
8.040667
8.912683
9.303689
9.672642
10.162592
11.343956
11.387467
11.368990
11.719465
11.926889
11.940598
12.161732
12.030602
12.660623
12.246966
12.257695
12.509823
12.193918
12.363791
11.987686
12.053847
12.042522
12.263656
12.017488
11.912584
12.524724
12.647510
12.354851
12.241602
12.251735
##ZVALUE=285
0.692606
0.830889
0.713468
0.773668
0.696778
0.835657
0.744462
0.686646
0.741482
0.723600
0.640750
1.011491
0.895858
1.116991
1.069903
1.045465
1.099706
1.161695
1.002550
1.543760
1.494884
1.610518
1.651645
2.000928
6.582737
20.698905
75.763464
158.890486
340.383649
525.853634
793.607831
991.597772
1015.877724
1015.877724
1015.877724
993.891954
712.696910
491.511822
253.873467
142.424703
59.733987
35.388470
36.375523
50.643682
77.681541
98.637938
126.568675
141.335726
149.824619
145.846605
129.328966
112.067461
82.038641
61.979890
39.144754
26.385784
14.979839
10.476708
8.179545
7.287860
7.113814
7.320642
7.555485
7.200837
7.981658
8.416772
8.825660
8.683801
9.563565
9.913445
10.701418
10.815859
11.464953
11.504889
12.313724
11.976957
12.460947
11.957884
12.342930
11.825562
11.948943
11.847615
12.053847
12.029409
12.017488
11.920929
12.006760
12.105703
12.451410
12.559891
12.121797
12.264848
12.673736
12.427568
11.834502
12.440681
##ZVALUE=290
0.628829
0.574589
0.660419
0.615716
0.550747
0.545979
0.768900
0.756979
0.598431
0.676513
0.725985
0.673532
0.718832
0.728965
0.661612
1.018643
0.907779
0.966787
1.133680
0.925660
1.087785
1.367927
1.382828
1.613498
1.426935
1.733899
2.337694
7.654428
39.686561
98.124743
199.643970
418.768525
638.441443
951.060653
1015.751958
1015.751958
1015.751958
1015.751958
882.484913
595.832467
395.388007
200.989842
105.049610
41.821599
26.543736
34.168959
49.140453
73.129535
94.517469
120.409727
136.597753
145.419836
142.634511
126.846433
108.291507
81.056952
60.102940
38.589835
26.705861
15.880466
10.972619
8.332729
8.158684
7.653832
7.755756
7.989407
8.187890
8.768439
9.282827
9.742975
10.391474
10.737777
11.439919
11.902452
11.630654
11.994839
11.796951
11.814833
12.219548
12.053847
11.756420
11.940598
12.201667
12.135506
12.734532
11.866689
12.033582
12.608767
12.196898
11.611581
11.969805
12.324452
11.104941
11.866689
12.191534
11.950731
##ZVALUE=295
0.566840
0.613928
0.547767
0.682473
0.640750
0.438690
0.571609
0.526905
0.706911
0.720620
0.686646
0.709891
0.677705
0.736713
0.707507
0.857711
0.663996
0.716448
1.015663
0.937581
0.897646
0.969768
1.106858
1.262426
1.197457
1.358986
1.531839
1.742840
1.747608
3.483891
12.514591
56.709647
138.949752
343.417525
559.192896
898.301005
1015.745997
1015.745997
1015.745997
1015.745997
1001.097560
705.476999
484.566689
255.755782
138.385892
52.151680
26.973486
22.403002
29.461980
47.712922
65.089464
91.665983
111.250877
130.051970
137.282610
133.222938
124.004483
101.118684
81.901550
56.106448
41.558743
25.183558
17.517805
11.768937
9.458661
9.115934
8.797646
9.154677
9.674430
9.449720
10.562539
11.343956
11.066794
11.869669
11.806488
12.277961
12.146831
12.080669
11.551976
12.340546
12.498498
12.308955
12.612939
12.420416
12.734532
12.217760
12.371540
12.566447
12.239814
12.416840
12.219548
12.339950
12.547970
11.888742
12.501478
11.717677
##ZVALUE=300
0.474453
0.639558
0.562668
0.467896
0.628829
0.472665
0.680685
0.709891
0.468493
0.661612
0.668764
0.721812
0.708699
0.561476
0.710487
0.639558
0.664592
0.672936
0.949502
0.903606
0.789762
0.973940
1.023412
1.085997
0.994802
1.212955
1.250505
1.336932
1.192689
1.706481
1.596808
2.213717
8.102655
29.286742
102.519989
208.335519
451.125503
701.657534
1015.750766
1015.750766
1015.750766
1015.750766
1015.750766
982.695818
640.753508
411.853790
197.899938
101.233721
37.347674
19.734502
19.356608
26.304722
43.270588
59.138536
85.042715
104.783773
123.140812
131.227970
130.234957
121.138692
101.448894
82.647800
58.529973
43.402910
26.865602
19.383430
12.949705
10.921955
10.098815
10.326505
10.380745
10.550618
11.523962
12.074709
12.277961
12.493730
12.287498
12.589693
12.414455
12.309551
12.483597
12.585521
12.655854
12.595654
12.696981
12.794733
12.532473
12.514591
12.318492
12.300611
12.055635
12.698770
12.589693
12.334585
12.045503
12.416840
##ZVALUE=305
0.636578
0.653863
0.444651
0.543594
0.457764
0.650883
0.617504
0.645518
0.601411
0.680685
0.724792
0.737906
0.748634
0.739694
0.667572
0.739694
0.779629
0.878572
0.839829
0.754595
0.833869
0.714660
0.833869
0.848770
1.072884
0.884533
1.044869
1.052618
1.263618
1.293421
1.568794
1.732707
1.966953
2.131462
3.556013
21.678805
61.791539
173.137784
318.756700
601.556897
857.786536
1015.847921
1015.847921
1015.847921
1015.847921
1015.847921
838.403702
521.207452
322.590470
144.083500
67.784786
23.499727
14.486909
17.525554
25.531650
41.585565
59.009790
82.731843
100.661516
117.273927
123.758912
122.631788
114.299655
95.547438
77.733994
55.226684
40.508509
26.991963
19.628406
13.929605
12.082458
11.648536
11.957884
11.829734
12.066960
11.471510
12.139678
12.236834
11.994839
12.413859
12.378693
12.618899
12.627840
13.068914
13.003945
13.111830
12.572408
12.954473
12.721419
13.136864
12.485981
12.272000
12.832880
12.470484
12.843609
12.496710
##ZVALUE=310
0.520945
0.461936
0.446439
0.391603
0.394583
0.448823
0.536442
0.448823
0.270605
0.484586
0.605583
0.555515
0.572801
0.629425
0.625849
0.520945
0.712872
0.666976
0.582933
0.852942
0.629425
0.784993
0.843406
0.802875
0.587702
0.886917
0.762939
0.850558
1.023412
1.000762
0.964999
0.930429
1.084805
1.495481
1.485944
1.764894
2.124906
9.050965
32.579899
113.061666
222.016573
451.578498
694.826841
1005.775928
1015.750766
1015.750766
1015.750766
1015.750766
1003.528833
686.903000
448.423624
222.362876
116.041899
40.619969
16.676784
11.931658
15.158653
23.929477
34.132600
53.656697
70.130825
93.466640
106.698871
116.839409
118.559003
110.217929
95.863938
76.124668
59.377551
40.076971
30.188560
20.424724
15.931726
13.005733
11.980534
12.143850
11.921525
12.159944
11.310577
12.268424
12.174845
12.650490
12.380481
12.553930
13.499856
12.831688
13.023615
12.621880
12.909770
12.507439
12.374520
12.166500
12.243986
12.208819
12.184978
12.156963
##ZVALUE=315
0.416636
0.470877
0.282526
0.341535
0.458956
0.437498
0.518560
0.459552
0.485778
0.521541
0.491738
0.499487
0.695586
0.575781
0.389814
0.344515
0.416636
0.538826
0.483990
0.696778
0.689626
0.645518
0.751615
0.799894
0.664592
0.631809
0.777841
0.718832
0.743866
0.921488
0.779629
0.979900
1.071692
1.074672
1.064539
1.275539
1.329780
1.463890
1.697540
4.093647
15.801787
70.153475
157.533884
357.146859
574.602485
914.717913
1015.762687
1015.762687
1015.762687
1015.762687
1015.762687
768.060684
533.276796
279.194713
151.177645
54.529905
22.860765
11.406541
11.042953
14.972687
21.451712
34.528971
47.948956
68.543553
85.815787
103.139877
111.029744
112.490654
106.474757
89.610815
74.577928
56.788921
42.940974
27.943850
21.353960
15.261769
13.258457
12.594461
11.976957
11.967421
12.534857
12.043715
12.262464
12.789965
12.720823
12.541413
12.743473
12.671947
12.679696
12.402534
12.647510
12.247562
12.375712
12.517571
12.402534
12.041926
##ZVALUE=320
0.305772
0.357628
0.365973
0.522733
0.291467
0.427961
0.518560
0.374913
0.388622
0.250936
0.438690
0.565648
0.536442
0.478625
0.504851
0.413656
0.463724
0.593662
0.382662
0.410676
0.470877
0.538826
0.505447
0.553727
0.666976
0.495911
0.601411
0.746846
0.570416
0.701547
0.568628
0.775456
0.829697
0.917912
0.983477
1.004934
1.080632
1.195669
1.124740
1.430511
1.620650
2.202988
7.463694
41.085482
106.221437
271.463394
448.165536
734.622478
972.749591
1015.710831
1015.710831
1015.710831
1015.710831
943.059921
691.689849
381.404757
217.045546
87.114573
36.854744
12.996793
9.717941
10.647774
13.387799
20.596981
29.375553
46.113729
61.085820
80.565810
94.283819
106.227994
107.748508
101.480484
90.645552
70.384741
55.222511
38.342476
28.880835
20.006895
16.272664
13.832450
12.120605
12.440681
12.482405
12.557507
12.379885
12.431741
12.272596
12.415648
12.897849
12.279749
12.226701
12.354851
12.462735
11.996627
12.331605
12.645721
##ZVALUE=325
0.257492
0.230670
0.224710
0.131726
0.290871
0.374913
0.339746
0.369549
0.269413
0.324845
0.296831
0.307560
0.337958
0.427961
0.349879
0.228882
0.388622
0.260472
0.353456
0.170469
0.345707
0.398755
0.360608
0.228882
0.438690
0.474453
0.628829
0.633597
0.544786
0.560880
0.625849
0.552535
0.720620
0.592470
0.710487
0.804663
0.900626
0.866652
1.159906
1.128912
1.075864
1.319647
1.412630
1.742840
3.756881
28.817654
76.351762
192.323923
342.899561
629.955530
873.539448
1015.625000
1015.625000
1015.625000
1015.625000
977.935791
747.532845
458.328724
277.681947
122.089982
56.986809
17.801523
10.084510
8.948445
10.365844
13.972521
18.911958
30.549765
42.579770
62.171817
77.282786
91.218948
99.580884
100.712776
95.781684
80.071688
67.495704
50.892830
38.439631
26.098490
19.987822
15.285611
13.227463
12.242794
12.114644
12.026429
12.088418
11.700988
11.989474
12.253523
12.212992
11.925697
11.433959
11.800528
12.020469
12.184978
##ZVALUE=330
0.386834
0.331998
0.345707
0.337958
0.316501
0.395775
0.377893
0.444651
0.436902
0.359416
0.397563
0.340939
0.463724
0.359416
0.379682
0.418425
0.341535
0.491738
0.433922
0.421405
0.481606
0.545979
0.570416
0.667572
0.568628
0.633597
0.641942
0.665784
0.866652
0.683665
0.639558
0.708699
0.735521
0.775456
0.709891
0.689626
0.889897
0.785589
0.851750
1.028776
1.131892
1.198649
1.261830
1.366735
1.719594
2.152920
2.828836
10.380745
52.325726
132.311583
323.460698
533.129573
891.938806
1015.750766
1015.750766
1015.750766
1015.750766
1015.750766
838.613510
593.871474
320.506692
179.169774
71.294904
31.579733
12.076497
8.852482
9.162426
10.254979
14.052987
18.772483
30.696988
41.165948
58.468580
72.462559
86.610913
93.148947
94.479918
90.629458
76.510906
64.206719
47.262907
36.995411
26.658773
20.559430
15.907884
13.811588
12.586713
12.372732
11.890531
12.073517
11.814833
12.154579
11.947751
11.767745
11.627674
11.711717
##ZVALUE=335
0.460744
0.411868
0.403523
0.469685
0.423789
0.470877
0.600815
0.541806
0.338554
0.409484
0.527501
0.562668
0.371933
0.441670
0.421405
0.614524
0.495911
0.704527
0.523925
0.583529
0.569820
0.417829
0.534654
0.560880
0.626445
0.405908
0.498891
0.508428
0.704527
0.706911
0.596642
0.696778
0.699759
0.788569
0.770688
0.947714
0.842810
0.815988
1.004934
0.977516
0.948906
1.071692
1.132488
1.079440
1.370907
1.483560
1.561642
1.776814
2.218485
7.482767
30.500889
114.047527
231.555700
486.280918
753.316879
1015.818715
1015.818715
1015.818715
1015.818715
1015.818715
1015.818715
698.015690
460.242629
232.642889
120.647550
41.078925
17.697811
9.617805
9.151697
9.530783
10.882616
13.870597
18.310547
28.586984
39.186478
55.371523
68.078637
81.998706
88.835955
88.359714
83.604455
71.246624
61.638951
47.590733
36.942959
26.771426
21.061897
15.883446
13.638735
12.135506
12.223721
11.428595
11.444688
11.307597
11.214614
11.487603
##ZVALUE=340
0.428557
0.454783
0.346899
0.419617
0.477433
0.477433
0.394583
0.351667
0.382662
0.318885
0.442863
0.397563
0.400543
0.526905
0.514984
0.384450
0.509620
0.359416
0.361800
0.448823
0.536442
0.576973
0.537634
0.398755
0.469685
0.454783
0.616908
0.546575
0.609756
0.651479
0.679493
0.693798
0.649691
0.719428
0.762939
0.624657
0.706911
0.831485
0.904799
0.866652
0.855923
0.829697
0.958443
0.958443
1.154542
1.075864
1.340508
1.421571
1.522899
1.750588
1.885891
3.184676
11.434555
67.321658
178.663731
455.603004
767.471790
1015.750766
1015.750766
1015.750766
1015.750766
1015.750766
1015.750766
953.202844
635.811687
313.741565
162.325501
59.027672
24.890900
11.283755
9.821653
9.712577
10.004640
11.193752
13.644695
20.408630
26.629567
39.135814
50.440431
66.338778
76.648593
83.163977
83.449483
78.593493
69.879889
57.102442
46.840906
36.066771
27.135611
19.358993
15.719533
13.038516
12.132525
11.439919
11.557937
11.177659
##ZVALUE=345
0.331998
0.397563
0.331998
0.324845
0.356436
0.381470
0.324845
0.466704
0.398755
0.372529
0.447631
0.389814
0.343919
0.476837
0.459552
0.511408
0.460744
0.387430
0.346899
0.388622
0.423789
0.537634
0.486970
0.578761
0.664592
0.483990
0.529885
0.557899
0.632405
0.688434
0.547767
0.586510
0.609756
0.470877
0.512600
0.756979
0.784993
0.579953
0.592470
0.905991
0.736713
0.866652
0.852942
0.888705
0.956655
0.820756
1.036525
1.353621
1.354814
1.475811
1.604557
1.825690
2.303720
2.530813
6.795526
50.716400
138.486624
376.365781
651.031733
1015.750766
1015.750766
1015.750766
1015.750766
1015.750766
1015.750766
1015.750766
803.651810
445.257425
235.981941
88.809729
39.224625
14.555454
10.486841
9.669662
9.578466
9.565949
10.212660
12.946725
16.740561
25.507808
34.457445
48.505664
58.717728
70.186853
75.440407
78.331828
74.655414
67.043900
58.299899
46.103001
36.266446
25.410652
20.395517
15.046597
13.237000
12.097955
##ZVALUE=350
0.503659
0.389814
0.442863
0.426769
0.341535
0.487566
0.367761
0.550747
0.300407
0.389814
0.386834
0.430942
0.390410
0.368953
0.410676
0.538826
0.372529
0.307560
0.468493
0.415444
0.467896
0.592470
0.468493
0.446439
0.434518
0.465512
0.428557
0.485778
0.395775
0.524521
0.646710
0.636578
0.528693
0.549555
0.583529
0.687838
0.641942
0.615716
0.765920
0.606775
0.877976
0.890493
0.739694
0.966787
0.925660
0.834465
1.106858
0.893474
1.055598
1.289845
1.214743
1.439452
1.571774
1.779795
1.808405
2.152920
3.108978
16.937852
60.545802
208.365917
418.848991
847.872496
1015.750766
1015.750766
1015.750766
1015.750766
1015.750766
1015.750766
993.011594
606.849790
354.859829
152.027607
68.301558
20.547509
10.966659
8.952618
8.975863
8.854866
8.927584
9.860992
11.608601
16.882420
22.187829
32.397509
41.424632
53.098798
61.505437
69.186687
70.884824
69.004893
63.072443
52.135587
44.115782
33.342838
25.846958
19.417405
##ZVALUE=355
0.279546
0.396967
0.303984
0.298619
0.483990
0.432730
0.271797
0.317693
0.403523
0.394583
0.520945
0.353456
0.408888
0.430942
0.427961
0.369549
0.454783
0.432730
0.591874
0.481606
0.534654
0.496507
0.525713
0.532866
0.561476
0.500679
0.498891
0.384450
0.595450
0.556707
0.478625
0.603795
0.635982
0.630617
0.707507
0.737906
0.679493
0.475645
0.587702
0.428557
0.568628
0.593662
0.723600
0.752807
0.807643
0.756979
0.759959
1.065731
0.906587
1.169443
1.084805
1.113415
1.171827
1.383424
1.482964
1.441836
1.856685
2.194643
2.402663
7.638931
28.854012
121.472478
263.542533
577.666759
925.383568
1015.750766
1015.750766
1015.750766
1015.750766
1015.750766
1015.750766
691.986680
419.638753
177.277923
81.061721
24.387836
11.859536
8.921623
8.451939
8.282661
8.218884
8.783937
9.388924
11.334419
13.813972
19.960999
26.531816
37.412643
45.969486
55.754781
62.066913
64.721704
64.193606
57.570934
50.903559
41.098595
##ZVALUE=360
0.425577
0.417829
0.420809
0.430942
0.324845
0.345707
0.544786
0.402927
0.341535
0.377893
0.300407
0.378489
0.307560
0.356436
0.476837
0.397563
0.459552
0.528693
0.426769
0.611544
0.497699
0.475645
0.394583
0.519753
0.560880
0.534654
0.540614
0.438690
0.617504
0.561476
0.464916
0.485778
0.590682
0.560880
0.557899
0.678897
0.701547
0.688434
0.609756
0.708699
0.682473
0.644922
0.793934
0.720620
0.722408
0.858903
0.781417
0.912547
1.001954
1.102686
1.106858
1.003742
1.054406
1.083612
1.145601
1.313686
1.465678
1.665950
1.656413
1.805425
2.121925
3.417730
10.527968
53.521991
139.338970
367.815495
630.525947
1005.265713
1015.775800
1015.775800
1015.775800
1015.775800
1015.775800
808.401108
514.765978
239.349008
118.824840
41.461587
16.736984
8.981824
8.367896
8.102655
7.980466
7.810593
7.951856
8.185506
9.523630
12.093782
15.746951
22.901893
29.535890
39.692521
47.661662
55.261850
58.501959
58.781505
##ZVALUE=365
0.320673
0.318885
0.392795
0.366569
0.338554
0.283718
0.413656
0.383854
0.296831
0.457764
0.334978
0.281930
0.418425
0.430942
0.381470
0.433922
0.406504
0.421405
0.498891
0.473857
0.569820
0.606775
0.345707
0.391603
0.506639
0.416636
0.421405
0.443459
0.615716
0.433922
0.576973
0.470877
0.592470
0.441670
0.576973
0.489950
0.479817
0.732541
0.553727
0.587702
0.723600
0.558496
0.663996
0.662804
0.787973
0.701547
0.705719
0.717640
0.789762
0.882745
0.825524
0.850558
0.881553
0.988841
1.139641
1.173615
1.105666
1.210570
1.297593
1.626611
1.645684
1.856685
2.285838
2.574921
5.788803
33.829808
88.912845
238.860846
449.552536
847.353935
1015.750766
1015.750766
1015.750766
1015.750766
1015.750766
975.168943
693.041682
377.902985
202.331543
69.897771
26.519895
9.368658
7.691979
7.505417
7.333755
7.025599
6.952882
7.095933
7.152557
8.320808
10.043979
14.209747
18.449426
26.470423
33.668876
42.185783
##ZVALUE=370
0.326633
0.322461
0.270605
0.274777
0.444651
0.288486
0.502467
0.465512
0.382662
0.410676
0.311732
0.435710
0.388622
0.312924
0.312924
0.207424
0.405908
0.419617
0.399947
0.402927
0.445843
0.373721
0.402927
0.348687
0.363588
0.458956
0.490546
0.385642
0.330806
0.360608
0.507832
0.356436
0.698566
0.585914
0.527501
0.611544
0.702739
0.446439
0.687838
0.555515
0.617504
0.708699
0.680685
0.640750
0.769496
0.610948
0.694990
0.770688
0.754595
0.859499
0.579953
0.875592
0.808835
0.750422
0.917912
0.969768
0.918508
0.984669
1.004934
1.103878
1.183748
1.427531
1.662970
1.716614
1.891851
2.348423
3.241897
18.263459
64.431429
210.575461
390.999913
729.777813
1001.131535
1015.750766
1015.750766
1015.750766
1015.750766
1001.424789
740.981698
396.107435
214.584470
79.725981
34.914613
12.523532
7.633567
6.720424
6.569624
6.544590
6.428957
6.064773
6.170869
6.375909
7.357597
9.220839
11.857748
16.581416
##ZVALUE=375
0.335574
0.458956
0.190735
0.234842
0.326633
0.466704
0.399947
0.223517
0.543594
0.373721
0.408888
0.256896
0.330806
0.330806
0.220537
0.317693
0.282526
0.333786
0.414848
0.383854
0.420809
0.308752
0.208616
0.383854
0.413656
0.437498
0.366569
0.563860
0.404716
0.390410
0.438690
0.489950
0.465512
0.393987
0.391603
0.531673
0.400543
0.332594
0.454783
0.437498
0.370741
0.403523
0.523925
0.514984
0.584722
0.584722
0.519753
0.535846
0.634789
0.651479
0.572801
0.460744
0.626445
0.735521
0.677705
0.710487
0.782609
0.818968
0.800490
0.942945
0.829697
0.946522
1.140833
1.287460
1.203418
1.476407
1.501441
1.940727
2.231598
7.275939
27.112961
106.289387
236.189961
542.291999
842.368603
1015.750766
1015.750766
1015.750766
1015.750766
1015.750766
977.498889
592.733622
367.784500
174.472928
83.260536
23.654699
9.907484
6.828904
6.460547
6.245971
6.035566
5.651712
5.851984
5.870461
6.067753
6.515980
##ZVALUE=380
0.266433
0.264645
0.404716
0.183582
0.166893
0.236630
0.256896
0.429749
0.223517
0.298619
0.240803
0.380874
0.309944
0.261664
0.405908
0.255704
0.377893
0.309944
0.293851
0.366569
0.371933
0.405908
0.302792
0.401735
0.510812
0.439882
0.320673
0.268817
0.374913
0.295639
0.414848
0.355840
0.261664
0.344515
0.395775
0.408888
0.360608
0.460744
0.340939
0.349879
0.426769
0.365973
0.567436
0.555515
0.495911
0.529885
0.703931
0.519753
0.488758
0.441670
0.632405
0.453591
0.473857
0.599623
0.641942
0.692606
0.660419
0.677705
0.815988
0.658631
0.815988
0.860691
0.936985
0.965595
1.019835
1.123548
1.276731
1.421571
1.664758
1.822710
2.138615
3.619790
14.169812
76.154470
186.767578
454.851985
738.030672
1015.750766
1015.750766
1015.750766
1015.750766
1015.750766
1015.750766
734.846592
487.454534
235.309005
115.684867
36.443472
14.292598
6.826520
5.948544
5.693436
5.587935
5.371571
5.188584
5.156994
##ZVALUE=385
0.272989
0.386834
0.311732
0.389814
0.352859
0.175834
0.365973
0.233650
0.293851
0.204444
0.234842
0.107884
0.176430
0.291467
0.261664
0.321865
0.302792
0.370741
0.326633
0.355840
0.244975
0.329614
0.362992
0.288486
0.189543
0.287890
0.347495
0.360608
0.401735
0.288486
0.292659
0.289679
0.345707
0.279546
0.394583
0.342727
0.220537
0.243783
0.390410
0.311732
0.416636
0.489950
0.441670
0.522733
0.421405
0.459552
0.499487
0.411868
0.420809
0.465512
0.424981
0.647902
0.459552
0.406504
0.506639
0.696778
0.609756
0.504851
0.618696
0.554919
0.624657
0.723600
0.655651
0.818968
0.880957
1.078844
0.997782
1.074672
1.262426
1.410842
1.586676
1.853704
1.856685
2.587438
7.100701
47.078729
128.107667
333.096981
591.425896
999.552011
1015.750766
1015.750766
1015.750766
1015.750766
1015.750766
895.019770
613.400936
319.043994
177.454948
69.505572
26.541948
7.919669
5.609989
5.289912
5.106926
5.018711
##ZVALUE=390
0.225902
0.185966
0.264645
0.332594
0.171661
0.160933
0.326633
0.277758
0.272989
0.279546
0.380874
0.268817
0.343919
0.295639
0.346899
0.212789
0.276566
0.286698
0.344515
0.257492
0.330806
0.339746
0.425577
0.152588
0.398755
0.369549
0.320673
0.303984
0.525713
0.387430
0.346899
0.225902
0.229478
0.307560
0.353456
0.346899
0.322461
0.231862
0.465512
0.422597
0.413656
0.481606
0.572801
0.303984
0.428557
0.455976
0.534654
0.408888
0.483990
0.491738
0.416636
0.537634
0.471473
0.542998
0.552535
0.407696
0.570416
0.614524
0.623465
0.614524
0.593662
0.684857
0.736713
0.651479
0.915527
0.885725
0.861883
0.989437
1.187921
1.315475
1.399517
1.559854
1.599789
1.542568
1.655817
1.801848
3.931522
16.504526
84.507465
200.289488
467.674732
737.323761
1015.750766
1015.750766
1015.750766
1015.750766
1015.750766
1015.750766
798.082948
532.940626
272.540450
139.746666
46.440959
16.211867
5.998611
5.060434
##ZVALUE=395
0.170469
0.272989
0.218749
0.315905
0.145435
0.228882
0.291467
0.305772
0.238419
0.252724
0.161529
0.342727
0.191927
0.206828
0.297427
0.280738
0.500679
0.260472
0.419617
0.273585
0.430942
0.286698
0.312924
0.370741
0.196695
0.246763
0.447631
0.277758
0.174642
0.170469
0.393987
0.219941
0.323653
0.257492
0.237823
0.250936
0.301600
0.289679
0.339746
0.376701
0.308752
0.326633
0.282526
0.298619
0.400543
0.319481
0.365973
0.482798
0.493526
0.519753
0.584722
0.545979
0.473857
0.552535
0.360608
0.498891
0.592470
0.427961
0.566840
0.493526
0.552535
0.700951
0.676513
0.696778
0.606775
0.890493
0.795722
0.980496
0.956655
1.112819
1.185536
1.350641
1.342893
1.368523
1.264811
1.361966
1.527667
1.634955
2.321601
14.617443
52.495003
173.781514
331.534743
633.187890
898.600817
1015.750766
1015.750766
1015.750766
1015.750766
1015.750766
953.647494
588.146448
372.044444
175.568461
83.050728
25.211573
##ZVALUE=400
0.428557
0.436902
0.263453
0.391603
0.417829
0.336766
0.386834
0.363588
0.378489
0.365973
0.397563
0.338554
0.326633
0.540614
0.418425
0.433922
0.440478
0.425577
0.311732
0.454783
0.509620
0.442863
0.362992
0.525713
0.400543
0.374913
0.457764
0.455976
0.412464
0.466704
0.419617
0.334978
0.394583
0.628829
0.375509
0.553727
0.415444
0.532866
0.454783
0.497699
0.474453
0.548959
0.548959
0.487566
0.382662
0.534654
0.383854
0.704527
0.625849
0.553727
0.517964
0.474453
0.604987
0.399947
0.559688
0.552535
0.664592
0.517964
0.696778
0.759959
0.687838
0.686646
0.634789
0.682473
0.656843
0.896454
0.844598
1.154542
1.071692
1.233816
1.293421
1.328588
1.411438
1.206994
1.339912
1.353621
1.305938
1.628995
1.603961
1.602769
2.201796
8.257627
31.373501
108.775496
223.813653
477.609634
730.727911
1015.882492
1015.882492
1015.882492
1015.882492
1015.882492
1015.882492
714.374781
470.438004
235.382915
##END
