##TITLE=QP00651
##FORMAT=SPECTACLE-ASCII V-1.2
##DATA TYPE=ULTRAVIOLET SPECTRUM
##SECOND TYPE=ULTRAVIOLET SPECTRUM
##DATE=03/01/18
##TIME=14:12:23
##SPECTROMETER/DATA SYSTEM=SPECTACLE
##XUNITS=NM EM
##YUNITS=ENERGY
##YFACTOR=1
##FIRSTX=220
##LASTX=410
##NPOINTS=96
##3DDATA=Equidistant
##ZUNITS=NM EX
##FIRSTZ=210
##LASTZ=400
##ZPOINTS=39
##XYDATA=(Y..Y)
##ZVALUE=210
2.007484
3.019571
2.537966
2.539754
2.859831
2.747774
3.247857
2.950430
2.624989
2.943873
2.806783
2.763867
3.014803
3.264546
3.483891
4.064441
3.655553
4.380941
3.841519
4.420877
4.298687
5.244613
4.776716
5.546808
5.255938
6.348491
5.615950
5.941987
5.483627
6.239414
6.874800
7.373691
7.630587
7.572770
8.260608
7.956624
7.406473
8.242726
8.772612
8.009672
8.390546
8.913875
8.612871
9.516478
9.383559
9.986758
9.616613
8.904934
9.249449
9.909868
11.272430
10.409951
10.071993
11.487603
10.870695
9.733438
11.355877
10.545850
10.861754
11.799932
10.385513
10.790825
11.586547
12.390614
12.224913
11.254549
13.877749
14.104843
15.397668
19.793510
22.683740
25.013685
31.739473
35.120845
37.372708
40.649772
44.661760
41.869879
45.571923
40.821433
39.088726
34.614801
30.568838
27.281642
22.359490
17.887950
15.295744
13.306737
11.866689
12.305975
10.063648
10.076761
11.160970
12.371540
10.426641
11.749864
##ZVALUE=215
9.026527
8.717775
7.777810
6.952882
5.584955
5.201697
4.873872
5.358458
5.768538
5.952716
6.399751
4.842877
4.181862
3.951788
4.243851
3.935695
3.771782
3.849864
4.394650
4.348755
4.525781
4.440546
4.885793
4.888773
5.717874
6.146431
5.621910
6.178617
6.367564
6.232858
6.879568
6.764531
6.864667
7.427931
6.679893
6.720424
6.666780
7.025599
7.757545
9.127855
8.020997
8.912683
8.407831
8.289814
8.082986
8.452535
7.947683
7.631779
8.508563
9.210706
8.717775
7.974505
8.914471
8.578897
8.203983
9.545684
9.444952
8.620620
7.988811
8.650422
8.548498
8.286834
8.748770
10.022521
9.611845
10.661483
10.362864
10.930896
12.996793
14.742613
17.454624
20.657778
23.297668
25.417805
27.314425
30.492544
28.844476
31.390786
28.489828
27.843714
25.164485
22.939444
19.097924
16.234517
15.485883
13.734698
11.107922
11.522770
9.542704
10.237694
9.023547
9.104609
9.343624
8.936524
9.125471
8.860826
##ZVALUE=220
33.937693
32.978654
36.206841
36.080480
31.700730
24.293661
17.814636
13.018847
11.513829
12.043715
12.259483
12.823939
12.991428
11.086464
8.698702
8.165836
5.940795
5.135536
5.553961
4.628897
4.365444
4.836917
5.231500
4.624724
5.470514
6.176829
5.648732
5.700588
5.602837
6.432533
5.831718
6.179810
7.355809
7.373691
7.211566
9.281635
7.702708
7.733703
8.577704
8.663535
7.785559
8.354783
7.896423
8.093715
8.932948
8.334517
7.914901
8.249879
8.381605
9.995699
9.653568
9.133816
9.710789
8.403659
8.723736
9.719729
9.762645
9.596944
8.728504
8.622408
9.769797
11.405945
10.585785
10.274649
10.657907
10.401607
11.872649
12.852550
13.643503
15.428662
17.021894
20.604730
23.698807
27.114749
29.367805
28.290749
31.514764
32.182932
30.441880
27.615428
28.112531
25.661588
22.757649
18.834472
16.453862
13.895631
12.935996
11.394620
10.803938
11.924505
9.814501
10.994673
9.975433
9.419918
9.805560
10.229945
##ZVALUE=225
56.894422
66.145658
85.945725
104.289651
113.908648
113.883615
101.427436
74.336529
53.103566
38.299561
26.240945
25.946498
23.743510
26.361942
29.181838
24.626851
22.544861
17.869473
13.880730
10.602474
8.143783
6.305575
5.525947
6.050467
5.900860
7.242560
7.303953
6.268620
7.564425
6.680489
7.073879
7.775426
7.473826
7.503629
7.339716
9.397864
9.168983
8.784533
9.077787
8.172989
8.471608
9.404421
9.780526
9.571910
8.673668
9.365678
9.398460
9.845495
10.074973
9.981990
10.676980
9.906888
8.918643
8.816719
10.271668
10.481477
9.872913
10.586977
10.484457
10.741949
11.418462
10.952950
11.853576
12.107491
10.908842
12.856722
13.408661
14.389753
15.683770
16.898513
19.546747
22.495985
24.963617
30.502677
29.700994
30.804873
32.798648
33.413768
29.872656
29.309988
26.439428
23.376942
21.302700
20.848513
17.756820
15.362501
13.947487
13.469458
12.882948
11.791587
12.443662
12.736917
11.955500
11.770725
11.803508
12.781620
##ZVALUE=230
60.781837
65.739751
112.854838
185.034871
244.933963
298.623443
322.876573
312.159657
269.717574
224.956870
136.966705
95.622540
59.269667
48.059821
45.644641
50.877929
51.883459
51.160455
46.872497
37.607551
31.327605
20.042658
14.972687
10.447502
8.977652
7.939935
8.408427
7.874966
9.762645
9.220839
8.648634
9.241700
8.590817
10.164976
9.966493
10.215640
9.693503
10.041595
11.505485
11.765957
9.942651
11.100769
10.931492
11.064410
10.373592
11.774898
10.511875
11.572838
11.030436
12.548566
11.347532
12.492537
12.815595
12.924671
13.462901
12.785792
13.895631
13.004541
13.217926
13.034940
13.175607
13.645887
13.646483
14.658570
14.726520
14.239550
14.980435
17.038584
17.645955
22.111535
23.542643
29.359460
31.357408
34.180880
35.033822
38.855672
35.208464
38.869977
34.581423
31.151772
28.754473
26.285648
22.886992
24.575591
21.365881
18.198490
18.352866
17.564893
17.009974
17.684698
17.451644
16.177893
16.501546
16.103983
15.298724
16.808510
##ZVALUE=235
25.078654
29.405951
60.947537
154.277682
251.552463
417.416692
538.738966
691.769719
762.787461
719.403028
598.575473
467.544794
281.203985
192.910433
116.634965
89.186430
74.753761
78.053474
83.695650
88.517666
79.687834
66.460967
57.312846
38.979650
29.991865
18.096566
15.677810
11.051893
9.498596
11.794567
10.815859
11.181831
11.164546
10.883808
12.276769
11.189580
12.018681
11.687875
11.745691
12.528896
12.721419
12.884736
12.107491
12.912750
12.087822
12.320876
12.178421
13.259649
13.162494
15.042424
14.179945
14.489889
14.936924
14.511943
14.323592
15.232563
13.887882
15.669465
14.989972
16.277432
17.877817
16.472936
15.431643
16.996861
18.221736
17.981529
19.833446
21.323562
21.798611
25.002956
28.647780
31.474829
35.189986
38.075447
40.434599
40.599704
41.225553
40.583611
39.173961
39.244890
36.070943
34.286976
30.505657
28.092861
27.486682
23.311973
22.640824
23.034811
22.381544
21.114945
21.053553
21.624565
20.678639
20.272732
20.421743
20.014644
##ZVALUE=240
2.943873
3.332496
13.989806
40.791631
124.961734
228.826404
450.270772
672.526956
984.764695
1015.750766
1015.750766
1015.750766
1015.750766
773.139000
557.767749
320.010781
207.549930
125.009418
105.594993
107.247829
120.521784
123.529434
114.317536
106.389523
85.821748
70.873499
49.818754
36.513805
22.225976
17.907619
14.926791
12.332797
12.707710
12.010932
12.318492
13.165474
12.560487
12.393594
12.327433
13.536811
13.014674
13.723969
13.978481
12.363791
13.857484
13.601780
12.959838
15.264750
14.540553
14.820695
14.626980
15.274882
14.989972
14.910698
14.613867
15.898943
15.717745
15.264750
17.232895
17.153621
18.295646
16.858578
16.909838
19.741654
19.862652
21.749735
20.925999
21.912456
25.490522
28.527975
32.603741
34.113526
38.655996
40.799975
45.714974
44.530630
47.500730
46.923757
43.815970
43.253899
38.837790
35.098791
34.454465
30.983686
31.699538
28.651953
26.941895
27.618408
26.211739
25.256872
25.509000
26.115775
23.127794
23.867488
24.710894
25.541782
##ZVALUE=245
2.024770
2.274513
2.495646
2.316833
6.325841
21.858811
81.288815
191.593766
465.402603
734.582543
1015.750766
1015.750766
1015.750766
1015.750766
1015.750766
1000.293493
772.053599
458.328724
292.499661
160.936713
116.081834
106.594563
119.833946
133.274794
133.932829
128.330588
116.347671
101.610422
73.572993
58.720708
40.441751
26.911497
18.800497
12.603998
11.390448
11.267662
11.323690
11.201501
11.703968
10.601878
11.746883
12.775660
12.501478
11.801720
12.218952
12.260675
11.666417
12.540817
12.345910
13.100505
12.778640
13.181567
12.776852
12.582541
13.624430
14.196634
12.970567
13.566613
14.627576
14.634728
14.344454
14.900565
15.874505
15.414953
16.521811
18.916726
18.599629
19.925833
23.332834
25.633574
29.567480
33.180714
36.257505
40.834546
41.110516
45.002699
44.930577
43.976903
43.390989
40.531754
38.718581
36.478639
34.466982
30.304790
29.592514
28.077960
25.582910
25.102496
24.675727
24.873614
26.198626
25.021434
24.335980
24.203658
25.162697
24.512410
##ZVALUE=250
1.948476
2.082586
1.949668
1.982450
2.561808
2.930760
4.708767
14.637709
69.660544
154.229403
404.144526
708.400607
1010.443568
1015.947461
1015.947461
1015.947461
1015.947461
1015.947461
1015.948057
800.969601
497.961640
296.372771
151.839852
112.423897
115.621686
125.962496
142.003894
146.491528
141.739845
128.004551
104.321837
81.443787
64.134002
40.558577
27.961731
18.503666
15.509725
11.849999
12.391806
12.773871
12.206435
12.141466
11.502504
11.934638
12.476444
12.628436
12.008548
12.201667
12.024641
11.668801
13.291836
13.107657
13.311505
13.131499
12.849569
13.207793
13.150573
12.949705
13.719797
13.808608
14.349818
13.922453
15.281439
14.543533
15.467405
16.193986
17.527938
18.134713
20.345449
22.694468
24.567842
29.350519
31.228662
34.229755
36.855936
36.669970
37.718415
37.144423
37.235618
35.151839
32.948852
29.666424
29.876828
26.358962
26.769638
25.557876
23.886561
23.629665
24.271607
23.331642
23.339987
24.223924
22.839904
23.677945
22.963881
23.375750
##ZVALUE=255
1.794696
1.688600
1.752973
1.607537
1.688600
2.057552
1.950860
2.326965
2.673864
5.541444
34.080744
107.247829
288.203955
487.826467
864.591002
1015.750766
1015.750766
1015.750766
1015.750766
1015.750766
1015.750766
998.979807
730.747581
380.067825
215.432644
116.772652
100.686550
115.525723
133.471489
148.087740
153.090954
146.637559
133.548975
109.142661
84.907413
58.412552
40.916800
24.416447
17.962456
12.770891
11.116862
11.303425
10.672808
10.236502
9.971857
10.885596
10.334849
10.251999
10.614991
10.486841
10.048747
9.848475
10.457635
11.054873
10.476708
11.590719
10.369420
11.256933
10.638833
11.941791
11.770725
12.020469
12.578964
13.179779
11.541843
13.409853
14.229417
14.677644
17.212629
18.707514
21.075606
23.745894
24.926662
26.142597
29.026866
28.669834
29.828548
30.385852
29.378533
27.714968
25.621653
25.477409
23.905635
23.101568
22.384524
21.085739
22.104979
20.597577
21.104813
20.401478
20.702481
21.666884
21.462440
21.174550
21.251440
20.552874
##ZVALUE=260
1.298785
1.375675
1.408458
1.710653
1.750588
2.039671
1.926422
1.939535
2.456903
2.603531
2.454519
5.121827
15.585423
72.420835
174.916983
451.126695
756.208897
1015.802622
1015.802622
1015.802622
1015.802622
1015.802622
1015.802622
1015.802622
1015.802622
726.182461
382.977724
211.202502
104.160905
92.364550
112.039447
136.355758
152.321458
164.639950
153.649449
139.802694
116.410851
86.153746
65.363646
41.172504
28.366446
18.513799
13.333559
11.281967
11.425614
11.330843
11.842847
10.713935
10.332465
11.591911
10.207891
10.677576
10.446906
10.917783
10.542870
11.177659
11.154413
10.585785
10.946989
10.961890
11.081696
11.147857
11.850595
11.460781
12.172461
12.826920
13.779998
14.560819
15.302896
17.513633
18.750429
21.172762
23.319721
24.789572
26.746988
26.406646
27.633905
27.170777
26.685596
26.399493
24.155974
24.085641
22.656918
21.697879
20.713806
20.815730
20.087957
19.802451
19.696951
19.799471
20.769835
20.038486
18.460751
19.404888
19.932985
19.179583
##ZVALUE=265
1.406670
1.366735
1.458526
1.242757
1.109838
1.688600
1.704693
1.779795
1.931787
2.068877
2.351999
2.568960
2.600551
3.125668
9.463429
60.268641
139.293671
348.504782
611.843467
1015.659571
1015.659571
1015.659571
1015.659571
1015.659571
1015.659571
1015.659571
1015.659571
995.551944
559.766889
322.382450
179.603696
90.814829
89.459419
120.470524
140.896440
159.116983
162.375569
156.782866
140.375495
112.994909
88.835955
60.743690
41.913986
25.646687
18.096566
11.607409
10.452867
9.948611
10.322928
10.104775
10.063648
9.697676
9.259582
9.995699
9.577870
10.011792
9.872913
10.436773
10.258555
10.057688
8.913875
10.163784
9.981990
10.335445
10.709763
11.349916
11.683702
11.898875
12.681484
14.007688
16.513467
18.010736
19.104481
20.849705
22.464991
22.397637
23.075938
23.256540
22.011995
19.833446
20.578504
19.494891
19.021630
18.254519
18.256903
18.011928
17.675757
17.360449
17.890930
17.790794
16.750693
18.272996
18.634796
18.537641
18.030405
19.559860
##ZVALUE=270
1.162887
1.180768
1.465678
1.189709
1.421571
1.365542
1.501441
1.482964
1.807809
1.887679
1.648664
2.087951
2.203584
2.338886
2.234578
2.753735
4.075766
23.371577
92.527866
343.334675
634.757876
972.941518
1015.750766
1015.750766
1015.750766
1015.750766
1015.750766
1015.750766
1015.750766
1015.750766
723.935962
442.124009
251.749754
111.340880
78.929663
91.979504
113.448501
143.219829
153.617859
164.917707
158.161521
138.671994
113.685727
85.153580
62.993765
37.652850
26.339889
16.392469
12.091994
9.347796
8.542538
8.805990
8.378625
8.338690
8.608699
9.002686
8.263588
8.319616
9.309649
9.275675
8.939505
8.991957
9.080768
9.487867
9.137988
9.387732
10.398626
11.191964
12.052655
13.832450
14.260411
16.222000
17.202497
18.032789
19.005537
19.514561
19.748807
19.694567
19.008517
17.005801
16.860962
16.822815
16.931891
16.125441
16.207695
16.673803
15.832782
15.536547
15.368462
15.560985
16.038418
15.727878
16.347766
15.979409
16.870499
16.397834
##ZVALUE=275
1.087785
0.915527
0.956655
1.084805
1.123548
1.156926
1.220703
1.188517
1.302958
1.540780
1.678467
1.693964
1.905560
2.038479
2.365708
2.344847
2.730489
3.122687
3.512502
9.657741
37.900805
132.514834
522.204638
966.908932
1015.648842
1015.648842
1015.648842
1015.648842
1015.648842
1015.648842
1015.648842
1015.648842
984.042883
535.387993
299.057961
120.161772
69.269538
68.409443
86.701512
113.061666
135.740638
155.659914
159.690976
154.984593
139.492750
110.052824
88.642836
62.191486
42.551756
26.266575
18.556714
11.943579
10.125637
9.038448
9.147525
9.493828
8.700490
8.725524
9.643435
9.258986
9.623766
9.662509
9.377599
9.581447
10.097623
10.625720
11.025667
11.533499
12.702942
14.098883
14.895797
16.529560
17.780662
19.384623
19.990802
20.797849
21.129847
20.490885
19.150972
19.085407
18.198490
17.433763
17.538667
15.604496
16.591549
15.581846
14.890432
15.615821
14.842749
15.411973
15.803576
15.020967
15.922785
15.285611
14.856458
16.087890
##ZVALUE=280
1.164675
1.252890
1.314878
1.419783
1.137853
1.317859
1.454949
1.453757
1.348853
1.597404
1.248717
1.781583
1.924634
1.738667
2.081990
2.301931
2.247691
2.454519
2.952814
3.444552
3.863573
6.019473
44.263601
125.221610
348.926783
653.348565
1015.750766
1015.750766
1015.750766
1015.750766
1015.750766
1015.750766
1015.750766
1015.750766
1015.750766
733.267665
413.241982
173.725486
84.989667
51.859617
61.645508
89.556575
111.367702
137.037635
150.662661
161.177516
150.244832
134.423971
114.519596
85.748434
64.036846
41.248798
28.618574
17.994642
13.210773
10.257959
9.066463
9.629726
9.410977
9.509921
10.179877
10.429621
10.401607
9.942651
10.591745
11.167526
10.969639
11.633635
13.063550
13.472438
15.347600
17.063618
18.254519
19.325614
20.595789
20.595789
21.196604
20.325780
19.964576
18.922687
18.342733
17.894506
16.949773
15.957952
15.732646
14.607906
14.962554
15.086532
14.643669
14.796853
15.169978
14.916658
15.125871
14.820695
15.232563
15.311837
##ZVALUE=285
1.347661
1.209974
1.028776
1.169443
1.110435
1.255870
1.258850
1.242757
1.499653
1.274943
1.605749
1.688600
1.805425
1.616478
1.859665
2.027750
1.878738
2.339482
2.766848
2.808571
3.392696
3.241897
4.089475
4.625916
19.192696
82.503557
281.019807
561.665893
1015.750766
1015.750766
1015.750766
1015.750766
1015.750766
1015.750766
1015.750766
1015.750766
1015.750766
950.037837
543.145537
219.670534
103.062987
43.976903
41.269660
59.755445
80.005527
109.885931
130.290985
146.645904
152.775645
145.925879
134.913921
111.832619
88.855624
61.741471
43.052435
26.462674
18.416643
12.449622
10.137558
9.250641
9.155869
9.121895
9.287596
9.405613
9.393692
9.601712
10.881424
10.760427
12.000799
13.052821
13.620853
15.023947
14.942884
16.319752
16.553998
17.180443
16.487837
16.665459
16.510487
15.626550
15.719533
14.833808
14.525652
14.255643
14.626980
14.160872
14.046431
14.283657
13.816953
14.568567
14.224648
14.286637
14.169812
14.545918
14.070868
13.751984
##ZVALUE=290
1.085997
0.875592
0.974536
1.028776
1.095533
1.074672
0.975728
1.200438
1.106858
1.090765
1.149774
1.073480
1.262426
1.507998
1.470447
1.438856
1.712441
1.726747
1.650453
1.791716
1.971722
2.167821
2.500415
2.654791
3.157854
3.935695
5.665421
19.638538
110.601783
317.736864
667.817593
1015.750766
1015.750766
1015.750766
1015.750766
1015.750766
1015.750766
1015.750766
1015.750766
1015.750766
752.648711
341.847539
160.688758
55.370927
33.117533
39.391518
52.728653
76.510906
97.975731
123.956800
140.712857
146.351457
145.074725
131.802559
112.624764
83.531737
62.513947
40.947795
29.409528
17.730594
12.979507
10.265708
9.425879
9.324551
9.813905
9.954572
9.799600
11.036992
11.971593
12.011528
12.974739
14.386773
15.486479
15.854836
15.361905
16.026497
15.483499
14.923811
15.166998
14.484525
14.411807
14.202595
14.354587
13.849735
14.275908
13.686419
14.110804
14.162660
13.573766
14.058948
13.745427
13.949871
14.081597
14.125705
13.959408
14.477968
##ZVALUE=295
0.870824
0.796914
0.764728
0.821948
0.987649
0.840425
0.834465
0.955462
0.906587
1.101494
0.997782
0.854731
1.129508
0.978708
1.095533
1.130700
1.214743
1.348853
1.466870
1.454949
1.649857
1.725554
1.831651
1.868606
2.306700
2.376437
2.625585
2.992749
3.887415
6.991625
26.707649
123.422742
293.795466
746.336579
1015.750766
1015.750766
1015.750766
1015.750766
1015.750766
1015.750766
1015.750766
1015.750766
899.090767
439.542532
221.782923
73.888898
35.338998
26.212931
33.591986
49.803853
68.044662
94.948411
115.067959
134.394765
140.624642
137.958527
127.625465
103.437901
85.056424
58.700442
42.237639
27.606487
19.272566
13.736486
10.490417
10.498762
10.209680
10.580420
11.232495
11.885762
12.344718
13.259649
13.911724
14.739633
15.122890
14.371872
14.484525
14.417768
14.341474
13.813972
13.726950
13.840795
13.423562
13.795495
13.872981
13.424754
13.316870
13.135672
13.149977
13.334751
13.454556
13.304949
13.335943
13.354421
13.574958
13.376474
##ZVALUE=300
0.673532
0.786781
0.692606
0.645518
0.796914
0.727773
0.841618
0.864863
0.878572
0.986457
0.744462
0.743866
0.700951
0.996590
0.769496
0.915527
0.828505
0.828505
0.974536
1.190901
1.328588
1.327991
1.468658
1.454949
1.436472
1.760721
1.917481
1.965761
2.222657
2.560616
3.118515
3.561974
10.612011
70.367455
193.710923
516.867638
883.587003
1015.750766
1015.750766
1015.750766
1015.750766
1015.750766
1015.750766
1015.750766
979.923606
532.408953
305.581689
126.009583
55.891871
21.959543
20.223856
30.371547
41.909814
64.650774
84.815621
109.897852
123.541951
133.788586
131.881833
119.057894
103.520751
80.133677
61.814785
42.338967
29.241443
18.663406
14.950633
11.883974
10.930896
11.265874
12.221932
12.880564
13.058782
14.146566
14.107823
14.126897
14.033914
13.991594
13.884902
13.823509
13.816953
13.497472
13.836622
13.911724
13.578534
13.409853
13.273954
13.602972
13.376474
13.108850
13.104677
12.873411
12.683868
12.773871
12.646914
12.852550
##ZVALUE=305
0.713468
0.709891
0.635982
0.690818
0.650883
0.754595
0.751615
0.914931
0.750422
0.753999
0.735521
0.892878
0.929832
0.784993
0.856519
1.016855
0.893474
0.921488
1.059771
1.021624
1.133680
1.138449
1.380444
1.398921
1.471639
1.662970
1.428723
1.773834
1.903772
2.190471
2.318621
2.566576
2.820492
3.380775
5.624890
32.724738
108.519793
367.673635
712.261796
1015.750766
1015.750766
1015.750766
1015.750766
1015.750766
1015.750766
1015.750766
1015.750766
803.678036
463.101864
187.787414
84.364414
27.936697
17.041564
20.101666
27.746558
44.708848
60.642958
83.335638
102.576613
121.074915
127.147436
124.990940
116.946697
98.092556
80.702901
57.660937
42.423606
27.808547
20.955801
15.681982
14.102459
13.440847
13.708472
13.901591
14.297962
14.076829
14.306903
14.059544
13.870597
13.643503
14.119744
13.492703
13.721585
13.637543
13.674498
13.924837
14.096498
13.684630
13.645887
13.345480
13.390779
13.355613
12.901425
13.005733
12.679696
12.853742
##ZVALUE=310
0.542998
0.668764
0.574589
0.752807
0.719428
0.812411
0.790954
0.859499
0.666976
0.794530
0.866652
0.690818
0.746846
0.959635
0.885725
0.890493
0.958443
0.859499
1.035929
1.030564
0.926852
1.041889
1.179576
1.313686
1.322627
1.486540
1.596808
1.564622
1.574755
1.699924
1.967549
2.033710
2.089739
2.499819
3.013611
3.350973
3.978610
13.189912
44.847727
185.948014
453.956723
1015.745997
1015.745997
1015.745997
1015.745997
1015.745997
1015.745997
1015.745997
1015.745997
1015.745997
768.205523
348.991752
168.967843
52.702427
21.727681
15.726686
18.516779
27.505755
37.256479
56.597590
73.588490
95.865726
108.750463
120.677948
121.445656
110.991001
97.452998
78.444481
61.645508
41.573644
31.320453
22.504926
19.064546
16.388893
15.408993
14.199615
14.140606
13.864636
14.012456
13.428926
13.856888
13.951659
13.995767
13.719797
13.937950
14.167428
13.989806
13.947487
13.876557
13.533831
13.709664
13.454556
13.379455
12.919903
13.313890
13.207793
##ZVALUE=315
0.482798
0.597835
0.705719
0.728965
0.739694
0.583529
0.703931
0.593662
0.750422
0.581741
0.712872
0.816584
0.709891
0.772476
0.813603
0.674725
0.696778
0.977516
1.005530
0.934601
0.928640
1.005530
0.996590
1.242757
1.215935
1.333952
1.385808
1.329780
1.479983
1.623631
1.689792
1.848936
1.996756
2.223849
2.503991
2.594590
2.702475
3.322959
3.740788
7.525682
23.693442
97.857714
236.581564
669.413805
1015.667915
1015.667915
1015.667915
1015.667915
1015.667915
1015.667915
1015.667915
1015.667915
1015.667915
678.296089
348.985791
113.587976
38.129687
15.624762
14.318824
18.202662
24.419427
37.450790
50.087571
70.747733
87.849498
106.403828
113.890767
114.609003
108.115673
90.941787
77.729821
58.431625
45.455694
31.240582
24.113655
17.860532
16.001463
14.266968
13.973713
13.652444
13.875961
13.477802
13.561845
13.805628
13.817549
13.423562
14.106631
13.773441
13.786554
13.874769
13.667941
13.573766
12.848973
12.954473
13.481975
13.294816
##ZVALUE=320
0.508428
0.585914
0.610948
0.727773
0.771880
0.654459
0.764728
0.634789
0.427961
0.851750
0.678897
0.723600
0.663996
0.762939
0.811815
0.781417
0.803471
0.889897
0.720620
0.775456
1.003742
0.950694
1.138449
0.918508
1.147985
0.995994
1.037717
1.166463
1.048446
1.263618
1.448989
1.359582
1.463890
1.576543
1.617670
1.817942
1.965761
2.078414
2.217889
2.581477
2.861619
4.011989
14.904737
69.551468
156.670809
379.023552
648.633838
1015.750766
1015.750766
1015.750766
1015.750766
1015.750766
1015.750766
1015.750766
1015.750766
981.192589
590.425730
241.653919
103.473663
24.851561
13.408661
13.311505
16.034842
22.453666
31.226873
48.132539
63.099861
83.265901
95.883608
107.442737
108.905435
103.311539
93.093514
73.517561
58.238506
41.025877
31.072497
22.196770
17.546415
14.006495
13.648868
13.550520
13.171434
13.615489
13.610721
13.528466
13.295412
13.405681
13.497472
13.202429
13.230443
13.101697
13.061762
12.792945
12.939572
12.917519
##ZVALUE=325
0.300407
0.165701
0.365973
0.313520
0.499487
0.381470
0.400543
0.283718
0.322461
0.388622
0.467896
0.561476
0.348687
0.376701
0.319481
0.541806
0.386834
0.490546
0.387430
0.551939
0.477433
0.566840
0.619888
0.714660
0.659823
0.656843
0.679493
0.681877
0.826716
0.840425
1.085997
0.948906
0.927448
1.004934
1.190901
1.117587
0.971556
1.453757
1.473427
1.416802
1.446605
1.869798
2.138615
2.464652
6.416440
47.669411
126.831532
317.913890
544.250011
945.335031
1015.639901
1015.639901
1015.639901
1015.639901
1015.639901
1015.639901
998.494625
621.183515
376.758575
167.586803
81.023574
25.876760
12.572408
10.537505
10.868907
15.195608
20.426512
30.976534
44.273734
63.352585
78.664422
94.081759
101.411939
103.314519
97.284913
81.937909
69.159865
51.582456
39.694905
26.786923
20.407438
16.019940
14.029741
13.209581
12.529492
12.849569
12.915730
12.899637
12.716651
12.598634
12.456775
12.311935
11.785626
12.296438
11.846423
12.173653
##ZVALUE=330
0.419617
0.554919
0.561476
0.519753
0.384450
0.610948
0.484586
0.388622
0.445843
0.483990
0.485778
0.679493
0.504851
0.579953
0.406504
0.455976
0.497699
0.493526
0.603795
0.461936
0.591874
0.582933
0.570416
0.677705
0.621676
0.749826
0.675917
0.713468
0.766516
0.790954
0.789762
0.866652
0.811815
0.831485
0.985861
0.993609
0.938773
1.209974
1.290441
1.450777
1.377463
1.522899
1.633763
2.061725
2.094507
2.728701
3.700852
34.983754
113.727450
322.400928
553.940535
952.938795
1015.759706
1015.759706
1015.759706
1015.759706
1015.759706
1015.759706
1015.759706
669.061542
414.685607
184.759498
89.855790
31.823516
14.816523
10.003448
10.265708
11.349916
13.919473
21.006465
29.079914
43.511987
57.133436
76.144934
86.896420
96.582770
96.774697
90.165734
79.929829
62.489510
50.465465
35.617948
27.547479
19.617677
16.006827
14.026761
13.174415
12.718439
12.578964
12.032986
12.182593
12.195706
11.966825
12.125969
11.743903
11.884570
##ZVALUE=335
0.454783
0.415444
0.334978
0.430942
0.458956
0.495911
0.351667
0.287890
0.493526
0.482798
0.558496
0.481606
0.344515
0.547767
0.561476
0.438690
0.498891
0.722408
0.603795
0.621676
0.734925
0.635982
0.696778
0.495911
0.799894
0.881553
0.782609
0.678897
0.770688
0.824928
0.756979
0.851750
0.873804
1.047850
0.913739
1.049638
1.207590
1.342893
1.288652
1.111627
1.357794
1.611710
1.616478
1.667738
1.887679
2.216697
2.588630
2.902746
3.235936
15.168786
65.496564
281.220675
584.784746
1015.753746
1015.753746
1015.753746
1015.753746
1015.753746
1015.753746
1015.753746
1015.753746
901.576877
582.217574
280.506611
139.418840
45.983791
20.052791
11.263490
10.825992
11.027455
12.042522
15.574694
19.831657
30.357838
41.406751
56.960583
69.922805
83.552599
89.932680
90.093613
85.203648
71.999431
61.800480
49.159527
38.695931
27.314425
21.371841
16.522408
14.552474
12.950897
12.211800
12.222528
11.955500
11.622906
11.638999
12.005568
##ZVALUE=340
0.244975
0.174642
0.167489
0.292659
0.244975
0.279546
0.140667
0.277758
0.245571
0.205636
0.210404
0.237823
0.206828
0.208616
0.248551
0.222921
0.190735
0.488758
0.223517
0.254512
0.361800
0.286698
0.184774
0.197887
0.478625
0.383854
0.398755
0.540614
0.392795
0.438690
0.521541
0.763535
0.479817
0.543594
0.621676
0.746846
0.692606
0.651479
0.738502
0.919700
0.783801
0.978708
1.194477
1.193881
1.201630
1.389980
1.520514
1.596808
1.826882
1.869798
2.296567
3.766418
13.333559
73.463917
185.292959
484.590530
824.360847
1015.536785
1015.536785
1015.536785
1015.536785
1015.536785
1015.536785
1015.536785
739.064813
369.814634
195.474625
72.729588
27.279854
11.366606
10.498762
10.320544
10.326505
11.871457
14.172792
19.465685
27.100444
38.921833
51.372647
67.979693
77.395439
83.949566
84.425807
80.147982
72.224736
58.664680
47.857761
34.528971
27.308464
20.049810
15.885830
13.189912
11.808872
11.070967
11.267662
10.946989
##ZVALUE=345
0.068545
-0.090599
0.006557
0.033975
0.120997
0.164509
0.093579
0.165701
0.083447
0.023842
0.068545
0.122786
-0.091791
0.279546
0.099540
0.111461
0.072718
0.204444
0.189543
0.281930
0.048876
0.304580
0.267625
0.213981
0.202656
0.128746
0.414848
0.402927
0.251532
0.159740
0.194907
0.219941
0.288486
0.336766
0.364780
0.259876
0.385642
0.458956
0.477433
0.573993
0.771880
0.408888
0.706911
0.565648
0.704527
0.792742
0.862479
0.837445
0.990629
1.321435
1.370907
1.790524
1.949668
2.243519
5.774498
41.397810
120.877028
333.058834
582.093596
990.777016
1015.473008
1015.473008
1015.473008
1015.473008
1015.473008
1015.472412
883.255601
506.459475
278.831720
105.529428
45.437813
15.561581
10.931492
9.926558
9.501576
9.752512
10.595918
13.089776
16.709566
25.249720
34.923553
49.315691
59.470534
70.341825
75.885653
78.122616
75.849891
67.180991
58.661699
45.531988
35.789609
24.905801
19.822717
14.814734
12.770891
11.578798
##ZVALUE=350
0.377893
0.399947
0.404716
0.469685
0.418425
0.153780
0.466704
0.385642
0.328422
0.235438
0.197887
0.299811
0.458956
0.483990
0.319481
0.326633
0.424981
0.338554
0.471473
0.326633
0.385642
0.543594
0.461936
0.543594
0.544786
0.481606
0.414848
0.644922
0.678897
0.646710
0.631809
0.523925
0.595450
0.698566
0.753999
0.635982
0.786781
0.792742
0.742674
0.768900
0.862479
0.862479
0.985861
0.890493
0.930429
0.986457
1.064539
0.996590
1.186728
1.315475
1.433492
1.449585
1.567602
1.853704
2.011657
2.242923
3.667474
13.722777
70.315599
169.682503
436.612964
750.149488
1015.750766
1015.750766
1015.750766
1015.750766
1015.750766
1015.750766
949.584842
617.299676
308.270454
158.900619
53.258538
22.021532
10.906458
9.553432
9.190440
8.865595
9.183884
9.905696
12.832880
16.508698
23.401976
30.569434
43.205619
52.958727
63.260794
69.642663
72.799921
70.225596
62.128901
55.371523
42.712688
34.292936
24.576783
19.545555
##ZVALUE=355
0.314713
0.499487
0.218749
0.310540
0.342727
0.392795
0.361800
0.536442
0.645518
0.532866
0.606775
0.264645
0.381470
0.459552
0.532866
0.459552
0.439882
0.493526
0.445843
0.485778
0.549555
0.558496
0.535846
0.799894
0.703931
0.624657
0.622869
0.693798
0.514984
0.480413
0.531673
0.694990
0.643730
0.760555
0.714660
0.642538
0.627637
0.854731
0.851750
0.803471
0.629425
0.724792
0.789762
0.959635
0.983477
0.969768
1.066923
1.011491
1.333952
1.263618
1.363754
1.332760
1.289845
1.723766
1.780987
1.951456
2.077818
2.391934
3.109574
6.921887
41.749477
117.423534
324.731469
583.726764
1008.280516
1015.750766
1015.750766
1015.750766
1015.750766
1015.750766
1015.750766
925.538540
484.257936
247.268677
85.580945
35.332441
12.490749
9.542704
9.117723
8.864999
8.643866
8.868575
9.825826
11.108518
14.600754
19.710660
28.426647
37.178993
47.961473
55.872798
63.413978
65.492988
63.975453
59.194565
49.842000
42.549968
##ZVALUE=360
0.416636
0.359416
0.285506
0.312924
0.502467
0.307560
0.449419
0.407696
0.413656
0.492930
0.586510
0.450611
0.591874
0.434518
0.613928
0.378489
0.636578
0.576973
0.514984
0.458956
0.486970
0.595450
0.381470
0.637770
0.456572
0.658631
0.616908
0.530481
0.613928
0.581741
0.696778
0.821948
0.615716
0.734925
0.863671
0.798702
0.767708
0.827909
0.764728
0.818968
0.954866
0.969768
0.914931
0.988841
1.086593
1.134872
1.078844
1.053810
1.079440
1.311898
1.399517
1.243949
1.316667
1.648664
1.542568
1.755953
1.903772
2.035499
2.381802
2.584457
2.926588
4.965663
17.239451
89.011788
221.087933
555.530787
908.687711
1015.750766
1015.750766
1015.750766
1015.750766
1015.750766
1015.750766
1015.750766
748.393536
351.243615
171.513557
55.202842
20.594001
9.824634
8.942485
8.457899
8.356571
8.378625
8.330941
9.255409
10.086894
13.046861
16.332865
23.280978
30.405521
41.155815
48.284531
55.716634
58.971643
59.654713
##ZVALUE=365
0.494719
0.559688
0.354648
0.464916
0.561476
0.603795
0.275970
0.622869
0.436902
0.462532
0.644922
0.352859
0.441670
0.446439
0.441670
0.433922
0.575781
0.455976
0.506639
0.386834
0.562668
0.603795
0.616908
0.497699
0.492930
0.617504
0.488758
0.737906
0.614524
0.804663
0.799894
0.705719
0.650883
0.763535
0.687838
0.865459
0.712872
0.572801
0.800490
0.669956
0.742674
0.775456
0.717640
0.839829
0.895858
0.934601
0.960827
0.973940
0.954866
1.019835
1.257658
1.283884
1.253486
1.268983
1.308918
1.477599
1.593828
1.698732
1.897812
1.947880
2.067685
2.437830
2.719760
3.364682
6.430745
36.793947
104.617476
307.027698
596.568584
1015.750766
1015.750766
1015.750766
1015.750766
1015.750766
1015.750766
1015.750766
890.460610
456.586480
245.199800
86.641908
32.530427
10.689497
8.452535
8.367896
7.968545
7.728934
7.624626
7.751584
8.087754
8.668900
10.530949
14.537573
19.067526
27.423501
34.645796
43.322444
##ZVALUE=370
0.379682
0.367761
0.350475
0.402927
0.414848
0.427961
0.366569
0.493526
0.450611
0.359416
0.480413
0.336766
0.610948
0.411868
0.454783
0.517964
0.419617
0.483990
0.505447
0.438690
0.402927
0.577569
0.504851
0.415444
0.481606
0.433922
0.650883
0.423789
0.608563
0.666976
0.639558
0.619888
0.646710
0.680685
0.599623
0.568628
0.507832
0.613928
0.713468
0.830889
0.776649
0.711679
0.831485
0.843406
0.802875
0.840425
0.851750
0.816584
0.941753
1.027584
0.951886
1.050830
1.041889
1.009703
1.238585
1.111627
1.396537
1.362562
1.239777
1.555681
1.535416
1.812577
1.988411
2.315640
2.641678
3.098845
3.904700
19.441843
69.010854
230.188370
440.014601
852.884650
1015.750766
1015.750766
1015.750766
1015.750766
1015.750766
1015.750766
1015.750766
607.085824
327.401757
122.057796
53.504705
17.218590
9.087920
7.590652
7.282495
7.195473
7.262826
6.905794
7.076859
7.218719
8.042455
9.948611
12.609959
17.726421
##ZVALUE=375
0.439882
0.314713
0.417829
0.432730
0.543594
0.442863
0.438690
0.526905
0.421405
0.540614
0.372529
0.425577
0.441670
0.565648
0.467896
0.406504
0.503659
0.528693
0.488758
0.454783
0.525713
0.539422
0.397563
0.562668
0.426769
0.531673
0.501871
0.638962
0.531673
0.537634
0.711679
0.688434
0.646710
0.733733
0.640750
0.760555
0.697970
0.688434
0.645518
0.661612
0.790954
0.631809
0.702739
0.801682
0.858903
0.820756
0.800490
0.730753
0.803471
0.762939
0.658631
0.934601
0.970960
0.868440
0.978708
1.034737
1.088977
1.302958
1.249909
1.156926
1.412630
1.455545
1.551509
1.683831
1.636744
2.223849
2.391934
2.917647
3.279448
11.046529
39.331913
153.947473
352.656841
850.165486
1015.755534
1015.755534
1015.755534
1015.755534
1015.755534
1015.755534
1015.755534
1008.884907
656.611919
293.781757
128.797889
32.463670
12.245774
7.925630
7.258654
7.105470
7.014871
6.523728
6.353855
6.444454
6.885529
7.529855
##ZVALUE=380
0.385642
0.511408
0.450611
0.470877
0.330806
0.458956
0.543594
0.538826
0.407696
0.362992
0.492930
0.365973
0.332594
0.300407
0.346899
0.501871
0.474453
0.329614
0.381470
0.517964
0.463724
0.368953
0.414848
0.400543
0.564456
0.540614
0.490546
0.401735
0.648499
0.435710
0.485778
0.629425
0.543594
0.688434
0.549555
0.573993
0.480413
0.594854
0.719428
0.588894
0.674725
0.501871
0.617504
0.684857
0.733733
0.639558
0.744462
0.699759
0.757575
0.737906
0.689626
0.796914
0.816584
0.687838
0.729561
0.887513
0.798702
0.995994
1.012683
1.005530
1.104474
1.149774
1.183748
1.345873
1.447797
1.645684
1.886487
2.201796
2.222657
2.878904
3.440976
6.046891
24.032593
113.805532
258.250833
607.379675
970.029831
1015.753746
1015.753746
1015.753746
1015.753746
1015.753746
1015.753746
1015.753746
968.528986
501.922965
255.712867
75.822473
24.110675
8.504987
7.355809
6.866455
6.674528
6.457567
6.154776
6.089807
##ZVALUE=385
0.240803
0.370741
0.295639
0.243783
0.335574
0.306964
0.252724
0.261664
0.367761
0.291467
0.336766
0.330806
0.291467
0.349879
0.382662
0.382662
0.394583
0.260472
0.372529
0.444651
0.417829
0.282526
0.292659
0.402927
0.332594
0.496507
0.428557
0.452995
0.423789
0.443459
0.375509
0.543594
0.519753
0.514984
0.453591
0.337958
0.458956
0.533462
0.415444
0.424981
0.528693
0.465512
0.494719
0.571609
0.541806
0.611544
0.650883
0.591874
0.596642
0.625849
0.613928
0.604987
0.658631
0.752807
0.752807
0.927448
0.824928
0.934601
0.989437
1.088977
0.989437
0.896454
1.061559
1.235604
1.197457
1.252890
1.318455
1.560450
1.852512
2.122521
2.277493
2.677441
2.788901
3.623962
10.725856
64.074993
165.267587
416.186452
748.252869
1015.754938
1015.754938
1015.754938
1015.754938
1015.754938
1015.754938
1015.754938
1007.806659
563.452840
309.180617
118.111968
41.596889
9.760857
6.395578
6.095767
5.853772
5.596876
##ZVALUE=390
0.433922
0.347495
0.342727
0.364780
0.278950
0.389814
0.452995
0.370741
0.356436
0.157952
0.369549
0.369549
0.262856
0.394583
0.403523
0.373721
0.200868
0.385642
0.482798
0.322461
0.580549
0.374913
0.439882
0.315905
0.354648
0.510812
0.421405
0.583529
0.501871
0.459552
0.462532
0.531673
0.536442
0.369549
0.537634
0.511408
0.550747
0.514984
0.601411
0.539422
0.680685
0.626445
0.436902
0.607967
0.558496
0.790954
0.669956
0.662804
0.567436
0.667572
0.704527
0.746846
0.845790
0.613928
0.841618
0.774860
0.800490
0.781417
0.898838
0.847578
0.993609
0.948906
1.183748
1.097918
1.156926
1.229644
1.404881
1.518726
1.629591
1.981854
2.417564
2.261996
2.659559
2.575517
2.538562
2.955794
5.810857
26.410818
135.080814
317.054987
733.291507
1015.783548
1015.783548
1015.783548
1015.783548
1015.783548
1015.783548
1015.783548
1015.783548
836.663842
413.123965
204.206705
66.569448
23.493767
7.755756
6.168485
##ZVALUE=395
0.251532
0.370741
0.191927
0.333786
0.279546
0.474453
0.311732
0.327826
0.294447
0.337958
0.356436
0.360608
0.360608
0.408888
0.309944
0.310540
0.327826
0.399947
0.284910
0.354648
0.292659
0.362992
0.407696
0.407696
0.333786
0.338554
0.208616
0.445843
0.449419
0.258684
0.368953
0.399947
0.439882
0.375509
0.445843
0.338554
0.524521
0.357628
0.379682
0.532866
0.557899
0.531673
0.595450
0.441670
0.431538
0.489950
0.556707
0.543594
0.579953
0.537634
0.556707
0.512600
0.632405
0.641942
0.778437
0.647902
0.755787
0.885725
0.737906
0.736713
0.881553
0.980496
0.981688
0.819564
1.091957
1.073480
1.197457
1.373887
1.538992
1.597404
1.846552
1.782775
2.112985
1.996756
2.097487
2.089739
2.378821
2.462864
3.760457
14.632940
86.567998
209.595561
492.192507
831.674933
1015.750766
1015.750766
1015.750766
1015.750766
1015.750766
1015.750766
1015.750766
968.509912
515.807867
271.992683
91.255903
34.496784
##ZVALUE=400
0.285506
0.194907
0.235438
0.219941
0.412464
0.352859
0.250936
0.311732
0.214577
0.265837
0.324845
0.398755
0.244975
0.166893
0.374913
0.168681
0.200868
0.252724
0.346899
0.396967
0.330806
0.198483
0.112653
0.257492
0.300407
0.424981
0.322461
0.364780
0.412464
0.449419
0.367761
0.422597
0.309944
0.420809
0.409484
0.439882
0.370741
0.370741
0.439882
0.412464
0.344515
0.497699
0.545979
0.470877
0.608563
0.506639
0.472665
0.424981
0.576973
0.579953
0.613928
0.404716
0.473857
0.753999
0.666976
0.626445
0.564456
0.707507
0.763535
0.778437
0.769496
0.666976
0.813603
0.794530
0.956655
0.885725
1.027584
1.226664
1.297593
1.489520
1.574755
1.646876
1.597404
1.648664
1.767874
1.682639
1.566410
1.891851
1.969934
2.294779
2.825856
8.926988
35.928488
149.107575
337.348580
758.364797
1015.746593
1015.746593
1015.746593
1015.746593
1015.746593
1015.746593
1015.746593
938.892961
598.068833
284.249783
##END
