##TITLE=QP00601
##FORMAT=SPECTACLE-ASCII V-1.2
##DATA TYPE=ULTRAVIOLET SPECTRUM
##SECOND TYPE=ULTRAVIOLET SPECTRUM
##DATE=03/01/18
##TIME=13:55:35
##SPECTROMETER/DATA SYSTEM=SPECTACLE
##XUNITS=NM EM
##YUNITS=ENERGY
##YFACTOR=1
##FIRSTX=220
##LASTX=410
##NPOINTS=96
##3DDATA=Equidistant
##ZUNITS=NM EX
##FIRSTZ=210
##LASTZ=400
##ZPOINTS=39
##XYDATA=(Y..Y)
##ZVALUE=210
2.438426
2.339482
2.271533
2.343655
2.920628
3.915429
2.344847
3.098845
2.921820
2.627969
2.461672
2.544522
2.149940
2.881885
2.535582
2.843738
2.430677
2.854466
3.386736
3.741980
3.352761
3.683567
3.913641
3.522635
4.316568
4.040599
4.794598
5.099773
4.340410
5.092621
5.303621
4.819632
4.438758
5.609989
6.180406
6.208420
6.105900
6.438494
5.980730
6.563663
5.963445
6.498694
6.204844
6.768703
7.760525
6.675720
6.623864
7.396936
6.792545
8.069873
8.305907
8.686781
7.923841
8.716583
9.062886
8.446574
8.118749
8.901954
9.438992
9.397864
9.975433
9.847879
9.356737
8.904934
11.355877
11.703968
11.495948
12.544990
14.383793
15.365481
20.688772
23.106933
26.977658
30.376911
33.866763
32.046437
35.731792
33.923984
34.250617
30.420423
28.859973
25.429726
23.669600
20.745993
16.998649
15.524626
12.554526
11.048913
10.402799
10.537505
9.521842
10.248423
9.627938
9.805560
10.245442
10.154843
##ZVALUE=215
6.207824
5.699992
6.184578
5.422831
5.078912
4.344583
4.498959
5.319715
5.265474
5.329847
5.385876
4.139543
4.779696
4.149675
3.366470
3.632903
2.887845
2.889633
3.727674
4.169941
3.941655
3.153682
3.809929
4.935861
4.668832
5.037785
5.645752
5.037785
5.877614
5.914569
4.807711
6.257892
5.450845
5.991459
5.769730
7.095933
6.892681
6.299615
7.523894
6.709695
6.819963
8.010864
7.597804
8.548498
7.968545
8.117557
8.720756
9.230971
8.698702
7.934570
8.678436
8.527637
10.015965
8.927584
9.395480
9.255409
10.106564
9.878874
9.485483
10.182858
9.598732
9.849668
9.815693
10.164976
11.084676
11.759996
11.875629
11.359453
14.715791
16.269684
20.764470
21.518469
25.416613
27.520657
30.949712
32.125711
33.600926
32.646656
30.916929
28.243661
25.184751
24.110675
20.328760
18.089414
16.759634
14.010668
13.056993
11.099577
10.146499
11.048913
10.479689
10.561943
10.854602
9.271502
10.476708
10.972619
##ZVALUE=220
20.254850
21.267533
21.458864
22.521615
20.446777
20.242929
16.083717
12.047887
10.636449
11.077523
11.515617
12.606978
10.978580
10.908842
9.851456
7.692575
5.869865
4.645586
4.553795
4.072785
4.995465
4.024506
4.134774
4.315972
5.068779
5.197525
4.939437
5.112886
5.045533
5.574822
5.689859
6.121993
7.040501
6.008744
5.991459
6.530881
6.550550
6.791949
6.866455
8.180737
7.890463
7.827878
8.062720
8.347631
8.580685
8.057952
8.102655
8.328557
9.847879
8.391738
8.840561
10.316968
9.035468
9.697676
9.893775
9.621978
10.150671
9.002686
10.608435
11.119843
10.212660
9.492636
10.692477
10.208488
11.752844
12.178421
12.168884
14.041662
14.933944
17.448664
19.545555
23.982525
26.579499
29.716492
30.714869
33.526421
33.327937
32.937527
28.878450
30.824542
29.212832
25.670528
24.985671
19.683838
17.667413
14.288425
13.710856
14.007688
12.645721
10.786653
11.815429
12.034774
12.100935
11.221766
11.634827
12.379885
##ZVALUE=225
35.606623
38.342476
51.042438
62.980652
72.417855
74.977875
67.011714
58.413744
44.663548
34.155846
24.370551
22.458434
25.209785
25.836825
26.452541
23.152828
20.221472
18.185973
13.216734
9.381771
7.032752
5.161762
5.017519
4.878640
4.953742
5.337000
5.535483
5.226731
5.866885
6.429553
6.432533
7.085800
6.427765
6.925464
6.702542
7.202625
7.389784
8.494854
8.056760
8.321404
8.321404
8.301735
9.356737
9.828806
9.491444
8.699894
9.041429
10.057688
10.424852
9.474754
11.120439
9.609461
11.252761
10.176897
10.631680
10.527968
11.715889
11.213422
10.902882
12.375712
11.468530
13.475418
13.351440
11.941791
14.594793
14.536977
13.517737
15.854836
15.837550
19.646883
21.720529
25.381446
26.448965
28.715730
32.181740
32.529831
34.506917
31.164885
31.817555
31.462908
26.586652
25.397539
24.038553
19.645691
19.840598
17.432570
15.941858
15.584826
16.721487
15.795827
15.190840
15.850663
15.003681
15.226603
14.524460
15.586615
##ZVALUE=230
32.331944
38.422942
61.113834
99.159479
136.285424
169.349909
192.326903
194.520950
175.725818
148.531795
105.628967
75.542927
52.468777
46.370625
45.330524
49.727559
50.760508
51.273704
42.457581
35.675764
26.328564
17.029643
12.558699
9.376407
7.375479
6.252527
6.567836
6.328821
6.953478
6.173849
7.394552
7.115602
6.732941
7.533431
8.261800
7.160902
7.325411
8.042455
8.647442
9.434819
8.654594
9.273887
10.162592
9.971857
10.655522
9.091496
9.914637
9.574890
9.924769
11.470914
11.834502
9.896755
11.321902
11.639595
11.990666
11.663437
12.086630
14.221668
11.471510
13.854504
13.825893
15.475750
14.368892
13.994575
14.160872
15.091896
15.221834
17.993450
19.644499
23.066998
23.133755
30.500889
31.346679
33.590794
36.894679
37.432909
36.671758
36.702752
32.701492
32.678843
31.485558
29.737949
27.605891
26.341677
22.848845
23.438931
22.361875
22.331476
21.759868
21.100640
19.057989
21.194816
20.189881
20.464659
21.445751
21.121502
##ZVALUE=235
14.144778
14.691949
30.059814
76.318979
119.513869
197.345614
258.695483
337.916017
377.698541
389.124751
353.623629
291.162729
204.592943
148.946643
102.039576
80.478787
72.430968
79.244971
82.126856
83.829761
76.886415
64.693689
50.952435
34.416914
25.468469
14.859438
11.127591
8.845925
7.830858
8.572936
8.376837
7.626414
8.200407
10.028481
8.791685
9.063482
9.385943
7.894635
9.635687
9.055734
9.355545
9.482503
10.171533
9.749532
10.267496
10.770559
10.787845
10.577440
10.499954
11.201501
10.516644
11.519790
12.002587
12.320876
13.710856
13.365746
12.993813
12.460947
13.366938
14.761686
16.575456
16.489625
15.915632
17.257929
16.925931
20.013452
20.587444
22.284985
22.931695
26.833415
28.924942
33.500791
35.163760
38.826466
39.242506
40.429831
41.482449
40.321946
39.057732
39.855838
37.208796
32.789707
34.059882
32.481551
28.321743
31.004548
28.355718
28.601885
26.217699
27.815700
28.192997
28.175712
28.089881
30.212998
28.992891
28.623939
##ZVALUE=240
2.465844
1.920462
7.955432
18.002987
53.222775
96.889734
195.106864
299.726725
445.677638
553.115010
624.499917
640.173554
593.784451
483.030677
376.093984
243.209600
170.927644
120.303631
106.818676
102.487803
114.216805
119.382739
114.661455
104.714632
83.595514
68.476796
46.579838
33.152699
22.504926
14.146566
11.579990
9.582639
9.008646
9.582639
10.644794
9.445548
8.640885
8.795857
8.812547
10.174513
11.053681
10.017753
10.251999
10.917783
11.602640
9.965897
10.127425
11.813641
11.738539
11.681914
11.409521
10.540485
12.466908
11.673570
12.639761
13.503432
15.004873
14.659762
15.694499
14.248490
14.762878
16.863942
17.288923
18.535852
19.894838
19.766688
21.313429
23.065805
25.792718
30.359626
32.890439
36.717653
36.944747
41.291714
42.117834
44.751763
44.656992
41.813850
43.716431
45.132637
41.474700
37.975907
38.373470
37.739873
35.411716
37.072897
32.330751
32.235980
33.818483
34.374595
33.330917
33.064485
34.026504
34.798980
35.059452
33.571720
##ZVALUE=245
1.865625
1.985431
1.850724
1.924634
4.780889
13.907552
46.584606
98.129511
214.251876
336.617827
528.044701
658.372641
766.585469
822.778940
782.145858
651.761889
527.326465
361.320972
246.504545
146.365762
109.415650
105.266571
114.197731
125.721693
131.917000
126.884580
113.280416
94.868541
72.248578
54.163933
37.385821
22.804737
14.857650
10.440946
8.932948
8.146763
8.116961
7.873774
8.142591
9.560585
7.468462
9.233952
9.628534
9.378791
8.745790
9.757876
9.513497
9.410977
9.695888
9.688735
10.408759
10.126829
11.035800
11.511445
11.227727
10.490417
11.116862
12.567639
12.791753
12.742877
13.868809
13.599992
13.789535
16.815662
16.264915
19.217730
19.776821
20.155907
22.480488
25.779605
28.039813
30.804873
36.354661
36.502481
37.747622
41.058660
40.579438
38.987994
39.318800
38.127899
37.974715
35.202503
35.427809
34.386516
33.289790
33.424497
34.828782
32.023787
31.316876
34.444928
34.903884
33.288598
32.767653
34.306645
32.582879
32.199621
##ZVALUE=250
1.434684
1.593828
1.393557
1.814961
1.776814
1.970530
3.050566
9.986758
42.536855
88.877678
208.544731
344.641805
505.114794
717.194676
860.793591
981.594920
953.419805
848.473907
707.537532
487.842560
330.095887
214.094520
124.490857
99.883676
109.633803
125.195980
137.852430
138.285756
133.637786
123.770833
101.388693
80.738664
58.371425
35.253763
23.614764
13.553500
10.393858
8.505583
7.624626
8.076429
7.813573
8.137822
7.895827
8.492470
8.588433
8.016825
8.989573
8.939505
9.024739
8.034706
8.540750
9.070635
8.919835
9.850860
10.014772
9.858608
10.334849
11.792779
11.119843
10.896921
12.000799
11.973977
12.643933
12.595654
14.161468
16.530752
17.416477
16.419888
18.560886
24.545789
24.888515
27.669668
29.566884
31.886697
34.501553
34.799576
35.101771
34.506917
35.799742
34.187436
33.093691
34.578443
31.992793
30.931830
31.220913
32.489896
31.099916
32.093525
31.345487
30.879974
32.492876
31.492710
31.869411
33.198595
31.391978
33.258796
##ZVALUE=255
1.260638
1.332760
1.428723
1.455545
1.639724
1.485944
1.807809
1.579523
2.032518
5.912781
30.193925
70.183873
149.830580
316.193700
487.943888
748.772621
928.198695
1015.756726
1015.756726
1015.756726
916.790962
731.983781
463.480949
297.272801
152.645707
109.057426
94.755888
106.562972
129.199624
139.257908
148.287416
143.452883
132.346749
104.673505
83.752871
54.921508
37.296414
23.379922
13.997555
10.121465
8.175969
7.501841
7.292628
7.958412
7.360578
8.025765
7.882714
7.684827
8.263588
8.016825
8.375645
8.673668
8.036494
8.356571
8.530617
9.260774
9.202957
8.810759
10.175705
9.735823
10.603666
10.166764
11.058450
12.501478
13.304949
12.855530
15.838742
17.187595
18.357635
19.085407
22.717714
23.347735
26.593804
27.936697
28.860569
29.902458
30.058622
30.075908
30.122995
29.034615
29.110909
29.179454
29.720664
28.352737
28.309822
30.336976
29.629469
30.190945
28.374791
29.827952
30.203462
31.346679
29.470921
29.170513
28.382540
30.082464
##ZVALUE=260
1.192689
1.203418
1.228452
1.212955
1.242757
1.481771
1.438856
1.429915
1.577735
2.018809
2.032518
3.196597
12.169480
51.716566
113.520622
259.352922
422.381759
698.727965
916.003585
1015.750766
1015.750766
1015.750766
1015.750766
940.288901
622.867942
420.936942
232.692957
142.702460
89.592934
90.153813
109.326839
124.970675
146.642923
155.460835
149.112940
136.262774
110.294819
84.257722
57.805777
41.008592
23.443699
15.262961
9.437799
7.895827
7.252693
7.607937
7.692575
7.239580
8.148551
8.199811
7.731915
7.584691
7.681847
8.168817
8.549690
8.413792
8.088946
8.790493
8.483529
8.645654
9.180903
9.494424
10.494590
10.924935
11.698604
11.419654
12.893677
13.321638
15.550852
17.060637
19.306540
19.797683
22.650957
24.463534
24.321675
26.263595
25.788546
26.484728
25.050640
25.366545
25.117993
24.964809
25.607944
26.386976
26.179552
26.025772
24.851561
26.960969
26.179552
28.205514
26.689768
28.759837
27.312636
28.401613
28.362870
28.710961
##ZVALUE=265
1.029968
1.032948
1.083612
1.059771
1.195669
1.172423
1.530647
1.147985
1.229644
1.470447
1.639724
1.876950
1.810789
1.932979
7.278919
25.518537
87.301731
183.143616
336.208940
624.957681
892.294645
1015.750766
1015.750766
1015.750766
1015.750766
1015.750766
847.991705
530.375838
337.745547
198.877454
100.500584
78.517795
89.454651
110.244751
140.641928
152.822733
158.237815
151.630640
134.012699
112.284422
87.310672
58.735609
41.808486
22.830963
15.165806
9.467602
7.988811
7.098913
6.481409
6.903410
6.946921
7.624626
7.107854
7.372499
7.668734
8.806586
8.193851
8.604527
8.653998
7.851720
8.745790
9.623766
9.786487
9.837747
10.743737
10.755658
11.591911
12.332797
14.176965
15.197992
16.305447
18.585920
19.355416
21.199584
22.364855
22.604465
22.966862
24.453998
22.964478
24.214983
22.803545
23.532510
23.004413
23.027658
23.650527
24.218559
24.097562
25.667548
24.116635
25.035739
25.330782
25.626421
25.514960
26.400685
26.353598
26.579499
##ZVALUE=270
1.023412
1.024604
0.928640
0.723600
0.888705
1.063943
1.223683
1.005530
1.221895
1.157522
1.658797
1.633763
1.443624
1.685619
1.728535
2.085567
3.053546
14.570951
43.469667
140.049458
276.502967
480.663776
844.682455
1015.750766
1015.750766
1015.750766
1015.750766
1015.750766
1007.757783
770.462751
528.846979
269.241929
150.362849
74.283481
66.746473
89.378953
111.298561
139.007568
153.533816
162.195563
153.043866
136.082768
116.358995
83.657503
61.002970
35.689473
24.430752
14.747977
11.245608
8.066893
7.761717
7.981658
7.781982
7.484555
8.109808
7.907748
8.211732
8.556843
8.601546
9.422898
8.956790
9.258986
9.336472
10.176897
10.557771
10.828972
11.663437
12.533665
13.340712
14.774799
16.281605
17.392635
18.402934
20.021796
21.025538
21.349788
21.814704
21.179914
21.317601
22.607446
22.007823
21.871924
22.365451
22.501945
22.108555
22.299886
23.440719
23.485422
23.219585
23.525953
24.139881
23.806691
23.658872
25.060773
24.646521
24.303794
##ZVALUE=275
1.151562
0.894666
1.074672
1.277924
1.086593
1.053810
1.001954
1.014471
1.165867
1.278520
1.113415
1.373887
1.156926
1.111627
1.585484
1.649857
1.757741
1.966953
2.434850
9.433627
34.577847
88.921785
240.602493
441.796780
804.094672
1015.748978
1015.748978
1015.748978
1015.748978
1015.748978
1015.748978
1007.530689
731.597543
381.802917
211.557746
91.057420
58.582425
63.440800
85.014701
113.420486
132.836699
151.618719
157.905817
153.950453
138.774514
107.156634
86.967945
60.787797
42.776465
24.885535
16.595721
10.754466
8.651614
7.821918
7.922649
7.964969
8.356571
8.729696
8.846521
8.777976
9.171963
9.567738
10.079741
10.407567
11.397600
11.598468
11.793971
12.977719
13.604760
15.455484
16.320944
17.852783
19.204617
20.211935
21.141768
21.427870
21.804571
21.768808
22.016764
22.168756
21.719933
21.343827
21.685958
21.676421
22.094846
22.022724
21.916628
22.241473
22.542477
22.043586
23.428798
23.020506
22.827983
23.419857
23.142695
23.265481
##ZVALUE=280
0.781417
0.886917
0.961423
0.708699
1.035929
1.013875
1.040697
1.027584
1.281500
1.147985
1.068711
1.060963
1.091957
1.204610
1.407862
1.400709
1.342893
1.733899
1.716614
2.087951
2.172589
2.686977
18.992424
64.391494
191.144943
347.738862
657.612681
964.257717
1015.752554
1015.752554
1015.752554
1015.752554
1015.752554
1015.752554
902.010798
507.036448
299.802423
129.693747
67.473650
47.218800
57.188869
85.729957
107.476711
133.908987
149.891973
155.364871
150.346756
132.504702
111.280680
83.087683
61.246753
38.696527
27.309656
16.565919
11.699796
9.598732
8.426905
9.188652
8.812547
9.128451
9.210706
9.762645
10.381937
10.663867
11.669993
11.970997
11.776686
13.120770
13.932586
15.034676
16.689897
17.683506
18.189549
19.380450
20.900965
20.926595
21.053553
21.526814
21.037459
20.449758
20.874739
20.777583
20.882487
20.993948
21.685958
21.922588
20.574927
22.044778
21.907687
22.345781
21.954775
22.098422
22.027493
22.743940
22.585988
22.235513
##ZVALUE=285
0.823736
0.845790
0.915527
0.866652
0.803471
0.780821
0.808835
1.008511
1.065731
0.921488
1.011491
1.042485
1.105666
1.086593
1.201630
1.376867
1.153946
1.324415
1.367927
1.694560
1.716614
1.948476
2.311468
2.852678
6.638765
38.229823
100.931525
261.902809
461.187959
842.870474
1015.750766
1015.750766
1015.750766
1015.750766
1015.750766
1015.750766
1015.750766
770.182014
480.106473
214.422941
105.129480
43.559670
38.105845
57.218671
76.247454
107.879639
127.861500
147.306919
150.535703
145.721436
133.558512
110.337734
87.608695
60.950518
43.343902
26.283860
18.487573
12.534857
10.489821
10.341406
9.707808
10.244846
10.506511
10.754466
11.965632
12.249947
12.831688
13.979673
14.123917
15.323758
16.460419
17.969608
18.752813
20.110607
19.883513
21.109581
20.814538
21.102428
20.538568
21.189451
20.910501
21.081567
21.597743
21.647811
20.847917
21.238923
21.256804
22.011995
21.427870
21.728873
22.035837
21.887422
21.412969
22.034645
21.646619
20.969510
##ZVALUE=290
1.050830
0.824928
0.693798
0.940561
0.748634
0.885725
0.879765
0.852942
1.087785
0.853539
0.891685
1.073480
1.136661
1.157522
1.105666
1.104474
1.241565
1.220703
1.326799
1.561642
1.502633
1.645684
2.102852
2.054572
2.277493
2.368689
3.720522
12.910962
60.483813
145.310760
290.383697
611.492991
944.885015
1015.816927
1015.816927
1015.816927
1015.816927
1015.816927
1015.816927
974.763632
652.259588
320.530534
162.908435
59.446692
32.813549
38.339496
53.125620
76.167583
96.718669
122.969747
138.739944
148.177743
144.767761
130.350590
111.174583
83.409548
62.158704
40.613413
29.230714
18.447638
14.448762
11.722445
11.243820
11.700988
11.998415
12.614727
13.444424
13.637543
15.107989
15.699863
16.775727
17.735958
18.257499
18.503666
20.489693
20.727515
20.565987
20.638704
20.414591
20.703673
21.243691
20.928979
20.948648
20.760894
21.800995
21.782517
21.605492
21.203756
21.468997
21.825433
21.673441
21.704435
21.702647
21.593571
20.904541
21.749735
##ZVALUE=295
0.732541
0.863671
0.708699
0.800490
0.882745
0.752807
0.957847
0.919700
0.773668
0.818968
0.906587
0.841618
0.717640
0.901818
0.885725
0.910759
1.014471
1.015663
1.157522
1.130700
1.141429
1.412630
1.483560
1.620650
1.855493
1.843572
2.199411
2.396703
2.673864
6.973743
26.382804
109.933615
244.040489
546.878576
861.810446
1015.750766
1015.750766
1015.750766
1015.750766
1015.750766
1015.750766
1015.750766
862.868428
451.108813
240.180492
84.648728
36.907792
25.217533
32.859445
50.489902
68.181753
94.410777
112.718940
133.893490
141.282678
137.240887
126.073956
103.292465
84.042549
58.858991
44.290423
28.475523
21.039844
15.744567
13.215542
13.041496
13.366938
13.933778
14.662743
15.534759
16.947985
17.484426
18.980503
19.765496
20.242929
21.053553
20.880699
20.490885
21.076798
20.992756
20.821691
21.167994
21.730661
21.231771
21.547675
22.039413
21.792650
22.064447
21.618605
21.765828
22.305846
21.757483
21.587610
21.406412
21.756887
21.144748
##ZVALUE=300
0.664592
0.792742
0.614524
0.649691
0.721812
0.746846
0.753999
0.630617
0.872612
0.962615
0.817776
0.848770
0.903606
0.681877
0.865459
0.950694
0.926852
1.026988
1.057982
1.160502
1.151562
1.106858
1.335740
1.449585
1.385808
1.385808
1.693964
1.795888
1.797676
2.286434
2.505779
3.122687
14.552474
53.017735
186.274648
366.194844
744.726658
1015.750766
1015.750766
1015.750766
1015.750766
1015.750766
1015.750766
1015.750766
1003.702879
687.461495
340.677500
172.360539
56.917667
25.044680
21.310449
28.785467
45.807958
60.582757
86.665750
105.412602
125.981569
133.672953
130.857825
124.681592
102.986693
83.709955
60.249567
46.738982
29.799938
22.939444
17.851591
15.719533
15.477538
15.853643
16.901493
17.687678
19.263625
19.272566
19.992590
20.681620
20.667911
20.548701
21.560788
20.782948
21.469593
21.664500
22.135973
22.078753
21.963716
22.083521
22.479892
22.490621
22.593737
21.884441
22.219419
21.704435
23.096800
21.923780
22.031665
22.077560
##ZVALUE=305
0.628829
0.622869
0.592470
0.631809
0.678897
0.728965
0.832677
0.904799
0.512600
0.858903
0.738502
0.626445
0.856519
0.687838
0.915527
0.840425
0.958443
0.929832
0.894666
0.816584
0.901818
1.104474
1.173615
1.337528
1.281500
1.355410
1.418591
1.301765
1.641512
1.892447
1.780987
2.133846
2.279878
2.662539
5.955696
37.760735
106.990933
313.450694
565.938950
990.308523
1015.750766
1015.750766
1015.750766
1015.750766
1015.750766
1015.750766
1015.750766
871.708989
540.972948
235.494971
108.165741
33.396482
17.903447
20.215511
27.483702
44.252872
59.735775
83.432794
101.583004
120.449662
126.906633
127.090812
118.724704
100.664496
82.777739
59.496760
45.728683
31.688809
24.575591
20.058751
18.136501
18.501878
19.113421
20.198822
20.304918
19.901991
20.320415
21.346807
20.935535
21.921992
22.009611
22.578835
22.835732
22.944808
23.414493
23.112893
23.120642
23.204684
23.489594
23.113489
23.204684
23.243427
22.153854
21.954775
22.665858
22.001863
##ZVALUE=310
0.513792
0.728965
0.628829
0.502467
0.708699
0.586510
0.469685
0.455976
0.632405
0.580549
0.578761
0.661612
0.721812
0.781417
0.607967
0.731945
0.767708
0.688434
0.812411
0.916719
0.942945
0.904799
0.963807
1.025796
1.034737
1.182556
1.091957
1.249909
1.320839
1.339912
1.267791
1.811981
1.640916
1.909733
2.483726
2.760887
3.646612
13.448596
75.908899
183.048844
453.726053
769.691467
1015.674472
1015.674472
1015.674472
1015.674472
1015.674472
1015.674472
1015.674472
1015.675068
667.463541
399.439931
166.965723
73.256493
22.946000
15.105605
18.616915
25.366545
38.784742
52.759647
76.458454
92.818737
111.292601
120.731592
121.044517
115.324855
99.405646
83.830953
61.985850
47.189593
33.460855
27.749538
23.419857
21.604896
21.009445
20.779967
21.013618
21.101832
21.859407
21.768808
22.588968
22.452474
22.943616
23.315549
23.219585
23.436546
23.591518
23.760796
23.464561
23.509860
22.698641
23.058653
22.901893
23.177862
22.882819
22.838712
##ZVALUE=315
0.667572
0.531673
0.650883
0.669956
0.528693
0.625849
0.679493
0.540614
0.658631
0.707507
0.726581
0.742674
0.654459
0.799894
0.825524
0.728965
0.729561
0.828505
0.906587
0.843406
0.843406
0.854731
1.007915
1.115799
1.201630
1.148582
1.221895
1.278520
1.234412
1.354814
1.604557
1.633763
1.480579
1.652837
1.928806
2.263784
2.353787
2.681613
2.926588
7.632971
31.743646
140.588880
308.544040
685.923696
1015.750766
1015.750766
1015.750766
1015.750766
1015.750766
1015.750766
1015.750766
1015.750766
955.342650
491.352677
266.500711
94.614625
37.338734
15.067458
14.391541
18.148422
24.229884
38.030744
51.366687
71.801543
88.505745
107.750893
115.839839
117.989779
111.756921
97.233653
82.330704
62.360764
49.342513
36.397576
29.322505
24.104714
23.355484
21.725893
22.276640
21.959543
22.420883
23.045540
22.925735
23.766756
23.526549
24.175644
23.806691
23.819804
24.055839
23.945570
24.031997
24.342537
23.431778
23.746490
23.125410
22.707582
##ZVALUE=320
0.553727
0.546575
0.661612
0.617504
0.659823
0.592470
0.500679
0.772476
0.729561
0.698566
0.639558
0.847578
0.777841
0.736713
0.743866
0.647902
0.674725
0.781417
0.795722
0.709891
0.783801
0.820756
0.974536
0.965595
1.058578
1.082420
1.130700
1.127720
1.252890
1.121759
1.247525
1.177788
1.417994
1.549721
1.548529
1.754761
1.799464
2.088547
2.326965
2.462864
2.913475
4.134774
15.094876
85.616708
216.472745
550.502539
904.831886
1015.750766
1015.750766
1015.750766
1015.750766
1015.750766
1015.750766
1015.750766
1015.750766
745.750666
411.742926
161.489844
66.598654
19.670725
13.525486
14.759898
17.252564
24.683475
33.280849
50.354600
66.551566
87.251663
100.636482
111.746788
114.432573
107.669830
98.357797
79.376698
64.642429
48.206449
39.027929
29.889941
26.091933
24.135709
22.812486
22.915602
23.588538
23.220778
23.592710
23.805499
23.941994
23.910999
24.272799
24.468899
24.058819
23.775697
23.753643
23.147464
23.101568
23.192763
##ZVALUE=325
0.540614
0.715852
0.595450
0.619888
0.550747
0.684857
0.593662
0.562668
0.688434
0.762939
0.656843
0.650883
0.658631
0.739694
0.625849
0.756979
0.766516
0.813603
0.826716
0.846982
0.707507
0.712872
1.054406
0.833869
0.984669
1.008511
0.931621
0.991821
1.148582
1.081824
1.079440
1.147985
1.208782
1.316667
1.330972
1.443624
1.510978
1.655817
1.864433
2.311468
2.190471
2.599955
2.811551
3.632903
8.559823
59.678555
162.743926
440.422893
766.190886
1015.750766
1015.750766
1015.750766
1015.750766
1015.750766
1015.750766
1015.750766
1015.750766
955.846906
577.031970
235.431790
99.401474
27.967691
15.065670
13.262630
14.408827
18.295646
23.652911
35.733581
48.337579
67.887902
82.905889
98.649859
107.183456
108.877420
103.122592
89.643002
76.072812
59.659481
47.203898
36.406517
30.482411
25.817752
24.862885
23.322701
23.840666
23.496747
24.049878
23.994446
23.606420
23.515821
23.684502
23.709536
23.678541
22.969842
23.580790
23.018718
##ZVALUE=330
0.533462
0.505447
0.532866
0.600815
0.609756
0.590682
0.661612
0.664592
0.606775
0.515580
0.605583
0.461936
0.430942
0.529885
0.560880
0.690818
0.663996
0.656843
0.764728
0.678897
0.737906
0.827909
0.772476
0.922680
0.690818
0.881553
0.809431
0.783801
1.017451
0.954866
0.924468
1.164675
1.054406
0.968575
1.280904
1.270771
1.325607
1.286864
1.598597
1.678467
1.662970
1.770854
2.078414
2.538562
2.881885
3.217459
4.369617
22.298694
77.945590
273.430943
535.364747
1001.505852
1015.750766
1015.750766
1015.750766
1015.750766
1015.750766
1015.750766
1015.750766
1015.750766
702.982545
314.736962
151.392817
48.714876
19.760728
13.096929
13.147593
15.127659
18.275976
25.298595
34.088492
48.785806
62.962770
81.734657
93.772411
103.074908
104.484558
96.703768
87.041855
71.876645
59.207678
44.706464
36.944747
30.574799
26.919842
24.184585
23.711920
23.330450
23.426414
23.102760
22.896528
22.985935
22.724867
22.656918
23.235679
22.406578
##ZVALUE=335
0.568628
0.536442
0.511408
0.455976
0.507832
0.523925
0.649691
0.548959
0.661612
0.747442
0.508428
0.474453
0.667572
0.663996
0.571609
0.474453
0.654459
0.781417
0.687838
0.773668
0.651479
0.661612
0.663996
0.769496
0.593662
0.691414
0.782609
0.736713
0.942945
0.840425
0.908971
1.057982
0.874996
0.985861
1.214743
1.113415
1.317859
1.362562
1.226664
1.414418
1.457930
1.572967
1.768470
1.758933
1.896620
2.274513
2.601743
2.914667
3.324747
9.258986
35.731792
155.301690
343.450904
783.056617
1015.748978
1015.748978
1015.748978
1015.748978
1015.748978
1015.748978
1015.748978
1015.748978
979.961753
520.316958
268.319845
85.157752
30.828714
14.375448
13.814569
14.435649
15.755892
19.636750
24.463534
35.775900
46.582818
63.826442
76.564550
90.025663
96.941590
98.039508
93.373656
82.067847
70.440769
57.900548
47.854781
36.578774
31.269789
26.610494
24.173856
22.572875
22.600889
22.097826
22.262931
22.185445
22.286773
22.015572
##ZVALUE=340
0.565648
0.603795
0.407696
0.470877
0.587702
0.464916
0.501871
0.400543
0.494719
0.458956
0.477433
0.531673
0.583529
0.592470
0.629425
0.567436
0.576973
0.687838
0.581741
0.602603
0.579953
0.780821
0.741482
0.647902
0.832677
0.855923
0.694990
0.783801
0.755787
0.728965
0.732541
0.871420
0.734925
0.919700
0.813603
0.934601
1.004934
1.047850
1.196861
1.299977
1.267791
1.301765
1.452565
1.464486
1.718998
1.950860
1.836419
2.156496
2.214909
2.579689
3.027916
4.570484
17.465949
93.001723
230.791569
588.536859
966.456532
1015.750766
1015.750766
1015.750766
1015.750766
1015.750766
1015.750766
1015.750766
1015.750766
564.915538
304.878950
114.948750
43.074489
15.959740
14.308691
14.262795
14.677644
16.789436
19.248724
25.397539
33.412576
45.837760
58.067441
75.129867
84.704757
92.898607
92.290640
87.758899
80.483556
67.033768
56.154728
44.467449
36.936998
30.133724
26.105642
23.103952
22.328496
21.421909
21.075606
21.087527
##ZVALUE=345
0.394583
0.418425
0.486970
0.538826
0.404716
0.488758
0.512600
0.431538
0.656843
0.540614
0.531673
0.614524
0.640750
0.495911
0.548959
0.651479
0.656843
0.428557
0.603795
0.723600
0.536442
0.652671
0.690818
0.566840
0.812411
0.772476
0.913739
0.689626
0.701547
0.864863
0.763535
0.720620
0.636578
0.795722
0.804663
1.020432
1.021624
1.084805
1.090765
0.938773
1.138449
1.127720
1.186728
1.452565
1.377463
1.330972
1.458526
1.665950
1.795888
1.971722
2.157688
2.540946
2.907515
3.398657
7.681847
54.641962
151.368976
399.693847
715.982914
1015.762687
1015.762687
1015.762687
1015.762687
1015.762687
1015.762687
1015.762687
1015.762687
776.316524
429.966450
158.845782
67.288876
22.112727
15.090704
14.584661
14.422536
14.852881
16.004443
18.833876
23.500919
32.090545
42.325854
56.535602
67.130923
77.721477
83.229542
85.944533
84.642768
76.098442
66.929460
54.464936
45.218468
34.776926
29.318929
24.494529
22.969842
20.845532
##ZVALUE=350
0.501871
0.552535
0.504851
0.516772
0.432730
0.397563
0.556707
0.535846
0.571609
0.519753
0.462532
0.503659
0.651479
0.477433
0.554919
0.663996
0.517964
0.550747
0.539422
0.506639
0.563860
0.670552
0.581741
0.642538
0.722408
0.736713
0.787973
0.749826
0.592470
0.920892
0.713468
0.777841
0.877976
0.750422
0.740886
0.930429
0.849962
1.030564
0.976920
1.096725
1.106858
0.946522
1.081824
1.203418
1.291633
1.403689
1.239777
1.449585
1.620650
1.588464
1.937747
2.002716
2.270937
2.416968
2.655983
3.062487
4.820824
30.633807
102.074742
320.312977
604.446530
1015.740037
1015.740037
1015.740037
1015.740037
1015.740037
1015.740037
1015.740037
1015.740037
907.625556
541.111827
237.673521
105.251670
29.092431
15.839934
13.910532
13.335943
13.502836
13.956428
15.734434
17.734766
22.828579
28.857589
37.928820
47.601461
60.653687
70.048571
78.148842
79.396963
77.937841
71.774721
60.636997
52.289963
41.232705
34.090877
27.078986
##ZVALUE=355
0.563860
0.614524
0.732541
0.478625
0.423789
0.572801
0.536442
0.626445
0.554919
0.743866
0.562668
0.569820
0.603795
0.714660
0.694990
0.771880
0.879765
0.595450
0.556707
0.785589
0.697970
0.808835
0.536442
0.661612
0.508428
0.562668
0.812411
0.664592
0.702739
0.758767
0.771880
0.946522
0.781417
0.753999
0.925660
0.957847
1.059771
0.972748
0.949502
1.007915
0.918508
1.176000
1.215935
1.012683
1.292825
1.338720
1.396537
1.360774
1.437664
1.610518
1.496673
1.846552
1.830459
2.273917
2.204776
2.457500
2.733469
3.138781
3.582835
12.882948
51.209927
208.542943
430.768728
891.268849
1015.783548
1015.783548
1015.783548
1015.783548
1015.783548
1015.783548
1015.783548
1015.783548
698.969960
298.217535
138.227940
39.839745
17.703772
13.402700
12.924671
12.840629
12.826920
13.357997
14.474988
16.708970
19.454956
26.193857
32.874942
43.705702
52.616000
63.314438
69.806576
73.091984
71.366429
64.681768
58.880448
48.494935
##ZVALUE=360
0.520945
0.441670
0.451803
0.557899
0.446439
0.432730
0.631809
0.530481
0.493526
0.609756
0.699759
0.569820
0.579953
0.675917
0.690818
0.625849
0.716448
0.592470
0.500679
0.618696
0.742674
0.620484
0.625849
0.711679
0.672936
0.661612
0.701547
0.688434
0.855923
0.637770
0.838637
0.917912
0.756979
1.016855
0.851750
1.083612
0.925660
1.001954
0.917912
0.953674
1.053810
0.964999
0.954866
1.141429
1.191497
1.140833
1.255870
1.251698
1.292825
1.499653
1.520514
1.446605
1.465678
1.558661
1.893640
1.928806
2.058744
2.363920
2.544522
2.945662
3.591776
5.830526
21.608472
101.278424
251.524448
628.487468
992.578864
1015.746593
1015.746593
1015.746593
1015.746593
1015.746593
1015.746593
1015.746593
843.801498
397.877693
204.166770
72.516799
27.497411
12.963414
12.080669
11.840463
12.407899
11.931658
12.652874
13.632774
14.757514
17.846823
21.583438
28.372407
35.615563
46.778917
54.275990
61.659813
65.438747
65.154433
##ZVALUE=365
0.532866
0.452995
0.420809
0.440478
0.501871
0.647902
0.600815
0.650883
0.594854
0.689626
0.658631
0.585914
0.699759
0.654459
0.635982
0.544786
0.605583
0.668764
0.589490
0.612736
0.653863
0.769496
0.795722
0.756979
0.660419
0.783801
0.763535
0.673532
0.682473
0.816584
0.866652
0.794530
0.802875
0.925660
0.991821
1.007915
1.014471
1.152754
0.835657
0.976920
0.905991
0.902414
1.172423
1.094937
1.083612
1.047850
1.241565
1.233816
1.113415
1.365542
1.366735
1.487732
1.588464
1.551509
1.657605
1.677871
2.005696
1.927614
2.153516
2.348423
2.554655
2.857447
3.164411
4.085898
9.516478
61.766505
168.861747
453.179479
845.882893
1015.759706
1015.759706
1015.759706
1015.759706
1015.759706
1015.759706
1015.759706
1015.759706
590.354800
303.498507
103.232861
38.424730
13.978481
11.586547
11.405945
11.152625
11.361837
11.385679
11.549592
11.887550
13.168454
15.200973
19.359589
23.659468
31.735897
39.048791
47.931671
##ZVALUE=370
0.597835
0.580549
0.539422
0.632405
0.544786
0.436902
0.557899
0.580549
0.681877
0.640750
0.845790
0.728965
0.675917
0.614524
0.589490
0.644922
0.754595
0.757575
0.562668
0.743866
0.714660
0.645518
0.606775
0.644922
0.832677
0.720620
0.864863
0.764728
0.963807
0.706911
0.972748
0.861883
0.781417
0.929832
0.937581
0.816584
0.862479
0.926852
0.943542
1.033545
0.998974
1.013875
1.171827
1.088977
1.045465
1.054406
1.089573
1.274943
1.180768
1.221895
1.237988
1.299977
1.284480
1.530647
1.372695
1.529455
1.768470
1.584888
1.672506
1.935959
2.084970
2.296567
2.700686
2.859831
3.217459
3.626943
6.089807
25.044680
133.909583
320.034623
760.836601
1015.814543
1015.814543
1015.814543
1015.814543
1015.814543
1015.814543
1015.814543
1015.814543
849.284530
383.553505
190.239549
66.268444
25.656819
11.619925
10.870695
10.529757
10.266900
10.483861
10.339618
10.323524
10.884404
11.870861
13.663769
16.890764
21.277666
##ZVALUE=375
0.502467
0.514984
0.510812
0.457764
0.344515
0.718832
0.462532
0.549555
0.589490
0.695586
0.566840
0.386834
0.506639
0.536442
0.640750
0.431538
0.541806
0.455976
0.581741
0.489950
0.442863
0.556707
0.592470
0.531673
0.461936
0.538826
0.432730
0.591874
0.591874
0.697970
0.586510
0.691414
0.626445
0.776649
0.727773
0.681877
0.775456
0.745654
0.917912
0.855923
0.878572
0.812411
0.944734
1.024604
0.700951
0.867844
0.836849
0.825524
0.968575
1.023412
1.040697
1.076460
0.945926
1.091957
1.172423
1.282692
1.358986
1.321435
1.492500
1.434684
1.678467
1.754761
1.768470
1.943707
2.030730
2.446771
2.801418
3.451705
4.228950
15.646815
59.745908
228.598714
487.185717
998.658538
1015.756726
1015.756726
1015.756726
1015.756726
1015.756726
1015.756726
1015.756726
963.975787
607.245564
286.566615
134.886503
39.140582
15.647411
9.817481
9.634495
9.509921
9.607673
9.507537
9.498000
9.816885
10.089874
11.004806
##ZVALUE=380
0.598431
0.579953
0.578761
0.567436
0.501871
0.565648
0.405908
0.398755
0.310540
0.327826
0.526905
0.481606
0.379682
0.329614
0.316501
0.548959
0.420809
0.612736
0.381470
0.412464
0.505447
0.566840
0.462532
0.472665
0.513792
0.585914
0.578761
0.537634
0.521541
0.550747
0.459552
0.627637
0.571609
0.641942
0.601411
0.573993
0.725985
0.740886
0.669956
0.730753
0.730753
0.645518
0.785589
0.792742
0.708699
0.694990
0.742674
0.754595
0.773668
0.740886
0.932813
1.027584
1.010895
1.077652
1.072884
1.020432
1.054406
1.326799
1.258850
1.355410
1.307726
1.422763
1.494884
1.685619
1.761913
1.901984
2.021790
2.712607
3.046989
3.533959
4.145503
8.065701
32.544732
164.403915
377.997756
884.701014
1015.738845
1015.738845
1015.738845
1015.738845
1015.738845
1015.738845
1015.738845
1015.738845
870.608687
404.216647
195.427537
61.918497
23.928881
10.624528
9.047985
9.133816
8.807778
8.909702
9.079576
8.902550
##ZVALUE=385
0.308752
0.400543
0.317693
0.161529
0.303984
0.232458
0.248551
0.315905
0.333786
0.360608
0.361800
0.287890
0.429749
0.428557
0.364780
0.536442
0.287890
0.365973
0.332594
0.292659
0.385642
0.419617
0.364780
0.308752
0.332594
0.360608
0.326633
0.442863
0.477433
0.486970
0.499487
0.449419
0.541806
0.261664
0.345707
0.486970
0.572801
0.582933
0.350475
0.614524
0.664592
0.545979
0.773668
0.528693
0.554919
0.631809
0.659823
0.757575
0.748634
0.806451
0.666976
0.803471
0.647902
0.892878
0.903606
0.985861
0.839829
0.977516
1.026988
1.068711
1.094937
1.368523
1.216531
1.453757
1.481771
1.793504
1.734495
1.980662
2.240539
2.630949
2.958775
3.514886
3.517866
4.556775
14.976859
90.893507
233.792663
593.750477
986.078978
1015.672684
1015.672684
1015.672684
1015.672684
1015.672684
1015.672684
1015.672684
1015.672684
600.192547
323.957801
122.346878
45.756698
12.370944
8.628964
8.409619
8.066893
8.001924
##ZVALUE=390
0.421405
0.399947
0.358820
0.344515
0.288486
0.478625
0.426769
0.438690
0.325441
0.387430
0.409484
0.320673
0.350475
0.369549
0.361800
0.327826
0.397563
0.440478
0.350475
0.502467
0.405908
0.403523
0.520945
0.423789
0.456572
0.365973
0.315905
0.556707
0.508428
0.509620
0.635982
0.564456
0.338554
0.515580
0.575781
0.599623
0.513792
0.647902
0.574589
0.660419
0.564456
0.662804
0.703931
0.574589
0.724792
0.776649
0.645518
0.697970
0.728965
0.745654
0.762939
0.902414
0.751615
0.809431
0.903606
0.949502
0.901818
0.914931
1.187921
1.036525
1.004934
1.241565
1.200438
1.319647
1.304746
1.551509
1.718998
1.996756
2.271533
2.652407
2.689958
2.927780
2.993941
3.250837
3.500581
3.605485
9.056926
42.776465
196.294785
448.067784
976.281762
1015.750766
1015.750766
1015.750766
1015.750766
1015.750766
1015.750766
1015.750766
1015.750766
957.709551
477.033854
233.004689
72.121620
24.731755
9.553432
8.349419
##ZVALUE=395
0.391603
0.325441
0.382662
0.414848
0.591874
0.466704
0.445843
0.337958
0.589490
0.401735
0.420809
0.513792
0.431538
0.453591
0.477433
0.531673
0.446439
0.426769
0.409484
0.471473
0.565648
0.368953
0.517964
0.560880
0.381470
0.562668
0.506639
0.517964
0.499487
0.465512
0.295639
0.603795
0.557899
0.658631
0.641942
0.713468
0.609756
0.660419
0.588894
0.455976
0.512600
0.451803
0.632405
0.767708
0.753999
0.844598
0.699759
0.683665
0.854731
0.808835
0.657439
0.763535
0.809431
0.963807
0.883937
0.805855
0.933409
0.973940
1.052618
0.968575
0.964999
1.052618
1.116991
1.099706
1.251698
1.472831
1.705885
1.878738
2.037883
2.399683
2.399683
2.527833
2.673864
2.677441
2.783537
2.834797
3.102422
3.638864
4.984736
29.780865
114.479065
392.288566
731.603503
1015.750766
1015.750766
1015.750766
1015.750766
1015.750766
1015.750766
1015.750766
1015.750766
1015.750766
708.357096
294.229984
135.337710
39.330721
##ZVALUE=400
0.358820
0.480413
0.416636
0.524521
0.481606
0.347495
0.219941
0.324845
0.462532
0.536442
0.228882
0.346899
0.351667
0.317693
0.407696
0.342727
0.495911
0.434518
0.512600
0.426769
0.497699
0.556707
0.369549
0.592470
0.472665
0.448823
0.626445
0.549555
0.347495
0.390410
0.421405
0.609756
0.540614
0.563860
0.657439
0.516772
0.563860
0.625849
0.621676
0.601411
0.657439
0.609756
0.710487
0.607967
0.620484
0.744462
0.761747
0.730753
0.756979
0.762939
0.763535
0.707507
0.813603
0.790954
0.896454
0.787973
0.930429
0.948906
1.019835
1.160502
1.143813
0.986457
1.207590
1.221895
1.167655
1.354814
1.526475
1.703501
2.050996
2.319813
2.497435
2.425909
2.340674
2.423525
2.470613
2.400875
2.412796
2.798438
2.894998
3.432631
3.945827
13.964772
54.769516
210.123658
464.862585
988.755822
1015.750766
1015.750766
1015.750766
1015.750766
1015.750766
1015.750766
1015.750766
1015.750766
876.130462
419.579744
##END
