##TITLE=QP00602
##FORMAT=SPECTACLE-ASCII V-1.2
##DATA TYPE=ULTRAVIOLET SPECTRUM
##SECOND TYPE=ULTRAVIOLET SPECTRUM
##DATE=03/01/18
##TIME=13:58:54
##SPECTROMETER/DATA SYSTEM=SPECTACLE
##XUNITS=NM EM
##YUNITS=ENERGY
##YFACTOR=1
##FIRSTX=220
##LASTX=410
##NPOINTS=96
##3DDATA=Equidistant
##ZUNITS=NM EX
##FIRSTZ=210
##LASTZ=400
##ZPOINTS=39
##XYDATA=(Y..Y)
##ZVALUE=210
2.370477
2.148747
2.680421
2.340674
2.534986
3.516674
2.237558
2.956986
3.134608
2.364516
2.691746
2.691746
2.639890
2.664924
2.478957
2.851486
2.846718
3.157854
3.044605
3.658533
4.296899
4.197955
4.624724
4.092455
4.624724
5.175471
4.528761
5.025864
6.060600
6.505847
6.773472
7.731915
6.842613
6.606579
7.004738
6.915927
8.354783
8.932948
7.349849
8.039474
7.882714
8.945465
10.193586
8.278489
11.287928
10.421872
10.832548
10.403991
10.982752
11.476874
12.328625
13.498664
12.729764
12.723804
13.578534
13.101697
14.620423
14.977455
13.192892
14.239550
15.777946
15.709996
15.509725
15.591979
16.519427
17.160773
17.867684
20.658970
25.013685
30.330420
36.605000
43.094754
49.761534
54.171681
58.707595
63.808560
65.025687
62.251687
56.885481
56.441426
49.359798
45.029521
39.641857
35.376549
30.603409
26.207566
21.270514
17.600656
16.150475
15.071630
14.408827
13.910532
14.306903
14.996529
15.492439
13.995767
##ZVALUE=215
7.181764
6.445646
6.966591
5.415678
5.393624
4.893541
4.376769
4.785657
5.545616
5.286932
5.360842
4.877448
4.777908
3.914833
3.113747
3.434420
3.627539
3.834963
3.823638
4.016757
3.770590
3.559589
5.126595
5.167723
5.199909
5.403757
6.126761
5.592704
6.248951
6.176829
6.001592
6.292462
6.451607
7.294416
7.874966
7.642508
7.471442
8.244514
9.415746
8.359551
8.990765
9.157658
9.118915
8.979440
10.819435
11.653900
11.543632
11.900663
12.045503
11.649728
12.585521
12.682676
13.532639
12.822747
13.125539
13.457537
14.014840
12.555718
13.972521
13.351440
13.883710
13.943911
14.936924
14.683604
15.740991
17.416477
16.509891
16.980767
20.312667
24.778843
28.011799
34.898520
38.447976
40.081739
44.987798
46.098828
48.629642
47.251582
46.882629
41.568875
39.022565
34.164786
29.657483
26.428699
22.026896
19.081831
15.567541
15.021563
15.232563
13.849735
14.939904
11.908412
13.164878
13.093948
13.592839
12.739897
##ZVALUE=220
24.148822
22.918582
26.121736
26.725531
25.855899
21.346807
17.649531
14.114976
12.689829
11.733770
11.012554
11.413693
12.298822
10.423660
9.155869
8.435845
6.330609
4.983544
4.153848
4.482865
4.023910
4.824996
5.901456
4.670620
5.125999
5.402565
5.688667
5.204678
6.268620
5.825758
6.505847
7.556677
6.434917
8.123517
7.957816
7.664561
7.722974
8.537769
8.998513
8.683801
9.004474
9.884834
10.226965
9.459853
9.944439
10.948777
9.638667
11.137724
10.421872
10.686517
11.130571
11.225939
11.786819
10.956526
11.111498
12.103915
11.643767
12.459755
12.531877
12.576580
13.141632
12.038946
13.680458
13.038516
13.351440
13.377666
14.515519
15.643835
16.865730
20.566583
23.933649
29.202700
31.021833
37.421584
36.077499
41.442513
38.823485
38.365722
39.083958
32.332540
31.650662
28.250813
27.263761
22.182465
20.844936
19.151568
16.389489
14.229417
16.113520
12.992620
13.627410
13.349652
12.772679
12.187958
12.692809
12.797713
##ZVALUE=225
40.977001
42.133927
55.325627
72.796941
80.041885
84.627867
79.571605
60.516596
48.719645
39.826632
26.732683
23.349524
24.249554
25.993586
26.982427
25.175810
20.535588
16.789436
13.858676
8.678436
7.406473
5.015731
4.814863
6.479621
5.830526
5.834699
6.136894
6.911755
6.911755
6.557703
6.677508
6.663799
8.668900
8.039474
7.921457
8.802414
8.441806
8.962750
9.699464
11.154413
9.766817
9.517670
10.652542
10.219812
9.747744
9.760857
10.623932
10.450482
11.263490
10.398626
12.035966
12.653470
12.072921
13.069510
12.262464
11.909604
12.846589
13.561845
12.563467
13.486743
14.860630
14.838576
13.227463
14.500618
14.565587
15.573502
14.605522
18.041730
18.979907
22.162795
24.853945
30.045509
30.359626
33.980608
37.487745
37.605762
36.026835
37.078857
35.119653
32.234788
29.550791
27.885437
24.780631
21.624565
20.622611
18.416643
18.766522
19.170642
16.871691
16.541481
16.803741
15.900731
17.035604
16.343594
16.126633
17.558932
##ZVALUE=230
34.835935
38.574934
64.653754
108.295679
151.750445
184.405446
209.057927
210.491419
195.312500
157.985687
116.254687
77.294707
57.130456
45.882463
46.531558
47.409534
49.987435
49.734712
44.004917
38.008690
29.343963
20.002723
12.689829
9.336472
6.944537
7.420778
6.869435
7.204413
6.796718
7.270575
8.549690
7.422566
8.204579
7.287860
8.938909
9.736419
8.790493
9.566545
10.460615
10.165572
10.437965
12.333989
11.131763
9.690523
12.760758
11.821985
11.694431
12.417436
12.006760
12.734532
12.345910
12.728572
11.522770
14.093518
14.409423
13.383627
14.828444
14.658570
13.451576
16.062856
16.624928
15.568733
16.392469
17.256737
17.248988
19.300580
19.339919
20.491481
22.279620
26.716590
27.417541
32.254457
36.555529
39.617419
42.948723
42.205453
41.048527
42.655468
41.234493
37.197471
34.484863
30.185580
30.559897
28.299689
30.524731
26.707649
22.491813
22.901893
22.354722
23.438931
21.841526
24.449825
23.030639
23.082495
23.047924
22.958517
##ZVALUE=235
13.664961
16.252995
31.061769
82.829595
136.498809
225.879550
297.944546
392.295718
433.914661
436.229706
401.790738
339.347720
227.914453
168.302655
111.081004
81.803799
73.847771
82.015991
81.993937
83.485842
75.839758
65.642595
54.807663
37.224889
25.823712
15.327930
12.583733
9.669662
7.354617
8.568764
7.623434
9.074807
10.449886
10.115504
11.226535
10.598898
9.738803
11.660457
12.266636
11.388659
12.062788
10.775924
11.845827
11.730790
12.030602
12.216568
12.907982
12.725592
13.534427
14.709830
14.332533
13.532639
14.441609
15.946627
15.447736
15.887618
15.778542
15.532970
17.520785
17.592907
18.707514
19.830465
18.364787
19.537807
20.756721
21.076798
23.121834
26.869774
25.912523
31.250715
35.420656
40.378571
44.367909
48.883557
48.779845
50.326586
49.532652
49.252510
48.347712
46.732426
45.150518
42.242408
41.684508
37.016869
36.199689
34.319758
31.659603
31.754971
32.530427
32.739639
32.428503
31.873584
31.791925
30.040741
31.424761
29.642582
##ZVALUE=240
2.546906
2.640486
8.616447
21.244884
49.216747
117.252469
209.386945
366.133451
497.206450
652.014017
714.308619
734.959841
670.202971
532.923937
410.231948
268.949866
185.497999
125.245452
104.139447
106.615424
116.240978
117.144585
116.607547
105.725527
87.088943
67.709684
47.243834
32.657981
19.844770
14.724731
12.025833
9.001493
9.761453
9.514689
9.856820
10.511875
10.885000
11.426806
12.150407
11.852980
13.251901
10.990500
13.441443
11.697412
13.566613
13.426542
12.507439
13.548732
13.882518
13.698936
14.171600
15.052557
15.647411
15.657544
16.103983
17.479658
18.343925
17.030835
18.227696
19.406676
18.279552
20.179749
21.602511
21.037459
22.220612
23.758411
23.989677
27.528405
30.997992
34.537911
38.079619
40.201545
45.954585
49.973726
51.180720
51.518679
54.889917
52.620769
50.604939
51.267743
47.941804
45.390725
43.230653
41.696429
41.662455
39.975643
40.378571
39.475560
35.325885
40.263534
39.114952
36.279559
35.646558
38.595796
36.957860
38.518906
##ZVALUE=245
1.568794
1.789927
2.140999
2.385974
4.435778
17.719865
41.468740
120.652914
215.709805
341.693759
570.253730
743.565559
900.124907
941.821933
915.064812
812.673569
613.630414
479.171872
368.475914
209.401846
150.245428
115.001798
116.253495
127.572417
132.570863
123.389959
116.855502
94.668865
75.936913
51.674843
39.227605
22.990704
16.241670
10.980964
10.030866
11.293888
10.980964
11.010766
10.152459
10.359883
10.246634
10.771751
10.896921
11.945963
11.000633
11.175871
13.120770
11.783838
12.685657
13.060570
13.205409
12.457967
13.717413
13.785958
14.875531
14.813542
15.699863
16.263723
16.155839
16.818643
17.220974
17.142892
17.906427
19.862652
19.739866
20.742416
22.270679
26.047826
26.314855
30.584931
33.448935
38.530827
40.517449
46.545863
47.664642
50.256848
49.618483
48.803687
46.191812
46.155453
45.212507
42.812824
40.386915
40.204525
38.917661
39.242506
38.514733
38.724542
38.327575
36.492944
37.045479
37.044883
36.660433
36.527514
37.371516
37.617683
##ZVALUE=250
1.478791
1.285672
1.452565
1.839995
1.599789
1.943707
2.324581
11.361837
33.494830
97.419620
187.125802
380.484462
558.151603
803.903937
962.579846
1015.724540
1015.724540
957.064629
800.628662
545.987487
378.946662
250.677466
138.411522
108.324885
107.994676
125.214458
139.798522
141.487718
134.742856
122.346878
100.804567
83.875656
59.350729
34.336448
25.602579
15.574694
11.733770
8.834600
9.020567
9.648800
9.345412
8.639693
8.709431
9.066463
9.981990
10.020733
9.903908
9.726882
9.958744
11.145473
10.598898
10.688901
10.668635
10.925531
11.433959
12.058616
12.124777
12.174845
13.957620
14.178753
14.725924
14.415979
15.021563
15.754700
16.494989
18.555522
19.987822
20.422935
22.353530
24.972558
27.571917
30.342937
35.995841
37.457943
40.352941
39.250851
40.110946
39.062500
39.096475
39.179921
38.481951
35.714507
35.921931
35.498738
35.586953
34.741759
33.878684
35.679936
33.984780
34.655929
34.147501
35.463572
33.661723
33.729672
33.029914
33.307672
##ZVALUE=255
1.379848
1.142621
1.331568
1.552701
1.494884
1.694560
1.944900
1.959801
2.536774
5.842447
30.618906
74.668527
153.648853
336.162448
517.160892
815.357566
996.118784
1015.750766
1015.750766
1015.750766
1015.750766
836.668015
522.271395
334.536433
169.436932
114.116669
96.356869
109.382868
129.386783
139.818788
146.896839
144.860744
133.123994
105.631948
84.275603
56.048632
40.018559
23.494959
16.935468
10.932684
10.235906
8.610487
9.422898
10.268688
9.220839
9.268522
9.604692
9.968877
9.679794
10.163784
9.672642
10.740757
10.146499
9.294748
10.059476
10.135770
11.030436
11.397600
12.220740
11.733770
11.912584
13.443828
13.418794
14.399886
14.078617
17.001629
16.049743
18.226504
19.936562
22.612810
23.695827
27.889609
29.167533
30.961633
32.027960
34.942627
34.880638
33.871531
32.073855
33.405423
32.367706
30.797720
32.467842
31.296611
31.765699
31.787753
31.220913
31.257868
31.465888
32.020807
31.635761
32.935739
33.390522
32.113791
33.481717
33.651590
##ZVALUE=260
1.302958
1.212955
1.174808
1.295805
1.282692
1.366735
1.297593
1.760721
1.682639
1.785755
2.119541
3.246665
11.625886
50.363541
114.157796
279.959440
462.048650
778.401494
1003.885865
1015.759706
1015.759706
1015.759706
1015.759706
1015.759706
736.240745
512.097478
287.462473
169.218779
97.743869
90.076923
102.797747
132.247806
144.563913
157.113671
152.443647
134.597421
116.504431
83.575845
61.582923
39.927959
25.967956
15.945435
12.164712
9.649992
9.212494
9.559989
10.218620
9.380579
10.077953
10.051727
10.216832
9.801984
10.686517
10.104775
9.753704
9.822845
10.194778
10.318756
10.670424
11.262894
11.463761
12.223721
11.890531
12.891889
13.559461
15.110970
14.624596
15.521646
17.988682
19.574761
21.756887
24.472475
26.112795
27.315617
29.285550
31.206608
30.605793
30.537844
29.680729
29.137731
28.986931
28.853416
27.878881
29.318929
28.232932
28.978586
28.195977
28.846860
29.640794
30.834675
31.254888
31.691790
31.916499
34.722686
34.486651
36.351681
##ZVALUE=265
1.229644
1.138449
1.246929
1.320839
1.108646
1.676679
1.589656
1.173615
1.764894
1.854897
1.583695
1.999736
2.187490
2.914667
6.560683
34.764409
89.320540
223.814845
401.397943
766.992569
1015.750766
1015.750766
1015.750766
1015.750766
1015.750766
1015.750766
1015.750766
753.577948
398.428440
233.165622
115.653872
84.698796
92.095733
111.695528
139.680505
154.548883
161.984563
156.053901
134.593844
115.970969
84.310770
64.416528
40.724874
27.431846
17.239451
12.805462
10.689497
10.233521
9.701848
9.685755
9.854436
10.121465
10.325909
10.813475
10.088682
10.229945
10.426641
11.409521
11.267662
10.858774
11.153817
11.700988
12.066960
12.323856
13.198853
13.996959
14.917850
15.730858
17.559528
17.949939
21.818876
21.924973
23.548603
25.625825
26.300550
26.566982
27.621984
27.576685
27.096868
27.736425
27.338862
25.693774
26.488900
26.788712
26.354790
26.976466
26.821494
28.427839
28.748512
29.120445
30.048490
32.102466
33.498406
33.452511
36.371946
38.272738
##ZVALUE=270
1.001954
0.992417
1.294613
1.318455
1.222491
1.209974
1.413822
1.259446
1.294613
1.221895
1.642704
1.718998
1.794696
2.273917
2.091527
2.396703
3.386736
14.704466
47.987700
164.161921
332.192779
594.707727
1015.750766
1015.750766
1015.750766
1015.750766
1015.750766
1015.750766
1015.750766
1015.750766
736.119747
366.701484
196.688771
86.579919
70.109963
90.605617
112.974644
138.563514
156.488419
163.760781
157.745481
138.487816
117.641687
86.276531
64.188838
39.204955
27.731657
18.049479
13.170838
11.510849
10.613799
10.546446
10.642409
10.008812
10.804534
11.401772
10.783672
11.020899
12.067556
12.005568
12.169480
12.465715
12.593865
13.224483
13.239980
14.433861
15.157461
15.843511
16.768575
18.684864
20.401478
20.961761
22.868514
25.515556
25.222898
26.899576
26.755929
26.324987
26.003718
25.727749
25.706887
25.312901
25.152564
24.778843
25.069714
24.630427
26.096702
25.396943
27.286410
28.298497
29.844642
30.964613
31.536818
33.185482
33.925772
36.553741
##ZVALUE=275
0.965595
0.938773
1.168847
0.913739
0.796914
1.138449
1.063943
1.423955
1.286864
1.357794
1.662970
1.523495
1.595616
1.352429
1.455545
1.612902
2.014637
2.421737
2.745986
8.091927
30.290484
83.037615
257.554650
495.759845
947.885513
1015.750766
1015.750766
1015.750766
1015.750766
1015.750766
1015.750766
1015.750766
895.413756
470.010042
261.042714
108.258724
66.328645
66.148639
84.859729
115.023851
134.141445
154.678822
162.876844
154.622793
139.214993
110.564828
88.332891
62.140822
44.401884
27.522445
19.478798
13.848543
12.105703
10.708570
11.020899
10.769963
11.362433
11.798739
11.561513
12.089610
11.820793
12.369752
12.192726
13.062954
13.094544
13.785958
14.259815
16.395450
16.354918
18.845797
19.680858
21.022558
22.578835
23.694634
24.766922
25.681853
25.667548
24.853945
24.582744
24.871826
24.399757
23.701787
24.177432
24.129748
23.652911
24.087429
23.724437
24.468899
24.731755
23.912787
24.753809
23.969412
25.119781
23.894906
24.422407
25.376678
##ZVALUE=280
1.045465
0.924468
0.852942
0.967979
0.954866
0.965595
0.869632
0.975728
1.260638
1.119971
1.057982
1.247525
1.146793
1.256466
1.533628
1.707673
1.760721
1.617670
2.131462
2.302527
2.615452
3.710985
18.392801
64.062476
213.937759
402.233601
775.874853
1015.750766
1015.750766
1015.750766
1015.750766
1015.750766
1015.750766
1015.750766
1015.750766
607.187748
350.240469
145.419836
75.309873
50.344467
60.861707
87.491870
110.418797
136.749744
151.643753
158.789754
149.931908
134.011507
114.609599
84.032416
64.888597
43.181777
29.628873
18.394589
14.582872
12.110472
11.248589
11.237860
11.292696
11.302829
12.913942
12.515783
12.931824
13.604760
14.124513
14.379621
15.126467
15.848875
16.391873
17.615557
18.901825
20.908713
21.853447
23.198724
24.304986
24.164915
24.210811
23.617744
23.757815
23.481846
23.346543
23.318529
23.272634
23.262501
22.867918
23.372769
23.655891
23.186803
22.890568
23.573637
23.620725
23.988485
23.375750
23.674965
23.347735
24.443865
##ZVALUE=285
0.767708
0.919700
0.896454
0.847578
0.852942
1.037717
1.153946
0.861883
1.138449
1.128912
1.190901
1.055598
1.295805
1.188517
1.288652
1.398921
1.502633
1.496673
1.626611
1.762509
2.066493
2.240539
2.462864
2.943873
10.768771
40.379763
106.581450
303.014517
544.292927
980.671644
1015.750766
1015.750766
1015.750766
1015.750766
1015.750766
1015.750766
1015.750766
940.418839
587.599874
262.709856
126.292706
51.014423
41.644573
59.067607
79.427958
109.003782
128.552914
147.004724
153.666735
148.085952
136.103630
111.170411
89.494586
62.199831
44.743419
28.318763
20.026565
14.874935
12.737513
12.329817
11.946559
12.472868
12.795925
12.869835
13.977885
14.273524
15.849471
15.575886
16.650558
17.723441
19.687414
20.280480
21.542907
22.704601
23.776889
23.368597
23.975968
24.139881
23.952723
23.458600
22.393465
22.334456
23.283958
23.311973
22.582412
23.546815
23.060441
23.406744
23.065805
23.298860
22.883415
23.800731
22.911429
23.684502
22.915602
23.256540
##ZVALUE=290
0.897646
0.640750
1.039505
1.116991
0.906587
1.079440
0.831485
0.989437
0.944734
0.798702
1.185536
1.064539
1.307726
1.358986
1.159906
1.194477
1.374483
1.257658
1.341701
1.670718
1.684427
1.795888
2.019405
2.339482
2.674460
2.710819
3.811717
21.218657
65.904856
203.351974
402.036905
844.354033
1015.750766
1015.750766
1015.750766
1015.750766
1015.750766
1015.750766
1015.750766
1015.750766
782.189965
374.866724
191.746950
68.974495
35.898685
39.134622
53.011775
76.317787
97.268820
126.215816
138.479471
149.466991
146.315694
129.139423
111.419559
84.391832
63.260794
43.062568
30.276775
20.358562
16.458631
13.719797
12.985468
13.585687
13.587475
14.751554
15.313625
15.418530
16.200542
17.668605
18.583536
20.552874
21.362901
22.511482
22.494793
22.926927
23.117661
22.535920
22.916794
23.041964
22.254586
23.138523
23.454428
23.575425
22.875667
23.122430
23.504496
22.890568
22.799969
23.407936
23.223758
23.316741
22.811890
22.634864
22.673607
23.209453
##ZVALUE=295
0.686646
0.870824
0.921488
0.762939
0.747442
0.613928
0.785589
0.989437
0.888705
1.112819
0.922680
1.033545
1.032948
1.170635
1.096725
1.061559
1.231432
1.347661
1.342893
1.367927
1.566410
1.580715
1.756549
1.788735
2.171993
2.281666
2.442598
2.977848
3.228784
7.438660
32.285452
135.926604
299.435854
685.142875
1015.750766
1015.750766
1015.750766
1015.750766
1015.750766
1015.750766
1015.750766
1015.750766
1002.374887
548.100471
284.767747
98.089576
42.086840
26.832819
33.230782
51.083565
69.184899
95.092654
114.026666
134.128928
142.268538
138.625503
125.511885
103.831887
85.074902
60.027838
44.827461
29.668808
22.041798
17.354488
14.820695
14.432669
14.248490
15.703440
16.510487
17.228723
18.270612
19.844770
20.525455
21.228790
21.898746
22.277832
22.208691
22.218823
22.810698
22.954941
22.646785
22.270679
23.380518
23.002625
22.910833
22.841692
23.104548
23.705959
23.340583
23.187995
23.602843
22.934675
22.914410
22.531748
23.124814
22.759438
##ZVALUE=300
0.782609
0.750422
0.711679
0.826716
0.833869
0.802875
0.804663
0.736713
0.814795
0.893474
0.956655
1.159906
0.945926
1.088977
1.080632
1.198649
1.132488
1.080632
1.319647
1.296997
1.351833
1.284480
1.365542
1.512766
1.551509
1.813769
2.075434
2.418756
2.478957
2.700686
3.267527
3.896952
14.364719
91.156960
220.542550
537.689924
898.605585
1015.750766
1015.750766
1015.750766
1015.750766
1015.750766
1015.750766
1015.750766
1015.750766
728.793740
423.977971
174.809694
75.979829
26.322603
22.443533
31.606555
43.994784
66.889524
86.582899
110.484958
126.567483
136.224627
133.134723
122.801661
105.957985
81.984997
63.607693
44.959784
33.328533
23.085475
19.437671
16.993880
16.916990
17.398000
18.279552
20.232797
20.300746
21.243691
21.807551
22.840500
22.121668
22.435784
22.092462
22.719502
22.973418
22.926927
23.021698
23.127794
23.819804
23.133755
23.850799
23.901463
23.501515
23.357868
23.461580
23.092628
23.002625
23.061633
22.822618
22.245646
##ZVALUE=305
0.574589
0.469685
0.618696
0.608563
0.738502
0.454783
0.653863
0.715852
0.707507
0.858903
0.627637
0.677705
0.682473
0.667572
0.732541
0.691414
0.794530
0.792742
0.916719
0.921488
0.892878
1.061559
1.213551
1.202822
1.393557
1.265407
1.603961
1.642704
1.668930
2.217889
2.042651
2.520680
2.487898
3.579855
7.604957
57.454705
160.127878
434.458852
753.467679
1015.580893
1015.580893
1015.580893
1015.580893
1015.580893
1015.580893
1015.580893
1015.580893
981.810689
631.200671
279.193521
128.536820
37.888885
20.073652
21.913648
28.538704
45.612454
61.250925
85.680485
101.194978
121.009946
128.766894
126.877427
117.280483
101.573467
82.985759
59.722662
45.806766
33.174753
26.265979
21.529794
20.495653
20.621419
20.249486
21.432638
22.056699
22.068620
21.749735
21.999478
22.363663
22.270679
22.837520
23.222566
23.051500
22.956729
23.494959
23.138523
24.402738
24.609566
23.981929
23.510456
24.241805
23.025870
22.866726
23.338795
23.347735
22.910833
##ZVALUE=310
0.701547
0.572801
0.567436
0.656843
0.858903
0.740886
0.850558
0.711679
0.823736
0.671744
0.889897
0.771880
0.713468
0.951886
0.890493
0.933409
0.926852
0.916719
1.096725
1.109838
1.030564
1.086593
1.210570
1.299977
1.388788
1.476407
1.335740
1.533628
1.677871
1.713634
1.984835
1.976490
2.359748
2.638698
2.806783
3.513694
4.176497
23.814440
85.255504
280.368924
548.012853
1015.743613
1015.743613
1015.743613
1015.743613
1015.743613
1015.743613
1015.743613
1015.743613
1015.743613
951.114893
465.856791
241.162777
76.504946
28.082728
16.756654
20.116568
27.625561
38.425922
58.932900
74.471831
97.730756
112.531781
120.986700
122.948885
115.740895
102.279782
82.801580
66.388845
47.254562
37.716627
29.379725
25.652647
22.378564
23.208857
22.700429
22.700429
22.362471
22.647977
23.110509
23.438931
23.780465
24.159551
24.207830
23.942590
24.503469
25.222898
24.528503
24.646521
24.200678
24.376512
24.244785
24.173856
23.661852
23.818612
23.020506
##ZVALUE=315
0.678897
0.681877
0.715852
0.783801
0.827909
1.033545
0.674725
0.617504
0.709891
0.930429
0.796914
0.754595
0.796914
0.848770
0.941753
0.767708
0.872612
1.300573
0.937581
1.006722
1.047850
1.067519
1.233816
1.161695
1.193881
1.158714
1.207590
1.267791
1.571774
1.580715
1.483560
1.912713
2.056956
2.011657
2.320409
2.683997
2.668500
3.586411
3.986955
11.166930
47.213435
198.874474
428.100824
937.819481
1015.750766
1015.750766
1015.750766
1015.750766
1015.750766
1015.750766
1015.750766
1015.750766
1015.750766
639.998913
334.653854
115.620494
43.492913
16.785860
15.598536
19.659996
24.820566
38.952827
52.405596
72.801709
89.941621
108.087659
116.048455
118.350983
113.113523
96.661448
83.545446
64.732432
51.815510
37.956834
30.678511
25.298595
23.889542
22.846460
23.136735
22.950768
23.160577
24.030805
23.846626
24.424791
24.792552
25.311708
25.409460
24.671555
25.230646
24.564862
24.825931
24.300814
24.171472
24.069548
24.010539
24.145842
##ZVALUE=320
0.719428
0.667572
0.674725
0.743866
0.790954
0.699759
0.687838
0.573993
0.658631
0.862479
0.590682
0.804663
0.875592
0.782609
0.995994
0.841618
0.968575
0.903606
0.878572
0.959635
0.860691
1.053810
1.074672
1.074672
1.212955
1.153946
1.267791
1.136661
1.364946
1.575947
1.593828
1.945496
1.928806
1.845956
1.968741
2.157688
2.211928
2.506971
2.837777
3.211498
3.721714
5.529523
20.132661
120.050907
320.466757
827.787519
1015.750766
1015.750766
1015.750766
1015.750766
1015.750766
1015.750766
1015.750766
1015.750766
1015.750766
856.058002
471.779704
185.492635
76.112747
22.484660
15.020967
15.634894
18.816590
25.336742
33.724904
51.664710
67.471862
87.407827
101.892948
113.449693
115.746856
109.117627
98.547935
80.774426
65.418482
48.888922
39.186478
31.692982
26.725531
23.894906
23.355484
24.106503
24.000406
24.486780
24.414659
24.712682
24.101734
24.683475
24.710894
24.336576
24.795532
24.670959
24.472475
24.820566
24.374723
24.045706
##ZVALUE=325
0.572801
0.632405
0.670552
0.568628
0.798702
0.760555
0.753999
0.762939
0.713468
0.770688
0.696778
0.609756
0.824928
0.776649
0.839829
0.916719
0.740886
0.985861
0.943542
1.033545
1.047850
0.858903
0.923872
1.069903
1.099706
1.121759
1.215935
1.195669
1.303554
1.292825
1.285672
1.455545
1.592636
1.675487
2.003908
2.069473
1.899600
2.175570
2.431870
2.537966
2.808571
3.335476
3.974438
4.628897
10.968447
80.626607
221.567750
597.960949
997.459888
1015.740633
1015.740633
1015.740633
1015.740633
1015.740633
1015.740633
1015.740633
1015.740633
1015.740633
676.966906
279.698968
125.119686
34.217834
16.744733
14.757514
15.337467
19.778609
24.393797
35.540462
48.516989
69.036484
84.963441
100.732446
108.643770
112.025738
105.166435
91.900826
77.204704
60.950518
48.893690
36.788583
30.062795
26.625991
24.990439
24.077892
24.186969
23.894906
24.289489
24.347901
24.702549
24.259686
24.571419
24.183989
24.038553
23.549795
23.958683
24.397969
##ZVALUE=330
0.722408
0.665784
0.767708
0.758767
0.813603
0.855923
0.765920
0.668764
0.732541
0.778437
0.840425
0.776649
0.757575
0.756979
0.904799
0.835657
0.911951
0.970960
0.850558
0.801682
1.065731
0.902414
0.990629
1.066923
1.138449
1.184940
1.132488
1.355410
1.354814
1.297593
1.388788
1.681447
1.508594
1.458526
1.450777
1.790524
1.795888
1.946688
2.013445
2.279878
2.439618
2.737641
2.982616
3.335476
3.571510
4.285574
6.390810
36.597848
119.608641
395.102501
756.793618
1015.878916
1015.878916
1015.878916
1015.878916
1015.878916
1015.878916
1015.878916
1015.878916
1015.878916
941.962600
423.220396
202.198625
62.690973
23.879409
15.293956
14.975667
16.330481
19.617677
27.257800
35.651922
50.480962
63.816905
83.772540
96.080899
103.839636
104.814768
98.910928
87.453723
72.426796
59.494972
46.345592
37.160516
31.052828
27.550459
25.207996
24.428964
23.651719
23.330450
23.967624
23.759604
23.411512
23.264885
23.246408
22.972822
23.259521
##ZVALUE=335
0.633597
0.565648
0.617504
0.594854
0.654459
0.640750
0.681877
0.523925
0.604987
0.571609
0.806451
0.647902
0.623465
0.728965
0.664592
0.643730
0.842810
0.730753
0.742674
0.752807
0.908971
0.975728
0.856519
0.864863
0.913739
0.853539
0.930429
1.076460
1.053810
1.083612
1.145601
1.014471
0.981688
1.409650
1.242757
1.390576
1.545548
1.384616
1.428723
1.590848
1.715422
2.141595
2.029538
2.302527
2.490878
2.691746
3.225803
3.785491
4.495978
13.740659
55.740476
222.599506
466.377735
977.616906
1015.750766
1015.750766
1015.750766
1015.750766
1015.750766
1015.750766
1015.750766
1015.750766
1015.750766
561.700463
284.716487
92.553496
34.433603
15.852451
14.891624
15.638471
17.064810
21.049976
26.561618
36.412477
47.846437
64.473748
76.394677
90.378523
96.676946
97.799897
93.507767
82.066655
71.247816
57.453513
46.795607
36.726594
31.444430
26.797652
24.988651
23.426414
22.819638
22.205710
23.007989
21.696687
22.186637
22.086501
##ZVALUE=340
0.654459
0.503659
0.590682
0.517964
0.668764
0.515580
0.527501
0.587702
0.615716
0.609756
0.561476
0.618696
0.583529
0.738502
0.649691
0.723600
0.671744
0.750422
0.863671
0.639558
0.723600
0.657439
0.635982
0.764728
0.786781
0.824928
0.969768
0.888705
1.007915
1.056790
1.081824
1.010895
1.021624
1.172423
1.058578
1.111627
1.167655
1.311898
1.347661
1.511574
1.498461
1.597404
1.669526
1.873970
2.133846
2.187490
2.646446
2.672672
2.901554
3.319979
3.829598
6.343722
23.517609
132.147670
334.612727
846.513510
1015.750766
1015.750766
1015.750766
1015.750766
1015.750766
1015.750766
1015.750766
1015.750766
1015.750766
753.135681
401.089787
149.043798
55.100918
18.222928
15.816689
16.100407
16.827583
18.255711
20.838976
26.832819
33.394694
46.525598
59.413910
74.292421
84.638596
92.495680
92.254877
88.406801
80.067515
68.173409
57.247877
44.678450
37.767887
29.981732
26.230812
23.072958
22.109747
21.766424
20.967722
21.531582
##ZVALUE=345
0.433922
0.555515
0.574589
0.531673
0.480413
0.665784
0.691414
0.642538
0.537634
0.636578
0.624657
0.613928
0.773668
0.749826
0.618696
0.689626
0.561476
0.683665
0.649691
0.695586
0.642538
0.806451
0.712872
0.737906
0.788569
0.889897
0.870824
0.749826
0.915527
0.854731
0.817776
0.981688
0.958443
1.075864
1.083612
1.174808
1.133680
1.166463
1.188517
1.370907
1.275539
1.519918
1.544952
1.660585
1.687407
1.816750
2.040863
2.224445
2.352595
2.499819
2.768636
3.141761
3.508925
4.353523
9.861588
74.461699
217.289925
596.730709
998.770595
1015.750766
1015.750766
1015.750766
1015.750766
1015.750766
1015.750766
1015.750766
1015.750766
958.305001
545.981526
212.978721
86.101890
26.582479
17.035604
15.762448
15.715957
16.049743
17.175674
19.229650
23.549795
31.638741
41.099787
55.900812
66.593885
78.232884
84.245801
86.512566
83.662868
75.505972
67.260861
55.243969
44.782758
34.317970
29.165745
24.508834
21.906495
20.933747
##ZVALUE=350
0.509620
0.590682
0.475645
0.614524
0.462532
0.527501
0.453591
0.424981
0.697970
0.591874
0.612736
0.666976
0.631809
0.657439
0.763535
0.609756
0.755787
0.725985
0.726581
0.725985
0.857711
0.737906
0.610948
0.789762
0.838637
0.760555
0.832677
0.611544
0.630617
0.849962
0.922680
0.842810
1.054406
0.965595
0.996590
0.910759
0.937581
1.094937
1.139641
1.254678
1.131892
1.184940
1.354814
1.380444
1.474619
1.457930
1.503825
1.821518
2.025962
2.223849
2.028942
2.320409
2.575517
2.923608
3.266931
3.810525
6.898642
26.297569
130.879879
307.392478
772.966743
1015.750766
1015.750766
1015.750766
1015.750766
1015.750766
1015.750766
1015.750766
1015.750766
1015.750766
589.365959
318.763852
115.265846
43.098927
16.746521
14.517903
14.343858
14.369488
14.527440
15.587807
18.284917
22.011995
29.069781
37.609935
49.460530
58.913827
71.012974
76.657534
79.800487
77.534914
70.547462
62.185526
50.805807
42.426586
32.752752
28.000474
##ZVALUE=355
0.650883
0.395775
0.350475
0.522733
0.480413
0.758767
0.520945
0.660419
0.720620
0.552535
0.812411
0.530481
0.576973
0.643730
0.554919
0.616908
0.641942
0.735521
0.671744
0.862479
0.726581
0.730753
0.702739
0.875592
0.863671
0.830889
0.706911
0.804663
0.756979
0.834465
0.978708
1.018643
0.956655
1.006722
0.827909
0.997782
1.035929
0.962615
0.975728
1.171827
1.099706
1.201630
1.149774
1.168847
1.161695
1.533628
1.539588
1.632571
1.663566
1.871586
1.810789
2.123713
2.205968
2.372861
2.629757
2.869964
3.088713
3.691912
4.214644
15.590787
61.650872
247.353911
511.908531
1004.580855
1015.750766
1015.750766
1015.750766
1015.750766
1015.750766
1015.750766
1015.750766
1015.750766
891.854763
385.987759
180.086493
52.025914
20.749569
14.067888
13.574958
13.341904
13.361573
14.050603
14.795661
16.712546
19.758940
26.017427
32.675862
43.975711
52.243471
62.467456
68.459511
72.757602
70.420504
65.081716
58.355927
48.390627
##ZVALUE=360
0.631809
0.646710
0.538826
0.690818
0.561476
0.549555
0.553727
0.590682
0.589490
0.681877
0.573993
0.665784
0.608563
0.708699
0.777841
0.717640
0.786781
0.827909
0.766516
0.684857
0.630617
0.863671
0.844598
0.835657
0.616908
0.827909
0.995994
0.966787
0.822544
0.875592
0.879765
0.955462
0.978708
0.766516
1.079440
1.026988
0.936985
1.072884
1.084805
1.203418
1.213551
1.065731
1.238585
1.227856
1.376867
1.462698
1.438856
1.510978
1.622438
1.528859
1.849532
1.837611
2.050996
2.007484
2.242923
2.609491
2.718568
3.004670
3.204942
3.941655
4.173517
7.516742
27.983785
131.312609
316.393971
772.167444
1015.750766
1015.750766
1015.750766
1015.750766
1015.750766
1015.750766
1015.750766
1015.750766
1015.750766
540.504456
273.634791
94.087720
34.434795
14.145970
13.219714
13.141632
12.602806
12.875795
13.109446
13.705492
14.923811
17.645955
21.254420
28.703809
36.024451
46.864748
53.899884
61.519742
65.332651
65.692663
##ZVALUE=365
0.590682
0.675917
0.781417
0.697970
0.613928
0.584722
0.729561
0.572801
0.753999
0.745654
0.586510
0.814795
0.486970
0.733733
0.621676
0.681877
0.666976
0.771880
0.666976
0.722408
0.769496
0.794530
0.869632
0.791550
0.883937
1.072884
1.028776
1.049638
0.896454
0.899434
0.963807
0.986457
0.980496
1.167655
0.971556
1.106858
1.023412
1.151562
1.145601
1.264811
1.267791
1.378655
1.233816
1.259446
1.385808
1.413822
1.472831
1.502633
1.574755
1.631975
1.725554
1.912713
1.667738
2.036691
1.978874
2.351999
2.609491
2.664924
2.736449
2.931952
3.494620
4.038811
4.373789
5.695820
12.369752
80.157518
224.098563
595.957637
1002.587676
1015.748978
1015.748978
1015.748978
1015.748978
1015.748978
1015.748978
1015.748978
1015.748978
791.278481
414.856672
137.632489
49.199462
15.441775
13.041496
12.435913
12.065768
12.061000
12.216568
12.057424
12.335777
13.552904
15.252829
19.392967
24.051666
32.277703
38.997531
48.024654
##ZVALUE=370
0.640750
0.761747
0.633597
0.759959
0.709891
0.719428
0.574589
0.691414
0.511408
0.771880
0.817776
0.802875
0.777841
0.698566
0.735521
0.892878
0.624657
0.696778
0.707507
0.656843
0.591874
0.864863
0.765920
0.694990
1.003742
0.935793
0.921488
0.867844
0.746846
0.838637
0.900626
0.890493
0.913739
0.850558
1.001954
0.886917
1.068711
1.187921
1.101494
1.110435
1.085997
1.062751
1.050830
1.200438
1.239777
1.336932
1.556873
1.363754
1.359582
1.505613
1.560450
1.686811
1.626611
1.854897
1.828671
1.876950
2.025962
1.910925
2.124906
2.531409
2.588630
2.868772
3.134608
3.720522
3.906488
4.493594
6.935596
39.711595
136.603713
437.728763
852.332711
1015.750766
1015.750766
1015.750766
1015.750766
1015.750766
1015.750766
1015.750766
1015.750766
997.703671
602.118969
227.555633
92.256665
24.060607
13.161898
11.553764
11.489987
11.075735
11.154413
10.637641
10.706782
11.476874
11.643767
13.815761
16.363859
21.326542
##ZVALUE=375
0.512600
0.517964
0.599623
0.469685
0.560880
0.565648
0.511408
0.601411
0.586510
0.594854
0.618696
0.654459
0.427961
0.565648
0.578761
0.570416
0.713468
0.595450
0.714660
0.684857
0.735521
0.655651
0.594854
0.639558
0.695586
0.807643
0.725985
0.870824
0.801682
0.731945
0.796914
0.819564
0.785589
0.857711
0.985861
0.969768
0.707507
0.963807
0.843406
0.885725
0.973940
0.987649
1.010895
0.850558
1.018643
0.994802
0.988841
1.067519
1.128912
1.224875
1.286864
1.200438
1.307726
1.412630
1.394749
1.376867
1.514554
1.490712
1.456738
1.767874
1.839995
1.961589
2.176762
2.411604
2.737641
3.046989
3.234744
4.085898
4.965663
17.898679
68.450570
262.229443
559.386611
1015.750766
1015.750766
1015.750766
1015.750766
1015.750766
1015.750766
1015.750766
1015.750766
1015.750766
806.779861
381.082892
178.957582
49.451590
17.495751
11.033416
10.306835
10.193586
9.845495
9.749532
9.879470
10.063648
10.295510
10.798573
##ZVALUE=380
0.493526
0.382662
0.327826
0.535846
0.531673
0.452995
0.592470
0.442863
0.439882
0.479817
0.336766
0.470877
0.425577
0.425577
0.520945
0.497699
0.462532
0.566840
0.612736
0.521541
0.594854
0.454783
0.585914
0.441670
0.666976
0.798702
0.492930
0.609756
0.528693
0.582933
0.703931
0.565648
0.804663
0.606775
0.574589
0.620484
0.721812
0.652671
0.787973
0.818968
0.934601
0.860691
0.864863
0.950694
0.958443
0.780821
0.832677
0.945926
0.893474
1.073480
1.077652
1.230836
1.111627
1.103878
1.215935
1.170635
1.303554
1.336932
1.470447
1.507998
1.661777
1.654625
1.673698
1.985431
2.276897
2.392530
2.388954
2.921820
3.513694
4.020929
4.775524
9.622574
39.541721
192.412734
439.381599
967.361927
1015.750766
1015.750766
1015.750766
1015.750766
1015.750766
1015.750766
1015.750766
1015.750766
1015.750766
579.283834
290.052891
87.789893
30.382872
11.498928
9.563565
9.129643
9.332895
9.212494
8.973479
9.117723
##ZVALUE=385
0.479817
0.394583
0.358820
0.426769
0.424981
0.357628
0.417829
0.412464
0.463724
0.409484
0.375509
0.421405
0.419617
0.475645
0.325441
0.411868
0.626445
0.429749
0.462532
0.658631
0.565648
0.456572
0.759959
0.524521
0.536442
0.527501
0.582933
0.503659
0.438690
0.447631
0.718832
0.504851
0.570416
0.719428
0.550747
0.550747
0.845790
0.706911
0.591874
0.720620
0.681877
0.742674
0.789762
0.836849
0.710487
0.847578
0.829697
0.711679
0.828505
0.776649
0.880957
1.062751
1.067519
0.954866
1.081824
1.205802
1.223683
1.150966
1.302958
1.315475
1.366735
1.510978
1.700521
1.554489
1.824498
1.948476
2.137423
2.440810
2.822876
3.315806
3.549457
4.047751
4.462600
5.530715
16.235709
101.930499
273.682475
702.124834
1015.750766
1015.750766
1015.750766
1015.750766
1015.750766
1015.750766
1015.750766
1015.750766
1015.750766
808.494091
454.135537
177.001953
64.912438
14.697909
9.371638
8.685589
8.454919
8.503795
##ZVALUE=390
0.513792
0.446439
0.349879
0.294447
0.425577
0.414848
0.462532
0.422597
0.477433
0.297427
0.335574
0.476837
0.421405
0.364780
0.480413
0.531673
0.425577
0.457764
0.489950
0.506639
0.477433
0.473857
0.511408
0.472665
0.458956
0.650883
0.481606
0.558496
0.671744
0.518560
0.535846
0.543594
0.498891
0.495911
0.442863
0.607967
0.574589
0.733733
0.672936
0.801682
0.714660
0.736713
0.770688
0.752807
0.755787
0.817776
0.931621
0.732541
0.756979
0.859499
0.938773
0.895858
0.918508
1.056790
1.144409
1.001954
1.106858
1.177788
1.259446
1.213551
1.401901
1.456738
1.443624
1.534820
1.560450
1.751781
1.947880
2.407432
2.566576
3.069639
3.158450
3.461838
3.586411
3.576875
3.679991
4.407763
7.947683
50.813556
170.903802
540.786982
970.286727
1015.750766
1015.750766
1015.750766
1015.750766
1015.750766
1015.750766
1015.750766
1015.750766
998.446941
596.431494
229.762793
100.918412
27.384758
10.974407
8.285642
##ZVALUE=395
0.430942
0.470877
0.363588
0.346899
0.274777
0.478625
0.311732
0.346899
0.431538
0.474453
0.345707
0.417829
0.392795
0.403523
0.374913
0.393987
0.511408
0.517964
0.418425
0.487566
0.372529
0.702739
0.469685
0.491738
0.743866
0.595450
0.342727
0.526905
0.500679
0.565648
0.690818
0.374913
0.627637
0.636578
0.440478
0.730753
0.663996
0.753999
0.577569
0.770688
0.784993
0.673532
0.774860
0.792742
0.648499
0.792742
0.694990
0.820756
0.882745
0.997782
0.984669
1.023412
0.943542
1.067519
0.852942
0.989437
0.788569
1.108646
1.145601
1.231432
1.336932
1.234412
1.202822
1.380444
1.575947
1.515746
1.709461
1.963973
2.285838
2.641678
2.797842
2.983809
3.073812
3.101826
3.137589
3.048778
3.455877
3.950596
5.242825
30.642748
112.648606
391.399860
740.693808
1015.746593
1015.746593
1015.746593
1015.746593
1015.746593
1015.746593
1015.746593
1015.746593
1015.746593
778.986812
344.200730
179.313421
44.148564
##ZVALUE=400
0.509620
0.276566
0.368953
0.558496
0.575781
0.378489
0.361800
0.384450
0.436902
0.425577
0.301600
0.316501
0.363588
0.391603
0.352859
0.398755
0.575781
0.352859
0.391603
0.476837
0.591874
0.639558
0.582933
0.522733
0.454783
0.566840
0.506639
0.509620
0.572801
0.502467
0.512600
0.448823
0.471473
0.706911
0.547767
0.510812
0.579953
0.602603
0.574589
0.557899
0.752807
0.673532
0.644922
0.663996
0.694990
0.758767
0.888705
0.695586
0.645518
0.673532
0.799894
0.917912
0.949502
0.891685
0.945926
0.794530
0.923872
0.955462
1.076460
1.061559
1.138449
1.196861
1.348853
1.416802
1.384616
1.538992
1.750588
1.781583
2.055764
2.520680
2.483726
2.522469
2.652407
2.687573
2.516508
2.634525
2.837777
3.030896
3.205538
3.756881
4.515648
14.023781
58.190823
222.687721
488.295555
1014.772654
1015.750766
1015.750766
1015.750766
1015.750766
1015.750766
1015.750766
1015.750766
1015.750766
962.503552
480.674505
##END
