##TITLE=AAI0501
##FORMAT=SPECTACLE-ASCII V-1.2
##DATA TYPE=ULTRAVIOLET SPECTRUM
##SECOND TYPE=ULTRAVIOLET SPECTRUM
##DATE=01/24/18
##TIME=19:01:58
##SPECTROMETER/DATA SYSTEM=SPECTACLE
##XUNITS=NM EM
##YUNITS=ENERGY
##YFACTOR=1
##FIRSTX=220
##LASTX=410
##NPOINTS=96
##3DDATA=Equidistant
##ZUNITS=NM EX
##FIRSTZ=210
##LASTZ=400
##ZPOINTS=39
##XYDATA=(Y..Y)
##ZVALUE=210
2.625585
2.608895
2.693534
3.509521
2.874732
3.369451
3.502965
3.269911
2.750754
2.358556
2.200603
2.295971
1.641512
2.245903
2.070665
1.985431
2.077818
2.211928
2.207756
2.806783
3.282428
3.102422
3.033876
2.928972
3.362894
3.665686
3.405809
3.545880
3.821850
3.748536
5.230904
4.518628
5.008578
4.544854
5.810857
5.530715
5.441904
5.363822
4.843473
5.114675
6.216764
5.511642
5.024672
5.486608
6.470680
6.761551
6.325841
6.219745
7.070899
6.790757
7.147789
5.950928
6.653666
6.293654
6.563663
6.474853
6.836653
7.477999
6.727576
7.811785
7.298589
7.411838
6.642938
6.398559
7.602572
7.445812
7.882714
9.998679
10.209680
11.156797
14.304519
16.625524
19.054413
19.976497
22.722483
22.820830
22.155643
23.607612
21.146536
23.023486
18.903613
16.386509
16.536713
13.922453
11.444688
10.089874
8.249879
8.111596
7.696748
7.392764
6.922483
7.696748
7.475615
7.204413
7.774830
8.481741
##ZVALUE=215
9.267926
9.547472
9.108782
7.065535
6.732941
6.263852
5.929470
5.970597
6.342530
6.670952
5.665421
5.078912
3.878474
3.427863
2.869964
2.208948
2.781749
2.866983
2.600551
2.691746
3.295541
3.225803
3.115535
3.753901
3.639460
3.815889
3.967881
3.728867
4.406571
3.837943
4.086494
4.625916
4.368424
4.669428
6.072521
5.304813
5.075932
5.709529
5.147457
4.928708
5.222559
5.308986
6.597638
6.068945
6.507635
6.336570
6.060600
6.191730
6.331801
7.046461
6.027818
7.176995
6.931424
7.777810
7.570982
6.375909
7.807612
7.645488
7.431507
7.535815
7.395744
7.735491
7.174611
7.751584
7.634759
7.625818
7.847548
9.517670
11.960864
12.093782
13.931990
17.000437
19.267797
19.591451
21.023750
21.963716
21.040440
22.972822
21.530986
17.745495
15.904903
15.496612
15.472770
12.106895
11.034608
10.088682
9.296536
6.719828
7.766485
7.012486
7.543564
6.946921
6.165504
6.765723
6.588697
7.429719
##ZVALUE=220
28.392673
29.610991
32.870770
30.365586
29.228926
24.415851
19.346476
15.071630
12.951493
12.771487
14.334917
14.010668
13.407469
12.977719
10.975599
8.387566
5.624890
4.332662
3.708601
3.909469
2.997518
3.382564
3.411770
3.722906
3.592968
4.076958
3.799796
4.617572
4.519820
4.608631
4.928708
5.073547
5.474687
5.713701
5.868673
5.400777
5.719662
5.602837
6.178617
6.553531
5.831718
6.301999
5.790591
6.110668
6.651878
7.193685
7.516742
7.378459
8.032918
6.646514
7.215738
7.294416
7.278919
7.560849
7.319450
6.865859
8.108616
8.133650
7.613897
8.214712
7.214546
8.427501
8.100867
8.280873
7.752776
8.428693
9.335876
10.385513
11.587739
11.123419
14.705658
17.107725
18.495917
20.215511
23.261905
26.001930
22.586584
23.747683
23.362637
20.925999
19.695759
17.093420
15.661716
13.485551
11.361837
10.362864
9.287596
7.663965
8.071661
7.894635
6.368756
7.484555
7.634759
6.880760
8.056760
7.730722
##ZVALUE=225
49.984455
49.788952
62.842965
79.243779
88.327527
83.599687
76.305866
63.995719
47.919750
38.532615
28.743744
26.568770
27.778745
29.502511
30.565858
26.086569
21.058917
16.874671
11.834502
8.642673
5.816817
4.598498
3.811717
4.375577
3.984571
3.926754
4.756451
5.112886
5.616546
6.255507
5.875826
6.100535
5.628467
5.118847
6.717443
6.740689
6.010532
6.047487
6.827712
6.855726
7.128716
6.610751
6.689429
6.230474
7.110834
7.115602
6.975532
8.053780
7.049441
7.897615
8.181930
7.205606
8.600950
7.762909
8.935928
8.459687
7.867813
9.055734
8.690953
8.082986
9.276867
9.765625
8.993745
9.307861
9.446740
10.541677
10.785460
11.368990
11.803508
13.655424
15.047789
17.309785
18.155575
20.533800
20.379424
21.593571
20.037889
20.392537
19.247532
17.937422
18.695593
15.819669
14.906526
12.509823
10.588765
10.951757
10.360479
9.712577
8.397698
8.521676
8.415580
8.615851
8.789897
8.715987
8.412600
7.567406
##ZVALUE=230
40.560961
45.465827
69.297552
108.510852
146.974921
176.006556
190.003514
188.450813
173.473954
142.381787
104.208589
74.948668
55.683851
47.319531
49.343705
50.227642
53.460002
52.120686
47.871470
37.081838
27.201772
18.580556
12.356639
7.982850
6.109476
5.068779
5.679727
5.226731
5.691648
5.827546
5.877614
6.971955
6.987453
6.287694
6.947517
7.156730
8.323789
7.169843
7.511973
7.972717
8.215904
8.680820
7.391572
8.826852
7.652640
7.280707
8.741617
8.533597
8.809566
7.800460
7.715821
8.750558
9.609461
9.705424
9.495616
8.849502
9.933710
9.505749
10.135770
8.920431
9.440780
10.403991
10.965466
10.914803
11.156797
12.515783
11.130571
11.846423
13.820529
15.468597
17.060637
19.450784
20.464659
22.368431
23.780465
26.896596
24.511814
23.561716
22.085905
21.843910
20.907521
16.761422
15.382767
14.739633
14.365911
11.713505
12.508631
12.484789
11.411905
11.811852
10.393858
11.627674
11.346936
10.740757
10.272861
10.842681
##ZVALUE=235
15.053749
15.940666
33.658743
76.691508
117.666721
193.446875
253.417492
326.699018
354.121923
357.140899
322.785974
264.244676
183.681846
138.013959
94.041824
78.477859
74.015856
77.778697
81.622601
81.488490
79.703927
66.433549
51.894784
35.065413
24.474859
16.247630
11.517406
7.900596
8.276701
7.119775
9.045601
8.314848
7.380843
7.482767
8.030534
8.223653
7.831454
7.943511
9.090900
9.107590
8.165836
8.790493
8.754730
8.639693
8.444786
8.129478
9.186864
8.392930
9.964705
10.074973
9.539723
8.976460
9.437799
8.149743
10.122657
9.624958
11.006594
10.648966
11.108518
10.635853
11.422634
10.566711
11.722445
12.999773
11.824965
12.430549
12.877584
12.936592
14.562607
17.383695
17.993450
22.321939
24.139881
24.891496
24.802685
27.552843
26.611686
25.686622
22.577643
23.416877
21.477938
20.708442
18.647909
17.923713
15.366673
15.306473
14.731884
15.152693
13.249516
13.679862
14.125705
13.245940
12.938976
12.634993
12.548566
11.227727
##ZVALUE=240
1.682639
1.821518
6.396770
16.216636
48.603415
88.077784
180.170536
270.187855
398.406982
481.837988
556.544662
569.759011
517.708659
419.706702
327.177644
208.702683
149.094462
111.196637
98.106861
101.540685
116.420984
115.981698
113.966465
101.121664
79.687834
67.571998
48.123598
34.486651
24.735928
16.634464
13.353825
10.513663
10.915995
10.869503
10.615587
10.725856
11.352897
10.138750
9.681582
9.726882
9.605885
9.013414
8.994937
8.939505
9.494424
8.714795
10.021925
10.152459
8.875728
10.168552
9.045601
9.708405
9.327531
9.501576
9.432435
9.587407
9.830594
12.066960
10.389686
11.345744
11.779666
12.063980
11.549592
11.971593
12.259483
13.388991
14.137626
13.824701
16.842484
16.634464
19.682646
21.298528
24.840832
27.794838
29.899478
28.287768
26.390553
26.429892
25.927424
25.488734
23.877621
23.621917
20.985603
18.583536
19.541979
17.630458
18.586516
18.179417
17.944574
17.744899
15.943646
15.535951
15.456676
15.039444
15.179515
15.303493
##ZVALUE=245
1.398921
1.328588
0.967979
1.941919
3.547668
14.473796
34.789443
89.084506
167.872906
265.556574
432.363749
551.430583
666.054487
687.568784
656.035542
561.294556
424.748659
316.260457
227.423906
138.724446
109.987855
101.002455
115.736723
126.820803
135.055780
127.562881
121.309757
96.536875
78.113675
55.623651
41.795969
26.184916
19.965768
15.583634
12.797713
12.513995
10.922551
11.044741
10.261536
9.869933
9.868741
9.390712
9.034872
9.588599
8.941889
8.194447
8.319616
8.303523
8.021593
7.949471
8.606911
8.373857
8.311868
7.973909
9.142756
9.898543
8.879900
10.907650
9.375811
9.810925
9.152889
9.430647
9.848475
9.612441
9.823442
10.674000
12.309551
10.952950
14.382601
14.888644
15.941858
18.422604
19.259453
21.577477
22.753477
23.069978
23.897886
22.130609
23.269653
21.766424
22.023916
18.888712
18.065572
17.982721
17.361641
15.433431
15.479922
15.375614
15.569925
16.387701
14.952421
14.608502
14.477968
14.462471
13.074875
13.378859
##ZVALUE=250
0.951886
1.153946
1.357794
1.322627
0.976920
1.493692
2.025962
7.055998
30.427575
68.131685
169.993639
273.174644
402.413607
594.446659
709.213614
801.006556
804.056525
713.289976
611.838698
422.266722
296.445489
193.314552
120.431781
99.556446
112.467408
124.086738
137.898922
142.831802
139.406919
127.233863
109.655857
82.811713
64.376593
40.896535
28.869510
17.973781
13.502836
11.059642
9.558797
10.047555
9.168983
8.849502
8.157492
8.059740
8.431673
8.629560
8.317828
6.682873
6.532669
7.371902
7.721782
7.237792
7.668734
7.479787
7.232428
8.562803
7.419586
7.933974
7.854700
7.970929
8.758903
8.168817
8.051991
8.695722
8.915663
9.299517
9.986758
10.887980
12.025833
12.973547
14.574528
15.778542
17.314553
18.398762
18.534660
19.532442
20.714998
19.536614
18.608570
18.845797
18.250942
17.011762
16.125441
15.718937
14.589429
13.610721
13.226867
12.966990
13.908744
13.287663
12.919903
12.686849
13.773441
13.690591
13.119578
12.658834
##ZVALUE=255
1.043677
1.027584
1.350641
1.544952
1.291633
1.292825
1.482964
1.543760
1.930594
10.983944
17.036796
55.701733
112.598538
238.638520
479.644537
581.718683
721.345544
881.771445
929.353833
782.326460
751.379728
598.695874
380.069017
245.053768
136.725903
93.223453
94.318986
121.502876
127.295852
149.712563
150.287747
135.029554
128.269792
114.276409
83.807707
61.017871
39.676428
25.284886
15.849471
11.296868
7.960796
7.903576
7.330775
7.587671
7.463694
7.646680
7.250905
6.885529
7.185936
6.775856
7.269979
6.924868
6.829500
7.074475
6.790757
6.941557
7.389784
7.339716
7.417798
6.890893
7.944703
7.731915
7.294416
7.624626
8.324981
7.873774
8.523464
9.529591
10.468960
11.377931
11.893511
14.046431
14.356971
15.223622
17.429590
15.990734
15.945435
16.958714
15.881658
15.365481
13.728738
14.541745
14.057755
12.853742
12.126565
12.546778
11.104941
11.893511
11.631846
11.326671
12.500882
11.563897
11.610985
11.386871
11.039972
11.282563
##ZVALUE=260
0.998974
0.976920
0.877976
0.789762
0.952482
1.087785
1.103878
1.189709
1.078844
1.042485
1.692772
2.725720
9.032488
35.103559
77.255964
184.553862
314.023495
535.392761
719.186664
957.313776
1015.584469
1015.584469
991.446972
819.112659
542.718768
376.776457
211.744905
128.700733
86.556673
85.693598
108.958483
127.915740
146.943927
152.962804
148.527622
136.989951
108.910799
84.525943
58.513880
39.625764
24.236441
16.027689
9.274483
7.579923
7.117987
7.305741
6.828904
6.701946
6.707907
7.209778
6.340742
6.722808
7.430911
6.539822
6.882548
6.385446
6.440878
6.255507
6.739497
6.417632
6.544590
6.941557
6.833673
7.279515
7.961988
8.276701
7.953644
8.342862
9.126663
9.788871
11.301637
11.711717
12.916923
14.048815
14.849901
14.615655
15.070438
14.393926
12.969971
12.967587
12.549758
12.342930
11.051893
10.468960
10.668635
11.138916
10.461807
10.010600
10.623932
10.177493
10.385513
10.311604
10.497570
10.507703
9.806752
9.822845
##ZVALUE=265
0.914931
0.900626
0.717640
0.853539
0.936985
0.881553
1.094937
1.320839
1.032948
1.243949
1.490712
1.489520
1.517534
1.899600
5.268455
17.681718
65.688491
134.632587
218.571424
468.207002
678.593516
974.980593
1015.584469
1015.584469
1015.584469
959.780812
773.939490
499.208570
324.831605
163.680911
98.881721
73.508620
83.518624
110.924840
132.414699
150.379539
154.558420
148.161650
134.524703
104.878545
82.625747
55.072904
37.681460
21.589994
14.927983
8.776784
7.654428
7.011890
6.458759
6.820560
7.005930
6.991625
6.883740
7.139444
6.324649
6.980896
6.476641
6.958842
7.028580
6.878972
6.599426
7.142425
7.807612
7.111430
6.960630
7.694960
7.614493
8.373857
8.695722
9.509921
9.270906
11.245608
11.393428
13.603568
13.353825
12.714863
11.656880
11.622906
12.013912
11.854768
10.830760
10.332465
10.106564
10.020733
10.049939
9.434819
9.746552
9.400845
9.261966
9.209514
10.173917
9.072423
9.388924
8.913875
9.630919
9.320974
##ZVALUE=270
0.749826
0.764728
0.943542
0.873804
0.879765
0.898838
0.972748
0.905991
1.142621
0.936985
1.121759
1.245737
1.380444
1.313686
1.594424
1.665950
2.262592
10.762811
31.775832
101.756454
206.682682
366.056561
650.089979
885.517001
1015.584469
1015.584469
1015.584469
1015.584469
935.202837
719.326735
506.064892
274.323821
153.796673
73.628426
64.807534
85.979700
108.765960
133.392811
150.040984
155.688524
148.517489
132.021904
111.399889
80.817938
58.669448
35.373569
22.744536
14.262795
10.501742
7.287860
6.617904
6.150603
6.313920
7.215738
6.516576
7.001758
6.775856
6.828904
6.874800
6.998777
7.031560
7.238984
6.779432
6.995797
6.423593
6.852746
7.008910
7.627606
8.299947
8.825660
9.784698
10.547638
10.904670
11.307597
11.227727
11.411905
11.593699
11.027455
10.766983
10.569692
9.672642
9.523630
9.117723
9.063482
8.972883
9.042621
8.960962
9.006858
8.186698
8.650422
8.467436
8.770823
8.366704
8.485913
8.406639
8.289814
##ZVALUE=275
0.729561
0.538826
0.737906
0.681877
0.690818
0.750422
0.634789
0.799894
0.897646
0.682473
0.950694
1.012683
1.049638
1.057982
1.257658
1.242757
1.452565
1.596808
1.867414
4.469752
19.972920
57.464838
171.306729
325.337648
609.477758
842.995644
1015.584469
1015.584469
1015.584469
1015.584469
1015.584469
893.378854
639.632940
347.302556
201.032758
87.438822
58.158636
60.902834
80.176592
107.915998
130.952597
146.974921
153.584480
146.711469
132.628679
104.841590
84.815621
58.116913
39.830804
24.213791
16.057491
9.480715
8.006692
7.001758
6.882548
6.241798
6.914735
6.765723
6.828904
7.209778
7.046461
7.137656
7.040501
7.302761
7.517934
7.030964
7.484555
7.590652
7.927418
8.593798
9.508729
10.032654
10.566711
10.828972
11.053681
11.685491
10.974407
9.943843
10.514855
10.293722
9.550452
9.481907
8.714795
8.499622
8.301735
8.255839
8.171797
8.123517
7.783771
7.946491
7.818937
7.846951
7.277727
8.047819
7.947683
7.898808
##ZVALUE=280
0.808835
0.658631
0.786781
0.721812
0.822544
0.795722
0.621676
0.772476
0.687838
0.885725
0.765920
0.937581
1.097918
1.024604
1.119971
1.137853
1.300573
1.425743
1.555681
1.571774
1.827478
2.436638
13.138652
48.065782
162.267685
300.502777
546.011925
800.156593
1015.583873
1015.583873
1015.583873
1015.583873
1015.583873
1000.889540
776.816607
441.462994
262.121558
115.372539
61.280727
44.326782
55.351853
82.039833
104.399920
128.463507
146.099925
151.515603
145.302415
128.156543
109.071732
80.095530
59.913993
38.435459
26.811957
16.335845
11.141896
8.214712
7.163882
7.546544
6.743670
7.436872
7.589459
7.151961
7.443428
7.531643
7.377863
7.689595
7.567406
8.031726
8.035898
8.963943
9.262562
10.344982
10.145903
10.993481
11.277795
10.885596
10.668635
10.559559
10.098815
9.635687
8.269548
8.414984
8.255839
8.236766
7.891655
8.258820
7.599592
8.169413
8.036494
7.912517
7.810593
7.753968
7.725954
7.810593
7.419586
7.527471
##ZVALUE=285
0.770688
0.689626
0.520945
0.567436
0.630617
0.703931
0.789762
0.613928
0.648499
0.640750
0.762939
0.654459
0.773668
0.835657
0.968575
0.894666
1.083612
1.021624
1.036525
1.338720
1.361966
1.612902
1.800656
1.938939
6.036758
22.078753
77.824593
172.023773
386.164784
611.706972
897.075534
1015.584469
1015.584469
1015.584469
1015.584469
1015.584469
972.377062
615.097880
385.950804
178.551674
88.661909
39.498806
36.662817
55.414438
75.113773
103.734732
123.007894
142.064691
147.283673
141.267776
130.241513
105.282664
86.161494
58.770776
42.078495
25.290847
16.875863
11.006594
8.941889
8.094907
8.116961
7.580519
7.854700
7.525682
7.987618
8.159876
7.846951
8.041859
8.769631
9.368658
9.032488
9.635687
10.282993
10.476708
10.046959
10.276437
10.170937
9.889603
9.748936
8.983612
8.968711
8.734465
7.981658
8.374453
8.121729
7.983446
8.160472
7.469654
7.543564
7.705688
7.763505
7.693768
7.530451
7.417798
7.699728
7.387996
##ZVALUE=290
0.355840
0.304580
0.608563
0.663996
0.562668
0.468493
0.506639
0.678897
0.443459
0.480413
0.504851
0.791550
0.636578
0.650883
0.658631
0.804663
0.830889
0.845790
0.799894
0.978708
1.044869
1.022816
1.365542
1.475811
1.538992
1.693964
2.817512
9.263754
45.112967
106.799603
210.782886
456.740856
723.938942
1015.515924
1015.515924
1015.515924
1015.515924
1015.515924
1015.515924
811.573863
537.092686
264.918804
136.531591
49.622655
29.352903
35.367608
49.910545
73.081851
92.455745
117.935538
134.387612
141.371489
140.327811
125.306845
106.877685
80.547929
59.091449
38.068891
26.303530
16.860962
11.652708
9.640455
8.154511
7.548928
7.454753
7.817745
7.713437
8.199811
8.375645
9.238720
8.938909
9.857416
9.263754
9.868741
9.815693
9.603500
9.510517
8.838773
9.109974
8.521676
8.101463
8.010864
7.638931
7.717609
7.804632
7.403493
7.134676
7.468462
7.584691
7.293820
7.354617
7.611513
7.403493
7.053614
7.035732
6.894469
##ZVALUE=295
0.460744
0.487566
0.572801
0.549555
0.404716
0.536442
0.601411
0.625849
0.555515
0.628829
0.544786
0.784993
0.780821
0.562668
0.804663
0.799894
0.681877
0.938773
0.681877
0.880957
0.957847
1.225471
1.096725
1.063943
1.327991
1.288652
1.604557
1.694560
2.007484
4.029870
21.540523
65.155625
156.621933
387.890935
639.377832
999.798775
1015.584469
1015.584469
1015.584469
1015.584469
1015.584469
942.155719
656.694770
346.043706
189.826488
70.267916
32.981634
22.960901
29.513836
47.835708
64.488649
90.345740
107.842684
128.061771
136.609674
131.167769
120.889544
98.248720
80.965757
57.064891
40.500760
25.100708
17.579794
11.618733
9.009838
8.386970
7.707477
7.803440
8.363724
8.665919
8.232594
8.669496
9.072423
9.621978
9.632707
8.895993
8.932948
8.239746
8.804798
8.437634
8.174777
7.931590
7.911921
7.647872
7.551908
7.655621
7.398725
7.434487
7.382631
7.133484
7.631779
7.091761
6.832480
6.820560
6.623864
6.964803
##ZVALUE=300
0.366569
0.387430
0.420809
0.572801
0.501871
0.616908
0.539422
0.603795
0.490546
0.512600
0.578761
0.558496
0.454783
0.737906
0.684857
0.799894
0.827909
0.761747
0.822544
0.683665
0.865459
0.759959
0.946522
1.033545
1.189709
1.108646
1.263618
1.351833
1.537800
1.897812
2.052784
2.308488
9.363890
36.161542
126.305819
259.181857
548.446774
839.949846
1015.584469
1015.584469
1015.584469
1015.584469
1015.584469
1015.584469
824.307799
544.383526
268.795490
142.828822
50.145984
22.560954
20.020604
26.131868
42.103529
58.379769
83.198547
101.313591
120.750666
127.697587
126.374960
117.266774
98.070502
79.792738
56.748986
41.305423
25.293827
17.350912
11.231899
9.021759
8.358955
7.888675
8.472800
8.398890
8.636713
9.246469
8.944869
8.581877
8.394718
8.282661
8.370876
8.083582
7.807612
7.766485
7.511973
7.673502
7.450581
7.437468
7.437468
7.383823
7.471442
7.148981
6.854534
6.727576
6.692410
7.232428
6.883740
6.728768
##ZVALUE=305
0.402927
0.412464
0.482798
0.423789
0.479817
0.417829
0.546575
0.386834
0.536442
0.595450
0.607967
0.609756
0.643730
0.638962
0.715852
0.635982
0.500679
0.798702
0.713468
0.850558
0.773668
0.847578
0.796914
0.653863
0.953674
1.101494
1.107454
1.067519
1.161695
1.418591
1.417994
1.687407
1.774430
2.107620
4.894733
20.006895
86.260438
191.749930
436.877608
698.975921
1015.584469
1015.584469
1015.584469
1015.584469
1015.584469
1015.584469
983.723998
711.492896
384.285450
220.124722
89.141726
36.655664
15.806556
17.277598
26.724935
37.724972
59.428811
76.117516
98.170638
111.221671
121.785998
119.797587
111.127496
95.713735
73.964000
55.560470
37.322640
26.127696
15.669465
11.487603
8.866787
8.812547
8.274913
8.671880
8.352995
8.163452
7.925630
7.565618
7.509589
7.725954
7.456541
7.432699
7.416606
7.202625
7.240772
7.658601
7.643700
7.258654
7.336736
7.272959
7.069707
6.959438
7.005930
6.929636
7.026792
7.083416
##ZVALUE=310
0.395775
0.490546
0.490546
0.520945
0.367761
0.420809
0.548959
0.567436
0.402927
0.466704
0.254512
0.446439
0.511408
0.495911
0.558496
0.570416
0.501871
0.572801
0.611544
0.651479
0.587702
0.652671
0.806451
0.700951
0.751615
0.931621
0.831485
1.069903
0.984669
0.993609
1.226664
1.083612
1.355410
1.519918
1.711845
2.029538
2.426505
11.140704
39.422512
134.992599
272.039771
578.954816
891.442895
1015.584469
1015.584469
1015.584469
1015.584469
1015.584469
1015.584469
876.935720
587.728024
301.389694
163.940787
57.891607
22.555590
12.598634
15.430450
23.957491
33.262968
51.977634
68.399906
90.184808
104.897618
113.691688
115.007758
105.216503
92.745423
72.459579
55.634975
37.091970
26.429892
17.272830
12.737513
9.818673
8.933544
8.238554
8.165836
7.909536
7.278919
7.474422
7.297993
7.301569
7.478595
7.456541
7.281899
7.655621
7.554889
7.483959
7.510781
7.373691
7.068515
7.201433
6.867647
7.215738
6.995797
7.167459
##ZVALUE=315
0.340939
0.439882
0.430942
0.445843
0.332594
0.541806
0.321865
0.471473
0.532866
0.307560
0.470877
0.535846
0.550747
0.615716
0.737906
0.568628
0.619888
0.711679
0.558496
0.491738
0.645518
0.633597
0.802875
0.499487
0.770688
0.636578
0.696778
1.010895
1.078844
1.043677
1.157522
0.970960
1.163483
1.454949
1.400709
1.467466
1.623631
1.890659
2.091527
5.043745
20.363927
88.347793
197.850466
453.708768
757.266879
1015.581489
1015.581489
1015.581489
1015.581489
1015.581489
1015.581489
1015.581489
755.980611
395.975709
211.826563
74.830651
28.985739
11.983514
11.494756
14.692545
19.917488
32.488704
45.186877
65.384507
81.158876
98.575950
106.670856
107.995868
101.831555
86.174607
70.991516
51.367879
38.370490
24.122596
17.132759
11.990666
9.689927
8.111000
7.507801
7.287860
7.144809
7.314682
7.213950
7.258654
7.369518
7.513762
7.511973
7.595420
7.263422
7.609725
7.613897
7.480979
7.172823
7.315874
7.389784
7.231832
##ZVALUE=320
0.389814
0.433922
0.327826
0.548959
0.416636
0.434518
0.371933
0.230670
0.388622
0.377893
0.339746
0.425577
0.368953
0.550747
0.509620
0.512600
0.602603
0.648499
0.536442
0.525713
0.544786
0.633597
0.632405
0.747442
0.668764
0.742674
0.723600
0.717640
0.932813
0.896454
0.792742
1.098514
1.013875
1.162887
1.264811
1.357794
1.312494
1.455545
1.638532
1.958609
2.278686
2.638698
11.742711
42.728782
159.256458
330.644846
682.687759
993.261933
1015.584469
1015.584469
1015.584469
1015.584469
1015.584469
1015.584469
953.565836
609.529018
274.593830
142.802000
49.331784
19.307733
10.196567
10.181665
12.968779
18.128753
29.639602
41.356683
60.274601
75.317621
93.102455
101.431608
100.794435
96.968412
83.880424
69.305897
49.716830
36.563873
24.392605
16.481876
11.664629
8.944869
8.053780
7.741451
7.279515
7.041693
7.416606
6.897449
6.990433
7.344484
7.289648
7.642508
7.117987
7.398725
7.413626
7.060766
7.277727
7.582903
##ZVALUE=325
0.334978
0.391603
0.590682
0.502467
0.404716
0.392795
0.524521
0.425577
0.447631
0.531673
0.561476
0.508428
0.589490
0.452995
0.483990
0.509620
0.598431
0.668764
0.455976
0.554919
0.492930
0.830889
0.660419
0.343919
0.644922
0.795722
0.698566
0.826716
0.739694
0.691414
0.678897
1.072884
0.938773
0.936985
1.159906
1.026988
1.075864
1.323819
1.449585
1.567602
1.719594
1.804829
2.036691
2.594590
5.127788
34.659505
95.141530
254.498720
469.964743
899.176598
1015.587449
1015.587449
1015.587449
1015.587449
1015.587449
1015.588045
1015.587449
706.200004
418.154597
174.026489
80.346465
22.722483
10.957718
9.295940
9.619594
12.710690
18.201470
28.641820
41.080713
58.254600
73.194504
88.190436
96.099973
97.257495
90.892911
76.028705
61.947703
45.187473
34.956932
21.799803
15.645623
10.943413
9.203553
7.785559
8.013844
7.389784
7.546544
7.381439
6.966591
7.129908
7.299781
7.192492
7.263422
7.367730
7.898808
7.542968
##ZVALUE=330
0.344515
0.328422
0.309944
0.348687
0.442863
0.334978
0.463724
0.341535
0.319481
0.308752
0.487566
0.504851
0.402927
0.325441
0.472665
0.424981
0.454783
0.541806
0.526905
0.556707
0.540614
0.577569
0.669956
0.676513
0.466704
0.497699
0.589490
0.586510
0.681877
0.690818
0.812411
0.702739
0.874996
0.848770
0.933409
0.967979
0.969768
0.957847
1.080632
1.167655
1.229644
1.347661
1.582503
1.841784
2.059937
2.678633
2.933741
15.518665
54.361820
188.660622
370.199680
759.992599
1015.584469
1015.584469
1015.584469
1015.584469
1015.584469
1015.584469
1015.584469
927.720666
579.545498
254.942775
120.973587
38.978457
15.180707
9.144545
8.584857
9.790659
11.763573
18.564463
26.364923
39.772987
53.638816
71.522593
81.739426
90.268850
90.067983
83.813667
72.780848
57.197809
43.694973
30.136704
21.770597
15.745759
11.947751
8.991957
7.897615
7.739663
7.467866
7.398725
7.032752
7.385612
7.358789
7.486939
7.542968
7.808805
##ZVALUE=335
0.388622
0.370741
0.501871
0.399947
0.446439
0.200868
0.292659
0.387430
0.363588
0.123978
0.164509
0.276566
0.298619
0.300407
0.387430
0.386834
0.405908
0.502467
0.377893
0.381470
0.476837
0.488758
0.405908
0.479817
0.550747
0.581741
0.454783
0.538826
0.548959
0.620484
0.559688
0.550747
0.747442
0.643730
0.671744
0.934601
0.981688
0.812411
0.767708
1.093745
1.104474
1.183748
1.223683
1.318455
1.548529
1.514554
1.812577
2.205968
2.605915
5.106926
33.868551
97.004771
275.705457
497.406721
923.844576
1015.532613
1015.532613
1015.532613
1015.532613
1015.532613
1015.532613
1015.532613
702.325702
404.655933
159.421563
69.047809
19.931793
9.860992
8.367896
8.359551
9.782910
11.993647
17.794967
24.539828
37.962794
49.549937
65.479875
76.831579
83.638430
84.214807
78.358650
68.739653
55.255890
44.590831
31.240582
22.836924
15.587807
11.776686
9.141564
7.546544
7.348657
7.284880
7.544756
7.315874
7.596612
7.937551
##ZVALUE=340
0.331998
0.308752
0.243783
0.293851
0.310540
0.390410
0.234842
0.373721
0.454783
0.284910
0.380874
0.319481
0.335574
0.463724
0.389814
0.498891
0.488758
0.530481
0.446439
0.481606
0.505447
0.443459
0.388622
0.581741
0.453591
0.425577
0.426769
0.607967
0.648499
0.591874
0.281930
0.811815
0.751615
0.682473
0.782609
0.817776
0.727773
0.828505
0.894666
0.967979
1.060963
0.973940
0.893474
1.190901
1.118779
1.285672
1.265407
1.680851
1.729727
1.804829
2.157688
3.480911
11.949539
62.043667
154.258609
388.464928
666.739941
1015.589833
1015.589833
1015.589833
1015.589833
1015.589833
1015.589833
1015.589833
952.675939
474.537611
246.868730
91.756582
34.083724
11.036992
8.840561
8.218884
8.925796
9.860992
11.872649
17.285943
24.017692
35.967827
47.326684
62.848926
71.596503
79.087615
78.142881
74.170828
66.133738
53.122640
42.784810
29.917955
22.683740
15.591979
12.075901
8.344650
8.111596
7.707477
7.989407
8.057952
##ZVALUE=345
0.270605
0.457764
0.298619
0.311732
0.299811
0.427961
0.355840
0.357628
0.316501
0.256896
0.240803
0.231862
0.277758
0.449419
0.575781
0.347495
0.487566
0.349879
0.423789
0.413656
0.504851
0.549555
0.427961
0.368953
0.458956
0.553727
0.476837
0.418425
0.510812
0.597835
0.582933
0.637770
0.588894
0.771880
0.673532
0.813603
0.578761
0.648499
0.811815
0.820756
0.915527
0.868440
0.904799
0.924468
0.902414
1.088977
1.210570
1.087785
1.433492
1.348853
1.535416
1.833439
1.965761
2.390742
5.627871
36.652684
104.425550
283.806920
510.966778
938.856602
1015.584469
1015.584469
1015.584469
1015.584469
1015.584469
1015.584469
1015.584469
632.777810
346.832871
135.012865
54.201484
16.017556
9.733438
8.433461
7.987618
8.382797
8.673668
10.821819
14.213920
22.291541
31.193495
44.923425
54.768920
66.074729
71.843863
72.852969
70.088506
61.427951
53.020716
41.029453
31.972528
21.697879
16.659498
12.354851
10.352731
9.532571
##ZVALUE=350
0.352859
0.302792
0.194907
0.488758
0.283718
0.289679
0.311732
0.304580
0.412464
0.390410
0.413656
0.299811
0.428557
0.458956
0.507832
0.467896
0.245571
0.362992
0.406504
0.545979
0.424981
0.347495
0.433922
0.380874
0.308752
0.393987
0.593662
0.542998
0.660419
0.511408
0.524521
0.704527
0.496507
0.584722
0.479817
0.617504
0.571609
0.660419
0.675917
0.592470
0.636578
0.823736
0.734925
0.692606
0.932813
0.961423
0.827909
1.051426
1.330972
1.041889
1.365542
1.365542
1.419783
1.535416
1.921654
2.080798
3.683567
13.227463
63.558817
152.040720
382.157564
647.096634
1015.584469
1015.584469
1015.584469
1015.584469
1015.584469
1015.584469
1015.585065
842.974782
403.349996
206.313729
71.244836
26.482940
10.189414
8.319616
7.540584
7.079840
6.932616
7.519722
9.915829
13.173819
19.736886
26.902556
38.594604
47.976971
58.136582
63.986778
66.972971
65.652728
58.576465
50.742626
39.934516
30.757785
22.157431
17.590523
##ZVALUE=355
0.379682
0.316501
0.353456
0.315905
0.179410
0.411868
0.427961
0.242591
0.286698
0.288486
0.397563
0.355840
0.157952
0.449419
0.373721
0.320673
0.298619
0.338554
0.492930
0.417829
0.405908
0.638962
0.497699
0.588894
0.486970
0.460744
0.445843
0.425577
0.547767
0.670552
0.465512
0.291467
0.494719
0.663996
0.605583
0.623465
0.606775
0.554919
0.660419
0.755787
0.683665
0.680685
0.538826
0.668764
0.880957
0.986457
0.895858
0.980496
0.955462
1.105666
1.205802
1.196861
1.351833
1.269579
1.432896
1.571774
1.701713
1.941919
2.460480
8.205771
30.931830
121.793747
248.382688
519.140959
813.266635
1015.578508
1015.578508
1015.578508
1015.578508
1015.578508
1015.578508
965.843797
626.260638
266.251564
115.315914
29.819608
11.974573
7.591844
7.121563
6.737709
6.350875
6.350875
7.042885
8.735657
11.175871
17.072558
23.926497
33.381581
42.016506
52.190423
58.202744
61.693788
60.493946
54.510832
48.439503
39.397478
##ZVALUE=360
0.424981
0.362992
0.566840
0.368953
0.279546
0.439882
0.506639
0.327826
0.330806
0.328422
0.527501
0.307560
0.286698
0.455976
0.542998
0.310540
0.408888
0.279546
0.383854
0.398755
0.463724
0.375509
0.634789
0.512600
0.487566
0.512600
0.324845
0.492930
0.524521
0.454783
0.566840
0.654459
0.427961
0.549555
0.554919
0.705719
0.669956
0.771880
0.675917
0.756979
0.770688
0.809431
0.747442
0.728965
0.677705
0.730753
0.838637
0.932813
0.878572
1.086593
1.116991
1.108646
1.148582
1.344681
1.424551
1.467466
1.572967
1.757741
1.910925
1.972914
2.319813
3.726482
13.153553
64.298511
155.485868
382.484794
641.264915
1003.086567
1015.591621
1015.591621
1015.591621
1015.591621
1015.591621
1015.591621
765.213966
401.910543
197.238922
54.535866
18.732548
8.086562
7.181764
6.390810
6.316900
5.992651
6.145835
6.275773
7.626414
9.777546
13.318658
20.194650
27.097464
37.956834
45.324564
53.485632
56.412816
57.099462
##ZVALUE=365
0.355840
0.422597
0.484586
0.375509
0.261664
0.385642
0.481606
0.360608
0.279546
0.413656
0.359416
0.397563
0.389814
0.404716
0.419617
0.335574
0.359416
0.319481
0.450611
0.491738
0.539422
0.674725
0.570416
0.646710
0.438690
0.512600
0.520945
0.589490
0.614524
0.373721
0.698566
0.399947
0.432730
0.555515
0.552535
0.761747
0.631809
0.610948
0.632405
0.538826
0.637770
0.688434
0.682473
0.935793
0.872612
0.775456
0.848770
0.786781
0.727773
0.885725
1.068711
1.020432
0.893474
1.084805
1.198649
1.277924
1.283884
1.487732
1.473427
1.858473
1.829863
2.018809
2.261996
2.852678
6.363988
38.935542
104.075670
271.985531
492.089987
888.806581
1015.584469
1015.584469
1015.584469
1015.584469
1015.584469
1015.584469
869.062543
496.519804
269.192457
90.224743
31.108856
8.672476
6.565452
6.394982
5.713701
5.331635
5.413890
5.177855
5.263686
6.219745
7.783771
11.850595
16.244650
24.511814
31.471848
39.842725
##ZVALUE=370
0.364780
0.210404
0.213981
0.291467
0.319481
0.349879
0.318885
0.368953
0.506639
0.456572
0.319481
0.452995
0.405908
0.373721
0.349879
0.363588
0.378489
0.451803
0.319481
0.210404
0.414848
0.457764
0.485778
0.473857
0.369549
0.437498
0.538826
0.376701
0.419617
0.391603
0.329614
0.540614
0.457764
0.565648
0.509620
0.409484
0.510812
0.501871
0.572801
0.519753
0.606775
0.561476
0.495911
0.773668
0.669956
0.743866
0.777841
0.647902
0.747442
0.581741
0.733733
0.884533
0.827909
0.881553
0.780821
0.933409
1.046658
1.073480
1.158714
1.184940
1.456738
1.531839
1.846552
1.804829
1.827478
2.142787
3.377795
20.531416
71.609616
214.885473
400.092006
750.715733
1012.621522
1015.584469
1015.584469
1015.584469
1015.584469
1015.584469
949.511528
546.773672
314.918756
122.744441
50.178766
13.414621
6.828904
5.571842
5.290508
5.225539
4.898906
4.653931
4.759431
4.823804
5.462766
6.896853
9.163618
14.264584
##ZVALUE=375
0.389814
0.147820
0.154972
0.237823
0.398755
0.202656
0.332594
0.475645
0.391603
0.463724
0.439882
0.279546
0.498891
0.352859
0.503659
0.417829
0.217557
0.371933
0.211596
0.517964
0.249743
0.280738
0.267625
0.461936
0.372529
0.459552
0.327826
0.329614
0.339746
0.373721
0.601411
0.399947
0.375509
0.376701
0.354648
0.465512
0.471473
0.542998
0.366569
0.442863
0.634789
0.467896
0.480413
0.611544
0.506639
0.501871
0.638962
0.451803
0.565648
0.631809
0.771880
0.731945
0.651479
0.924468
0.833869
0.938773
0.906587
0.881553
1.028776
1.021624
1.105666
1.030564
1.276731
1.293421
1.528859
1.648664
1.782775
2.359748
2.481937
9.475946
36.433935
138.578415
297.806859
650.554895
972.848535
1015.584469
1015.584469
1015.584469
1015.584469
1015.584469
1015.584469
701.288581
438.974500
211.775899
101.181865
28.755665
10.481477
5.715489
5.119443
5.053878
4.834533
4.547834
4.438758
4.322529
4.397631
4.956722
##ZVALUE=380
0.288486
0.264645
0.290871
0.292659
0.302792
0.371933
0.326633
0.322461
0.404716
0.231862
0.246763
0.299811
0.230670
0.361800
0.398755
0.412464
0.469685
0.411868
0.347495
0.332594
0.290871
0.375509
0.384450
0.280738
0.495911
0.402927
0.391603
0.312924
0.272989
0.550747
0.372529
0.338554
0.433922
0.436902
0.326633
0.229478
0.532866
0.428557
0.506639
0.312924
0.525713
0.432730
0.564456
0.518560
0.464916
0.493526
0.582933
0.578761
0.589490
0.556707
0.716448
0.607967
0.659823
0.619888
0.590682
0.727773
0.750422
0.732541
0.886917
0.842810
0.833869
0.943542
0.981688
1.052618
1.221895
1.307726
1.407862
1.732707
1.968741
2.245903
2.618432
4.914999
19.520521
98.221898
227.573514
521.296859
823.449492
1015.584469
1015.584469
1015.584469
1015.584469
1015.584469
1015.584469
860.897899
565.739870
270.961523
134.664774
44.436455
16.460419
6.111860
5.166531
4.649758
4.510880
4.232526
4.396439
4.110932
##ZVALUE=385
0.333786
0.370741
0.295639
0.369549
0.427961
0.493526
0.484586
0.365973
0.389814
0.308752
0.238419
0.203848
0.353456
0.346899
0.466704
0.331998
0.348687
0.541806
0.391603
0.470877
0.449419
0.470877
0.527501
0.422597
0.577569
0.438690
0.556707
0.361800
0.487566
0.421405
0.445843
0.565648
0.490546
0.397563
0.484586
0.479817
0.572801
0.539422
0.538826
0.438690
0.396967
0.493526
0.489950
0.684857
0.627637
0.323653
0.643730
0.619888
0.699759
0.636578
0.567436
0.630617
0.737906
0.795722
0.797510
0.706911
0.722408
0.798702
0.924468
0.890493
1.034737
1.049638
1.232624
1.157522
1.165867
1.293421
1.366735
1.454949
1.547933
2.054572
2.110600
2.427697
2.534986
3.375411
11.041760
65.866709
164.160728
404.057503
703.837872
1015.692949
1015.692949
1015.692949
1015.692949
1015.692949
1015.692949
1015.692949
792.711973
409.953594
222.553611
87.221861
33.070445
8.268952
5.386472
4.752874
4.535913
4.232526
##ZVALUE=390
0.182986
0.340939
0.148416
0.343919
0.259876
0.224710
0.199676
0.361800
0.365973
0.233650
0.285506
0.153780
0.160933
0.192523
0.288486
0.317693
0.379682
0.325441
0.319481
0.343919
0.288486
0.123978
0.332594
0.344515
0.259876
0.480413
0.320673
0.238419
0.398755
0.368953
0.291467
0.319481
0.267625
0.148416
0.356436
0.465512
0.362992
0.494719
0.381470
0.333786
0.467896
0.349879
0.224710
0.364780
0.408888
0.344515
0.460744
0.506639
0.571609
0.397563
0.604987
0.589490
0.680685
0.556707
0.510812
0.717640
0.571609
0.485778
0.810623
0.810623
0.787973
0.761747
0.852942
1.001954
0.901818
0.884533
1.052618
1.262426
1.403689
1.709461
1.774430
2.034903
1.982450
2.252460
2.350807
2.521873
5.405545
24.122000
113.521814
264.773965
612.565875
961.217880
1015.584469
1015.584469
1015.584469
1015.584469
1015.584469
1015.584469
973.989964
656.868815
322.616696
156.527758
50.119758
17.095804
5.545616
4.870892
##ZVALUE=395
0.180602
0.194907
0.298619
0.273585
0.027418
0.341535
0.285506
0.193715
0.377893
0.189543
0.148416
0.369549
0.040531
0.336766
0.394583
0.360608
0.323653
0.328422
0.287890
0.339746
0.246763
0.482798
0.279546
0.343919
0.344515
0.331998
0.301600
0.252724
0.222921
0.472665
0.485778
0.378489
0.360608
0.345707
0.337958
0.457764
0.341535
0.549555
0.337958
0.364780
0.339746
0.386834
0.532866
0.471473
0.373721
0.559688
0.338554
0.546575
0.483990
0.596642
0.566840
0.671744
0.564456
0.568628
0.563860
0.523925
0.461936
0.692606
0.706911
0.629425
0.844598
0.704527
0.736713
0.892878
0.803471
0.896454
1.004934
1.160502
1.366735
1.499653
1.773834
1.833439
1.911521
1.863837
1.968741
2.059937
1.940727
2.466440
3.332496
20.336509
74.086785
242.862701
450.510979
848.349929
1015.572548
1015.572548
1015.572548
1015.572548
1015.572548
1015.572548
1015.572548
798.112750
473.312736
193.080902
87.279677
25.267601
##ZVALUE=400
0.177622
0.231862
0.135899
0.188947
0.288486
0.248551
0.094771
0.242591
0.288486
0.267625
0.315905
0.262856
0.089407
0.424981
0.267625
0.282526
0.156760
0.256896
0.456572
0.165701
0.358820
0.298619
0.390410
0.252724
0.209808
0.340939
0.391603
0.220537
0.210404
0.264645
0.507832
0.300407
0.333786
0.228882
0.442863
0.303984
0.320673
0.504851
0.404716
0.653863
0.388622
0.324845
0.251532
0.429749
0.541806
0.371933
0.384450
0.510812
0.579953
0.514984
0.641942
0.488758
0.530481
0.636578
0.612736
0.528693
0.600815
0.617504
0.781417
0.717640
0.592470
0.839829
0.815988
0.895858
0.792742
1.062751
1.056790
1.111627
1.305938
1.652837
1.590848
1.634955
1.441836
1.421571
1.634955
1.638532
1.654625
1.876950
2.153516
2.415776
2.829432
9.158850
37.448406
139.034986
296.423435
650.804639
991.475582
1015.584469
1015.584469
1015.584469
1015.584469
1015.584469
1015.584469
950.954556
604.364872
292.382836
##END
