##TITLE=AAI0802
##FORMAT=SPECTACLE-ASCII V-1.2
##DATA TYPE=ULTRAVIOLET SPECTRUM
##SECOND TYPE=ULTRAVIOLET SPECTRUM
##DATE=01/24/18
##TIME=18:51:20
##SPECTROMETER/DATA SYSTEM=SPECTACLE
##XUNITS=NM EM
##YUNITS=ENERGY
##YFACTOR=1
##FIRSTX=220
##LASTX=410
##NPOINTS=96
##3DDATA=Equidistant
##ZUNITS=NM EX
##FIRSTZ=210
##LASTZ=400
##ZPOINTS=39
##XYDATA=(Y..Y)
##ZVALUE=210
3.733635
3.560781
4.088879
2.937913
3.080964
3.393888
3.607869
3.075600
3.419518
2.730489
2.684593
1.997948
2.929568
2.443790
2.643466
2.784729
2.769828
3.584623
2.970695
3.670454
3.545880
4.414916
3.961921
4.443526
5.064607
4.689693
5.296469
5.129576
5.388856
6.227493
5.923510
6.937981
5.874634
6.152987
6.108880
6.873608
6.932616
7.763505
6.765723
7.735491
6.902814
7.206798
7.524490
7.600784
7.700920
7.832646
8.624792
9.733438
7.959604
10.456443
8.280873
9.342432
7.978678
9.225607
9.174943
9.796619
8.958578
9.768605
9.969473
10.471940
10.353923
9.865761
9.439588
10.374784
9.662509
11.265874
13.142824
12.959838
14.782548
17.502904
20.484924
22.869706
28.105974
30.246973
35.516620
36.300421
40.371418
40.911436
41.628480
35.841465
35.427809
30.060410
26.971698
25.081635
21.287799
17.085671
13.546944
10.807514
10.008812
9.544492
9.737611
10.457635
11.335611
9.689927
10.060668
10.824800
##ZVALUE=215
13.330579
13.222694
10.881424
9.176731
7.474422
7.037520
8.045435
6.194711
6.869435
6.350875
6.319880
5.482435
4.374981
4.226565
2.915859
3.002882
2.646446
3.050566
3.434420
3.771782
4.167557
4.056692
4.631877
4.922748
4.213452
5.406737
5.296469
4.947782
4.788637
6.414652
6.121993
5.375743
6.635785
7.231832
6.874800
5.715489
7.290840
6.712675
7.480979
6.757975
7.726550
7.588863
8.029938
8.369684
7.700920
8.933544
8.530617
8.235574
8.010864
8.846521
8.712411
8.601546
9.805560
9.820461
9.929538
9.823442
10.372996
10.025501
10.089874
9.136796
11.664629
10.229945
10.709763
11.499524
10.973811
11.483431
12.223721
12.767911
12.803674
15.379786
18.653870
22.385716
23.531914
31.254888
31.782985
34.664869
35.566688
37.962794
37.135482
32.455921
30.389428
24.918914
23.273826
20.239949
17.488599
14.140606
12.205839
10.987520
9.985566
10.011792
9.216666
8.620620
9.877682
9.948611
7.590652
9.956956
##ZVALUE=220
36.966801
37.293434
39.520860
38.983822
36.141872
29.403567
26.045442
18.441677
16.855597
16.712546
15.297532
14.735460
14.542937
12.632608
10.160804
9.298921
5.899668
5.465746
4.309416
3.993511
4.111528
4.979968
4.197955
4.377961
4.413724
3.968477
4.445910
4.925728
5.918741
6.210804
6.379485
5.882978
6.272793
6.519556
7.587671
7.698536
6.927848
7.348657
7.998943
7.556677
7.207990
7.379651
8.260608
7.879734
7.884502
7.681847
8.346438
8.688569
10.032654
10.617971
9.440780
10.300875
9.245872
9.853840
10.963678
9.912848
9.854436
10.148883
10.315776
9.965897
11.610985
9.950995
10.701418
10.798573
11.233687
12.791753
11.912584
12.965798
13.774633
14.833808
16.495585
19.144416
23.240447
25.817752
26.547909
30.102730
29.629469
31.758547
29.093623
29.050708
26.109815
23.735762
20.874739
18.501878
15.660524
13.157725
12.072921
10.029674
10.431409
9.744763
9.446740
9.338856
8.085966
9.910464
8.942485
8.776784
##ZVALUE=225
58.793426
59.542656
79.085827
96.683502
98.894835
98.516941
87.781549
68.641901
54.055452
43.855906
32.830834
26.588440
29.327869
27.767420
27.709603
26.471615
21.594763
18.226504
13.042688
10.785460
6.767511
5.178452
4.771948
4.446507
4.420877
4.838705
5.567670
5.058646
5.785823
5.475879
5.765557
6.306767
6.624460
6.575584
7.152557
8.212924
7.879734
8.410811
8.111596
8.501410
8.812547
8.442998
8.785725
7.313490
8.885860
9.965897
9.105802
9.139776
9.394884
9.492636
10.595918
8.894801
10.123849
10.227561
10.380745
11.742711
11.826754
12.055635
11.375546
12.900829
11.892915
12.304783
11.748672
12.780428
12.583733
12.581944
13.434887
13.799667
14.557838
17.070770
17.557740
18.684864
22.489429
25.137663
25.620461
26.670694
26.981831
25.503635
23.651719
24.592876
22.350550
18.890500
18.137693
16.519427
14.688969
12.452602
12.767911
11.333823
11.480451
9.542704
11.578798
10.266900
9.192824
9.637475
10.303855
10.453463
##ZVALUE=230
53.138733
58.456659
84.437728
138.708949
170.872808
208.704472
217.781663
214.928985
193.823576
166.672468
109.905601
80.404878
54.560900
46.738982
48.087835
51.239729
54.030418
50.949454
47.363639
36.379695
28.712749
16.474724
12.948513
7.957816
6.204844
5.349517
6.550550
5.554557
6.193519
5.458593
6.647706
6.280541
7.296801
7.257462
7.429719
6.608963
8.816719
7.388592
8.239746
7.885695
8.093715
8.149743
7.336736
8.684993
9.096861
9.729862
9.571910
9.773970
8.642673
10.441542
10.304451
11.547804
11.831522
10.462999
12.252927
12.371540
12.839437
14.331937
13.571978
13.627410
14.953613
13.495684
15.089512
15.829802
14.776587
15.277863
15.845895
16.288757
16.945601
20.668507
20.476580
23.228526
24.829507
25.470853
26.865602
27.294755
25.856495
25.600791
24.295449
24.522543
22.391677
19.398928
18.106699
17.786622
16.247630
14.900565
13.874769
14.876723
13.122559
12.708902
12.473464
12.901425
12.733936
12.546778
12.694597
12.791753
##ZVALUE=235
17.792583
20.179749
39.323568
91.002584
145.360827
228.804946
305.748582
381.343961
407.851934
409.908891
363.467932
285.710692
211.126804
141.045451
102.958679
83.035827
76.944828
78.730583
85.160732
82.874894
77.925920
67.042708
51.764846
38.015842
23.593903
18.712878
12.396574
9.309649
9.663701
8.243918
8.296967
8.758903
8.033514
8.288622
8.773804
9.161830
8.490682
9.579659
9.410977
9.501576
9.538531
8.626580
10.414720
8.907914
9.090900
10.917783
10.685921
11.370778
11.810660
13.061762
13.717413
13.984442
15.486479
16.003847
15.259981
16.775727
17.367601
18.834472
18.281937
18.877983
20.504594
18.824935
18.590689
19.574761
19.296408
21.435618
19.803643
20.351410
23.637414
22.996664
24.120808
28.576851
30.032992
34.202933
31.265616
32.753944
33.539534
30.820966
30.814409
28.965473
30.563474
25.220513
24.955869
23.091435
22.531748
21.306872
20.076632
18.771887
19.711852
18.274784
18.842816
18.248558
17.531514
17.557740
16.903877
16.353726
##ZVALUE=240
2.141595
2.001524
7.046461
20.576715
56.030750
104.699731
213.187933
325.562954
484.333634
596.699715
714.159012
742.497444
707.263947
605.806708
498.783588
333.504677
246.697664
158.771873
122.460723
106.430650
117.435455
120.569468
114.611983
107.906461
88.797808
69.768429
48.643947
33.632517
24.242997
17.437935
14.886856
13.419986
12.312531
13.187528
13.674498
10.593534
10.480881
11.702776
11.570454
10.537505
11.030436
9.702444
10.374784
11.867881
12.082458
11.587739
10.280609
11.911988
13.156533
14.403462
14.618635
15.379786
16.254783
17.148852
17.116666
18.560886
20.852685
21.501780
21.434426
21.875501
22.677779
22.545457
24.237633
22.288561
23.299456
23.802519
23.828745
26.359558
26.659966
27.368665
28.884411
31.243563
32.159686
37.380457
36.531687
36.016703
35.410523
38.606524
33.718944
34.736991
31.409860
29.846430
28.518438
26.778579
25.251508
25.537610
23.423433
23.844838
23.990870
21.171570
20.749569
20.182729
21.245480
19.745827
20.295978
19.743443
##ZVALUE=245
1.854897
1.628995
1.733899
2.193451
3.943443
17.338991
38.818717
105.989575
193.918943
343.132615
494.812727
702.335835
853.139758
942.644477
929.371715
825.304985
690.551996
485.899448
340.257883
200.216770
139.125586
114.563704
116.446614
130.297542
133.627653
129.671693
117.603540
101.585984
74.042678
60.560703
40.215850
29.687881
20.807981
16.308427
13.759732
13.378859
12.693405
11.669993
11.462569
10.907650
11.668801
10.496974
10.229945
10.458827
10.387897
11.532903
11.305809
12.177825
12.766719
13.066530
13.398528
15.358925
15.664697
16.840696
17.601848
17.661452
18.454790
19.794703
19.025803
19.474626
21.174550
21.188855
20.975471
21.028519
21.065474
22.071600
23.228526
23.949742
23.821592
24.902821
27.933717
28.769970
32.771826
31.882524
33.963919
36.643744
33.862591
34.704804
32.676458
29.495955
30.310750
28.234720
26.318431
23.988485
22.857785
23.535490
21.195412
20.755529
21.918416
21.268725
20.172000
20.295978
19.860864
19.435883
18.202662
20.853877
##ZVALUE=250
1.591444
1.384616
1.674891
1.992583
1.313686
1.680851
2.283454
10.489821
30.113459
71.208477
175.025463
299.318433
503.599644
668.968558
861.587524
978.798866
1015.584469
979.052782
902.179480
653.485656
460.106730
269.006491
177.294612
117.799640
113.509893
128.428936
138.089657
144.198537
140.679479
125.629902
110.185742
83.299875
64.371824
42.571425
28.668642
18.675923
15.492439
11.551976
11.845827
10.499954
10.703802
10.417700
10.254979
10.315776
8.650422
9.770989
9.045601
9.657741
10.772943
11.143684
11.205673
13.123751
12.894869
14.388561
15.103817
14.573932
14.818907
15.681982
16.194582
16.263723
18.622875
17.483830
18.661618
18.814802
17.696619
17.576814
18.749833
19.941926
19.939542
21.211505
22.067428
23.079515
25.222898
26.393533
27.909875
28.020740
27.225614
26.893616
26.310682
25.188923
24.880767
23.234487
21.995902
21.320581
20.984411
18.338561
18.936992
17.708540
18.595457
16.790628
17.956495
17.177463
16.527772
16.712546
16.949773
17.061830
##ZVALUE=255
1.339912
1.226664
1.169443
1.101494
1.306534
1.709461
1.577735
1.471639
1.803637
4.900694
24.593472
57.425499
121.070743
266.460776
416.199565
667.575598
839.514732
1008.764505
1015.584469
1015.584469
945.183635
776.400566
514.134765
340.408683
185.518861
127.953887
101.822615
106.740594
133.586526
145.227909
151.104927
145.916939
135.388970
109.170675
87.203979
60.306787
43.158531
23.446679
16.722679
11.556745
10.812879
9.018779
8.703470
8.585453
8.567572
8.170605
8.502603
8.939505
9.355545
9.459853
9.885430
11.216998
10.783672
11.664629
11.703968
12.190938
12.506843
14.188886
13.035536
13.266802
13.404489
13.305545
13.776422
14.455914
13.967752
14.328957
14.473796
15.566945
15.232563
16.022921
18.628836
19.116998
20.246506
21.807551
21.860600
22.245646
21.604896
20.278692
20.084977
20.256639
18.343925
17.346740
16.510487
16.527772
16.632676
16.132593
16.039610
15.175939
15.463829
14.242530
14.382601
14.078617
14.294982
14.147758
14.558434
13.770461
##ZVALUE=260
1.084805
1.007915
1.016855
1.012683
1.133680
1.173615
1.473427
1.415610
1.496673
1.695752
1.672506
2.353787
9.300709
38.639903
89.369416
219.733715
368.526578
618.003011
820.446610
1015.584469
1015.584469
1015.584469
1007.784605
839.068890
541.043878
365.628004
208.837986
131.367445
86.607933
87.327957
105.522871
130.612850
146.758556
153.498650
149.534941
132.946968
109.790564
80.198646
59.395432
39.241910
26.104450
15.949607
10.373592
8.707643
7.545948
7.811785
8.084774
8.169413
8.871555
9.158850
9.745955
9.929538
10.193586
10.348558
10.356903
10.978580
11.089444
12.104511
12.352467
12.225509
12.484789
12.632608
12.629628
12.822747
13.365746
13.141632
13.934970
14.990568
14.398694
15.957952
15.672445
17.368793
17.848611
18.393993
18.653870
18.251538
18.406510
18.435717
17.680526
17.029643
15.564561
15.286803
15.182495
14.390945
13.803840
13.586879
13.168454
13.270974
13.977885
13.493896
13.311505
12.837648
13.354421
12.500882
11.633635
12.629628
##ZVALUE=265
0.839829
1.069903
0.900626
1.081824
1.199841
1.262426
1.057982
1.181960
1.302958
1.373887
1.362562
1.910925
1.696944
2.165437
4.909635
25.762916
65.180659
163.935423
299.353004
585.783720
840.810537
1015.579700
1015.579700
1015.579700
1015.579700
1006.920934
754.136443
526.878834
292.896628
172.613859
104.113817
75.016618
83.595514
110.808611
130.274892
151.170492
155.797601
147.245526
133.206844
109.127760
84.789991
56.220889
38.697720
22.503734
15.574694
10.152459
8.755922
8.097887
8.712411
9.113550
9.890795
10.031462
10.962486
11.791587
11.029840
11.874437
12.745857
12.707710
13.262630
13.562441
14.070868
13.912916
13.582706
13.287663
13.838410
13.615489
13.673902
14.089942
14.577508
15.173554
15.645623
16.366839
16.969442
17.231703
17.704964
16.710758
17.103553
16.748905
16.789436
15.095472
14.226437
14.165640
13.904572
13.492703
12.948513
12.568831
12.805462
11.744499
12.637973
12.496710
12.262464
12.146831
11.829734
12.300611
11.811852
12.804866
##ZVALUE=270
1.039505
0.884533
0.897646
0.937581
0.824928
1.180768
0.724792
1.144409
1.159906
1.216531
1.231432
1.408458
1.347661
1.637936
1.722574
1.957417
2.583861
11.043549
34.967661
115.257502
236.613750
427.878499
780.849457
1015.659571
1015.659571
1015.659571
1015.659571
1015.659571
981.751680
733.162761
493.724942
254.699588
141.301751
71.338415
63.067675
85.124969
107.545853
136.308670
148.498416
156.360865
151.466727
132.511854
111.665726
82.859993
61.018467
37.284493
26.619434
15.932918
13.283491
11.003613
10.305643
11.585951
11.655688
12.493730
13.131499
12.914538
13.500452
14.727712
14.632940
14.267564
14.648438
14.439821
13.942719
14.876723
15.195608
15.426874
14.734864
15.514493
15.723705
16.599894
16.253591
16.584992
16.675591
17.657876
17.747879
17.312765
17.626882
16.484857
16.335845
15.602708
14.301538
14.187694
13.356805
13.503432
13.131499
12.244582
12.665987
11.739731
12.347698
12.317896
11.964440
12.396574
11.527538
11.580586
11.431575
10.743737
##ZVALUE=275
0.830889
0.957847
0.770688
0.898838
0.742674
0.926852
0.805855
0.904799
1.026988
0.968575
1.255870
1.160502
0.900626
1.349449
1.300573
1.447797
1.380444
1.838803
2.307892
5.677938
20.642877
61.374903
188.635588
363.003612
691.349506
969.589949
1015.584469
1015.584469
1015.584469
1015.584469
1015.584469
948.392749
664.487481
343.375802
191.585422
84.403753
57.160854
61.229467
80.998540
109.425783
130.303502
148.300529
155.493617
150.194764
135.756731
107.751489
87.341666
60.358644
43.527484
27.156472
20.611882
14.945865
13.522506
13.756752
14.406443
14.561415
15.675426
15.666485
16.090870
15.908480
16.729832
17.083883
16.431808
16.315579
15.880466
16.315579
16.226768
17.391443
17.308593
17.309785
17.880797
17.513633
18.102527
17.955899
18.830895
17.914772
17.877817
17.399788
16.455650
15.937686
14.738441
13.549924
13.726950
12.958646
12.348890
12.029409
12.113452
11.406541
11.250973
11.733770
11.597872
10.623932
11.719465
10.970831
11.255741
10.653734
##ZVALUE=280
0.714660
0.830889
0.730753
0.928640
0.747442
0.834465
0.929832
0.889897
0.682473
0.727773
0.758767
1.005530
1.039505
0.893474
1.188517
1.110435
1.353621
1.263618
1.680851
1.787543
1.807809
2.266765
12.664795
42.253733
137.776732
260.568857
513.176918
786.508918
1015.584469
1015.584469
1015.584469
1015.584469
1015.584469
1015.584469
820.475817
459.828973
269.606709
115.788579
62.960982
45.255423
55.378675
83.798766
105.222464
131.852627
147.637725
151.426792
147.470832
129.082799
112.516880
86.140633
64.841509
44.321418
32.013655
22.122860
18.862486
16.812682
16.896725
17.335415
17.447472
18.755794
18.251538
18.550754
18.527508
18.118620
17.704964
17.875433
17.360449
18.023849
18.813610
18.518567
18.302798
18.627644
17.835498
18.362999
18.116832
17.836690
17.717481
16.750693
16.023517
15.302896
14.836788
13.656616
13.993979
13.000965
12.920499
12.171865
11.630654
11.391640
11.370778
10.929704
10.943413
10.619760
10.419488
10.158420
10.306835
9.908676
##ZVALUE=285
0.572801
0.722408
0.689626
0.848770
0.641942
0.694990
0.759959
0.651479
0.872612
0.747442
0.879765
0.842810
0.908971
0.977516
0.928640
0.874996
1.159906
1.063943
1.222491
1.457930
1.419783
1.722574
2.021790
1.983643
6.588697
22.523999
76.148510
165.813565
368.295908
584.806800
798.854828
1015.589833
1015.589833
1015.589833
1015.589833
1015.589833
992.295742
633.118749
393.795967
179.568529
90.080500
39.917827
36.911964
55.756569
74.499846
103.235841
123.115778
141.972899
148.360729
145.941973
134.919882
111.783743
92.164874
67.343712
49.007535
33.504963
26.822686
22.073984
20.605922
20.042658
19.892454
20.234585
19.679666
20.557642
20.246506
19.751787
19.597411
19.650459
20.143986
19.674897
19.578934
18.798709
19.606948
18.848777
18.554926
18.310547
18.295646
16.840696
15.924573
15.606880
14.404655
14.494658
14.148951
13.627410
12.807846
12.760758
12.095571
11.447668
11.252761
11.082888
11.399984
10.592937
10.308623
10.142922
9.956956
9.909868
##ZVALUE=290
0.598431
0.554919
0.559688
0.627637
0.665784
0.581741
0.636578
0.766516
0.606775
0.753999
0.752807
0.688434
0.819564
0.705719
0.727773
0.899434
0.983477
0.965595
1.030564
1.237988
1.129508
1.197457
1.387596
1.696944
1.813769
1.910925
3.043413
9.680986
46.751499
110.995770
213.596821
449.000001
707.419515
1015.581489
1015.581489
1015.581489
1015.581489
1015.581489
1015.581489
769.502521
506.275892
253.947973
131.754875
48.664808
29.023886
35.730600
49.532652
74.591637
95.568895
123.489499
139.778852
149.152875
148.290992
132.604837
117.168427
90.769529
71.487427
51.935911
39.860606
30.620694
26.860833
24.553537
23.510456
22.627711
22.312999
22.078753
21.954775
22.604465
21.813512
22.301674
21.907687
21.082759
20.923615
19.921660
19.582510
18.736720
18.734932
17.300844
16.658902
16.051531
15.442967
14.814734
14.012456
14.088750
13.344884
12.472868
12.755990
11.833906
11.487603
11.857748
10.989904
10.937452
10.026693
10.191798
9.634495
9.747744
##ZVALUE=295
0.572801
0.563860
0.592470
0.470877
0.538826
0.566840
0.499487
0.631809
0.518560
0.614524
0.578761
0.750422
0.775456
0.802875
0.801682
0.572801
0.761747
0.797510
0.748634
0.908971
0.980496
1.253486
1.124740
1.126528
1.323819
1.308918
1.581907
1.816750
2.135634
4.080534
16.881824
73.311925
165.850520
387.576818
616.656542
976.771712
1015.591621
1015.591621
1015.591621
1015.591621
1015.591621
978.726745
705.418587
377.185941
208.099484
76.596737
35.227537
24.816990
32.942891
52.668452
70.632696
98.970532
118.636489
138.973594
146.704912
145.835876
134.840608
115.337968
95.312595
72.236657
58.431625
42.048693
34.392476
27.841926
26.099682
24.317503
24.196506
23.689866
23.296475
22.856593
22.557974
22.387505
22.067428
20.715594
19.899607
19.202828
18.817782
18.158555
17.110705
16.871691
16.022921
15.183687
14.411807
14.251471
13.473630
13.024807
13.165474
12.396574
12.474656
11.474490
11.311769
10.503531
10.348558
10.204911
9.940863
9.732842
##ZVALUE=300
0.510812
0.587702
0.450611
0.464916
0.607967
0.625849
0.460744
0.582933
0.567436
0.549555
0.622869
0.704527
0.465512
0.651479
0.658631
0.580549
0.650883
0.781417
0.869632
0.877976
1.031756
0.888705
1.097918
0.972748
1.164675
1.271963
1.372695
1.265407
1.574755
1.788735
1.938939
2.257824
10.750890
40.261745
140.510798
272.368789
549.019575
827.270746
1015.584469
1015.584469
1015.584469
1015.584469
1015.584469
1015.584469
820.554495
545.857549
277.711749
148.092508
56.095719
27.669668
26.024580
34.912825
52.078962
69.308877
94.520450
113.985538
135.243535
145.354867
143.527985
136.197805
116.302967
98.436475
75.507760
59.777498
42.510629
34.663677
28.400421
25.562644
23.428798
23.215413
22.815466
22.650957
22.115707
20.749569
20.773411
20.102859
19.244552
18.272996
17.477870
16.967654
16.447902
15.712976
14.825463
14.361739
13.462901
13.090968
12.795925
12.597442
11.755824
11.539459
11.074543
10.646582
10.295510
10.423660
10.216832
9.675622
##ZVALUE=305
0.550747
0.396967
0.534654
0.684857
0.569820
0.521541
0.563860
0.455976
0.758767
0.624657
0.642538
0.583529
0.718832
0.587702
0.650883
0.679493
0.736713
0.701547
0.781417
0.718832
0.753999
0.888705
0.812411
1.028776
1.011491
0.907779
1.222491
1.159906
1.224875
1.326799
1.562834
1.694560
1.765490
2.123713
4.011989
25.599003
77.805519
226.004720
403.566957
742.018819
1000.639796
1015.594006
1015.594006
1015.594006
1015.594006
1015.594006
984.866619
648.625493
408.144593
190.723538
97.178817
36.302805
24.159551
28.585792
36.543608
53.025484
69.765449
93.656778
112.144947
131.168962
138.987899
137.973428
128.579736
110.567808
91.930628
68.183541
54.792762
39.665699
31.956434
25.822520
23.524761
21.600723
21.121502
20.118952
19.474626
18.423796
18.120408
17.330647
16.574860
16.021729
15.496612
15.007854
14.437437
14.067888
13.205409
12.902617
12.622476
12.153983
11.783838
11.691451
10.974407
10.120869
10.664463
10.140538
10.190606
9.456873
##ZVALUE=310
0.334978
0.259876
0.338554
0.402927
0.378489
0.364780
0.388622
0.503659
0.395775
0.407696
0.379682
0.544786
0.292659
0.426769
0.488758
0.514984
0.357628
0.590682
0.519753
0.687838
0.677705
0.558496
0.727773
0.779629
0.667572
0.837445
0.973940
0.823736
0.873804
0.783801
1.003742
0.954866
1.082420
1.521707
1.663566
1.888871
2.338886
10.686517
38.166642
138.852000
280.766487
587.236881
896.718502
1015.468836
1015.468836
1015.468836
1015.468836
1015.468836
1015.468836
849.463940
571.559668
291.194916
161.491632
60.164928
29.204488
22.475719
26.152730
34.758449
46.382546
64.808726
82.160830
104.200840
117.282867
128.034949
128.916502
119.527578
106.020570
84.150434
67.623854
49.058795
37.496686
28.181672
22.429824
18.905997
17.762780
17.304420
15.762448
15.306473
15.191436
14.284849
13.897419
13.694763
12.896657
12.943745
12.141466
12.137890
11.619925
11.384487
11.146665
10.623932
10.525584
10.576844
9.705424
9.431839
9.362698
9.166598
##ZVALUE=315
0.292659
0.319481
0.435710
0.373721
0.387430
0.498891
0.404716
0.366569
0.534654
0.562668
0.552535
0.426769
0.632405
0.511408
0.636578
0.501871
0.595450
0.530481
0.587702
0.585914
0.526905
0.640750
0.561476
0.649691
0.844598
0.971556
0.787973
0.883937
0.963807
0.991821
0.945926
1.193881
0.893474
1.287460
1.231432
1.483560
1.656413
1.990795
2.104640
5.122423
20.192862
86.694956
200.381875
466.902852
748.857856
1015.584469
1015.584469
1015.584469
1015.584469
1015.584469
1015.584469
993.889570
723.521709
392.998457
220.766664
86.678863
38.854480
20.442605
19.928813
24.684668
30.317903
43.387413
56.182742
75.301528
92.191696
109.789968
117.612481
119.235516
111.954808
93.159676
79.780817
58.822632
45.069456
30.404925
23.983717
17.613769
15.533566
13.686419
13.168454
12.533665
12.345910
11.791587
11.637807
11.643767
11.605620
10.891557
10.854602
10.521412
10.387897
10.353923
10.298491
9.685755
9.508729
9.318590
9.025931
8.594990
##ZVALUE=320
0.452995
0.390410
0.461936
0.547767
0.399947
0.503659
0.470877
0.457764
0.470877
0.415444
0.492930
0.576973
0.381470
0.506639
0.688434
0.505447
0.555515
0.573993
0.574589
0.599623
0.627637
0.534654
0.652671
0.628829
0.523925
0.669956
0.835657
0.787973
0.754595
0.906587
0.739694
0.996590
1.070499
1.059771
1.131892
1.418591
1.351833
1.366735
1.419783
1.943707
2.092719
2.788901
9.507537
53.848624
139.372945
364.625454
607.286692
979.733467
1015.581489
1015.581489
1015.581489
1015.581489
1015.581489
1015.581489
836.092830
468.881726
272.357464
118.076801
56.013465
20.948648
15.377998
15.911460
18.562675
24.609566
33.451915
49.323440
64.559579
83.506703
95.672607
106.619000
108.432770
100.453496
89.717507
69.586635
54.605603
38.358569
27.897954
19.819736
15.157461
12.365580
11.146665
10.617971
10.268688
9.864569
9.940863
9.823442
9.472966
9.417534
9.267926
9.454489
8.888841
9.000897
8.768439
8.765459
8.815527
8.248687
##ZVALUE=325
0.356436
0.440478
0.312924
0.395775
0.352859
0.286698
0.220537
0.393987
0.264645
0.467896
0.370741
0.476837
0.536442
0.373721
0.556707
0.493526
0.441670
0.479817
0.509620
0.577569
0.465512
0.585914
0.612736
0.628829
0.635982
0.563860
0.726581
0.656843
0.770688
0.673532
0.772476
0.656843
0.989437
0.992417
0.877976
0.988841
1.131892
1.229644
1.170635
1.306534
1.577735
1.677871
1.891851
2.160668
6.060600
25.987625
102.591515
217.356682
493.081808
806.019902
1015.585661
1015.585661
1015.585661
1015.585661
1015.585661
1015.585661
926.520824
625.910759
328.808427
178.857446
65.559745
27.746558
12.316704
10.809898
11.701584
14.132857
20.359755
28.610826
44.632554
59.885979
79.675913
90.330839
98.791718
99.889636
91.289878
80.811977
63.511729
49.053431
33.015609
24.093986
15.965700
12.713671
10.425448
9.349585
9.119511
8.882880
8.783937
8.711815
8.485913
8.505583
8.484721
8.165836
8.259416
8.191466
8.191466
8.198619
##ZVALUE=330
0.333786
0.337958
0.309944
0.386834
0.430942
0.357628
0.379682
0.153780
0.421405
0.469685
0.534654
0.318885
0.387430
0.313520
0.465512
0.481606
0.482798
0.515580
0.602603
0.496507
0.543594
0.527501
0.517964
0.485778
0.631809
0.442863
0.552535
0.740886
0.477433
0.583529
0.865459
0.811815
0.779629
0.718832
0.852942
0.962615
0.867844
0.967979
1.066923
1.162887
1.092553
1.343489
1.456738
1.614690
1.927614
2.199411
3.211498
10.969639
60.830712
153.498650
380.705595
635.052919
1015.584469
1015.584469
1015.584469
1015.584469
1015.584469
1015.584469
1015.584469
787.631869
422.406793
235.059857
94.285607
40.993690
12.955666
8.521676
8.910894
9.372830
13.230443
17.726421
28.997660
38.903952
55.330992
69.702864
83.868504
90.435743
91.323853
86.738467
72.517991
60.393810
43.261647
32.882690
22.228956
17.341971
11.914968
10.007620
8.717775
8.616447
8.141994
8.213520
7.813573
7.924438
7.762909
7.773638
7.814765
7.869601
##ZVALUE=335
0.390410
0.472665
0.431538
0.354648
0.311732
0.423789
0.339746
0.380874
0.518560
0.358820
0.390410
0.360608
0.426769
0.422597
0.291467
0.469685
0.622869
0.474453
0.488758
0.529885
0.419617
0.583529
0.505447
0.426769
0.559688
0.616908
0.535846
0.681877
0.635982
0.693798
0.826716
0.773668
0.881553
0.776649
0.676513
0.772476
0.863671
0.926852
1.027584
0.983477
1.064539
1.091957
1.332760
1.278520
1.377463
1.431704
1.865625
1.963973
2.659559
5.023479
32.570958
92.033744
258.153677
469.954610
879.876018
1015.609503
1015.609503
1015.609503
1015.609503
1015.609503
1015.609503
976.527929
569.939613
335.923433
139.039755
60.999990
18.789768
9.741783
8.304715
8.661747
9.763837
12.105703
17.528534
25.116801
38.365722
49.960613
66.125989
77.678561
85.069537
86.301565
79.440475
69.530606
56.582689
45.778751
32.031536
24.220943
16.559958
12.598634
9.701848
8.618832
8.286834
7.784963
7.599592
8.061528
7.588863
7.879734
##ZVALUE=340
0.297427
0.338554
0.379682
0.177622
0.474453
0.364780
0.188947
0.423789
0.253916
0.211596
0.273585
0.328422
0.353456
0.556707
0.309944
0.299811
0.490546
0.557899
0.455976
0.296831
0.456572
0.639558
0.458956
0.461936
0.532866
0.558496
0.683665
0.501871
0.584722
0.500679
0.395775
0.506639
0.451803
0.686646
0.657439
0.799894
0.659823
0.717640
0.871420
0.823736
0.941753
0.910759
1.126528
1.078844
1.027584
1.286864
1.364946
1.639724
1.666546
1.933575
2.286434
3.597736
12.538433
66.366792
162.893534
398.625731
662.426949
1015.589833
1015.589833
1015.589833
1015.589833
1015.589833
1015.589833
1015.589833
758.836865
388.102531
208.599567
77.986717
29.937625
10.273457
8.596778
8.382797
8.729696
9.400845
12.023449
17.813444
24.111867
36.310554
48.029423
63.103437
73.499680
79.946518
80.471635
74.148774
66.792965
54.096580
43.007731
30.717850
22.921562
16.181469
12.480617
9.598732
8.373857
7.893443
7.373691
7.217526
##ZVALUE=345
0.470877
0.390410
0.424981
0.321865
0.410676
0.205636
0.415444
0.409484
0.443459
0.397563
0.242591
0.210404
0.238419
0.267625
0.316501
0.377893
0.382662
0.465512
0.340939
0.363588
0.457764
0.241995
0.445843
0.466704
0.554919
0.568628
0.470877
0.445843
0.614524
0.494719
0.564456
0.429749
0.629425
0.740886
0.630617
0.772476
0.707507
0.747442
0.870824
0.771880
0.844598
0.898838
0.742674
1.034737
0.841618
0.961423
1.076460
1.177788
1.374483
1.404881
1.462698
1.877546
2.120733
2.574921
5.530715
36.074519
108.253956
310.668945
571.624637
998.058915
1015.584469
1015.584469
1015.584469
1015.584469
1015.584469
1015.585065
951.257944
548.153520
302.643776
114.978552
48.341751
15.271902
9.632707
8.717775
8.382797
8.300543
8.718967
10.974407
14.823675
23.342967
32.644868
46.579838
56.181550
66.653490
72.376728
74.205995
70.852637
62.636733
54.295659
42.032599
32.246709
21.947622
16.872883
11.726618
9.761453
8.525848
##ZVALUE=350
0.348687
0.322461
0.238419
0.434518
0.268817
0.247955
0.339746
0.375509
0.428557
0.442863
0.431538
0.379682
0.424981
0.424981
0.440478
0.210404
0.368953
0.390410
0.456572
0.394583
0.393987
0.514984
0.406504
0.475645
0.414848
0.489950
0.537634
0.491738
0.659823
0.527501
0.341535
0.526905
0.676513
0.663996
0.572801
0.750422
0.720620
0.528693
0.594854
0.597835
0.700951
0.661612
0.671744
0.840425
0.816584
0.950694
1.076460
1.033545
1.128912
1.316667
1.216531
1.384616
1.367927
1.710653
1.911521
2.171993
3.203750
18.612742
62.170625
197.589397
378.248692
754.805803
1015.589833
1015.589833
1015.589833
1015.589833
1015.589833
1015.589833
1015.589833
640.735626
388.306975
172.882676
79.087615
21.083951
9.997487
7.949471
7.857680
7.175803
7.194877
8.029938
10.026693
15.032887
20.234585
29.075742
37.775636
49.556494
58.031678
64.561963
67.555904
65.160990
59.616566
49.054623
39.796829
28.568506
21.577477
15.497804
##ZVALUE=355
0.310540
0.390410
0.306964
0.428557
0.529885
0.330806
0.294447
0.260472
0.332594
0.298619
0.440478
0.410676
0.262856
0.382662
0.365973
0.385642
0.294447
0.616908
0.427961
0.419617
0.513792
0.321865
0.395775
0.520945
0.489950
0.417829
0.425577
0.558496
0.456572
0.542998
0.544786
0.484586
0.619888
0.466704
0.601411
0.621676
0.635982
0.711679
0.821948
0.557899
0.671744
0.560880
0.692606
0.831485
0.754595
0.745654
0.917912
1.069903
0.911951
0.944734
0.950694
1.183748
1.254678
1.264811
1.298785
1.650453
1.771450
2.248883
2.520680
8.370876
31.393766
122.455955
248.219371
511.792898
808.897018
1015.587449
1015.587449
1015.588045
1015.587449
1015.587449
1015.588045
779.037476
485.888720
211.107731
98.263621
28.506517
11.522770
7.374883
7.122755
6.676912
6.605983
6.718636
7.122755
9.032488
11.878610
17.778873
24.178624
34.572482
42.710900
52.362680
58.652759
61.941743
60.244799
54.120421
46.966672
37.493706
##ZVALUE=360
0.456572
0.460744
0.312924
0.470877
0.448823
0.477433
0.355840
0.409484
0.428557
0.546575
0.552535
0.738502
0.382662
0.626445
0.604987
0.550747
0.500679
0.475645
0.483990
0.516772
0.387430
0.468493
0.492930
0.487566
0.610948
0.625849
0.591874
0.496507
0.705719
0.549555
0.561476
0.679493
0.640750
0.666976
0.593662
0.432730
0.610948
0.801682
0.807643
0.813603
0.594854
0.946522
0.793934
0.815988
0.900626
0.946522
0.770688
0.834465
0.896454
1.020432
1.053810
1.243949
1.148582
1.504421
1.456738
1.315475
1.594424
1.703501
1.777411
2.098680
2.060533
4.040003
13.367534
64.615607
153.186917
377.046466
623.075962
985.160470
1015.677452
1015.677452
1015.677452
1015.677452
1015.677452
890.813470
592.527986
284.625888
145.348907
50.802827
19.043684
7.763505
6.989837
6.627440
6.403923
6.131530
6.436706
6.804466
7.597804
10.298491
13.927817
20.344853
27.232766
37.693977
45.272708
52.235723
55.770874
55.365562
##ZVALUE=365
0.325441
0.329614
0.222921
0.291467
0.337958
0.233650
0.322461
0.394583
0.307560
0.176430
0.325441
0.339746
0.333786
0.407696
0.434518
0.316501
0.256896
0.401735
0.387430
0.316501
0.265837
0.305772
0.460744
0.276566
0.538826
0.531673
0.594854
0.464916
0.578761
0.471473
0.654459
0.691414
0.686646
0.568628
0.645518
0.802875
0.573993
0.565648
0.630617
0.686646
0.805855
0.705719
0.578761
0.797510
0.661612
0.831485
0.841618
0.850558
0.882745
0.840425
0.836849
0.845790
0.940561
0.930429
0.991821
1.107454
1.037717
1.245737
1.379848
1.563430
1.648664
1.873970
2.197623
2.503991
5.750656
35.737753
96.447468
259.105563
473.353863
866.487622
1015.588641
1015.588641
1015.588641
1015.588641
1015.588641
1013.536453
752.666593
386.815667
207.524896
72.368979
27.098656
8.668900
6.572604
6.080866
6.051660
5.668998
5.453825
5.265474
5.593896
6.454587
8.146763
11.730790
16.108751
24.460554
31.453967
39.794445
##ZVALUE=370
0.352859
0.478625
0.386834
0.303984
0.287890
0.439882
0.311732
0.375509
0.213981
0.428557
0.340939
0.351667
0.419617
0.533462
0.428557
0.243783
0.350475
0.420809
0.413656
0.254512
0.337958
0.371933
0.622869
0.585914
0.426769
0.642538
0.547767
0.448823
0.572801
0.638962
0.527501
0.495911
0.513792
0.630617
0.517964
0.479817
0.572801
0.693798
0.634789
0.629425
0.627637
0.668764
0.708699
0.742674
0.755787
0.819564
0.803471
0.840425
0.743866
0.871420
0.809431
0.985861
0.807643
0.909567
1.010895
1.118779
0.964999
1.168847
1.182556
1.293421
1.406670
1.429915
1.487732
1.758933
1.919866
2.148747
3.338456
17.138720
58.646798
193.771720
364.888906
690.428615
980.544686
1015.650034
1015.650034
1015.650034
1015.650034
1015.649438
862.663388
483.517647
271.565914
103.869438
44.666529
14.089942
7.100701
5.699992
5.567670
5.381703
5.055666
4.807711
4.923940
5.318522
5.703568
7.452965
10.075569
14.404655
##ZVALUE=375
0.333786
0.367761
0.399947
0.459552
0.373721
0.408888
0.350475
0.415444
0.395775
0.451803
0.269413
0.434518
0.452995
0.326633
0.341535
0.378489
0.382662
0.377893
0.474453
0.280738
0.492930
0.343919
0.431538
0.493526
0.417829
0.365973
0.278950
0.508428
0.403523
0.667572
0.651479
0.576973
0.627637
0.473857
0.549555
0.527501
0.470877
0.533462
0.491738
0.653863
0.412464
0.613928
0.544786
0.609756
0.655651
0.699759
0.723600
0.684857
0.622869
0.703931
0.834465
0.821948
0.701547
0.954866
0.859499
0.944734
0.778437
0.928640
0.793934
0.933409
1.026988
1.035929
1.217723
1.271963
1.625419
1.556873
1.776814
2.110600
2.610683
8.367896
32.618642
125.260949
272.842646
615.600944
955.241919
1015.647650
1015.647650
1015.647650
1015.647650
1015.647650
1004.242897
637.315512
405.063629
197.960734
97.795725
28.981566
10.170937
5.721450
5.168915
4.767776
4.766583
4.589558
4.514456
4.289746
4.322529
4.811883
##ZVALUE=380
0.274777
0.287890
0.088811
0.337958
0.301600
0.242591
0.175834
0.284910
0.241995
0.374913
0.260472
0.330806
0.200868
0.275970
0.187755
0.247955
0.173450
0.291467
0.311732
0.346899
0.283718
0.347495
0.222921
0.322461
0.484586
0.434518
0.458956
0.435710
0.479817
0.352859
0.347495
0.574589
0.429749
0.406504
0.420809
0.370741
0.482798
0.507832
0.441670
0.387430
0.354648
0.390410
0.540614
0.577569
0.664592
0.662804
0.606775
0.731945
0.629425
0.550747
0.610948
0.540614
0.589490
0.763535
0.648499
0.832677
0.666976
0.573993
0.913739
0.850558
0.849962
0.934601
0.834465
1.079440
1.216531
1.204610
1.372695
1.631975
1.810789
2.268553
2.618432
4.494786
17.463565
94.253421
221.279860
528.665781
850.278735
1015.584469
1015.584469
1015.584469
1015.584469
1015.584469
1015.584469
782.502890
519.515872
254.221559
129.392743
43.348670
16.539693
6.110668
5.107522
4.641414
4.356503
4.261732
4.116893
4.017949
##ZVALUE=385
0.338554
0.153780
0.157952
0.152588
0.294447
0.213981
0.106692
0.145435
0.142455
0.347495
0.290871
0.152588
0.090599
0.206828
0.249743
0.199676
0.309944
0.316501
0.245571
0.284910
0.318885
0.222921
0.288486
0.408888
0.444651
0.311732
0.382662
0.228882
0.285506
0.319481
0.305772
0.386834
0.250936
0.248551
0.378489
0.317693
0.523925
0.383854
0.406504
0.549555
0.418425
0.465512
0.520945
0.327826
0.395775
0.463724
0.324845
0.386834
0.455976
0.629425
0.443459
0.449419
0.515580
0.464916
0.659823
0.578761
0.609756
0.717640
0.728965
0.702739
0.719428
0.855923
0.981688
0.935793
0.815988
1.056790
1.170635
1.318455
1.471639
1.899600
1.994967
2.134442
2.283454
3.046989
9.638667
54.517984
140.830874
356.067419
625.091791
1015.576720
1015.584469
1015.584469
1015.584469
1015.584469
1015.584469
923.153758
631.368756
335.807800
188.922882
77.429414
30.704737
7.902980
4.826784
4.370809
4.097819
3.897548
##ZVALUE=390
0.345707
0.182986
0.273585
0.102520
0.280738
0.239611
0.313520
0.123978
0.161529
0.306964
0.094771
0.233650
0.311732
0.322461
0.225902
0.349879
0.353456
0.230670
0.177622
0.259876
0.261664
0.218749
0.258684
0.302792
0.380874
0.341535
0.220537
0.428557
0.367761
0.205636
0.275970
0.284910
0.413656
0.313520
0.464916
0.435710
0.390410
0.310540
0.594854
0.512600
0.349879
0.269413
0.475645
0.226498
0.371933
0.465512
0.445843
0.463724
0.471473
0.507832
0.453591
0.309944
0.523925
0.622869
0.696778
0.615716
0.507832
0.702739
0.627637
0.686646
0.713468
0.863671
0.771880
0.765920
0.888705
1.022816
1.055598
1.221895
1.468658
1.698732
1.538992
1.774430
2.050996
1.992583
2.010465
2.344847
4.380941
26.497841
82.857609
254.938006
487.775803
914.990902
1015.584469
1015.584469
1015.584469
1015.584469
1015.584469
1015.584469
871.996880
513.889790
287.113786
110.122561
48.068762
13.017654
5.981922
4.347563
##ZVALUE=395
0.265837
0.210404
0.224710
0.169873
0.299811
0.225902
0.259876
0.225902
0.123978
0.317693
0.268817
0.387430
0.223517
0.275970
0.247955
0.166893
0.344515
0.269413
0.290871
0.323653
0.293851
0.293851
0.262856
0.244975
0.309944
0.361800
0.334978
0.508428
0.331998
0.244975
0.264645
0.390410
0.497699
0.324845
0.329614
0.433922
0.421405
0.326633
0.383854
0.399947
0.431538
0.415444
0.380874
0.329614
0.346899
0.356436
0.441670
0.434518
0.384450
0.648499
0.483990
0.611544
0.566840
0.611544
0.625849
0.616908
0.555515
0.486970
0.640750
0.615716
0.876784
0.747442
0.681877
0.719428
0.925660
0.873804
0.920892
1.199841
1.352429
1.428723
1.549721
1.459718
1.475811
1.636744
1.493692
1.744628
1.737475
1.981854
2.516508
13.968945
53.462982
182.407498
357.925892
693.817735
997.428894
1015.584469
1015.584469
1015.584469
1015.584469
1015.584469
1015.584469
641.558766
386.808515
159.859657
73.519945
21.907687
##ZVALUE=400
0.157952
0.205636
0.095963
0.122786
0.146627
0.168681
0.216961
0.213981
0.308752
0.382662
0.255704
0.252724
0.126958
0.150800
0.298619
0.318885
0.270605
0.259876
0.179410
0.243783
0.372529
0.189543
0.419617
0.280738
0.370741
0.403523
0.277758
0.194907
0.272989
0.385642
0.446439
0.217557
0.312924
0.277758
0.399947
0.394583
0.398755
0.245571
0.322461
0.276566
0.447631
0.389814
0.387430
0.347495
0.379682
0.451803
0.528693
0.399947
0.400543
0.474453
0.511408
0.379682
0.493526
0.535846
0.532866
0.424981
0.634789
0.634789
0.645518
0.589490
0.557899
0.703931
0.680685
0.774860
0.708699
0.877976
1.001954
0.996590
1.127720
1.229644
1.402497
1.331568
1.468658
1.261830
1.247525
1.387596
1.372695
1.627803
1.895428
1.955628
2.352595
7.173419
27.564764
104.842782
235.492587
534.034967
851.413608
1015.584469
1015.584469
1015.584469
1015.584469
1015.584469
1015.584469
785.673857
501.257777
239.319801
##END
