##TITLE=AAI0801
##FORMAT=SPECTACLE-ASCII V-1.2
##DATA TYPE=ULTRAVIOLET SPECTRUM
##SECOND TYPE=ULTRAVIOLET SPECTRUM
##DATE=01/24/18
##TIME=18:48:11
##SPECTROMETER/DATA SYSTEM=SPECTACLE
##XUNITS=NM EM
##YUNITS=ENERGY
##YFACTOR=1
##FIRSTX=220
##LASTX=410
##NPOINTS=96
##3DDATA=Equidistant
##ZUNITS=NM EX
##FIRSTZ=210
##LASTZ=400
##ZPOINTS=39
##XYDATA=(Y..Y)
##ZVALUE=210
3.640652
3.078580
3.442764
3.652573
3.418922
3.092885
3.242493
2.907515
3.045797
3.254414
3.004670
2.361536
1.933575
2.418756
2.133846
2.363920
2.581477
2.569556
2.589822
3.618598
3.645420
3.403425
2.998710
3.464818
3.903508
4.099607
3.672838
4.265904
4.161596
5.239844
4.562736
4.837513
5.119443
5.254745
4.800558
5.223751
4.665852
5.443692
4.970431
5.510449
5.648732
6.267428
6.301999
6.300807
5.595684
6.328821
6.564856
7.486939
6.301999
5.318522
7.550716
7.168651
6.726980
6.085634
7.597804
7.192492
6.965995
7.637739
8.364916
7.813573
7.532835
7.233620
7.991791
8.210540
7.670522
8.867979
8.970499
10.858774
11.285543
13.948679
15.017986
17.802715
20.449758
22.286773
23.704767
25.318861
26.211739
27.637482
26.437640
23.366809
21.907687
19.755960
16.964674
14.020801
13.342500
10.906458
10.274649
8.100867
8.221865
7.316470
7.918477
7.214546
8.406639
8.579493
8.180737
7.790923
##ZVALUE=215
12.026429
13.018847
10.422468
8.720756
8.544922
7.225871
6.820560
6.617904
6.630421
7.135868
7.641912
6.052852
4.438758
3.339648
2.870560
2.694726
2.175570
2.958775
3.297925
3.409982
3.379583
3.515482
3.530979
4.203916
4.048944
3.416538
4.025698
4.088879
5.075932
5.365610
5.233884
5.396605
5.930662
6.262660
5.581975
5.982518
6.079674
6.292462
5.836487
6.949902
6.771684
7.120967
7.029772
7.510781
7.324815
6.746650
6.732941
7.340908
8.314848
7.585883
8.570552
7.748604
8.626580
7.658601
7.657409
7.598996
8.327961
8.100867
9.221435
9.052753
8.987784
8.896589
9.177923
9.471774
9.421706
9.442568
9.805560
10.490417
11.911988
14.226437
15.956759
17.798543
23.527741
23.449659
25.553703
26.610494
28.572679
28.153658
25.999546
24.888515
23.959875
20.720959
17.970800
15.261769
13.534427
12.442470
9.812713
10.791421
8.798838
8.754730
8.066893
7.525682
7.675886
8.118749
8.381605
8.654594
##ZVALUE=220
37.258863
37.702918
37.087798
38.954616
34.032464
29.434562
22.483468
17.695427
15.899539
15.220642
15.923977
15.304685
14.422536
13.495684
10.546446
8.982420
5.472898
5.641580
3.962517
3.225803
3.789663
3.335476
4.031658
3.592968
4.283786
4.678965
5.158782
4.970431
5.280972
5.697608
6.685853
6.113648
6.071925
5.817413
6.389618
6.554723
6.389618
7.119775
6.375909
6.838441
7.331967
6.755590
7.018447
7.922649
7.526875
7.815957
8.365512
7.579923
8.396506
7.531643
9.576678
8.592606
9.023547
8.570552
9.552836
9.357929
9.563565
9.721518
9.577870
9.945631
9.595752
9.910464
9.945631
10.665655
9.707808
9.928942
10.611415
12.071729
12.614727
14.532804
15.302896
17.814636
21.477938
21.835566
24.152994
26.581883
27.163625
28.269887
26.972890
24.988651
23.490787
21.935701
21.043420
17.190576
15.768409
12.674928
11.757612
10.529757
9.856820
8.170605
8.501410
7.884502
8.748770
8.404851
8.495450
9.143949
##ZVALUE=225
53.490996
53.984523
71.823001
88.618994
94.357729
95.742941
87.565780
68.562627
53.728819
38.059950
29.647946
26.285648
28.697848
28.694868
27.768612
26.416779
22.145510
17.808676
11.662841
8.015633
5.880594
3.882647
3.089905
3.136992
3.751516
4.759431
4.134774
3.736615
4.189610
5.340576
5.523562
5.660653
5.058646
5.874634
5.918741
6.761551
6.253719
6.439686
7.103682
6.068945
7.583499
6.562471
5.986691
7.060766
6.977916
7.964969
8.000731
7.149577
8.303523
7.826686
9.547472
8.435845
9.941459
8.281469
9.049773
9.757876
9.247661
9.725690
9.418726
11.129975
11.113882
9.871721
10.881424
11.803508
10.961890
11.208653
10.886788
13.528466
13.579726
14.593601
17.263889
17.635822
19.304752
22.401810
22.115707
23.026466
23.996830
23.845434
21.500587
20.965934
19.933581
18.194914
17.575622
15.814900
12.678504
10.873675
11.661649
9.665489
10.355711
8.120537
9.989738
9.028912
9.723902
9.214878
9.524822
8.150935
##ZVALUE=230
44.989586
47.998428
75.833797
125.893950
159.118772
197.206736
216.617584
209.505558
193.902850
157.040954
112.857819
79.270601
54.709911
47.941804
49.259663
51.692724
50.438643
51.634908
45.246482
38.302541
28.702617
18.763542
12.824535
8.852482
5.988479
6.171465
6.383657
6.090999
5.839467
5.926490
6.845593
7.946491
7.986426
7.397532
8.055568
7.927418
7.703900
8.055568
7.177591
6.766915
7.411838
8.302927
8.875728
8.211732
9.324551
8.887649
9.071827
9.226799
9.576678
9.910464
10.610819
9.932518
11.283755
12.636781
12.980700
12.636781
12.761950
13.224483
13.349652
13.190508
14.870763
13.433695
14.114976
14.371872
14.613867
15.538931
15.946627
15.479922
16.604662
17.214417
19.346476
20.958781
22.457838
23.440719
24.526715
23.520589
23.470521
22.770762
23.188591
20.169616
19.673705
19.611716
16.700625
15.500784
15.270710
14.742613
11.908412
13.467669
11.884570
13.847947
12.777448
12.236834
12.410879
11.537671
11.038780
12.528896
##ZVALUE=235
14.830828
18.575788
33.855438
83.914995
134.911537
215.308666
275.348425
355.315804
392.174721
392.942429
349.697471
276.745558
195.857882
142.246485
96.925497
78.787804
73.728561
80.956817
85.482001
82.393885
77.872872
64.881444
52.686930
37.380457
24.000406
15.957952
11.464953
8.607507
8.278489
8.626580
8.063912
7.443428
7.903576
7.451773
8.016825
8.176565
9.223819
8.863807
7.990599
9.028912
7.751584
7.658601
7.951856
9.274483
9.373426
9.564757
8.379817
9.504557
9.281635
10.867715
11.775494
12.188554
11.900663
13.683438
15.571713
15.017986
15.309453
15.640855
16.065836
16.954541
16.779900
17.925501
17.006993
17.740726
18.128753
17.553568
19.671917
20.174980
19.900799
22.046566
24.290681
24.197698
26.935935
27.308464
27.978420
27.557611
28.876662
28.510690
28.344989
23.138523
23.030639
21.564960
21.589994
20.247698
20.329952
19.271970
18.616915
16.663671
17.000437
16.888976
16.916990
16.330481
15.935898
14.775991
13.998747
14.896989
##ZVALUE=240
1.846552
1.878738
5.829930
20.308495
45.422912
102.009773
166.710615
292.427540
399.198532
515.825748
571.622849
575.731993
518.267751
438.530445
317.123532
233.655572
145.900846
113.211870
97.089410
100.796819
110.696554
116.758943
112.343431
101.436973
88.452697
67.553520
50.016642
33.683777
25.977492
17.419457
14.440417
10.939837
11.401772
10.771751
11.148453
8.977652
9.393692
8.452535
10.304451
9.392500
9.702444
9.394884
10.089874
9.431839
9.978414
10.000467
9.952784
9.696484
10.928512
12.288690
12.855530
13.147593
14.738441
14.889836
15.813708
15.824437
17.544627
17.494559
19.689798
20.481944
19.522905
20.468831
20.778775
20.906925
20.819902
21.771789
21.041632
20.551682
22.577643
25.430918
24.638772
26.006699
27.919412
29.346943
31.063557
29.575825
29.995441
28.686523
27.202964
27.464628
25.846958
24.934411
23.907423
23.522973
22.190809
20.914674
21.526814
20.933747
19.317865
20.381808
18.629432
18.059611
17.837882
18.338561
17.388463
16.137958
##ZVALUE=245
1.253486
1.755953
1.373887
1.920462
4.692674
12.353659
42.478442
87.340474
189.449787
288.293958
459.102392
572.324991
655.535460
693.560839
675.797462
560.075641
449.435711
309.829712
223.218799
132.139921
110.558867
102.543831
117.351413
126.118660
132.164955
128.836632
119.556785
98.764896
76.391697
56.785941
43.034554
27.523637
22.213459
14.384985
12.274981
11.708736
11.856556
11.884570
9.972453
9.579659
9.213686
9.411573
8.927584
8.249879
8.873940
7.751584
8.244514
9.946823
10.301471
10.621548
12.530684
13.053417
12.494922
15.213490
14.956594
16.143918
15.951991
16.863942
16.980767
16.765594
17.696619
19.046664
18.781424
18.388629
19.736886
17.778873
19.572973
20.585656
20.826459
21.335483
22.690892
23.738742
23.295879
25.432706
27.722716
26.973486
26.170611
25.783777
26.653409
24.680495
23.720860
23.855567
22.228956
22.662878
19.895434
19.958615
20.588636
19.950867
19.316673
18.914938
18.385649
18.958449
18.010736
16.169548
16.530752
16.290545
##ZVALUE=250
0.854731
1.309514
1.214743
1.157522
1.189709
1.481771
2.242923
7.765889
33.006668
71.430802
168.142915
278.824568
415.181518
592.892766
700.012445
798.130631
788.074732
701.331496
605.135560
416.753888
289.119482
192.237496
120.364428
100.461841
111.551881
126.406550
139.910579
145.478845
138.034821
124.362707
108.585954
82.900524
63.508749
40.551424
26.998520
16.907454
13.065934
10.378957
10.602474
9.663701
8.988976
7.789731
7.863641
7.577538
8.523464
7.460713
7.810593
7.992983
8.585453
9.709597
9.679794
10.819435
11.202693
11.855960
11.315942
12.275577
12.569427
12.931824
14.018416
13.426542
14.298558
14.398694
15.004873
15.804768
15.023947
15.663505
16.319752
17.371774
17.045736
17.917752
18.190742
20.204782
21.074414
22.230744
21.460652
22.398829
22.765994
21.768808
21.879673
20.291805
18.932819
18.854737
18.223524
17.758608
17.637610
16.130805
16.782880
16.884804
15.258789
15.291572
15.684962
15.147924
16.364455
14.704466
16.117692
15.215874
##ZVALUE=255
1.220703
1.345873
1.186728
1.333952
1.531839
1.580715
1.591444
1.537800
1.684427
4.394650
20.927787
54.901838
112.169981
245.415568
379.703641
584.711432
735.972524
874.653459
915.732980
869.570971
761.783719
615.198612
390.714407
251.443982
142.353773
105.030537
96.438527
107.622743
129.573941
144.322515
153.045654
144.441724
133.806467
106.944442
84.982514
55.987835
40.878654
24.853945
16.899705
10.697842
8.350611
8.486509
8.409619
7.742643
6.909966
7.591844
7.627606
7.672906
7.803440
8.732677
9.336472
9.638667
9.574890
10.666847
10.402799
11.434555
10.907650
11.855960
12.122989
11.949539
12.374520
13.642907
13.810992
13.258457
12.127757
12.179613
14.446974
13.049841
13.455749
15.174747
15.978813
16.699433
17.654896
17.885566
18.928647
18.973947
18.239617
17.872453
17.245412
16.893744
16.579628
15.158653
15.782714
14.251471
13.995767
14.071465
13.902783
13.913512
13.672709
13.674498
14.115572
12.809634
13.727546
12.708902
13.125539
13.588667
##ZVALUE=260
1.038909
0.878572
0.991821
0.992417
0.978708
1.044869
1.429915
1.106858
1.458526
1.689792
1.646876
2.644658
8.265972
33.660531
79.602599
193.158984
322.952867
535.457730
709.104538
927.493572
1015.584469
1015.584469
921.993852
757.316947
510.576963
351.752639
204.236507
129.817724
87.889433
84.925890
104.281902
127.723813
143.781900
154.693723
150.544643
133.052468
111.508965
80.785751
58.248639
36.560893
24.087429
15.139580
9.672642
7.800460
7.331967
7.332563
7.448792
7.513762
7.407665
7.743835
8.807778
9.442568
9.300709
9.374619
9.668469
10.315776
10.937452
10.472536
10.854602
11.982918
11.857748
11.603832
11.033416
11.810660
12.281537
12.223721
11.875629
13.078451
12.957454
13.797879
13.611913
15.173554
14.844537
15.827417
16.131997
15.952587
16.168952
15.796423
14.101863
14.429688
14.946461
13.336539
13.664961
12.382865
12.392998
13.127923
12.444854
12.505651
11.901855
12.530684
12.056828
11.770725
11.581779
11.929870
11.619925
11.205673
##ZVALUE=265
0.704527
1.001954
0.868440
0.977516
0.957847
1.128912
0.867844
1.190901
1.347661
1.319647
1.292825
1.873970
1.355410
2.075434
4.266500
23.027658
58.436990
153.304935
272.338986
512.866974
729.040504
930.718780
1015.584469
1015.584469
1015.584469
910.205841
676.848888
478.293896
271.793604
166.736841
101.666451
74.223876
82.816482
112.694502
131.159425
148.996711
155.077577
148.692727
131.566525
106.369853
83.140731
55.697560
37.292838
22.053719
14.199615
9.275675
7.673502
7.381439
8.051991
8.962750
8.276701
9.327531
9.553432
10.256767
10.736585
10.336637
11.188984
11.508465
11.526942
11.670589
12.382865
12.906790
12.444854
12.539625
12.669563
13.323426
13.269782
12.457967
12.928843
13.950467
14.544725
14.781952
14.521480
15.218854
14.826655
15.332699
15.067458
15.057921
13.451576
13.892651
13.625622
12.407899
13.124943
12.098551
12.309551
10.924935
11.291504
11.204481
11.190772
11.370778
11.449456
11.105537
11.131763
10.830760
10.765791
11.258721
##ZVALUE=270
0.894666
1.118779
0.804663
0.929832
0.911951
0.789762
0.944734
0.804663
1.230836
0.971556
1.061559
1.431704
1.419783
1.551509
1.868606
1.892447
2.190471
11.547804
34.940839
112.309456
224.603415
392.472744
692.637563
927.042961
1015.578508
1015.578508
1015.578508
1015.578508
862.423778
643.894672
436.306000
230.128765
128.265619
67.199469
63.636899
84.578991
107.493997
136.833787
148.361921
156.017542
151.565671
129.965544
111.579895
81.360936
59.012771
34.090877
24.139881
15.277863
11.294484
9.899735
9.172559
9.739995
10.217428
10.491610
10.824800
10.794997
11.451840
12.916923
12.149811
13.251901
13.174415
13.547540
14.043450
13.816953
12.905598
13.256669
13.609529
13.661981
14.479756
14.815927
14.880896
15.121698
15.585423
14.777780
15.134811
15.415549
14.518499
14.362931
14.686584
13.016462
13.065934
12.310743
12.367964
12.365580
11.339784
11.721849
11.517406
11.380911
11.111498
10.955930
10.551810
10.698438
10.790825
11.224747
10.978580
10.994673
##ZVALUE=275
0.712872
0.912547
0.709891
0.709891
0.987649
0.892878
0.642538
0.836849
1.008511
1.127720
0.918508
1.106858
1.189709
1.373887
1.332760
1.384616
1.729727
1.532435
1.759529
5.076528
20.504594
61.640739
180.601478
341.425538
643.283725
874.307752
1015.584469
1015.584469
1015.584469
1015.584469
1015.584469
821.162462
578.852892
305.906534
171.755552
77.675581
53.633451
60.643554
79.563856
108.805895
129.758716
148.875713
152.072906
147.397518
132.158995
103.772879
83.232522
58.730841
41.906834
25.839806
18.242598
13.146996
12.381673
12.025833
12.199879
12.604594
13.140440
14.187694
14.161468
14.526844
14.627576
15.349984
15.183687
15.066862
14.664531
14.708638
14.214516
14.766455
14.556646
15.392900
15.897751
15.969872
16.253591
16.170740
16.366839
16.095638
15.987754
14.712811
14.437437
13.709664
13.536811
12.959838
12.394786
11.832714
11.689663
11.967421
11.353493
11.240840
11.169910
10.989904
10.009408
11.251569
10.784864
10.588765
10.899901
9.931922
##ZVALUE=280
0.781417
0.632405
0.622869
0.676513
0.668764
0.588894
0.929832
0.740886
0.944734
0.941753
0.973940
1.078844
1.104474
1.173615
1.120567
1.152754
1.245737
1.340508
1.615882
1.923442
1.665950
2.480745
12.081861
41.881800
140.134692
264.763832
513.406992
764.257908
1015.607715
1015.607715
1015.607715
1015.607715
1015.607715
985.881686
658.927560
426.270962
210.703611
111.326575
51.067472
42.719841
58.764815
79.155564
106.850863
128.436685
143.350959
152.013898
142.819881
131.846666
107.559562
85.222721
59.053898
44.106841
29.360652
21.945834
16.965866
15.441775
14.711618
15.545487
15.983582
15.859604
16.236901
16.347766
16.140938
16.965866
17.465949
16.177893
16.481876
16.828775
16.318560
16.843677
16.649961
17.367601
17.725825
17.675757
17.505884
17.373562
17.126799
16.490817
15.483499
14.919639
14.162660
12.960434
13.320446
12.326837
12.190938
12.042522
11.471510
11.027455
11.237860
10.806918
10.766983
11.021495
10.396838
10.314584
11.138916
10.150671
##ZVALUE=285
0.526905
0.565648
0.673532
0.743866
0.529885
0.666976
0.643730
0.772476
0.704527
0.727773
0.804663
0.859499
0.694990
0.957847
0.958443
0.994802
0.997782
0.993609
1.074672
1.221895
1.606941
1.586676
1.998544
2.269745
6.689429
22.964478
81.345439
167.989731
368.845463
590.604544
801.758766
1015.584469
1015.584469
1015.584469
1015.584469
1015.584469
919.683576
567.276478
349.344611
163.353682
81.289411
37.251711
36.915541
55.176616
75.211525
101.708770
122.141838
139.776468
148.653984
144.427419
134.949684
111.096501
91.681480
66.720843
48.896670
32.918453
25.938749
21.070838
19.856691
19.060969
19.597411
18.672943
19.100904
19.238591
18.946528
19.839406
19.528866
19.492507
19.391775
18.813610
20.180941
19.807816
20.206571
19.202828
19.581914
19.041896
18.959641
17.941594
17.347932
16.383529
15.592575
14.306903
13.801455
13.277531
13.094544
12.558699
12.615919
12.176633
11.753440
10.861754
11.503696
10.744929
11.107922
10.343790
10.791421
10.749698
##ZVALUE=290
0.466704
0.615716
0.589490
0.626445
0.628829
0.590682
0.543594
0.637770
0.875592
0.797510
0.836849
0.777841
0.721812
0.961423
0.812411
0.843406
0.847578
0.830889
0.940561
1.186728
1.218915
1.300573
1.441836
1.456738
1.894832
2.025962
2.969503
10.328889
49.780607
119.469762
214.438438
485.154986
751.567483
1015.584469
1015.584469
1015.584469
1015.584469
1015.584469
1015.584469
751.342773
500.227809
249.893665
126.261711
45.745969
29.022694
34.722686
50.561428
75.308681
96.804500
122.920871
138.181448
148.871541
147.019625
133.253932
116.839409
91.120005
70.214868
51.092505
39.567947
30.665994
26.160479
24.173856
22.913814
22.094846
21.594763
21.348000
22.176504
21.869540
21.926761
21.709800
21.258593
21.596551
21.582842
22.022724
21.114945
20.520687
20.397902
18.715858
18.425584
17.017722
16.681552
15.491843
14.411807
14.025569
13.925433
13.129711
13.228655
12.411475
12.083650
12.096763
12.099743
11.864901
11.683702
11.533499
11.533499
12.065768
##ZVALUE=295
0.412464
0.511408
0.566840
0.490546
0.446439
0.587702
0.461936
0.596642
0.631809
0.718832
0.635982
0.639558
0.578761
0.791550
0.823736
1.018643
0.815988
0.966787
0.881553
1.011491
1.013875
1.094937
1.260638
1.300573
1.189709
1.621842
1.905560
1.925826
2.556443
5.132556
21.735430
115.687847
293.820500
657.705665
969.475508
1015.461683
1015.461683
1015.461683
1015.461683
1015.461683
1015.461683
924.352407
639.271736
345.667005
188.481808
69.980621
34.240484
25.761724
33.278465
52.917600
72.103739
100.549459
119.131804
140.708685
148.261786
144.295692
133.766532
114.434958
96.472502
71.633458
56.563616
41.340590
33.489466
28.600693
25.413632
23.773909
23.818612
23.677945
23.070574
23.628473
24.041533
23.745894
23.516417
23.053885
22.454858
22.195578
21.165609
19.987822
19.366741
18.006563
17.430782
16.643405
15.358925
14.894605
14.257431
13.943911
13.576746
13.484955
12.876987
12.861490
12.513995
12.400746
12.984872
13.213754
13.205409
13.518929
##ZVALUE=300
0.607967
0.563860
0.645518
0.645518
0.627637
0.838637
0.665784
0.806451
0.762939
0.744462
0.763535
0.827909
0.834465
0.923872
0.871420
0.988841
0.969768
1.037717
0.942945
1.224875
1.151562
1.202822
1.241565
1.330972
1.686811
1.736879
1.912713
2.010465
2.472997
2.315640
2.845526
3.891587
38.224459
153.624415
479.287505
835.139751
1015.584469
1015.584469
1015.584469
1015.584469
1015.584469
1015.584469
1015.584469
1015.584469
796.564817
518.623590
261.121988
140.637755
53.452849
28.689504
28.093457
36.634803
54.202676
70.632696
95.666647
116.736889
138.167739
145.010948
144.200921
136.341453
117.272735
99.932551
76.525807
60.263872
43.447614
35.863519
29.900670
27.080774
25.718808
26.093721
25.331974
25.878549
25.680661
25.426745
23.679733
23.327470
22.419691
21.079779
20.218492
18.647909
17.814636
17.298460
16.138554
16.017556
15.109777
14.914870
14.573932
14.160872
13.837814
13.895631
14.110804
13.870597
14.200807
14.535785
14.866590
15.689731
##ZVALUE=305
0.856519
0.923872
0.633597
0.846982
0.911951
0.955462
0.653863
0.805855
0.895858
0.806451
1.001954
0.989437
0.814795
0.898838
0.897646
0.829697
0.823736
0.934601
1.113415
1.311898
1.366735
1.187921
1.523495
1.505613
1.654625
1.681447
1.789927
2.122521
2.300739
2.415776
3.012419
3.177524
3.252625
4.565716
13.835430
175.983906
527.583957
1015.628576
1015.628576
1015.628576
1015.628576
1015.628576
1015.628576
1015.628576
1015.628576
1015.628576
1000.112891
632.465482
389.780998
180.736780
91.638565
38.222671
27.623773
30.995607
39.296746
55.638552
73.126554
96.340775
114.191771
131.497979
140.076876
137.636662
129.839778
111.171603
95.175505
70.939660
56.942701
42.030811
34.663677
28.159618
27.007461
26.289821
25.681853
24.818778
23.752451
22.642612
21.912456
20.680428
19.699931
18.583536
18.113852
16.996861
16.390681
15.729666
14.891624
15.281439
14.593601
14.120936
14.212728
14.138818
14.137626
14.255643
14.443994
14.863610
15.422702
15.892982
##ZVALUE=310
0.829697
0.644922
0.689626
0.755787
0.797510
0.602603
0.617504
0.633597
0.863671
0.714660
0.695586
0.861883
0.868440
0.982881
0.881553
0.838637
0.870824
1.098514
1.093745
1.076460
1.140833
1.485944
1.338720
1.338720
1.372695
1.679659
1.541972
1.742840
1.934767
2.261996
2.402663
2.769828
3.021955
3.003478
3.631711
4.684925
6.065965
32.782555
163.604617
666.554570
1015.591621
1015.591621
1015.591621
1015.591621
1015.591621
1015.591621
1015.591621
1015.591621
1015.591621
800.065994
521.512628
261.626840
140.782595
56.715608
31.516552
26.315451
29.755831
38.625002
48.522949
68.201423
84.526539
107.484460
120.352507
128.860474
130.222440
120.424628
106.803775
87.672472
71.490407
51.723719
41.822791
32.312870
27.448535
23.095608
22.024512
20.399690
19.363761
18.279552
17.244816
16.728640
15.929937
15.394688
14.645457
14.205575
13.845563
13.794899
13.602972
13.581514
13.008714
13.022423
12.860894
12.921691
12.964606
13.575554
13.815761
13.941526
##ZVALUE=315
0.677705
0.558496
0.743866
0.743866
0.679493
0.609756
0.728965
0.740886
0.731945
0.811815
0.856519
0.897646
0.930429
0.900626
0.940561
0.895858
0.876784
0.994802
0.954866
1.069903
1.268983
1.381636
1.405478
1.223683
1.337528
1.460910
1.665950
1.682639
1.598597
1.954436
2.252460
2.259612
2.472997
2.675653
2.962947
3.338456
3.905892
4.671812
5.621910
15.342832
79.180598
404.337645
874.843597
1015.712619
1015.712619
1015.712619
1015.712619
1015.712619
1015.712619
1015.712619
1015.712619
984.044075
693.244934
361.916423
197.454691
77.778697
37.317872
23.391843
23.419857
27.222633
34.001470
45.555830
58.439970
78.806877
94.533563
111.694932
119.551420
120.856762
114.025474
96.697807
81.881881
63.220859
50.114989
35.002828
27.209520
20.866990
18.163919
16.219616
15.719533
14.973879
13.939738
13.516545
13.277531
12.911558
12.988448
12.673736
12.560487
12.022853
11.911988
11.853576
11.849999
12.034774
12.434721
12.659431
12.827516
12.789965
##ZVALUE=320
0.473857
0.460744
0.451803
0.530481
0.469685
0.619888
0.648499
0.692606
0.520945
0.571609
0.568628
0.539422
0.715852
0.587702
0.638962
0.741482
0.844598
0.784993
0.716448
0.951886
0.815988
0.919700
0.987649
0.862479
0.907779
0.905991
1.188517
1.376867
1.313686
1.558661
1.448989
1.445413
1.853704
1.943707
1.979470
2.180934
2.420545
2.923608
3.104806
3.451705
3.810525
5.132556
14.783740
116.778016
326.738954
795.862675
1015.584469
1015.584469
1015.584469
1015.584469
1015.584469
1015.584469
1015.584469
1015.584469
872.808099
469.354391
264.990926
112.720728
52.455664
22.158623
17.730594
18.285513
19.975901
26.672482
34.978986
50.503612
65.163970
85.716844
98.302960
109.854937
110.484958
102.513433
91.602802
72.333813
56.995749
39.385557
29.213428
20.862818
16.449690
13.142824
11.761785
11.281967
10.909438
11.330843
10.476708
10.402799
10.078549
10.304451
9.857416
9.972453
10.071993
9.975433
10.163784
9.981990
9.809732
9.671450
##ZVALUE=325
0.593662
0.430942
0.580549
0.652671
0.552535
0.582933
0.543594
0.554919
0.588894
0.518560
0.539422
0.661612
0.568628
0.586510
0.602603
0.646710
0.773668
0.732541
0.632405
0.734925
0.673532
0.793934
0.948906
0.896454
1.017451
0.923872
1.097918
1.004934
1.045465
1.193881
1.042485
1.197457
1.067519
1.323819
1.423955
1.365542
1.569986
1.745820
1.954436
1.961589
2.275705
2.450943
2.612472
3.058910
5.910993
32.799840
89.061856
251.957774
463.023782
869.934559
1015.730500
1015.730500
1015.730500
1015.730500
1015.730500
1015.730500
1001.482010
615.504980
375.181437
166.057944
76.094866
23.017526
12.626648
11.580586
12.080669
15.391707
20.196438
30.991435
42.580962
62.050819
75.571537
90.943575
98.171830
98.777413
93.020797
77.757835
64.767599
47.330856
36.012530
23.351908
17.298460
12.323856
10.955930
9.537935
9.068847
9.208918
9.098649
8.779764
8.469820
8.445978
8.510947
8.298755
8.292794
8.176565
8.211732
8.234978
##ZVALUE=330
0.452995
0.340939
0.342727
0.400543
0.399947
0.182986
0.419617
0.324845
0.498891
0.442863
0.496507
0.462532
0.455976
0.476837
0.661612
0.364780
0.328422
0.570416
0.477433
0.518560
0.456572
0.603795
0.462532
0.554919
0.602603
0.802875
0.557899
0.704527
0.556707
0.722408
0.721812
0.749826
0.732541
0.891685
0.846982
0.976920
0.971556
0.940561
1.131892
1.123548
1.196861
1.401901
1.450777
1.629591
1.880527
2.192855
2.958775
14.831424
50.313473
171.286464
339.420438
694.016814
993.641615
1015.584469
1015.584469
1015.584469
1015.584469
1015.584469
1015.584469
775.845647
491.859913
226.662755
109.695792
36.814809
14.613867
8.788705
8.480549
9.590983
12.209415
18.796921
26.985407
40.893555
54.233670
72.280765
82.569718
91.374516
91.872811
85.048676
73.805451
57.828426
45.103431
30.887723
23.203492
15.743971
12.318492
9.826422
8.662939
8.226633
8.363724
8.191466
8.022785
7.930994
7.624626
7.801652
7.493496
7.978678
##ZVALUE=335
0.428557
0.376701
0.366569
0.389814
0.311732
0.401735
0.311732
0.420809
0.393987
0.329614
0.338554
0.247955
0.412464
0.426769
0.428557
0.492930
0.424981
0.310540
0.566840
0.368953
0.437498
0.655651
0.596642
0.457764
0.505447
0.565648
0.708699
0.454783
0.628829
0.749826
0.742674
0.809431
0.862479
0.680685
0.695586
0.654459
0.774860
0.712872
0.957847
0.988841
0.918508
1.019835
0.965595
1.320839
1.408458
1.669526
1.882911
1.887679
2.472997
6.724000
26.610494
108.704567
234.945416
530.437827
865.329504
1015.584469
1015.584469
1015.584469
1015.584469
1015.584469
1015.584469
957.643986
638.408065
332.353711
170.431733
54.814816
21.179914
9.446740
8.074641
8.519888
9.306669
12.413859
16.810894
26.603937
36.969781
53.268671
64.826608
78.401566
84.129572
85.237622
79.823732
67.377687
57.143569
43.719411
33.534765
22.959709
16.447902
12.328625
10.146499
8.664727
7.941723
7.855892
7.562637
7.427931
7.337928
7.510781
##ZVALUE=340
0.355840
0.368953
0.421405
0.265837
0.349879
0.460744
0.247955
0.385642
0.338554
0.310540
0.426769
0.360608
0.500679
0.383854
0.387430
0.531673
0.543594
0.489950
0.415444
0.416636
0.488758
0.447631
0.627637
0.445843
0.487566
0.480413
0.395775
0.633597
0.627637
0.583529
0.629425
0.658631
0.699759
0.551939
0.803471
0.706911
0.653863
0.785589
0.863671
0.779629
0.780821
0.913739
0.963807
1.109838
1.061559
1.123548
1.353621
1.411438
1.520514
1.818538
2.081990
3.217459
11.237860
60.425997
153.936744
395.506620
676.945448
1015.584469
1015.584469
1015.584469
1015.584469
1015.584469
1015.584469
1015.584469
828.440785
435.110927
242.619514
95.690489
35.849810
10.600686
8.761883
8.530617
8.362532
9.558797
11.938810
17.146468
24.118423
36.497712
47.688484
63.137412
72.901845
79.779625
80.370903
74.872971
67.126751
53.876638
43.269992
30.909777
23.058653
15.641451
12.291670
9.350777
7.944703
7.458925
7.301569
7.327795
##ZVALUE=345
0.300407
0.316501
0.223517
0.309944
0.330806
0.267625
0.289679
0.278950
0.351667
0.257492
0.419617
0.474453
0.259876
0.454783
0.213981
0.301600
0.347495
0.482798
0.323653
0.328422
0.445843
0.300407
0.430942
0.459552
0.476837
0.364780
0.489950
0.714660
0.539422
0.458956
0.732541
0.578761
0.550747
0.710487
0.689626
0.530481
0.693798
0.601411
0.725985
0.816584
0.828505
1.070499
0.968575
1.045465
1.071692
1.149774
1.183748
1.104474
1.245737
1.477599
1.583695
1.818538
1.858473
2.361536
5.192757
33.779740
98.399520
271.944404
501.605868
927.284956
1015.584469
1015.584469
1015.584469
1015.584469
1015.584469
1015.584469
965.407491
553.901792
320.888758
134.646893
57.397485
16.388893
9.360909
8.491874
8.142591
8.131862
8.690953
10.976791
14.557838
22.920966
31.601787
45.377612
55.459738
66.340566
71.562529
74.072480
70.493817
61.884522
53.804517
40.350556
31.764507
21.162629
15.909672
11.460781
9.671450
7.840991
##ZVALUE=350
0.400543
0.519753
0.495911
0.402927
0.401735
0.459552
0.351667
0.177622
0.322461
0.313520
0.379682
0.498891
0.438690
0.335574
0.372529
0.378489
0.394583
0.523925
0.382662
0.490546
0.381470
0.467896
0.487566
0.384450
0.346899
0.519753
0.587702
0.420809
0.372529
0.477433
0.418425
0.578761
0.535846
0.654459
0.544786
0.555515
0.675917
0.658631
0.881553
0.746846
0.790954
0.735521
0.911951
0.779629
0.795722
0.896454
0.896454
1.128912
1.084805
1.114607
1.218915
1.530647
1.450777
1.698732
1.754761
1.985431
2.905726
17.377734
56.483746
179.175735
343.253016
685.321689
986.732841
1015.584469
1015.584469
1015.584469
1015.584469
1015.584469
993.745923
611.197948
378.029943
178.435445
83.131790
22.356510
9.967685
8.026958
7.527471
7.144809
7.304549
7.925630
9.758472
14.801621
19.999743
29.059649
37.226677
49.448609
58.120489
64.914823
67.760944
64.420700
59.296489
48.568845
39.903522
28.266907
21.762848
15.063882
##ZVALUE=355
0.258684
0.338554
0.343919
0.260472
0.294447
0.277758
0.302792
0.504851
0.499487
0.283718
0.464916
0.431538
0.318885
0.406504
0.407696
0.403523
0.402927
0.328422
0.458956
0.379682
0.470877
0.481606
0.474453
0.354648
0.319481
0.507832
0.528693
0.599623
0.435710
0.506639
0.522733
0.558496
0.458956
0.458956
0.677705
0.614524
0.637770
0.598431
0.609756
0.589490
0.573993
0.638962
0.763535
0.793934
0.936985
0.865459
0.872612
0.839829
0.818968
1.085997
1.055598
1.135468
1.327991
1.389980
1.592636
1.641512
1.684427
2.169609
2.387762
8.469820
31.609535
120.324492
245.128870
513.188839
792.747736
1015.584469
1015.584469
1015.584469
1015.584469
1015.584469
1015.584469
723.287463
452.407598
198.831558
94.878674
28.083920
11.462569
7.478595
6.873608
6.520748
6.439686
6.411672
7.264614
8.796453
11.960864
17.517805
24.349689
34.195781
42.291880
52.474737
58.634877
61.497688
59.747696
54.308772
46.988726
37.101507
##ZVALUE=360
0.340939
0.464916
0.319481
0.295639
0.339746
0.340939
0.392795
0.342727
0.424981
0.400543
0.266433
0.312924
0.488758
0.347495
0.355840
0.491738
0.335574
0.375509
0.440478
0.468493
0.387430
0.377893
0.478625
0.417829
0.558496
0.440478
0.526905
0.546575
0.478625
0.511408
0.505447
0.367761
0.666976
0.727773
0.719428
0.633597
0.861883
0.851750
0.625849
0.667572
0.681877
0.601411
0.748634
0.578761
0.752807
0.620484
0.697970
0.907779
0.830889
0.975728
1.043677
0.997782
0.975728
1.209974
1.301765
1.485944
1.454949
1.515746
1.563430
1.923442
2.069473
3.109574
15.880466
54.296851
185.638666
366.659760
715.945959
1000.448465
1015.584469
1015.584469
1015.584469
1015.584469
1015.584469
908.089876
514.588952
298.150778
121.398568
51.963925
14.742613
7.891655
6.489754
6.510615
6.293654
6.108880
5.652905
6.117821
7.497668
9.760857
14.210939
19.515753
28.054714
35.201907
45.027733
51.092505
54.800510
54.833889
##ZVALUE=365
0.305772
0.274777
0.289679
0.348687
0.471473
0.326633
0.404716
0.374913
0.262856
0.454783
0.343919
0.352859
0.271797
0.388622
0.423789
0.345707
0.382662
0.338554
0.359416
0.399947
0.433922
0.513792
0.402927
0.376701
0.540614
0.483990
0.559688
0.527501
0.521541
0.538826
0.558496
0.604987
0.523925
0.567436
0.539422
0.631809
0.577569
0.510812
0.884533
0.635982
0.651479
0.672936
0.831485
0.852942
0.929832
0.880957
0.814795
0.759959
0.714660
0.826716
0.921488
0.962615
0.994802
0.975728
1.155734
1.074672
1.290441
1.310706
1.501441
1.660585
1.814961
2.046824
2.463460
2.711415
5.504489
33.392906
97.726583
274.013877
493.948460
893.298984
1015.584469
1015.584469
1015.584469
1015.584469
1015.584469
1015.585065
752.328634
398.631692
209.091902
72.419643
27.285814
8.713603
6.859899
6.428957
5.732775
5.584955
5.303621
5.197525
5.452633
6.546974
8.056760
12.015700
16.001463
23.583770
30.190945
38.677454
##ZVALUE=370
0.337958
0.315905
0.336766
0.357628
0.401735
0.292659
0.385642
0.188947
0.359416
0.386834
0.234842
0.409484
0.404716
0.422597
0.393987
0.376701
0.457764
0.338554
0.479817
0.326633
0.458956
0.544786
0.476837
0.419617
0.478625
0.429749
0.486970
0.609756
0.555515
0.563860
0.491738
0.439882
0.586510
0.553727
0.479817
0.675917
0.612736
0.700951
0.508428
0.557899
0.653863
0.569820
0.570416
0.716448
0.645518
0.669956
0.778437
0.930429
0.599623
0.670552
0.641942
0.758767
0.801682
0.797510
0.891685
0.999570
1.105666
1.124740
1.247525
1.117587
1.311898
1.470447
1.516938
1.699924
1.843572
2.293587
3.267527
16.284585
57.062507
188.012719
358.386636
696.035028
994.514823
1015.586853
1015.586853
1015.586853
1015.586853
1015.586853
913.161635
501.828790
273.910761
103.508830
45.068860
13.865829
6.807446
5.892515
5.583763
5.172491
5.081892
4.829764
4.523993
4.872680
5.411506
7.417798
9.781718
14.548898
##ZVALUE=375
0.221729
0.175834
0.245571
0.356436
0.439882
0.450611
0.393987
0.267625
0.304580
0.340939
0.407696
0.335574
0.311732
0.311732
0.193715
0.380874
0.274777
0.395775
0.284910
0.581741
0.270605
0.357628
0.381470
0.366569
0.311732
0.452995
0.225902
0.298619
0.351667
0.335574
0.539422
0.482798
0.378489
0.441670
0.431538
0.452995
0.496507
0.622869
0.459552
0.519753
0.487566
0.612736
0.586510
0.545979
0.681877
0.565648
0.634789
0.639558
0.487566
0.557899
0.644922
0.553727
0.722408
0.653863
0.798702
0.778437
0.784993
0.906587
0.882745
0.854731
0.956655
1.207590
1.019835
1.110435
1.330972
1.555681
1.728535
1.825690
2.441406
8.779764
32.656789
118.127465
248.812437
542.818904
829.596519
1015.586853
1015.586853
1015.586853
1015.586853
1015.586853
990.571380
615.736842
383.825898
181.214809
86.241961
24.686456
9.243488
5.383492
4.976988
4.750490
4.558563
4.494786
4.256964
4.081726
4.159808
4.649758
##ZVALUE=380
0.470877
0.387430
0.342727
0.353456
0.425577
0.443459
0.235438
0.433922
0.504851
0.389814
0.439882
0.430942
0.269413
0.458956
0.439882
0.406504
0.313520
0.425577
0.376701
0.382662
0.374913
0.551939
0.484586
0.556707
0.476837
0.502467
0.558496
0.511408
0.512600
0.458956
0.525713
0.583529
0.570416
0.522733
0.506639
0.479817
0.458956
0.516772
0.416636
0.400543
0.655651
0.648499
0.456572
0.553727
0.462532
0.486970
0.543594
0.535846
0.710487
0.727773
0.808835
0.802875
0.761747
0.785589
0.885725
0.705719
0.772476
0.690818
0.767708
0.822544
0.866652
0.950694
1.086593
1.213551
1.144409
1.349449
1.339912
1.571774
1.855493
2.260804
2.512932
4.717708
17.301440
85.496902
197.438002
449.761748
710.369945
1015.708447
1015.708447
1015.708447
1015.708447
1015.708447
1015.708447
835.589767
564.872622
276.877880
136.697888
43.090582
15.234947
6.048679
5.103946
4.578829
4.451871
4.372597
4.158616
3.953576
##ZVALUE=385
0.282526
0.298619
0.146627
0.263453
0.352859
0.232458
0.224710
0.083447
0.348687
0.119805
0.242591
0.251532
0.201464
0.313520
0.202656
0.350475
0.141859
0.164509
0.442863
0.349879
0.243783
0.370741
0.390410
0.359416
0.277758
0.459552
0.318885
0.309944
0.227690
0.334978
0.226498
0.402927
0.301600
0.409484
0.308752
0.464916
0.264645
0.404716
0.353456
0.533462
0.490546
0.649691
0.314713
0.477433
0.531673
0.302792
0.584722
0.593662
0.555515
0.399947
0.424981
0.356436
0.579953
0.407696
0.618696
0.512600
0.626445
0.562668
0.604987
0.560880
0.739694
0.591874
0.590682
0.875592
0.863671
1.092553
1.092553
1.217723
1.421571
1.606941
1.606941
1.913905
2.062917
2.619624
7.394552
45.474768
120.658875
311.827660
552.638769
964.259505
1015.584469
1015.584469
1015.584469
1015.584469
1015.584469
987.522006
723.534822
400.497913
227.900743
87.732673
31.979680
7.891655
4.847646
4.422665
4.048944
4.033446
##ZVALUE=390
0.384450
0.239611
0.094771
0.329614
0.403523
0.380874
0.248551
0.153780
0.306964
0.326633
0.156760
0.353456
0.203848
0.404716
0.214577
0.181794
0.335574
0.257492
0.222921
0.264645
0.330806
0.205636
0.129938
0.085831
0.310540
0.332594
0.276566
0.330806
0.361800
0.442863
0.352859
0.182986
0.369549
0.271797
0.268817
0.255704
0.306964
0.377893
0.540614
0.483990
0.468493
0.323653
0.480413
0.403523
0.366569
0.412464
0.572801
0.417829
0.505447
0.505447
0.596642
0.428557
0.656843
0.497699
0.544786
0.540614
0.589490
0.734925
0.756979
0.586510
0.588894
0.788569
0.538826
0.691414
0.696778
0.805855
1.042485
0.965595
1.262426
1.282692
1.500845
1.645684
1.630783
1.946688
1.955628
2.016425
3.636479
21.775961
70.550442
228.058696
441.339612
836.747885
1015.584469
1015.584469
1015.584469
1015.584469
1015.584469
1015.584469
895.873904
539.867878
316.404700
128.107667
57.257414
15.210509
6.166697
4.116893
##ZVALUE=395
0.279546
0.337958
0.201464
0.154972
0.200868
0.218749
0.202656
0.167489
0.297427
0.165701
0.201464
0.216961
0.357628
0.155568
0.296831
0.263453
0.357628
0.295639
0.211596
0.219941
0.370741
0.330806
0.377893
0.295639
0.281930
0.354648
0.342727
0.285506
0.367761
0.393987
0.267625
0.200868
0.285506
0.328422
0.307560
0.236630
0.295639
0.355840
0.295639
0.422597
0.349879
0.278950
0.422597
0.456572
0.343919
0.461936
0.347495
0.513792
0.427961
0.528693
0.387430
0.379682
0.494719
0.597835
0.405908
0.434518
0.509620
0.665784
0.678897
0.672936
0.762939
0.620484
0.635982
0.605583
0.743866
0.687838
0.909567
0.902414
1.036525
1.431704
1.460910
1.424551
1.487732
1.436472
1.574755
1.557469
1.556873
1.896620
2.408624
11.222959
41.978955
152.276754
299.176574
593.210459
904.276967
1015.584469
1015.584469
1015.584469
1015.584469
1015.584469
1015.584469
716.181993
436.959863
185.754895
85.145831
24.579763
##ZVALUE=400
0.314713
0.237823
0.011921
0.053644
0.222921
0.281930
0.144839
0.110865
0.313520
0.318885
0.361800
0.344515
0.182986
0.253916
0.177622
0.191927
0.270605
0.188947
0.148416
0.237823
0.162721
0.342727
0.469685
0.212789
0.228882
0.299811
0.287890
0.313520
0.243783
0.269413
0.367761
0.379682
0.263453
0.417829
0.312924
0.466704
0.417829
0.396967
0.380874
0.235438
0.335574
0.336766
0.413656
0.443459
0.354648
0.400543
0.392795
0.328422
0.467896
0.456572
0.434518
0.319481
0.559688
0.442863
0.534654
0.501871
0.675917
0.619888
0.644922
0.567436
0.695586
0.706911
0.551939
0.575781
0.831485
0.654459
0.831485
0.865459
0.878572
1.088977
1.220703
1.342893
1.337528
1.332760
1.259446
1.208782
1.507998
1.551509
1.568794
1.806617
2.001524
6.568432
23.207664
85.904598
187.518001
438.099504
718.686581
1015.582681
1015.582681
1015.582681
1015.582681
1015.582681
1015.582681
832.884908
547.062755
271.729827
##END
