##TITLE=AAI0851
##FORMAT=SPECTACLE-ASCII V-1.2
##DATA TYPE=ULTRAVIOLET SPECTRUM
##SECOND TYPE=ULTRAVIOLET SPECTRUM
##DATE=01/24/18
##TIME=18:28:28
##SPECTROMETER/DATA SYSTEM=SPECTACLE
##XUNITS=NM EM
##YUNITS=ENERGY
##YFACTOR=1
##FIRSTX=220
##LASTX=410
##NPOINTS=96
##3DDATA=Equidistant
##ZUNITS=NM EX
##FIRSTZ=210
##LASTZ=400
##ZPOINTS=39
##XYDATA=(Y..Y)
##ZVALUE=210
4.036427
3.413558
3.052950
3.216863
3.493428
3.814697
3.537536
3.229976
2.944469
2.922416
2.515912
2.456903
2.354980
1.874566
2.358556
1.883507
1.960993
2.407432
2.619624
2.122521
2.640486
3.112555
3.165603
2.814531
2.533793
2.754927
3.220439
4.029870
3.701448
3.810525
3.514886
3.525615
4.341602
4.172921
4.918575
3.952980
4.634857
4.226565
4.815459
4.710555
5.056858
4.740953
4.309416
5.502701
4.286766
4.378557
3.883839
4.570484
4.889965
4.264712
3.691912
5.333424
4.723668
4.069805
4.746914
4.050732
4.842877
3.890991
4.239678
4.195571
5.388856
5.125999
5.037785
4.609823
4.617572
4.455447
5.397797
4.985929
6.235838
6.494522
8.400679
8.718967
9.701848
9.902716
11.498928
12.641549
11.275411
12.337565
11.309981
11.288524
9.204745
9.113550
8.256435
6.583929
5.958676
4.922748
4.899502
4.165769
4.273653
4.691482
3.967881
4.255772
4.212856
5.275607
5.280972
5.644560
##ZVALUE=215
10.597706
11.443496
9.972453
8.575916
7.698536
6.774664
6.084442
6.069541
7.119775
6.560683
6.621480
5.350709
4.665852
3.708601
2.931952
3.257990
2.663732
2.406836
2.696514
2.660751
2.374649
2.917647
2.922416
2.903938
2.604723
3.398657
3.506541
3.953576
3.500581
5.021691
4.192591
5.546808
4.596710
4.555583
4.362464
4.441738
5.693436
4.601479
4.851818
5.699992
5.335808
5.446672
5.230904
4.909635
5.175471
4.743934
4.206896
4.241467
4.644990
4.907846
5.246997
5.186796
5.600452
4.767776
4.955530
4.876852
4.708767
5.805492
5.630851
5.297661
4.896522
4.610419
4.650950
4.650950
4.466772
4.618764
5.450845
6.982684
6.631613
6.398559
7.949471
8.012652
9.585619
10.272861
11.737943
12.412667
11.675954
11.100769
10.812879
10.049939
10.202527
7.594824
7.092953
6.965995
6.676912
4.368424
4.926920
5.010962
4.018545
4.065633
4.312992
3.638864
3.741980
4.305840
4.394650
5.911589
##ZVALUE=220
30.702949
31.306744
33.777952
33.025742
30.951500
22.585988
18.710494
16.145706
12.923479
13.924837
13.522506
15.017986
14.857650
13.356805
11.399984
8.395910
5.570650
4.134774
3.403425
3.166795
2.324581
3.464818
3.850460
3.747940
3.528595
3.966689
3.878474
3.685951
4.456639
4.208684
5.462766
5.377531
5.701780
5.152822
5.208850
5.605817
5.196929
5.527735
6.336570
5.912781
6.042719
6.245971
5.231500
5.778670
4.984736
5.755424
5.990863
5.621910
5.197525
5.419850
5.301833
6.020665
4.709959
5.520582
5.428791
5.400777
5.684495
5.347729
5.343556
4.810691
6.054640
5.449653
6.065965
5.030632
5.540848
6.238818
5.432963
6.670952
7.269979
6.736517
8.909702
9.287000
9.446740
11.818409
11.568666
11.004806
12.999773
11.054873
10.866523
9.890795
9.887815
9.103417
7.687807
7.503629
6.765723
5.805492
4.469752
4.836917
4.396439
4.474521
3.773570
5.305409
4.492998
4.874468
4.333854
4.298687
##ZVALUE=225
51.240921
53.925514
65.310597
78.645945
87.030530
86.584687
75.135827
55.226684
45.730472
34.059882
27.812719
25.108457
29.623508
28.819442
28.638840
24.939775
21.133423
18.746853
11.138916
8.159876
5.215406
4.565716
4.372597
3.731847
4.184842
3.993511
4.686713
4.510880
5.160570
5.272627
6.288886
5.461574
5.839467
6.472468
5.992651
6.706715
5.674958
6.734729
6.541610
6.669760
6.875992
6.355643
6.525517
6.474853
6.187558
5.732775
6.059408
6.301999
6.312728
6.792545
6.455779
6.672740
6.529689
6.539822
6.280541
6.582737
6.638765
6.840825
6.872416
6.459951
6.860495
7.257462
6.142855
6.043911
7.027984
6.991625
6.797910
6.766915
8.177757
9.092689
9.441972
9.550452
10.781884
10.835528
11.618733
10.763407
11.456609
11.650920
10.726452
10.131598
9.461641
8.754730
7.921457
6.956458
7.996559
6.468892
6.568432
6.184578
5.494952
5.392432
5.492568
5.292892
6.083846
4.597902
4.789829
5.449653
##ZVALUE=230
38.870573
43.401718
70.218444
108.996630
141.508579
174.954534
181.223750
179.829597
162.052512
134.568810
92.405677
70.073605
53.138733
48.062801
48.485994
51.755905
52.447915
51.205754
42.853951
36.934614
27.548671
16.996861
11.700988
8.218884
5.310774
5.366802
5.091429
5.114675
5.041957
6.340742
6.209612
5.815625
6.202459
7.015467
7.267594
6.850958
7.657409
7.312894
7.819533
7.962584
7.559657
6.646514
6.282926
6.349683
6.454587
7.088780
6.724596
6.499887
6.520748
7.071495
7.177591
6.418824
7.580519
6.970763
7.584691
7.780790
7.118583
7.706881
7.916689
7.996559
7.945895
7.662773
8.164644
7.835627
7.603765
7.878542
7.509589
8.072853
9.015799
9.864569
10.289550
11.097789
13.672709
13.187528
12.939572
13.257861
14.695525
12.682676
11.912584
12.068748
11.113882
9.891987
9.734631
9.251833
8.313656
9.094477
7.245541
7.517934
6.760955
7.907748
7.474422
7.377863
7.433891
7.114410
6.562471
6.961823
##ZVALUE=235
13.794899
15.813708
37.852526
65.287948
124.198794
177.467465
253.268480
314.030647
342.849493
335.242748
290.430784
236.267447
177.778602
118.342638
92.688799
71.612597
73.321462
75.163841
81.813931
85.165501
75.537562
67.730546
49.983859
38.718581
22.889972
17.347932
11.307597
8.272529
8.237958
7.880926
6.958842
6.896853
7.996559
6.774664
7.715821
8.356571
8.713603
8.397698
7.594824
7.765889
8.473992
6.962419
7.506609
7.468462
7.954836
7.758737
6.409883
7.852912
7.160902
7.849932
7.327795
7.084608
7.039905
6.874800
7.348657
7.536411
7.997751
7.893443
8.113980
8.561611
9.796619
8.766651
8.635521
9.734631
8.877516
8.516908
9.569526
9.533763
10.134578
11.548996
11.406541
11.973977
14.148951
14.548898
15.056729
15.172958
14.604926
14.954805
13.933778
13.700724
12.493730
10.827780
11.605620
10.848641
11.048913
10.381937
10.350943
9.407997
10.656714
9.701848
9.478927
8.534789
9.098649
9.200573
8.871555
8.512735
##ZVALUE=240
1.733899
2.465844
5.872846
15.442967
42.984486
79.303980
162.597895
240.945816
362.805724
442.422628
498.360991
500.717759
469.570756
370.460749
288.240910
190.160871
140.167475
106.646419
92.803836
103.488564
111.005902
117.106438
112.022758
103.045702
83.280802
67.045689
46.634674
34.523606
22.315979
15.736818
13.598800
11.383891
10.865927
11.085868
10.184646
9.568930
8.852482
9.487867
9.093881
8.687973
8.964539
8.447766
9.929538
9.048581
8.125901
8.481741
7.754564
7.425547
8.120537
8.820891
8.102655
7.841587
7.539988
7.522702
8.341670
8.275509
8.398890
8.661747
8.907914
8.009672
8.551478
9.932518
8.728504
8.525848
8.829832
9.537935
9.264946
9.765625
10.899901
11.575818
13.259649
13.509989
13.357997
14.342666
14.897585
16.161799
16.442537
16.362667
16.413927
15.017986
14.355779
13.325810
13.300776
13.151765
13.197660
12.201667
11.942983
11.611581
11.552572
11.307597
11.660457
10.186434
10.837913
10.858774
10.388494
9.779930
##ZVALUE=245
1.479983
1.284480
1.529455
1.693964
4.154444
10.554790
36.852956
73.421001
168.603659
256.285667
394.752622
495.279431
572.690964
600.804687
580.692887
493.750572
403.332710
272.145867
191.873908
125.126839
100.357533
100.469589
115.976930
126.581788
133.068562
129.439831
117.231607
97.347498
75.116754
57.853460
44.502616
27.519464
20.659566
15.249848
12.407899
11.798739
11.170506
11.251569
11.074543
10.353923
9.041429
9.031892
9.556413
8.504987
8.060932
8.073449
8.147955
8.370876
7.598996
8.120537
8.905530
7.449985
7.109642
7.804632
7.582903
7.816553
7.847548
7.192492
7.354617
8.030534
8.089542
7.084608
8.394718
8.388758
7.479787
8.238554
7.782578
8.598566
9.513497
10.444522
10.890961
11.972785
13.408661
12.617707
13.414621
13.994575
13.715625
15.173554
13.661981
13.532639
12.980700
12.237430
12.612939
11.133552
11.140704
11.542439
11.207461
10.009408
11.419654
10.379553
10.407567
10.290742
10.394454
9.872913
10.392666
9.694695
##ZVALUE=250
0.863671
0.880957
1.110435
1.260638
1.373887
1.254678
1.992583
6.100535
28.807521
59.588552
143.719912
236.549973
356.642008
512.460470
605.204701
685.080886
692.420006
619.176626
519.813895
369.809866
257.093906
171.773434
109.341741
97.237825
107.804537
123.037696
137.622952
140.864849
140.947700
128.176808
108.275414
85.035563
63.814521
39.050579
28.497577
17.356873
13.655424
11.437535
9.805560
10.093451
9.143949
8.677840
9.248853
8.389950
8.693933
7.675886
6.496906
7.467866
6.415844
7.545948
6.017685
7.422566
6.841421
6.914735
7.499456
6.671548
6.038547
7.348657
6.072521
6.501675
6.413460
6.770492
6.667972
6.309748
6.679893
7.073879
7.178783
7.160902
7.341504
9.277463
9.170771
11.471510
10.435581
11.330843
12.198687
11.708736
11.807680
11.136532
11.632442
11.283755
11.204481
11.007786
10.636449
10.081530
9.153485
9.732842
8.801818
9.720922
9.263754
9.600520
9.032488
9.254813
8.269548
9.585619
8.577704
9.211898
##ZVALUE=255
1.064539
1.109838
0.904799
1.080632
1.197457
1.276731
1.410842
1.647472
1.515746
3.667474
17.015934
44.292808
93.802810
204.270482
319.699645
497.317910
626.607537
751.519799
795.826912
747.931004
648.152828
513.804555
331.142545
216.332674
123.801827
95.993876
94.724894
104.236603
132.334828
143.929720
147.751570
146.480799
135.954618
108.239651
83.642602
57.836771
42.212605
23.383498
17.509460
11.059642
9.401441
8.495450
8.421540
7.855892
8.040667
7.121563
7.563829
7.396936
7.541776
6.578565
7.003546
7.121563
6.685853
6.376505
6.343722
5.840659
6.265640
6.562471
5.927682
6.872416
5.726814
6.734729
6.084442
6.186962
6.402731
6.578565
6.221533
7.614493
7.011890
7.800460
8.096695
9.129643
9.577870
9.959936
9.624958
9.832978
10.103583
9.603500
9.486675
9.150505
9.010434
8.739829
9.003878
7.891655
7.916689
7.499456
7.686615
7.838607
8.404851
7.370710
7.587671
7.837415
7.253885
7.799864
7.317662
8.298755
##ZVALUE=260
0.989437
0.997782
0.841618
0.970960
1.192689
0.900626
1.339912
1.249909
1.172423
1.280904
1.552701
2.173781
6.673932
29.643774
65.444708
161.330700
266.410708
443.786979
599.222779
782.616735
867.241025
880.618691
784.924626
647.599697
434.368849
296.773911
173.228979
114.020705
81.727505
84.231496
101.215839
130.980611
143.970847
150.118470
151.457787
130.820870
112.626553
83.706975
60.568452
37.428737
25.588870
15.230775
10.507703
7.550716
7.168651
6.888509
6.756783
7.119775
6.680489
6.128550
6.269813
6.587505
6.925464
6.177425
6.092787
6.214976
6.037951
5.887747
5.954504
5.691648
5.402565
5.546808
5.848408
5.730987
5.499721
5.712509
5.594492
6.065965
5.746484
7.181764
7.352829
7.398725
7.553697
8.262992
9.315610
8.338690
9.063482
8.585453
8.498430
8.345842
7.893443
7.114410
6.865859
7.138848
7.347465
6.770492
7.260442
6.526709
7.170439
6.644726
6.867647
6.549954
6.757975
6.889701
6.598830
6.668568
##ZVALUE=265
0.792742
0.799894
1.029968
1.173615
1.049638
0.951886
1.070499
1.033545
0.929832
1.155734
1.255870
1.108646
1.130700
1.722574
3.712773
19.375682
48.304796
121.490955
219.788551
410.730839
585.901737
757.256746
925.059915
966.194868
892.800689
767.856836
571.562648
409.666896
229.420662
143.013597
90.926886
71.359873
80.547929
111.347437
131.198764
149.483681
155.021548
147.618651
136.153698
105.577707
84.932446
56.881905
38.261414
21.744967
13.842583
8.591413
7.624626
6.951690
6.313920
6.263852
6.226897
6.714463
6.271601
6.387830
5.739927
5.951524
5.350709
5.339980
5.195737
5.479455
5.128980
5.340576
5.252957
5.042553
5.136728
5.422831
5.400777
5.499721
5.606413
6.401539
6.965995
6.524920
7.478595
7.255673
7.665753
7.481575
7.416606
7.208586
6.876588
7.002950
6.556511
6.908774
6.257892
6.316900
6.093979
6.173849
6.433725
6.128550
6.099939
6.074905
5.575418
6.047487
6.347895
6.822944
5.943775
6.657839
##ZVALUE=270
0.476837
0.704527
0.707507
0.837445
0.808835
0.940561
0.876784
0.750422
0.956655
0.977516
0.885725
0.981688
1.277924
0.963807
0.984669
1.572967
1.862645
8.498430
26.164651
86.722970
174.081922
306.146741
542.742014
727.088451
938.270688
1014.809012
1001.389027
904.245973
699.923635
531.484485
372.585654
196.768641
113.389492
64.841509
61.596632
83.870888
107.634664
133.574605
147.141814
155.690908
151.535869
132.758617
112.230778
82.073808
60.190558
35.171509
24.202466
14.543533
10.110736
6.461740
5.967617
6.072521
6.102920
6.357431
5.686879
5.974770
6.041527
5.426407
5.499721
5.798936
5.288720
5.209446
4.959702
5.292892
5.256534
5.231500
5.643964
5.211830
5.569458
5.776882
6.293654
6.400943
6.587505
6.932616
7.210970
7.018447
7.237792
6.725788
6.670952
6.609559
5.942583
5.745888
5.490780
5.389452
5.468726
5.657673
5.796552
5.651712
5.550981
5.338788
5.661845
5.830526
5.630851
5.573630
5.307794
5.565882
##ZVALUE=275
0.653863
0.645518
0.686646
0.888705
0.659823
0.806451
0.618696
0.664592
0.827909
0.739694
0.933409
0.623465
0.956655
1.272559
1.226664
1.352429
1.183748
1.156926
1.456738
4.083514
15.297532
43.713450
135.690570
253.043771
481.363535
658.892989
872.524977
997.242928
1015.588641
1008.436680
891.834497
661.485791
475.653410
251.859426
147.034526
70.245862
50.763488
60.058832
76.653957
106.503963
126.998425
147.636533
152.794719
146.001577
132.403970
102.856755
83.080530
57.083964
40.556788
23.025870
14.715791
9.076595
6.237626
5.681515
5.433559
5.250573
5.152822
5.237460
5.699992
5.190969
5.383492
5.281568
5.193949
5.347729
5.367994
5.198717
4.940629
5.529523
4.987717
5.504489
5.841851
6.181598
6.464720
6.790757
6.827712
7.052422
6.491542
6.325841
5.919933
5.688667
5.896688
5.360842
5.318522
5.491972
5.862713
5.353689
5.226731
5.405545
5.677938
5.396605
5.704761
5.584955
5.272627
5.169511
5.310774
5.199909
##ZVALUE=280
0.664592
0.685453
0.365973
0.708699
0.764728
0.646710
0.549555
0.730753
0.680685
0.761747
0.774860
0.705719
0.838637
0.902414
0.825524
0.925660
0.975728
1.136661
1.222491
1.228452
1.496673
2.114773
9.655952
32.537580
106.717944
197.393894
374.697447
560.793877
817.570686
983.297825
1015.579700
1015.579700
995.892882
766.921639
565.466881
322.064757
191.648602
88.623762
50.462484
42.017698
53.412914
78.804493
100.897551
127.952695
143.729448
148.171782
144.138932
126.008987
106.823444
77.811480
57.909489
36.592484
24.440885
13.369918
8.969903
6.072521
5.261898
5.202889
5.193949
5.302429
5.266666
4.999638
5.019903
4.850626
5.135536
5.193949
5.078912
4.694462
5.265474
5.387664
5.918741
6.362796
6.334782
6.210804
6.269813
6.205440
6.382465
5.901456
5.690455
5.591512
5.754828
5.729795
5.448461
5.633831
5.598664
4.979968
4.874468
5.334616
5.334616
4.949570
5.100965
5.084872
5.369782
4.886985
4.993677
5.297661
##ZVALUE=285
0.624657
0.586510
0.584722
0.652671
0.596642
0.591874
0.595450
0.714660
0.830889
0.676513
0.678897
0.630617
0.579953
0.741482
0.704527
0.710487
0.839829
0.967979
1.000762
0.961423
1.256466
1.336932
1.392961
1.569986
4.711747
16.457438
58.024526
124.562979
280.473828
443.114042
699.973702
891.207457
1015.580893
1015.580893
1015.580893
905.305743
712.757707
447.108746
280.240774
132.061839
67.211986
34.443736
33.588409
53.187609
73.492527
100.210905
120.179653
136.790872
144.857764
139.722824
128.092766
104.653835
84.552765
57.795644
39.263964
22.161603
14.235973
8.447766
6.577969
5.287528
5.116463
4.896522
5.044937
4.726648
4.982948
4.710555
4.746914
5.084872
5.062819
5.324483
5.800724
6.248951
5.992651
5.838871
6.261468
6.180406
5.835891
5.382895
5.605817
5.296469
5.211830
5.187988
5.347729
5.093813
4.932880
5.083680
5.027652
4.490614
5.315542
4.776716
5.066991
5.018711
5.041957
5.020499
4.785657
4.956722
##ZVALUE=290
0.227690
0.370741
0.368953
0.436902
0.311732
0.420809
0.455976
0.432730
0.439882
0.336766
0.281930
0.335574
0.490546
0.445843
0.423789
0.563860
0.627637
0.684857
0.588894
0.747442
0.884533
0.602603
0.747442
0.937581
1.245737
1.247525
1.862645
6.580949
32.262802
77.375770
153.550506
330.547690
522.166491
812.793970
995.253921
1015.391946
1015.391946
1008.827686
849.303007
574.069619
380.543470
189.276934
99.910498
38.877726
25.201440
33.566952
47.336817
69.751740
90.505481
115.946531
130.348802
138.995647
137.590766
123.263597
105.769634
77.698827
57.569742
36.804676
24.324656
13.185740
8.939505
5.872846
5.056858
4.596710
4.477501
4.656911
4.477501
4.784465
4.721880
5.355477
5.038977
5.323887
4.956722
5.847812
5.632639
5.269647
5.250573
4.930496
5.130768
5.258918
4.839897
4.548430
4.495978
4.548430
4.933476
4.605651
4.724860
4.950762
4.740953
4.444718
4.803538
4.324913
4.629493
4.792809
4.714727
4.831553
##ZVALUE=295
0.368953
0.520945
0.492930
0.581741
0.541806
0.506639
0.620484
0.531673
0.585914
0.486970
0.366569
0.480413
0.609756
0.452995
0.592470
0.753999
0.637770
0.678897
0.663996
0.833869
0.798702
1.007915
0.824928
0.995994
1.173615
0.956655
1.421571
1.554489
1.673698
2.787709
15.457869
43.197870
128.698945
244.184732
471.296906
668.251514
932.625532
1015.584469
1015.584469
1015.584469
929.156542
736.593008
466.702580
287.773013
131.151676
63.688755
25.004745
19.829869
29.420853
42.504668
65.374970
85.314512
110.851526
123.664737
133.502483
130.585432
115.173459
101.410747
75.756907
58.116913
36.389828
24.535656
13.830662
9.263754
6.156564
5.415678
4.684925
4.658699
4.965663
4.973412
5.274415
5.103946
5.547404
5.778670
5.807877
5.694628
5.556941
5.273819
4.945993
5.264878
4.834533
4.488826
4.566908
5.059838
4.799962
4.706979
4.788637
4.731417
4.770756
4.735589
4.384518
4.626513
4.796982
4.623532
4.692674
4.637837
##ZVALUE=300
0.422597
0.423789
0.396967
0.461936
0.391603
0.527501
0.632405
0.376701
0.345707
0.519753
0.526905
0.507832
0.538826
0.475645
0.453591
0.514984
0.676513
0.584722
0.651479
0.494719
0.674725
0.767708
0.672936
0.809431
0.831485
0.919700
0.930429
1.160502
1.293421
1.212955
1.462698
1.738667
6.361604
23.036599
82.635880
167.813897
355.716944
552.988648
826.169848
997.219682
1015.584469
1015.584469
1004.194021
848.775506
574.589968
378.205776
193.611979
104.610920
39.053559
18.547773
17.653704
24.104714
40.413737
55.650473
81.705451
101.349950
118.999481
126.457810
124.208927
116.145611
95.036626
77.963471
54.976940
39.031506
23.571849
14.804602
8.690953
6.522536
5.072951
4.615784
4.622936
4.838705
5.202889
5.269647
5.219579
5.434752
4.681945
4.981756
4.601479
4.831553
4.921556
4.516840
4.707575
4.276633
4.619956
4.727840
4.662871
4.492998
4.502535
4.629493
4.530549
4.493594
4.299879
4.237890
4.320741
4.507899
##ZVALUE=305
0.364780
0.327826
0.370741
0.346899
0.313520
0.318885
0.472665
0.453591
0.478625
0.397563
0.513792
0.534654
0.581741
0.454783
0.576973
0.357628
0.413656
0.583529
0.494719
0.484586
0.739694
0.681877
0.855923
0.824928
0.689626
0.947714
0.781417
0.909567
1.018643
1.091957
1.072884
1.250505
1.228452
1.645684
2.650619
16.070604
47.306418
136.567950
248.827934
476.643443
675.395727
942.069888
1015.581489
1015.581489
1015.581489
887.167454
701.651573
454.711914
286.891460
129.638910
63.065886
22.075772
13.673902
16.333461
23.669600
38.808584
55.214763
78.292489
95.269680
113.339424
119.863749
117.422938
109.377503
91.443658
74.775815
52.204728
37.039518
21.218657
13.762712
8.441806
6.123781
5.271435
4.978776
4.955530
4.865527
4.840493
4.601479
4.382730
4.623532
4.336834
4.556775
4.731417
4.460812
4.656911
4.669428
4.408956
4.313588
4.527569
4.184842
4.227757
4.204512
4.453659
4.207492
4.519820
4.374981
4.069805
##ZVALUE=310
0.496507
0.331998
0.506639
0.247955
0.466704
0.471473
0.471473
0.424981
0.515580
0.551939
0.454783
0.412464
0.380874
0.549555
0.450611
0.563860
0.523925
0.597835
0.377893
0.619888
0.664592
0.709891
0.758767
0.624657
0.667572
0.601411
0.793934
0.776649
0.885725
0.803471
1.083612
0.926852
1.013875
1.153946
1.359582
1.573563
1.841784
7.120967
23.557544
81.656575
165.899992
347.247720
540.678501
814.502835
983.966589
1015.622616
1015.622616
984.206796
818.001032
552.108884
367.602706
187.643766
97.883940
34.847856
15.226603
10.300875
13.566613
22.315979
31.732917
50.500631
66.160560
88.480711
100.733638
110.873580
112.714767
102.959871
91.126561
70.809722
53.163767
34.483671
23.257732
14.304519
9.284616
6.082654
5.053878
4.738569
4.772544
4.171729
4.311800
4.190803
4.329681
4.050732
4.203916
4.478693
4.255772
4.422665
4.388690
4.121661
4.486442
4.467964
4.547834
4.204512
4.217625
3.964901
4.130602
4.061460
##ZVALUE=315
0.334978
0.380874
0.383854
0.346899
0.274777
0.473857
0.432730
0.362992
0.463724
0.542998
0.457764
0.425577
0.274777
0.532866
0.578761
0.562668
0.457764
0.289679
0.559688
0.448823
0.493526
0.475645
0.575781
0.660419
0.595450
0.626445
0.604987
0.725985
0.772476
0.797510
0.533462
0.874996
0.890493
0.889897
1.087785
1.011491
1.045465
1.511574
1.560450
3.342628
12.333989
52.093863
114.235878
264.195800
435.121655
714.835525
892.736912
1015.637517
1015.637517
1015.637517
913.389921
669.327974
474.985838
255.654454
138.227940
51.436424
21.434426
9.880662
9.108782
13.062954
18.362999
31.291842
44.406652
62.339902
79.625845
97.018480
104.242563
104.538798
99.052787
82.855821
68.179965
48.996806
35.565495
21.045804
13.953447
8.478761
6.396770
4.986525
4.432797
4.201531
4.118681
4.005432
4.169941
3.745556
3.908873
4.088879
4.116893
3.943443
4.114509
4.240870
4.176497
4.150867
4.261732
4.284978
4.349947
4.215837
##ZVALUE=320
0.117421
0.077486
0.166893
0.083447
0.243783
0.117421
0.297427
0.031590
0.332594
0.033975
0.068545
0.150800
-0.010729
0.346899
0.199676
0.151992
0.173450
0.083447
0.267625
0.177622
0.415444
0.342727
0.269413
0.350475
0.157952
0.290871
0.365973
0.431538
0.400543
0.467896
0.466704
0.490546
0.614524
0.630617
0.605583
0.709891
0.815988
0.949502
0.889897
0.909567
1.120567
1.884699
5.193949
28.926730
74.823499
199.878812
335.496664
562.374592
757.842660
992.999673
1015.404463
1015.404463
1003.392935
785.895586
580.255985
327.934623
189.682841
80.989599
36.049485
11.370778
7.695556
8.493662
10.660887
17.147660
25.311708
41.724443
55.615902
73.971748
88.274479
98.389983
99.824667
92.761517
82.130432
62.864423
48.461556
31.137466
21.517873
12.750626
8.496642
5.627871
4.827976
4.067421
3.701448
3.778934
3.701448
3.924966
3.904700
3.770590
3.931522
3.767610
3.726482
3.673434
3.980994
3.668666
3.877878
3.742576
##ZVALUE=325
0.213981
0.233650
0.325441
0.330806
0.455976
0.374913
0.463724
0.328422
0.268817
0.266433
0.357628
0.324845
0.436902
0.379682
0.438690
0.457764
0.356436
0.327826
0.314713
0.415444
0.420809
0.359416
0.366569
0.410676
0.422597
0.491738
0.449419
0.582933
0.600815
0.579953
0.661612
0.678897
0.609756
0.502467
0.581741
0.626445
0.778437
0.580549
0.859499
1.158714
1.238585
1.064539
1.332760
1.494884
3.048778
19.180775
50.226450
137.006640
250.142813
473.152995
667.055845
911.445618
1015.584469
1015.584469
1015.584469
842.031837
644.919872
388.323665
239.037871
108.102560
50.901771
15.818477
8.149743
6.964803
7.401705
10.954738
15.738606
25.902987
37.292838
56.707859
70.128441
85.261464
92.634559
93.400478
88.356733
74.190497
59.770942
43.414831
31.287670
18.691421
12.161732
7.606745
5.662441
4.517436
4.276633
4.067421
4.282594
3.996491
3.758669
3.858805
3.790855
3.886819
3.707409
3.878474
3.751516
3.794432
##ZVALUE=330
0.376701
0.256896
0.240803
0.265837
0.116825
0.434518
0.279546
0.250936
0.345707
0.265837
0.328422
0.415444
0.342727
0.325441
0.373721
0.336766
0.265837
0.399947
0.451803
0.430942
0.386834
0.300407
0.249743
0.253916
0.568628
0.541806
0.425577
0.473857
0.474453
0.473857
0.556707
0.604987
0.424981
0.576973
0.593662
0.656843
0.754595
0.596642
0.615716
0.830889
0.718832
0.929832
0.960827
1.016855
1.194477
1.376867
1.746416
8.222461
27.043819
90.823770
177.688599
360.362530
540.270805
790.766478
956.691504
1015.584469
1015.584469
913.794637
741.151571
487.111807
320.440531
151.049495
76.457858
26.867986
11.324883
6.409883
6.347895
7.090569
9.637475
15.846491
23.032427
36.912560
49.964786
67.578554
79.116821
86.223483
87.287426
80.952644
71.320534
54.465532
42.279959
27.197599
19.181967
11.585951
8.252859
5.631447
4.739761
4.268885
3.903508
3.919601
3.892779
3.699660
3.724694
3.863573
4.032850
3.915429
##ZVALUE=335
0.288486
0.296831
0.281930
0.237823
0.329614
0.376701
0.134706
0.094771
0.247955
0.175834
0.212789
0.271797
0.206828
0.370741
0.257492
0.427961
0.334978
0.407696
0.327826
0.393987
0.465512
0.415444
0.360608
0.211596
0.389814
0.294447
0.284910
0.537634
0.387430
0.425577
0.442863
0.355840
0.517964
0.564456
0.578761
0.644922
0.514984
0.650883
0.745654
0.796914
0.740886
0.722408
0.839829
0.948906
0.775456
1.013875
1.084805
1.301765
1.664758
3.769994
14.283657
57.146549
122.126937
274.423957
446.898937
705.619454
888.741612
1015.584469
1015.584469
961.386561
811.809897
562.926531
386.431813
204.867721
107.228756
36.170483
15.436411
6.829500
5.748868
6.017685
6.755590
9.447932
13.308525
23.223758
33.531785
49.370527
61.241984
74.047446
80.279708
81.262589
76.559782
64.060688
53.639412
40.523410
30.151606
18.983483
13.169646
8.130670
6.046891
4.670620
4.062653
4.087687
3.734827
3.632903
3.815889
3.712773
##ZVALUE=340
0.339746
0.221729
0.361800
0.286698
0.175834
0.273585
0.571609
0.210404
0.401735
0.392795
0.270605
0.356436
0.250936
0.356436
0.389814
0.490546
0.390410
0.478625
0.368953
0.278950
0.332594
0.468493
0.309944
0.357628
0.439882
0.446439
0.546575
0.570416
0.433922
0.424981
0.313520
0.466704
0.592470
0.516772
0.520945
0.704527
0.561476
0.690818
0.592470
0.585914
0.631809
0.621676
0.851750
0.805855
0.754595
0.816584
0.805855
0.963807
1.023412
1.213551
1.380444
2.271533
6.908774
34.929514
87.158680
218.971968
373.842716
609.662533
797.744989
994.415879
1015.661955
1011.436582
898.317695
667.408705
472.483635
249.419808
138.027668
54.748654
21.651983
7.881522
6.020665
5.895495
5.997419
6.769896
8.858442
14.232993
21.040440
33.484697
44.294596
59.384704
69.085956
75.442791
75.287819
71.407557
64.336658
51.282644
40.238500
28.053522
19.868612
12.848973
8.338690
5.820990
4.620552
3.991723
4.095435
3.765821
##ZVALUE=345
0.170469
0.233650
0.257492
0.160933
0.236630
0.140667
0.216961
0.031590
0.280738
0.301600
0.146627
0.335574
0.243783
0.286698
0.328422
0.297427
0.294447
0.338554
0.365973
0.260472
0.309944
0.289679
0.178814
0.267625
0.124574
0.152588
0.516772
0.469685
0.389814
0.580549
0.376701
0.484586
0.329614
0.614524
0.535846
0.451803
0.452995
0.524521
0.566840
0.554919
0.481606
0.558496
0.575781
0.543594
0.704527
0.708699
0.823736
0.853539
0.727773
0.832677
0.949502
1.140833
1.236796
1.412630
3.795624
16.307831
67.691803
135.858655
282.857418
437.336564
679.411888
853.165984
1005.185843
1015.584469
934.727788
782.577991
538.160801
361.286998
169.589520
82.461834
26.375651
11.428595
6.551743
5.872846
5.491972
5.525947
6.009936
7.624626
12.592673
18.775463
30.134916
40.206909
52.706599
61.608553
68.772435
70.424676
66.647530
60.353875
48.556924
39.401650
28.194785
20.081997
12.308955
8.733869
6.025434
4.966855
##ZVALUE=350
0.194907
0.143647
0.245571
0.130534
0.233650
0.221729
0.166893
0.174642
0.231862
0.188947
0.163913
0.203848
0.309944
0.305772
0.400543
0.202656
0.356436
0.324845
0.329614
0.298619
0.246763
0.174642
0.343919
0.256896
0.358820
0.451803
0.323653
0.399947
0.390410
0.354648
0.404716
0.523925
0.250936
0.459552
0.454783
0.365973
0.308752
0.266433
0.606775
0.362992
0.491738
0.500679
0.606775
0.614524
0.417829
0.698566
0.689626
0.513792
0.617504
0.820756
0.810623
0.806451
0.915527
1.056790
1.092553
1.191497
1.815557
9.718537
31.671524
101.072788
193.764567
380.291939
552.350879
780.766606
924.445987
1014.418602
982.660651
824.464560
644.735694
394.530892
244.840980
113.743544
53.204894
14.612675
6.900430
5.443692
5.012751
4.907846
4.877448
5.493760
7.147789
12.110472
16.933680
26.300550
34.718513
46.957731
55.383444
62.803626
65.173507
61.847568
56.877732
45.199990
37.684441
25.283694
18.912554
12.477636
##ZVALUE=355
0.223517
0.226498
0.128746
0.249743
0.288486
0.340939
0.249743
0.245571
0.334978
0.389814
0.389814
0.187755
0.247955
0.349879
0.303984
0.182986
0.342727
0.185966
0.419617
0.377893
0.263453
0.348687
0.196695
0.300407
0.284910
0.411868
0.149608
0.348687
0.475645
0.329614
0.256896
0.362992
0.521541
0.453591
0.568628
0.526905
0.484586
0.479817
0.398755
0.430942
0.470877
0.557899
0.413656
0.527501
0.536442
0.575781
0.571609
0.626445
0.557899
0.655651
0.778437
0.826716
0.776649
0.867844
0.842810
1.008511
0.978708
1.233816
1.300573
4.598498
17.095804
66.929460
137.826800
289.166570
454.787612
705.879927
861.079693
988.302827
991.182923
852.792859
694.725513
468.588471
300.050974
135.651827
66.358447
20.276904
8.366704
5.351901
4.805923
4.623532
4.572868
4.558563
5.172491
6.787777
9.316802
15.270710
21.396875
31.533837
39.817691
50.243735
55.327415
58.305860
57.336688
51.686764
44.175982
34.774542
##ZVALUE=360
0.220537
0.205636
0.263453
0.219941
0.244975
0.239611
0.367761
0.278950
0.152588
0.167489
0.154972
0.293851
0.330806
0.210404
0.196695
0.300407
0.327826
0.198483
0.275970
0.243783
0.133514
0.336766
0.280738
0.344515
0.444651
0.324845
0.335574
0.356436
0.367761
0.464916
0.224710
0.218749
0.464916
0.447631
0.503659
0.533462
0.473857
0.653863
0.352859
0.587702
0.432730
0.433922
0.483990
0.440478
0.386834
0.330806
0.472665
0.529885
0.719428
0.617504
0.699759
0.673532
0.621676
0.793934
0.799894
0.855923
1.000762
1.118779
1.132488
1.200438
1.418591
1.768470
9.424686
30.287504
98.855495
190.863609
374.632478
554.364920
797.109604
925.348997
969.447494
907.284021
737.851858
560.560822
338.354707
206.547976
89.648962
39.356947
11.576414
5.783439
4.824996
4.753470
4.177690
4.356503
3.901720
4.516840
5.535483
7.338524
12.205839
17.388463
25.368929
33.482909
43.111444
48.908591
52.582622
53.473711
##ZVALUE=365
0.245571
0.357628
0.170469
0.190735
0.286698
0.237823
0.182986
0.200868
0.295639
0.218749
0.171661
0.199676
0.167489
0.401735
0.308752
0.267625
0.193715
0.228882
0.199676
0.363588
0.208616
0.251532
0.325441
0.232458
0.327826
0.269413
0.409484
0.218749
0.293851
0.307560
0.278950
0.459552
0.399947
0.577569
0.452995
0.322461
0.451803
0.473857
0.372529
0.352859
0.470877
0.347495
0.394583
0.524521
0.568628
0.394583
0.570416
0.544786
0.473857
0.494719
0.576973
0.516772
0.612736
0.721812
0.719428
0.717640
0.861883
0.938773
0.826716
0.860691
1.015663
1.345873
1.312494
1.516938
3.348589
20.498633
56.960583
151.261687
279.036760
516.359806
691.667795
884.654522
966.085792
939.633846
821.125507
592.478514
419.997573
230.906606
127.779841
46.984553
19.155741
6.696582
4.652739
4.631877
4.280806
4.022717
3.677607
3.716946
3.760457
4.891753
6.170869
10.282993
14.456511
21.588802
28.151870
36.882758
##ZVALUE=370
0.175834
0.374913
0.302792
0.333786
0.307560
0.232458
0.190735
0.218749
0.346899
0.295639
0.277758
0.042915
0.085831
0.221729
0.260472
0.193715
0.094771
0.184774
0.144839
0.260472
0.127554
0.305772
0.216961
0.186563
0.318885
0.355840
0.351667
0.232458
0.343919
0.218749
0.266433
0.161529
0.406504
0.320673
0.326633
0.246763
0.304580
0.525713
0.592470
0.420809
0.395775
0.505447
0.426769
0.496507
0.432730
0.504851
0.391603
0.536442
0.529885
0.536442
0.552535
0.514984
0.604987
0.476837
0.533462
0.715852
0.577569
0.641942
0.769496
0.779629
0.818968
0.818968
1.039505
1.078844
1.183748
1.472831
1.915693
9.239912
33.063889
110.522509
211.696625
411.658883
599.647760
840.929747
956.826806
983.307958
899.040699
695.429444
509.022474
281.927586
156.873465
61.614513
27.874708
9.730458
5.040765
4.185438
4.152656
3.828406
3.503561
3.481507
3.361702
3.543496
3.971457
5.884767
8.345842
13.279915
##ZVALUE=375
0.126958
0.268817
0.138879
0.178814
0.142455
0.352859
0.253916
0.251532
0.281930
0.279546
0.307560
0.256896
0.184774
0.293851
0.237823
0.161529
0.243783
0.155568
0.276566
0.318885
0.249743
0.316501
0.249743
0.177622
0.208616
0.282526
0.247955
0.259876
0.224710
0.335574
0.232458
0.349879
0.383854
0.274777
0.454783
0.514984
0.357628
0.468493
0.361800
0.270605
0.320673
0.316501
0.471473
0.370741
0.449419
0.436902
0.463724
0.556707
0.412464
0.453591
0.381470
0.474453
0.241995
0.506639
0.396967
0.660419
0.600815
0.511408
0.548959
0.640750
0.672936
0.612736
0.703931
0.906587
0.891685
0.961423
1.029968
1.276731
1.436472
4.666448
16.808510
63.709617
138.363838
309.911966
481.512547
726.369023
869.391561
959.553719
934.888721
776.854753
606.142879
369.905829
229.027867
104.327798
51.910877
16.159415
6.895661
4.022717
3.815889
3.473759
3.273487
3.344417
2.952814
3.087521
2.921820
3.464818
##ZVALUE=380
0.292659
0.246763
0.273585
0.413656
0.261664
0.452995
0.422597
0.318885
0.200868
0.415444
0.257492
0.092983
0.305772
0.322461
0.239611
0.433922
0.299811
0.345707
0.508428
0.293851
0.311732
0.292659
0.213981
0.300407
0.161529
0.233650
0.351667
0.253916
0.441670
0.323653
0.438690
0.468493
0.473857
0.336766
0.362992
0.385642
0.284910
0.393987
0.363588
0.408888
0.375509
0.443459
0.384450
0.428557
0.460744
0.409484
0.421405
0.474453
0.374913
0.501871
0.444651
0.473857
0.464916
0.333786
0.617504
0.591874
0.608563
0.518560
0.694990
0.642538
0.559688
0.580549
0.735521
0.657439
0.772476
0.919700
0.832677
1.045465
0.931621
1.473427
1.378655
2.442002
8.938909
44.702888
104.809999
244.888663
395.581722
621.711612
793.024898
934.490561
942.392945
815.265775
670.511723
469.215512
315.907598
154.276490
78.295469
26.840568
10.679960
4.539490
3.818870
3.528595
3.295541
3.351569
3.319979
2.950430
##ZVALUE=385
0.271797
0.240803
0.241995
0.185966
0.191927
0.250936
0.212789
0.276566
0.179410
0.140667
0.186563
0.149608
0.201464
0.006557
0.158548
0.312924
0.167489
0.307560
0.402927
0.416636
0.163913
-0.111461
0.165701
0.213981
0.320673
0.196695
0.234842
0.315905
0.240803
0.213981
0.324845
0.226498
0.157952
0.363588
0.136495
0.224710
0.193715
0.141859
0.268817
0.366569
0.322461
0.339746
0.238419
0.305772
0.422597
0.384450
0.198483
0.166893
0.244975
0.209808
0.418425
0.498891
0.382662
0.351667
0.357628
0.463724
0.360608
0.335574
0.389814
0.590682
0.530481
0.511408
0.530481
0.497699
0.589490
0.681877
0.613928
0.701547
0.808835
0.905991
0.996590
1.072884
1.259446
1.497865
4.961491
18.167496
69.015622
147.657394
319.311619
488.008857
722.181797
849.470496
920.634866
897.556543
754.054785
598.148704
378.186703
238.713622
107.027888
51.779747
16.890764
6.591678
3.595948
3.406405
2.870560
2.865791
##ZVALUE=390
0.184774
0.151992
0.078678
-0.022650
0.067949
0.132918
0.046492
0.224710
0.084639
0.204444
0.144839
0.075698
0.130534
0.155568
0.232458
0.237823
0.219941
0.187755
0.331998
0.236630
0.265837
0.239611
0.279546
0.255704
0.067949
0.350475
0.313520
0.226498
0.209808
0.239611
0.127554
0.138879
0.235438
0.282526
0.345707
0.386834
0.276566
0.206828
0.369549
0.205636
0.217557
0.171661
0.133514
0.289679
0.272989
0.401735
0.307560
0.342727
0.367761
0.179410
0.342727
0.424981
0.304580
0.337958
0.215769
0.413656
0.488758
0.386834
0.463724
0.480413
0.412464
0.508428
0.576973
0.559688
0.546575
0.561476
0.767708
0.779629
0.729561
0.933409
0.984669
0.871420
1.077652
1.154542
1.177788
1.347661
2.239943
12.972951
41.534901
127.356648
238.874555
451.719761
626.159906
824.173689
917.254686
940.966606
870.960951
697.053671
531.292558
307.894945
177.149773
69.810748
32.421947
9.866953
4.592538
3.350973
##ZVALUE=395
0.114441
0.172853
-0.061989
0.126958
0.051856
0.153780
0.154972
0.102520
0.152588
0.301600
0.122786
0.174642
0.251532
0.176430
0.086427
0.068545
0.181794
0.219941
0.136495
0.169873
0.265837
0.216961
0.250936
0.275970
0.130534
0.203848
0.223517
0.018477
0.166893
0.194907
0.285506
0.292659
0.219941
0.232458
0.190735
0.226498
0.271797
0.210404
0.258684
0.262856
0.321865
0.328422
0.356436
0.364780
0.349879
0.412464
0.306964
0.232458
0.378489
0.311732
0.357628
0.343919
0.370741
0.322461
0.349879
0.371933
0.522733
0.272989
0.381470
0.332594
0.490546
0.438690
0.456572
0.495911
0.542998
0.653863
0.646710
0.654459
0.691414
0.602603
0.873804
0.835657
0.992417
1.018643
0.884533
0.975728
1.034737
1.112819
1.537800
7.605553
28.041005
97.839832
185.469985
353.899598
522.047877
757.853985
891.194940
976.544023
944.096446
794.805884
624.827743
385.566950
238.828659
104.108453
48.700571
15.166998
##ZVALUE=400
0.225902
0.120997
0.097752
0.168681
0.057817
0.180602
0.144839
0.196695
0.265837
0.073910
0.233650
0.032783
0.140667
0.099540
0.044703
0.162721
0.147820
0.266433
0.152588
0.250936
0.258684
0.239611
0.092983
0.144839
0.204444
0.242591
0.212789
0.081658
0.148416
0.186563
0.092983
0.345707
0.115633
0.405908
0.149608
0.295639
0.321865
0.173450
0.142455
0.190735
0.337958
0.357628
0.156760
0.409484
0.363588
0.142455
0.213981
0.265837
0.349879
0.272989
0.180602
0.283718
0.280738
0.240803
0.357628
0.481606
0.426769
0.388622
0.259876
0.402927
0.333786
0.300407
0.412464
0.382662
0.394583
0.530481
0.644922
0.495911
0.720620
0.775456
0.705719
0.757575
0.722408
0.869632
0.874996
0.782609
0.757575
1.015663
1.008511
1.160502
1.431704
4.543662
17.380714
63.582659
134.603977
299.247503
475.322008
728.674531
886.948705
1008.227468
1007.296443
875.296593
708.726645
461.773872
302.465558
152.030587
##END
