##TITLE=FAAI0501
##FORMAT=SPECTACLE-ASCII V-1.2
##DATA TYPE=ULTRAVIOLET SPECTRUM
##SECOND TYPE=ULTRAVIOLET SPECTRUM
##DATE=01/24/18
##TIME=19:08:43
##SPECTROMETER/DATA SYSTEM=SPECTACLE
##XUNITS=NM EM
##YUNITS=ENERGY
##YFACTOR=1
##FIRSTX=220
##LASTX=410
##NPOINTS=96
##3DDATA=Equidistant
##ZUNITS=NM EX
##FIRSTZ=210
##LASTZ=400
##ZPOINTS=39
##XYDATA=(Y..Y)
##ZVALUE=210
2.999902
2.861619
2.233982
2.420545
2.652407
3.240705
3.160834
2.993941
2.639890
3.029704
2.294779
2.511740
2.356768
2.024770
2.269745
1.748800
1.958609
2.288818
2.479553
2.035499
2.480745
2.803802
2.968907
2.925992
2.684593
3.426671
3.040433
3.823638
3.994703
4.317760
3.944635
5.311966
5.119443
5.048513
5.204678
5.409718
5.663633
4.964471
5.681515
5.616546
5.577803
5.529523
4.748702
5.111694
4.757643
4.808903
4.616976
4.597902
4.624724
4.855990
4.409552
4.183650
4.921556
4.372597
4.226565
3.945827
3.917813
3.677607
5.154610
4.055500
4.077554
4.355907
4.093647
3.798604
3.921986
5.249977
3.881454
4.756451
5.118847
5.702972
6.879568
7.572770
7.860661
9.206533
9.626746
8.739829
9.978414
9.138584
9.527802
8.798838
8.144975
7.239580
8.029938
6.067753
5.516410
4.725456
4.836917
4.136562
4.227757
3.758669
4.283786
3.895760
4.381537
4.151464
5.496740
5.561709
##ZVALUE=215
9.738803
9.242892
9.859800
6.544590
5.851984
5.104542
6.355643
5.659461
6.270409
6.397963
5.056858
5.031824
4.006624
2.970695
2.498627
2.638698
2.186894
2.256632
2.874732
3.401637
2.442598
2.667904
2.524853
2.638698
2.817512
3.912449
4.175901
5.102754
4.608631
4.516840
6.260872
6.895661
7.283688
6.732941
7.727742
7.798672
7.262826
7.194877
7.174611
6.891489
6.803870
6.959438
6.396770
7.623434
6.918907
6.202459
5.716681
5.880594
5.108714
5.381703
5.692840
5.383492
5.442500
5.012751
5.288720
4.844666
4.244447
4.514456
4.836917
4.927516
4.507899
4.349947
4.412532
3.935695
5.030632
4.377961
4.866719
5.845428
6.322861
6.366968
6.072521
7.153749
8.243918
8.757710
9.198785
9.403825
8.639693
8.064508
9.345412
8.443594
7.016659
6.788969
6.736517
6.441474
6.454587
5.117655
5.006790
4.113913
3.690720
3.664494
4.180670
3.627539
3.650784
4.126430
3.916621
4.920959
##ZVALUE=220
26.847720
27.379990
29.473901
29.479861
26.452541
20.503998
18.045902
14.816523
13.268590
13.095737
14.718771
13.632774
14.556646
13.063550
10.345578
7.642508
5.350709
4.203916
3.537536
3.428459
2.601743
2.708435
2.654791
3.151894
3.624558
4.123449
5.152822
5.712509
5.518794
6.974936
7.566810
9.928942
10.580420
9.948611
10.155439
10.980964
10.612607
10.047555
10.295510
9.951591
9.865761
10.602474
9.183884
8.358955
8.518696
8.049607
7.898808
7.481575
7.555485
5.930662
6.687641
7.005930
6.577969
6.826520
6.094575
5.898476
4.719496
5.663633
5.135536
5.743504
5.700588
5.496740
5.363822
5.902648
5.064607
5.006790
5.422831
6.121993
6.112456
6.429553
7.690787
8.342862
8.206964
8.574724
9.904504
9.155869
9.254813
10.073781
9.690523
8.611679
7.878542
8.165836
7.439852
7.011890
5.628467
5.557537
5.354881
4.771948
4.737973
4.710555
3.953576
4.125834
4.760623
4.913807
4.171729
4.293919
##ZVALUE=225
42.440891
45.927763
58.752894
70.387721
78.360438
75.936913
71.757436
53.371787
44.257641
35.406947
26.326776
26.832819
27.418733
28.007627
27.699471
25.735497
22.543669
17.209649
12.957454
9.017587
5.633831
4.024506
3.730655
3.045797
4.812479
4.590750
4.639626
7.120967
7.033944
8.248687
9.347796
9.737611
11.346936
11.014938
12.160540
11.281967
11.576414
13.047457
12.010932
11.532903
10.082722
11.578798
12.125969
8.942485
9.559989
9.258986
8.355975
8.390546
8.122921
6.755590
7.858872
6.666780
7.557869
6.879568
7.211566
6.211996
7.033944
5.985498
6.337762
7.014871
6.415844
6.454587
7.013679
6.517768
5.963445
5.970597
6.669760
7.224679
6.779432
6.383657
8.391738
10.129809
9.665489
10.717511
9.887815
10.008812
9.688735
10.519624
9.888411
9.582639
8.280873
8.337498
7.807612
8.424520
7.649660
5.894899
6.292462
5.478859
5.252957
6.231666
6.170869
6.280541
5.977750
6.093979
4.980564
5.520582
##ZVALUE=230
35.789609
39.424896
66.102743
95.433593
131.219625
150.038600
172.638893
162.781477
146.426558
119.905472
83.191991
62.738657
51.824450
49.700737
45.542717
51.108599
51.208735
51.733851
46.649575
35.799742
26.579499
18.902421
12.176633
7.709861
5.997419
4.658699
6.477833
6.045699
7.948875
8.476973
8.972883
9.324551
10.139942
11.188984
12.272596
11.187792
11.218786
11.069775
10.582805
11.827946
10.326505
10.605454
11.414886
9.750724
9.273887
9.389520
8.823872
8.361936
7.787943
8.192658
8.375645
7.523894
7.412434
7.230639
8.271933
8.540750
7.650852
6.856918
6.977916
6.643534
7.568598
7.931590
6.984472
7.862449
7.381439
8.658767
7.855892
9.097457
8.816719
9.754896
10.141730
10.966659
10.909438
11.361837
11.789799
12.528896
11.442900
12.561679
11.041760
10.912418
11.336803
11.723638
10.725856
9.024739
9.337664
8.710623
9.862781
8.280873
8.560419
7.657409
7.897615
6.965995
7.780790
7.333755
7.416606
8.393526
##ZVALUE=235
13.020635
13.254881
27.138591
65.846443
104.494691
166.567564
217.628479
280.109644
309.792757
310.871601
273.946524
224.874616
162.096620
120.772719
84.892511
75.439811
70.217848
76.337457
83.726645
82.413554
74.703693
65.761805
47.701597
36.688447
22.306442
14.880896
12.170672
8.958578
7.492900
8.609891
9.250641
9.868741
9.999871
9.333491
9.713769
9.556413
10.373592
9.492636
10.522604
10.379553
9.264946
9.109974
9.353757
8.793473
8.967519
9.083748
8.134842
7.437468
8.077621
7.730722
7.316470
8.309484
8.350611
9.623766
8.199811
7.827878
8.357763
8.603930
8.285642
8.360744
7.519722
8.053780
9.184480
9.514689
8.978844
8.288622
9.028912
8.825660
9.296536
11.086464
12.988448
13.206601
13.020635
14.147758
13.836622
16.164780
13.417602
14.675856
12.971759
13.434887
13.012886
12.869835
12.576580
11.948943
12.817979
12.612939
11.451840
11.700988
11.490583
11.445880
10.974407
12.065768
9.792447
10.539889
10.914803
9.768605
##ZVALUE=240
1.731515
1.202822
5.217791
14.172792
41.695833
73.545575
147.520900
225.671530
335.129499
409.298539
467.141867
470.415950
430.932641
348.517895
276.351571
180.086493
132.276416
101.721883
92.463493
99.977851
112.663507
117.207766
111.163855
100.651979
83.739758
65.759420
46.550632
33.488870
20.011663
15.584826
12.761950
10.482669
10.510683
11.126995
10.321736
10.897517
10.347962
9.805560
9.856820
9.294748
8.925796
8.894801
8.578897
9.247661
9.174943
7.932782
8.426905
7.768869
7.550716
8.301735
8.188486
7.130504
8.031726
7.303953
8.267760
7.869601
8.742809
8.225441
8.166432
7.757545
8.468628
8.247495
8.089542
8.838773
9.249449
9.288788
8.672476
11.040568
10.556579
12.025833
11.841655
13.641715
13.348460
14.820695
15.406609
16.794801
15.809536
16.586781
16.215444
14.184713
15.619993
13.375878
14.877915
14.190674
14.641881
14.724731
13.019443
13.157725
13.387799
11.811852
13.071895
13.148785
13.165474
11.260509
12.276769
11.612773
##ZVALUE=245
1.501441
1.485944
1.458526
1.637936
3.741980
10.096431
32.692552
67.210793
152.689815
237.700939
371.407866
463.820696
524.490476
557.677746
533.535480
455.036759
367.632508
258.625746
178.530812
120.285749
97.898841
100.017786
113.708973
126.006603
128.623843
128.988624
116.856694
100.449920
77.774525
58.505535
42.933822
28.414726
21.213889
15.827417
12.973547
11.319518
11.206865
12.068748
11.103749
10.580420
9.504557
9.977818
9.820461
8.796453
8.429885
8.840561
8.262992
8.329749
8.313656
8.544922
7.855892
7.471442
7.251501
7.805824
7.275939
7.373691
8.029938
6.718636
7.445812
7.396936
6.919503
7.531643
7.888675
8.374453
8.830428
7.923841
8.006692
9.470582
10.631680
9.773970
10.492802
11.861920
13.062954
14.272928
14.694929
14.208555
13.624430
14.477968
13.880730
13.697743
13.754964
14.039874
14.102459
13.618469
13.632774
13.274550
12.823939
13.338923
12.486577
11.199713
13.554692
12.031794
11.780858
12.974739
13.634562
12.901425
##ZVALUE=250
1.407862
1.163483
1.156926
0.916719
1.353621
1.425743
1.923442
6.181598
26.343465
54.261684
137.071013
222.011805
325.029492
462.756753
554.509759
636.776686
634.305477
569.293499
489.382744
331.282616
229.233503
155.820847
102.410913
94.846487
109.223723
123.984814
139.019489
144.731998
136.898756
126.999617
112.313628
85.482597
64.987540
41.423440
29.505491
20.030737
15.065670
13.469458
12.902617
12.176633
10.805726
11.282563
10.178685
10.362864
9.292960
8.879900
8.917451
8.896589
9.141564
8.933544
8.503795
8.425713
7.637739
7.228851
7.313490
6.917715
6.972551
6.462932
7.025599
6.503463
6.901622
6.694794
6.323457
7.742643
7.117987
7.687807
7.523894
7.893443
8.188486
8.588433
9.179711
10.664463
10.528564
11.462569
11.882782
12.210608
12.477636
11.932850
12.059808
12.531877
12.105703
12.746453
12.493730
11.618733
10.895729
12.370944
12.948513
10.732412
11.928678
11.474490
11.653900
11.722445
11.421442
11.835694
10.775924
11.038780
##ZVALUE=255
1.074672
1.195669
0.931621
1.144409
1.015663
1.276731
1.121759
1.360774
1.679659
3.405809
17.138720
41.487813
83.892941
185.452700
289.951563
455.922484
566.010475
675.222874
728.178620
675.537586
590.460896
474.866629
303.352475
199.107528
116.413832
90.967417
93.671679
107.009411
131.191611
147.413611
152.579546
149.238706
135.804415
109.988451
89.108944
60.105920
43.637753
28.280616
20.704865
14.207959
13.006926
12.027621
11.606812
11.024475
10.095835
10.674596
10.091662
10.002851
9.093881
8.446574
8.395910
8.087754
6.806850
7.101893
7.656813
6.999969
6.612539
6.606579
6.973743
6.229877
6.066561
6.234646
6.184578
6.192923
6.393790
6.679893
6.457567
7.012486
7.513762
8.543730
8.350611
8.574724
9.118915
9.564757
10.025501
10.277629
10.336637
10.294914
9.778738
9.955764
10.153651
10.420680
10.579824
11.044741
9.855628
9.299517
9.997487
10.978580
10.770559
10.287762
11.029840
10.322928
10.023713
10.342598
10.052919
10.737777
##ZVALUE=260
1.027584
0.905991
0.941753
0.884533
1.053810
0.882745
0.944734
1.015663
1.077652
1.056790
1.246929
2.033710
6.175637
28.079748
61.090589
148.188472
243.470669
404.850841
536.959767
706.113577
786.933899
793.889761
704.440475
583.802462
387.774706
269.807577
157.975554
106.169581
79.995990
87.230802
106.872916
131.481886
149.327517
157.652497
156.355500
135.891438
119.672418
89.378953
66.744685
42.869449
30.818582
19.591451
15.494823
12.883544
11.820793
11.815429
11.249781
10.967851
9.691715
9.515882
9.276867
9.312630
8.962750
7.864833
7.660985
7.861853
7.469654
6.664991
6.952882
6.369948
6.671548
6.041527
5.889535
6.588697
6.410480
6.132722
6.678700
6.226897
6.948709
7.502437
7.453561
7.945895
8.325577
8.805990
9.084940
8.908510
9.724498
9.287596
9.820461
8.772612
9.353757
8.880496
8.852482
9.679794
9.240508
9.152889
8.779764
9.131432
9.244680
8.821487
8.779764
9.090900
8.716583
8.566976
8.592606
9.421706
##ZVALUE=265
0.717640
0.752807
0.731945
0.573993
0.776649
0.992417
1.089573
0.889897
0.934601
0.832677
1.086593
1.382828
1.338720
1.585484
3.795624
17.470717
43.895841
111.224651
196.750760
374.771953
528.805852
684.779882
830.914974
866.973996
793.315768
688.926578
516.897440
372.053981
213.134885
131.534934
90.507865
74.214935
87.384582
119.006634
139.167905
159.852505
161.653757
154.036880
142.081976
112.623572
89.919567
62.036514
45.444965
28.591752
20.977855
15.521646
12.645721
11.693835
11.046529
10.235906
10.181665
8.794665
8.765459
8.216500
8.266568
7.427931
7.741451
7.973909
7.677674
6.551743
6.844997
6.783605
6.507635
6.503463
6.172657
6.470680
6.392598
6.666780
6.582737
6.798506
6.982684
7.605553
7.518530
8.133650
8.588433
8.248687
8.777976
8.434653
8.924603
8.471608
8.012652
8.363724
8.934736
8.646846
7.883906
8.321404
7.926822
8.719563
8.245707
8.167624
7.905960
7.936954
8.006692
7.988811
8.811951
8.022785
##ZVALUE=270
0.794530
0.719428
0.880957
0.796914
0.731945
0.661612
0.657439
0.829697
0.847578
0.931621
0.937581
0.833869
1.021624
1.250505
1.191497
1.394749
1.662970
8.415580
24.979711
77.340603
152.479410
276.764631
483.871698
649.849772
837.572813
913.425684
905.452967
816.754699
642.786026
479.861498
335.925817
178.463459
107.503533
66.967607
68.984628
92.673898
115.232468
141.920447
157.411695
164.298415
159.427524
139.704943
116.831660
87.888837
64.936876
40.694475
29.188991
19.549727
14.789701
11.458993
10.910630
10.556579
9.162426
8.696914
9.179711
8.162856
7.392764
7.629991
7.161498
7.549524
6.722808
6.649494
6.391406
6.643534
6.386638
7.015467
6.530881
6.681681
6.948709
7.278919
7.179976
7.591844
7.843971
7.939935
8.082986
8.480549
8.114576
8.313656
7.878542
8.193851
7.779598
7.443428
7.862449
7.550716
8.024573
7.709861
7.737875
7.655621
7.929802
7.227659
7.801652
7.906556
7.738471
7.833838
7.668734
7.963777
##ZVALUE=275
0.680685
0.598431
0.543594
0.585914
0.768900
0.800490
0.657439
0.695586
0.799894
0.865459
0.707507
0.793934
0.798702
1.029968
1.116991
0.968575
1.109838
1.173615
1.470447
2.710819
15.461445
43.723583
128.117800
234.768987
428.864956
589.931607
774.227977
897.551775
947.808623
903.714895
821.881890
599.360466
428.420901
230.896473
137.248635
70.278645
55.817962
65.817833
84.284544
113.163590
134.390593
152.476430
159.927607
152.526498
138.619542
111.069679
88.887811
60.662627
44.414997
26.309490
18.717647
12.199879
10.616779
8.249879
8.273721
7.989407
7.511973
7.707477
7.339716
6.753802
7.169843
6.970763
6.930828
6.386638
6.375909
6.324649
6.381869
6.697774
6.524920
6.912947
6.572604
7.118583
7.693768
7.922649
7.625818
7.804632
7.797480
7.971525
7.734895
7.476807
7.659793
7.428527
7.725954
7.267594
7.698536
7.191896
7.437468
7.632971
7.234812
7.617474
7.786751
7.296801
7.419586
7.438660
7.066727
7.360578
##ZVALUE=280
0.506639
0.658631
0.413656
0.500679
0.625849
0.605583
0.847578
0.530481
0.501871
0.541806
0.673532
0.709891
0.490546
0.776649
0.868440
0.923872
0.767708
1.096725
0.948906
1.166463
1.354814
1.843572
9.212494
29.601455
94.295740
175.293684
331.000686
489.241481
704.996586
844.866633
941.457748
949.077606
869.344473
663.406849
493.168831
286.302567
174.371004
80.340505
49.258471
43.527484
57.047606
82.623959
104.810596
132.987499
146.602988
152.981877
147.636533
128.587484
110.099912
82.434416
59.757829
38.612485
26.236773
15.065670
11.225939
7.718801
6.646514
7.009506
6.451607
6.615520
6.630421
6.463528
6.615520
6.176829
6.388426
6.683469
5.988479
6.607771
6.889701
6.860495
7.020831
6.977916
7.105470
7.258654
7.254481
7.434487
7.785559
8.092523
7.202625
7.263422
7.306933
7.068515
7.117987
7.227659
7.191896
7.033944
6.931424
7.233620
7.327795
7.053614
7.372499
7.328987
7.717609
6.818771
6.878972
7.017851
##ZVALUE=285
0.525713
0.524521
0.407696
0.500679
0.470877
0.620484
0.578761
0.575781
0.560880
0.649691
0.538826
0.688434
0.878572
0.582933
0.707507
0.776649
0.778437
0.865459
1.027584
0.765920
1.015663
1.095533
0.990629
1.485944
4.547834
14.399886
51.424503
108.968616
242.628455
378.372669
587.548614
752.606988
889.135599
969.265699
925.737619
767.006874
601.942539
377.063751
238.723755
114.642978
62.163472
34.492612
35.132766
54.374933
72.854757
103.112459
121.276975
140.780807
145.692825
140.710473
129.349828
104.882717
83.963871
57.157874
41.097403
24.022460
15.836954
9.367466
7.381439
6.248951
6.285906
6.190538
5.680919
6.074905
6.164908
6.168485
6.220937
6.467700
6.567836
6.707907
6.980896
7.274747
7.107854
7.120967
7.098913
7.517934
7.238984
7.320642
7.344484
7.377863
7.174611
7.000566
6.743670
7.336736
7.176995
7.007718
7.073879
6.702542
7.466674
7.061958
7.344484
6.906986
6.851554
7.023811
6.801486
6.734729
##ZVALUE=290
0.321865
0.427961
0.658631
0.533462
0.557899
0.445843
0.503659
0.540614
0.489950
0.483990
0.571609
0.416636
0.663996
0.711679
0.750422
0.453591
0.690818
0.625849
0.876784
0.776649
0.640750
1.006722
0.784993
0.974536
1.253486
1.305938
2.011657
6.114841
29.770732
68.897605
163.840652
285.170674
448.865891
689.033866
844.486952
966.383815
967.338681
841.386914
693.783760
465.981960
310.357809
155.424476
82.718730
34.700632
24.827719
33.050776
48.113465
70.961714
91.150999
116.834641
132.062435
140.394568
138.134956
123.488903
104.589462
78.632832
58.430433
36.550760
25.160909
14.216900
10.175705
6.887913
5.963445
5.682707
5.921721
5.911589
6.466508
5.966425
6.241798
6.631613
6.834865
6.778836
7.091761
7.193685
7.177591
7.123947
7.462502
7.017851
7.085800
7.430911
6.913543
7.131696
7.045865
6.943941
7.150769
6.841421
6.977916
6.960630
6.994605
7.148981
6.610751
6.998777
6.958842
6.884933
7.008910
6.722808
##ZVALUE=295
0.536442
0.415444
0.559688
0.415444
0.536442
0.327826
0.391603
0.326633
0.415444
0.521541
0.506639
0.423789
0.600815
0.423789
0.620484
0.571609
0.660419
0.592470
0.696778
0.623465
0.696778
0.686646
0.896454
0.826716
1.047850
1.079440
1.096725
1.131892
1.720786
2.827644
9.822845
42.000413
95.849633
227.797627
370.950699
601.084828
765.075684
926.212668
973.796844
904.370546
785.207748
567.878485
397.133827
214.556456
116.488934
44.145584
23.989677
20.045638
27.888417
45.214891
62.188506
88.338852
106.529593
127.147436
133.625865
130.858421
118.188858
97.727776
79.165697
54.350495
38.953424
22.527575
15.211701
9.403825
7.136464
6.122589
5.606413
5.544424
5.711913
5.987883
6.654859
6.570816
6.818771
6.964803
7.172823
6.996989
7.253885
7.617474
7.108450
7.096529
7.325411
7.266998
7.098913
6.885529
7.350445
7.229447
7.279515
7.226467
6.873608
7.103682
6.980896
6.881952
6.805658
6.806850
6.888509
6.661415
##ZVALUE=300
0.351667
0.400543
0.469685
0.498891
0.281930
0.400543
0.228882
0.271797
0.458956
0.561476
0.458956
0.320673
0.273585
0.530481
0.488758
0.660419
0.393987
0.729561
0.661612
0.711679
0.819564
0.664592
0.605583
0.690818
0.827909
0.805855
1.005530
0.908971
1.140833
1.332760
1.227856
1.619458
5.651712
20.680428
72.873831
146.210790
299.500823
464.708805
696.610808
837.782025
952.988863
951.054692
832.621455
689.538717
456.759930
300.635695
150.927901
81.648827
30.349493
16.933680
17.015934
25.019646
40.654540
56.389570
80.124736
100.118518
119.958520
126.387477
124.051571
115.735531
97.519755
77.870488
54.263473
39.909482
24.336576
16.123652
9.598732
7.423759
6.220937
6.196499
6.228685
6.334782
6.308556
6.631613
6.879568
6.880760
6.877780
6.770492
6.995797
7.371902
7.100701
7.318854
7.218719
7.435679
7.188916
7.348657
7.274747
7.111430
6.879568
6.979704
6.895661
7.506609
6.721616
6.977916
6.628633
6.253719
##ZVALUE=305
0.332594
0.403523
0.461936
0.336766
0.390410
0.367761
0.294447
0.533462
0.377893
0.451803
0.452995
0.291467
0.454783
0.431538
0.470877
0.422597
0.533462
0.497699
0.311732
0.263453
0.468493
0.617504
0.637770
0.749826
0.754595
0.832677
0.683665
0.848770
0.759959
0.978708
0.851750
1.072884
1.279712
1.285672
2.316833
14.479756
41.335821
117.508769
215.346813
403.033495
575.779676
783.303976
905.448794
950.531960
895.986557
715.867877
558.337569
357.486606
223.149657
104.039907
51.700473
19.001961
12.500882
16.482472
23.303628
38.710833
54.284930
77.128410
94.615817
113.180876
118.998885
117.534995
110.395551
91.758966
74.532628
52.547455
37.770867
22.652745
14.698505
9.348989
7.483959
6.846786
6.837845
6.700754
6.250739
6.789565
6.834865
6.704926
7.220507
6.924868
6.996989
7.124543
7.278919
7.409453
7.265806
7.361770
7.466674
6.982684
7.011890
7.003546
7.047653
7.214546
7.365942
6.502867
6.886721
6.973743
##ZVALUE=310
0.186563
0.285506
0.378489
0.320673
0.444651
0.443459
0.300407
0.278950
0.336766
0.329614
0.281930
0.351667
0.349879
0.343919
0.307560
0.511408
0.420809
0.515580
0.373721
0.527501
0.590682
0.419617
0.548959
0.563860
0.540614
0.502467
0.576973
0.673532
0.729561
0.693798
0.856519
0.889897
0.880957
0.840425
1.091957
1.204610
1.589656
5.870461
20.801425
70.172548
141.747594
296.237469
459.597707
686.360002
827.385783
936.454535
934.565663
824.952722
684.266686
466.381907
313.178897
159.904957
85.318685
31.030774
14.448762
10.437965
13.813972
22.367835
31.866431
49.946904
66.258907
88.226795
101.179481
112.919807
112.906694
104.470849
91.097951
71.455836
54.551959
35.320520
24.848580
14.941692
10.825992
8.046627
7.152557
6.981492
7.061958
6.676912
6.578565
6.917715
7.002950
7.041693
7.078648
7.106662
7.146597
7.299781
7.403493
7.570982
7.541776
7.170439
6.989837
6.930828
6.942749
6.874800
6.850958
6.608963
##ZVALUE=315
0.190735
0.292659
0.243783
0.257492
0.241995
0.222921
0.417829
0.312924
0.363588
0.394583
0.320673
0.327826
0.443459
0.344515
0.302792
0.434518
0.484586
0.428557
0.493526
0.311732
0.405908
0.274777
0.520945
0.455976
0.384450
0.565648
0.534654
0.526905
0.712872
0.735521
0.758767
0.640750
0.760555
0.908971
0.911951
0.961423
1.059771
1.207590
1.190901
2.797842
10.504723
45.020580
99.656582
228.900909
375.074744
609.781742
758.718848
894.665718
937.134027
870.427489
752.697587
545.510650
388.431549
207.822919
114.068985
43.679476
18.986464
9.095669
9.193420
13.000965
18.682480
31.978488
44.922829
64.033866
79.472661
98.410845
105.121732
106.893778
100.788474
84.488988
69.680810
50.432682
36.917925
22.667646
15.562773
10.329485
8.326769
7.416606
7.052422
7.073879
6.991625
7.065535
6.949902
7.404685
7.014871
7.463694
7.050633
7.249713
7.420778
7.559657
7.329583
7.215738
7.175803
7.372499
7.139444
6.506443
##ZVALUE=320
0.325441
0.276566
0.349879
0.189543
0.376701
0.294447
0.289679
0.311732
0.204444
0.213981
0.270605
0.404716
0.463724
0.245571
0.287890
0.266433
0.426769
0.414848
0.304580
0.379682
0.354648
0.510812
0.446439
0.475645
0.537634
0.463724
0.492930
0.469685
0.529885
0.506639
0.693798
0.713468
0.653863
0.761747
0.859499
0.851750
0.952482
1.018643
1.001954
0.948906
1.210570
1.747608
4.441738
25.100708
64.998865
172.879696
286.135674
477.538705
640.388727
827.655792
911.033750
909.067988
821.678638
625.683665
459.156632
256.378651
148.633718
64.541698
29.375553
10.750890
7.653832
8.811951
10.951757
17.679930
26.395917
43.009520
56.269765
76.510906
89.988708
99.605918
102.738738
94.005466
83.368421
64.525604
50.403476
33.248663
23.552775
15.568733
10.778904
8.669496
7.669926
6.908774
6.919503
7.208586
7.186532
6.945729
7.191896
7.274747
7.223487
7.380843
7.047653
7.009506
7.103682
7.163882
7.173419
6.936789
##ZVALUE=325
0.218749
0.125766
0.327826
0.187755
0.269413
0.294447
0.280738
0.220537
0.217557
0.201464
0.330806
0.341535
0.382662
0.280738
0.321865
0.328422
0.408888
0.357628
0.404716
0.436902
0.401735
0.499487
0.461936
0.353456
0.346899
0.383854
0.569820
0.376701
0.603795
0.555515
0.414848
0.625849
0.584722
0.484586
0.667572
0.724792
0.659823
0.736713
0.717640
0.907779
0.717640
0.938773
1.193881
1.254678
2.432466
15.982985
43.104887
114.485621
209.925771
396.550894
557.332635
754.867792
859.954953
903.888941
846.489668
670.593977
511.682630
315.406919
192.592740
84.827542
40.844679
13.771653
8.126497
7.173419
7.947683
11.447668
16.449690
26.616454
38.296580
57.925582
71.830750
86.763501
93.517900
93.949437
88.606477
74.746609
61.804652
44.939518
32.883883
20.678639
14.964938
10.055900
8.686781
7.648468
7.434487
7.339716
7.171631
7.177591
6.695986
6.856918
6.965995
7.029772
6.927848
6.738901
6.896853
7.062554
##ZVALUE=330
0.401735
0.257492
0.483990
0.549555
0.532866
0.511408
0.380874
0.436902
0.434518
0.504851
0.437498
0.415444
0.472665
0.401735
0.514984
0.455976
0.391603
0.552535
0.578761
0.498891
0.496507
0.523925
0.496507
0.533462
0.679493
0.652671
0.609756
0.467896
0.593662
0.713468
0.583529
0.585914
0.681877
0.808835
0.883937
0.593662
0.688434
0.822544
0.699759
0.821948
0.958443
0.949502
0.985861
1.165867
1.143813
1.305938
1.699924
7.283688
22.769570
75.265765
149.122477
301.502943
446.857810
657.922029
790.337920
879.920721
855.633616
724.581480
584.797859
386.255980
249.639750
117.359757
59.738755
21.532774
10.156631
7.335544
6.837845
7.933974
10.167956
16.741753
25.208592
39.548874
52.758455
70.949793
80.469847
88.910460
90.250969
83.528757
73.594451
56.703687
43.950677
29.680729
21.924973
15.010834
11.506677
8.731484
8.027554
7.356405
7.082820
6.936789
6.867647
6.734729
6.898642
6.681681
6.667972
7.004738
##ZVALUE=335
0.265837
0.101924
0.083447
0.205636
0.234842
0.283718
0.164509
0.314713
0.290871
0.153780
0.169873
0.362992
0.197887
0.196695
0.296831
0.363588
0.332594
0.333786
0.227690
0.345707
0.376701
0.366569
0.181794
0.376701
0.336766
0.369549
0.459552
0.473857
0.485778
0.423789
0.380874
0.597835
0.597835
0.374913
0.460744
0.612736
0.456572
0.654459
0.373721
0.485778
0.705719
0.592470
0.594854
0.799894
0.742674
0.814795
0.993609
0.991821
1.280904
3.137589
11.740923
46.622753
99.553466
224.230886
363.719463
581.738949
730.414987
848.729610
866.026878
778.345466
656.982660
447.440743
305.658579
159.398913
84.088445
29.413700
12.925863
7.092953
6.374717
6.650686
7.457733
10.363460
15.174747
24.570823
34.858584
51.261783
63.114762
75.494647
82.171559
82.887411
77.843666
65.675974
55.476427
42.048693
32.040477
21.521449
15.899539
11.325479
8.860826
7.325411
7.006526
6.815791
6.545782
6.192923
6.546974
6.451607
##ZVALUE=340
0.126958
0.302792
0.121593
0.244975
0.165701
0.362992
0.352859
0.344515
0.270605
0.288486
0.226498
0.275970
0.253916
0.162721
0.285506
0.374913
0.326633
0.313520
0.230670
0.283718
0.338554
0.484586
0.352859
0.328422
0.316501
0.346899
0.331998
0.310540
0.292659
0.346899
0.442863
0.375509
0.423789
0.311732
0.319481
0.445843
0.510812
0.490546
0.559688
0.531673
0.498891
0.684857
0.700951
0.596642
0.628829
0.699759
0.631809
0.827909
0.912547
0.882745
1.118779
1.702905
5.774498
28.770566
69.591403
174.290538
293.750763
481.188893
630.069971
783.981681
833.580494
791.686773
690.081716
514.248610
363.227725
190.562606
105.037689
43.609738
18.422604
7.755756
6.510615
6.289482
6.271601
7.602572
9.715557
15.862584
22.939444
34.610629
46.090484
61.439872
70.728660
78.369975
78.159571
73.248744
65.054893
52.751899
41.558743
29.434562
22.047758
15.016794
10.878444
8.041859
7.197857
6.653666
6.565452
6.269813
##ZVALUE=345
0.185966
0.277758
0.144839
0.297427
0.180602
0.215769
0.252724
0.185966
0.181794
0.387430
0.230670
0.203848
0.231862
0.329614
0.162721
0.268817
0.301600
0.228882
0.388622
0.294447
0.117421
0.295639
0.334978
0.283718
0.287890
0.375509
0.334978
0.331998
0.324845
0.383854
0.347495
0.390410
0.388622
0.268817
0.481606
0.225902
0.419617
0.364780
0.296831
0.355840
0.339746
0.393987
0.524521
0.515580
0.618696
0.599623
0.603795
0.753999
0.673532
0.780821
0.766516
0.947714
1.115799
1.176596
2.538562
15.850663
44.959784
121.699572
212.824941
381.401777
525.244474
702.895522
787.432790
804.975629
737.378001
572.389960
429.136753
254.591703
144.388676
57.354569
26.100874
9.871721
6.729960
6.374717
6.062984
6.161928
6.681681
9.282827
13.327599
21.691918
31.349659
44.578910
54.070950
64.484477
70.834756
72.515607
69.431663
61.421990
52.359700
39.864779
30.509830
20.517707
15.121698
10.423660
8.061528
6.736517
##ZVALUE=350
0.209808
0.153780
0.136495
0.202656
0.167489
0.249743
0.211596
0.283718
0.201464
0.200868
0.274777
0.231862
0.155568
0.299811
0.095963
0.205636
0.107884
0.226498
0.150800
0.267625
0.252724
0.313520
0.285506
0.210404
0.211596
0.200868
0.365973
0.325441
0.303984
0.379682
0.372529
0.326633
0.485778
0.440478
0.354648
0.340939
0.462532
0.330806
0.454783
0.454783
0.521541
0.411868
0.484586
0.334978
0.441670
0.520945
0.375509
0.570416
0.529885
0.602603
0.706911
0.732541
0.703931
0.880957
0.827909
1.118779
1.457930
7.760525
24.331808
78.123808
148.525834
298.868418
435.499549
614.967942
725.917816
787.122846
756.446719
629.708767
484.415889
292.220712
179.212689
82.763433
38.837790
12.491941
6.851554
5.955696
5.838871
5.769730
5.507469
6.550550
8.208752
13.563633
18.567443
27.695894
36.268830
48.768520
57.231784
64.264536
66.149831
64.506531
59.005618
47.246814
38.778782
27.480721
20.930767
14.327765
##ZVALUE=355
0.188947
0.259876
0.290871
0.098944
0.226498
0.146627
0.145435
0.079870
0.160933
0.310540
0.351667
0.250936
0.237823
0.348687
0.399947
0.351667
0.192523
0.095963
0.131726
0.232458
0.260472
0.306964
0.087619
0.194907
0.307560
0.334978
0.388622
0.391603
0.402927
0.500679
0.369549
0.412464
0.324845
0.500679
0.365973
0.325441
0.397563
0.486970
0.379682
0.249743
0.306964
0.451803
0.586510
0.567436
0.466704
0.620484
0.400543
0.432730
0.643730
0.790954
0.634789
0.576973
0.654459
0.716448
0.642538
0.858903
0.968575
1.133680
1.180768
3.596544
13.327599
53.490400
110.047460
231.082439
358.894467
554.920435
674.278736
761.275887
762.892962
651.825666
527.299643
350.950956
224.126577
100.129843
49.126744
15.948415
7.753968
5.864501
5.612969
5.393624
5.088449
5.667806
6.021857
7.705688
10.709763
16.653538
23.238659
33.492446
41.873455
51.455498
56.929588
59.749484
58.389902
52.979589
45.568943
36.079884
##ZVALUE=360
0.241995
0.254512
0.301600
0.150800
0.103712
0.230670
0.135899
0.244975
0.121593
0.310540
0.255704
0.274777
0.203848
0.284910
0.251532
0.155568
0.393987
0.287890
0.266433
0.302792
0.377893
0.456572
0.449419
0.387430
0.397563
0.477433
0.334978
0.319481
0.313520
0.376701
0.458956
0.360608
0.315905
0.277758
0.411868
0.311732
0.409484
0.348687
0.335574
0.342727
0.464916
0.388622
0.403523
0.447631
0.521541
0.510812
0.493526
0.572801
0.583529
0.626445
0.595450
0.510812
0.755787
0.697970
0.673532
0.723600
0.630617
0.784993
0.979900
1.044869
0.979900
1.689792
5.595684
25.966763
64.524412
159.067512
266.080499
432.236791
571.015477
703.905821
737.738013
686.900616
582.411885
402.199626
269.304514
131.655931
68.671703
26.313663
11.028647
5.808473
5.198717
4.887581
4.926920
4.777908
4.860759
5.318522
6.532669
9.069443
12.822747
19.210577
26.001930
35.847425
43.640733
51.057935
54.052472
53.825974
##ZVALUE=365
0.324845
0.172853
0.379682
0.260472
0.233650
0.281930
0.267625
0.265837
0.121593
0.187755
0.261664
0.292659
0.445843
0.157952
0.333786
0.226498
0.202656
0.248551
0.473857
0.335574
0.191927
0.381470
0.476837
0.386834
0.360608
0.331998
0.523925
0.375509
0.245571
0.455976
0.418425
0.371933
0.454783
0.474453
0.296831
0.411868
0.400543
0.463724
0.369549
0.389814
0.459552
0.199676
0.429749
0.478625
0.394583
0.466704
0.472665
0.600815
0.500679
0.468493
0.570416
0.360608
0.604987
0.719428
0.487566
0.653863
0.681877
0.728965
0.815988
0.781417
0.941753
1.095533
1.005530
1.173615
3.092885
11.691451
46.054721
99.616647
223.667622
346.623659
516.327620
624.389648
708.791614
701.471567
595.140457
479.737520
314.710736
193.996429
86.171627
42.383671
14.747977
7.049441
4.931688
4.879832
4.691482
4.506707
4.222989
4.500747
4.744530
5.473495
7.838607
10.784864
16.727448
22.632480
31.122565
37.119985
##ZVALUE=370
0.237823
0.233650
0.084639
0.232458
0.186563
0.119805
0.130534
0.112653
0.157952
0.121593
0.149608
0.243783
0.234842
0.271797
0.087619
0.276566
0.240803
0.340939
0.319481
0.252724
0.308752
0.166893
0.303984
0.124574
0.248551
0.284910
0.363588
0.164509
0.478625
0.242591
0.187755
0.183582
0.376701
0.405908
0.346899
0.251532
0.396967
0.150800
0.313520
0.420809
0.495911
0.350475
0.295639
0.290871
0.209808
0.393987
0.346899
0.399947
0.441670
0.428557
0.386834
0.588894
0.338554
0.515580
0.447631
0.488758
0.537634
0.489950
0.556707
0.667572
0.794530
0.560880
0.681877
0.740886
0.975728
1.150966
1.582503
7.636547
24.902821
81.840754
152.214766
287.561417
417.024493
584.544539
670.104027
692.851543
639.977455
506.329536
377.013683
214.151740
119.887590
47.701597
22.882819
8.608699
5.094409
4.522800
4.384518
4.177690
3.973842
3.951788
3.884435
4.007816
4.577637
6.522536
8.912683
13.925433
##ZVALUE=375
0.069737
0.102520
0.104904
0.135899
0.118613
0.143647
0.019670
0.158548
0.184774
0.234842
0.099540
0.230670
0.190735
0.216961
0.310540
0.348687
0.307560
0.255704
0.235438
0.245571
0.109673
0.185966
0.186563
0.214577
0.238419
0.158548
0.295639
0.189543
0.265837
0.196695
0.149608
0.185966
0.299811
0.392795
0.278950
0.261664
0.391603
0.187755
0.249743
0.196695
0.204444
0.290871
0.382662
0.420809
0.400543
0.306964
0.231862
0.284910
0.269413
0.386834
0.270605
0.246763
0.602603
0.285506
0.388622
0.355840
0.454783
0.575781
0.518560
0.388622
0.472665
0.499487
0.618696
0.643730
0.798702
0.814795
0.714660
0.876784
1.317859
3.664494
13.836622
51.470995
108.215809
239.438415
367.165804
539.788008
642.680526
698.819757
681.522489
565.568805
442.574620
273.472667
169.990659
78.162551
39.504766
13.422966
6.332994
4.172921
3.937483
3.974438
3.799796
3.578663
3.390908
3.524423
3.553629
4.086494
##ZVALUE=380
0.195503
-0.057817
0.160933
0.230670
0.113845
0.219941
0.235438
0.243783
0.238419
0.078678
0.228882
0.113845
0.179410
0.129938
0.244975
0.334978
0.197887
0.134706
0.194907
0.281930
0.256896
0.194907
0.134706
0.171661
0.233650
0.201464
0.156760
0.146627
0.294447
0.118613
0.151992
0.268817
0.311732
0.176430
0.246763
0.322461
0.209808
0.287890
0.284910
0.262856
0.241995
0.355840
0.193715
0.262856
0.189543
0.250936
0.161529
0.456572
0.349879
0.277758
0.249743
0.366569
0.441670
0.526905
0.495911
0.361800
0.135899
0.403523
0.424981
0.579953
0.367761
0.510812
0.531673
0.722408
0.367761
0.481606
0.710487
0.626445
0.997782
0.775456
1.056790
2.011657
7.464886
35.253763
80.567598
185.827613
295.488834
459.871888
577.015877
678.040981
681.309700
591.500998
488.984585
341.864824
231.060982
115.155578
59.652925
21.575689
8.953810
4.402995
3.823638
3.387928
3.378987
3.214478
3.266931
3.299713
##ZVALUE=385
0.260472
0.176430
0.322461
0.121593
0.130534
0.127554
0.093579
0.212789
0.163913
0.113845
0.114441
0.218749
0.129938
0.150800
0.297427
0.234842
0.244975
0.106692
0.184774
0.132918
0.078678
0.419617
0.101924
0.084639
0.140667
0.152588
0.101924
0.193715
0.268817
0.306964
0.292659
0.375509
0.402927
0.285506
0.307560
0.265837
0.210404
0.187755
0.197887
0.290871
0.255704
0.334978
0.337958
0.269413
0.317693
0.241995
0.335574
0.254512
0.264645
0.295639
0.313520
0.268817
0.249743
0.262856
0.399947
0.259876
0.283718
0.502467
0.529885
0.392795
0.527501
0.520945
0.432730
0.440478
0.562668
0.356436
0.458956
0.468493
0.524521
0.767708
0.802875
0.998974
1.107454
1.389980
3.382564
20.350814
53.185821
133.085847
228.706598
393.079519
518.035889
641.721487
676.093698
636.933446
556.541681
407.666564
287.625790
157.063603
89.755654
37.403703
15.571713
5.159974
3.630519
3.313422
3.152490
3.255606
##ZVALUE=390
0.034571
0.105500
0.173450
0.148416
0.120997
0.221729
0.142455
0.004768
0.136495
0.021458
0.153780
0.078678
0.185966
0.211596
0.124574
0.113845
0.352859
0.156760
0.082850
0.073910
0.167489
0.223517
0.159740
0.081658
0.176430
0.146627
0.183582
0.316501
0.279546
0.189543
0.294447
0.291467
0.151992
0.278950
0.066757
0.304580
0.195503
0.294447
0.405908
0.223517
0.338554
0.310540
0.254512
0.270605
0.270605
0.346899
0.406504
0.256896
0.246763
0.344515
0.359416
0.303984
0.269413
0.230670
0.287890
0.326633
0.386834
0.464916
0.316501
0.245571
0.398755
0.311732
0.203848
0.394583
0.443459
0.434518
0.493526
0.588894
0.462532
0.538826
0.759959
0.836849
0.944734
0.810623
0.827909
0.940561
1.917481
9.835958
33.294559
106.779933
202.417970
371.119976
494.279861
627.619624
696.735978
699.283481
633.285642
494.282842
374.683738
226.336718
132.803917
54.196715
24.980903
7.346869
3.919601
3.058910
##ZVALUE=395
0.094771
0.143647
0.125766
0.143647
0.198483
0.229478
0.278950
0.119805
0.165701
0.215769
0.172853
0.246763
0.139475
0.130534
0.095963
0.190735
0.162721
0.078678
0.123978
0.227690
0.244975
0.134706
0.168681
0.187755
0.091791
0.189543
0.162721
0.248551
0.219941
0.275970
0.356436
0.331998
0.316501
0.351667
0.363588
0.330806
0.384450
0.339746
0.369549
0.180602
0.242591
0.123978
0.316501
0.323653
0.302792
0.344515
0.349879
0.220537
0.260472
0.284910
0.237823
0.249743
0.259876
0.234842
0.323653
0.303984
0.310540
0.298619
0.399947
0.328422
0.293851
0.306964
0.445843
0.372529
0.378489
0.447631
0.433922
0.507832
0.412464
0.558496
0.638962
0.829697
0.744462
0.771880
0.720620
0.670552
0.795722
0.790954
1.265407
5.423427
20.160675
75.761676
145.330429
274.176002
403.142571
578.330755
672.834516
715.865493
688.852668
571.002960
445.669889
273.872614
169.649720
74.480772
35.912991
12.313724
##ZVALUE=400
0.068545
0.123978
0.148416
0.098944
0.149608
0.083447
0.065565
0.139475
0.173450
0.111461
0.093579
0.156760
0.052452
0.098944
0.197887
0.263453
0.100732
0.084639
0.010729
0.276566
0.243783
0.215769
0.201464
0.166893
0.307560
0.285506
0.215769
0.167489
0.338554
0.135899
0.244975
0.348687
0.114441
0.360608
0.338554
0.304580
0.287890
0.379682
0.241995
0.294447
0.334978
0.426769
0.340939
0.250936
0.291467
0.335574
0.242591
0.356436
0.216961
0.328422
0.259876
0.439882
0.238419
0.458956
0.411868
0.318885
0.368953
0.345707
0.352859
0.325441
0.389814
0.262856
0.495911
0.278950
0.421405
0.483990
0.455976
0.401735
0.646710
0.540614
0.759959
0.558496
0.629425
0.727773
0.614524
0.529885
0.718832
0.679493
0.627637
0.763535
0.897646
2.751946
10.380745
37.796497
81.747770
184.289813
295.104980
458.408594
567.893982
656.028986
666.134953
584.507585
478.478670
318.965912
210.849643
107.165575
##END
