##TITLE=FAAI0802
##FORMAT=SPECTACLE-ASCII V-1.2
##DATA TYPE=ULTRAVIOLET SPECTRUM
##SECOND TYPE=ULTRAVIOLET SPECTRUM
##DATE=01/24/18
##TIME=18:58:25
##SPECTROMETER/DATA SYSTEM=SPECTACLE
##XUNITS=NM EM
##YUNITS=ENERGY
##YFACTOR=1
##FIRSTX=220
##LASTX=410
##NPOINTS=96
##3DDATA=Equidistant
##ZUNITS=NM EX
##FIRSTZ=210
##LASTZ=400
##ZPOINTS=39
##XYDATA=(Y..Y)
##ZVALUE=210
3.526807
3.637671
3.752708
3.311634
3.656745
3.368855
3.642440
3.901720
3.577471
3.224611
2.576709
2.475977
2.656579
1.989603
2.353787
2.548695
2.434850
2.290606
2.943873
3.451705
3.288984
3.600717
3.270507
3.938675
4.724860
5.356669
5.628467
7.589459
7.943511
10.077953
11.749864
12.264848
13.511777
13.851523
16.602874
16.733408
15.734434
15.499592
16.343594
14.684796
14.572740
12.627840
14.887452
13.535619
12.084842
12.260675
11.598468
11.408925
11.037588
10.290742
8.741617
9.299517
8.798838
9.020567
8.089542
9.437799
7.794499
9.110570
8.327961
7.654428
7.188916
7.510781
7.826686
6.852746
8.664727
6.117821
7.004738
8.160472
9.002686
10.076761
11.911988
13.374686
14.456511
16.509891
19.363761
19.967556
19.364953
18.847585
19.307733
18.579960
16.066432
16.328692
12.692809
11.164546
9.338856
7.627606
5.982518
5.543828
6.840825
5.826950
5.546808
7.039905
6.781816
7.049441
7.977486
8.490682
##ZVALUE=215
12.829900
12.141466
10.780692
10.021925
7.569790
6.983876
6.210804
7.664561
7.426739
6.306767
5.947948
4.779696
4.339814
3.389716
3.688931
2.709627
3.184676
2.852678
2.896786
2.884865
2.756715
3.300905
3.616810
5.011559
5.593896
6.135702
8.532405
9.921789
11.835694
15.605688
16.633868
21.452904
22.364855
25.715828
25.522709
25.268793
25.542974
23.282766
24.719834
23.059845
22.686720
20.589828
22.511482
20.352602
17.292500
16.649961
16.952753
16.240478
14.477968
13.743639
12.280941
12.476444
11.708736
10.885000
10.316968
10.186434
9.590983
9.150505
8.587837
8.739829
7.551908
8.131862
8.627772
8.642673
7.958412
7.698536
7.956624
8.359551
9.174943
9.392500
11.425614
12.211800
12.254715
14.585853
13.818741
16.914606
16.646981
17.756820
14.722943
14.652610
13.912916
12.354851
11.420846
9.691715
8.697510
7.028580
6.943941
5.755424
5.825758
5.311966
5.927682
5.232692
5.690455
5.138516
5.603433
5.774498
##ZVALUE=220
36.130548
35.692453
39.327741
36.958456
32.067895
27.657747
21.169782
16.919971
14.230609
14.015436
13.180971
14.064908
14.784932
11.902452
10.337830
8.471608
5.077720
4.273653
2.930760
3.874898
3.764629
3.355742
4.240870
4.413724
4.511476
7.795691
9.101629
14.605522
17.790794
22.561550
26.648641
29.328465
32.349825
36.106706
37.132502
37.994981
38.227439
36.578774
36.358833
35.733581
33.520460
34.120679
31.426549
28.717518
26.627779
26.201606
22.627711
21.078587
21.661520
19.176602
17.880797
16.889572
16.537905
15.200973
15.620589
13.207793
13.457537
12.252927
12.173653
11.370778
10.043979
10.959506
11.189580
9.740591
10.180473
9.740591
8.974671
9.370446
9.819865
10.381937
11.458993
10.741949
12.963414
13.547540
14.534593
14.370680
13.720989
14.370680
14.227629
14.517903
14.955997
12.941957
11.722445
9.273887
9.201765
8.033514
7.548928
6.597638
6.084442
5.698800
6.202459
6.534457
5.679727
5.284548
5.272627
5.285740
##ZVALUE=225
54.161549
60.146451
71.396828
88.019967
95.412731
92.678666
81.141591
65.844655
50.960779
38.997531
29.711723
26.827455
30.493736
29.849410
28.321743
26.434660
21.511912
18.800497
13.625622
8.638501
6.101727
4.599690
3.865957
4.429817
6.542802
7.740855
11.573434
13.299584
17.859936
24.147630
29.044747
33.737421
38.135648
40.324926
41.712523
41.957498
44.440627
41.551590
40.327907
40.545464
39.824843
37.604570
35.083890
32.275915
29.998422
29.276609
27.265549
24.430752
24.478436
21.402836
21.369457
19.446611
20.470619
17.416477
17.037988
16.275644
15.162826
16.616583
14.945865
13.094544
13.677478
13.466477
13.025999
12.509823
13.368726
11.950731
11.831522
12.639761
13.297796
12.175441
14.173985
13.910532
14.152527
14.935732
15.917420
14.637709
15.400648
14.099479
15.230775
13.645887
13.471842
12.647510
12.033582
10.742545
10.015965
9.776950
9.363890
9.332895
7.599592
7.936954
8.370876
8.088946
8.529425
7.931590
7.643700
7.805824
##ZVALUE=230
44.108629
48.796535
76.340437
121.781826
159.536600
195.053816
209.316611
203.287601
180.071592
132.803917
100.460649
75.845718
52.716732
45.529604
47.922730
50.234795
50.335526
50.576925
44.340491
36.693811
26.986599
18.465519
11.014938
8.537769
7.674694
6.905794
9.061694
11.800528
14.620423
21.959543
21.022558
25.096536
27.905703
29.403567
31.601787
34.168959
34.072995
33.222437
31.910539
33.616424
31.548738
28.161407
28.866529
25.762916
24.807453
23.019910
22.022724
20.751953
21.008849
19.457936
19.946694
18.636584
17.609000
18.916726
18.655658
16.188622
17.426610
15.929937
16.834736
16.440749
15.344620
16.641617
14.707446
14.630556
15.110970
15.863776
16.481876
15.692711
16.546845
16.686916
16.195774
18.700957
17.525554
17.652512
19.327998
17.108917
18.096566
18.476844
17.192960
16.198754
14.928579
14.550686
15.140772
13.412833
14.133453
12.482405
12.796521
11.814833
12.103915
10.571480
11.925697
10.656714
11.255741
10.531545
10.360479
11.082888
##ZVALUE=235
14.751554
16.440749
33.748746
76.837540
127.910972
195.418596
256.776810
325.074792
361.020565
354.654789
314.495564
258.137584
173.574686
126.533508
89.995861
76.378584
73.987842
80.269575
83.854795
86.547732
76.162815
62.775612
49.567819
35.392642
25.011897
16.498566
13.335943
11.535883
11.801720
13.357997
13.680458
16.333461
15.814900
18.046498
20.307899
19.623637
19.900799
18.815994
20.189881
19.386411
19.343495
20.531416
20.060539
16.783476
17.045736
16.249418
16.052723
16.502738
17.871857
16.100407
16.056895
17.156601
17.122626
19.212961
18.543601
17.255545
17.999411
19.160509
18.114448
19.288659
19.814968
18.745661
21.393895
19.628406
18.695593
19.927621
18.520951
18.157959
20.401478
20.200610
20.572543
20.637512
21.782517
21.624565
22.864938
22.500753
23.627877
20.977855
21.660924
21.249652
20.168424
19.237995
17.500520
17.479658
18.526912
16.975999
16.878843
17.587543
15.610456
15.071630
16.222000
15.841722
14.984608
13.775826
13.755560
13.554692
##ZVALUE=240
1.907945
2.274513
6.756783
16.639829
39.628744
94.511509
159.291625
276.507735
360.422730
463.607907
522.820950
533.481836
490.972996
386.534929
306.571722
196.960568
139.941573
106.218457
95.362663
101.118684
110.868812
118.774772
114.856958
100.819468
84.172487
66.849589
47.565699
34.737587
25.452971
19.581914
16.288757
16.300678
16.606450
15.180707
17.070770
17.225742
16.681552
16.688704
16.427636
16.567707
16.992688
15.775561
16.026497
15.450716
15.527606
15.727878
15.896559
15.253425
16.475916
16.375780
17.229915
18.656850
18.760562
19.278526
17.445683
18.503666
20.496845
19.178987
20.579696
21.991730
21.885633
22.946000
22.584796
20.824671
22.060871
21.670461
21.432638
22.221804
22.988915
23.477674
26.171803
25.615692
24.742484
26.969910
26.417971
26.840568
25.782585
23.204684
24.927855
24.898648
25.071502
21.949410
22.329688
21.965504
21.577477
20.540953
18.816590
20.577908
19.493699
21.266937
18.196702
17.222762
17.814636
17.880797
16.351938
17.692447
##ZVALUE=245
1.747608
1.463890
2.096891
2.446771
4.903674
11.818409
38.102865
77.228546
175.006986
267.719626
413.009524
514.348745
595.602989
629.103780
616.206527
505.460501
405.993462
279.361606
194.657445
125.806928
104.854703
101.503730
115.047693
127.645731
133.945942
127.679706
116.119981
102.424622
78.791976
63.514709
44.914484
34.952760
29.574633
23.571849
21.007657
21.169782
21.324754
19.372702
20.781755
20.247698
20.784736
19.289851
18.825531
17.494559
17.443895
17.094612
17.245412
16.095638
16.905665
17.623901
16.936660
17.614961
19.325614
18.183589
19.343495
20.974874
19.896626
18.947721
21.525621
20.069480
21.150708
20.745993
22.110939
19.878745
21.130443
20.417571
20.621419
20.477772
22.876859
21.849871
22.721887
23.357868
21.870732
23.517609
22.807717
23.290515
22.274852
23.793578
23.247600
22.841692
21.061897
20.914674
20.450950
20.884871
20.745993
18.858910
19.779801
19.721985
19.049644
18.412471
17.933846
18.051863
17.895699
17.623901
17.571449
18.878579
##ZVALUE=250
1.363754
1.684427
1.244545
1.689792
1.231432
1.361966
1.871586
8.607507
23.581982
54.730773
135.854483
233.635902
396.512747
505.152941
635.907650
699.579716
693.296790
638.023615
542.092919
380.579829
262.468457
156.650543
115.350485
100.818872
105.074644
128.344893
140.343904
148.116946
147.769451
130.187869
116.022825
91.411471
75.928569
54.654479
43.223500
34.154654
30.073524
28.709769
27.741790
26.934743
26.708841
25.082827
23.499727
23.008585
22.268891
21.280646
20.270944
19.394755
19.395947
19.301772
19.044876
19.256473
20.130873
18.710494
17.983913
18.852949
18.235445
19.600987
19.254684
18.798709
19.785762
17.977953
18.856525
17.897487
17.547607
16.977787
16.826987
18.066764
17.547607
17.548800
18.468499
18.742681
18.824935
20.713806
19.328594
19.556880
20.166636
18.771887
19.277930
19.262433
19.396544
16.348958
17.459989
17.282963
18.487573
17.230511
16.446710
15.508533
17.418861
16.090870
16.357899
15.825629
15.617609
15.538931
15.636683
13.947487
##ZVALUE=255
1.140833
1.098514
1.221895
1.408458
1.340508
1.363754
1.348853
1.265407
1.765490
4.396439
18.729568
46.269894
96.994638
208.330750
324.154496
504.698753
622.927547
758.688450
798.816681
755.289793
653.551817
519.061685
334.357023
218.391418
124.757886
96.667409
98.506808
111.247897
141.337514
159.213543
167.860985
167.409778
156.600475
131.910443
112.637877
86.606741
66.936612
54.217577
46.081543
38.979650
34.926534
34.883618
31.416416
31.091571
30.898452
27.822852
26.779771
24.564862
24.234653
22.643805
23.760796
21.870732
22.099614
20.103455
19.943714
19.647479
18.719435
18.950701
17.861724
18.285513
17.054677
17.033815
16.238689
16.069412
15.936494
16.128421
15.209913
15.847683
15.981793
16.960502
15.822649
15.842915
17.196536
16.538501
16.110539
15.300512
15.450716
16.653538
15.941858
15.263557
15.584826
14.920831
14.626980
15.387535
15.227795
13.671517
13.590455
15.531778
14.282465
14.682412
13.928413
14.349818
13.749599
13.985634
13.608932
13.826489
##ZVALUE=260
0.671744
1.074672
1.056790
0.958443
1.035929
0.773668
0.881553
0.982881
1.268983
1.512766
1.427531
2.072453
9.360909
27.819872
72.863698
146.752596
299.040675
433.829427
555.742979
768.841505
857.557654
864.883661
783.087611
616.008639
453.370810
273.814797
183.270574
117.722750
97.116828
109.277964
130.483508
162.983537
180.466771
192.207694
192.795992
173.373818
155.037642
125.433803
102.183819
79.540610
65.618753
53.099990
47.356486
42.319894
40.153861
36.960840
34.710765
32.652617
31.037927
30.163527
28.534532
26.364923
25.677681
23.675561
22.966862
22.209883
20.992756
20.062923
19.589663
19.022822
17.842650
17.318726
16.877651
16.411543
15.652776
16.192794
15.717745
16.712546
16.931891
15.282631
14.999509
15.808940
16.159415
15.604496
15.609860
14.631748
15.033484
15.400648
13.832450
14.837980
14.600754
14.216900
13.647676
13.385415
13.134480
13.592839
12.866855
12.658834
13.052821
13.505816
12.504458
11.977553
13.276935
12.810826
12.023449
12.708902
##ZVALUE=265
0.573993
0.786781
0.723600
0.643730
0.699759
0.824928
0.790954
0.961423
1.022816
1.091957
1.168847
1.306534
1.472831
1.718998
3.740788
20.565987
49.971938
126.259923
221.585631
420.218706
590.657592
740.194917
905.491710
949.226022
875.258446
752.638578
563.104749
406.765938
243.152976
165.752769
115.038753
109.171867
123.612881
158.675909
183.268785
204.204917
208.852887
201.279521
186.804533
159.387589
135.789514
103.250742
84.391832
66.857934
54.860711
46.995878
44.006705
40.716529
36.041737
34.667850
33.963919
31.286478
29.395819
28.227568
26.539564
24.634600
23.354888
22.147894
21.893978
22.474527
20.674467
20.346642
18.611550
18.463731
17.473698
18.049479
17.461777
16.638637
16.834736
15.560985
16.627908
15.941858
16.452670
16.694665
16.136765
16.005635
14.654994
14.164448
14.422536
14.355779
13.581514
13.405681
13.293624
13.451576
12.193918
12.581944
12.489557
12.241602
11.974573
12.181997
12.418628
12.294650
11.357665
11.520982
12.464523
11.966825
##ZVALUE=270
0.728965
0.544786
0.730753
0.812411
0.836849
0.656843
0.781417
0.977516
0.823736
0.878572
0.971556
0.999570
1.066923
1.355410
1.176596
1.350641
1.917481
9.073615
26.490688
85.755587
168.492794
300.228596
533.393621
717.452765
926.874876
1000.119448
988.912582
903.635025
715.660453
542.978644
386.759639
226.874948
152.417421
114.309788
114.861727
140.730739
164.086819
192.916989
206.126571
211.380720
208.796859
184.569955
160.821676
128.790736
102.850795
75.466633
59.267879
47.919750
41.963458
36.539435
35.978556
32.981634
29.925704
27.999878
28.139949
25.815964
26.001930
25.201440
23.617744
23.988485
21.686554
21.574497
20.155907
19.805431
19.492507
18.230677
18.657446
18.243790
17.285943
17.539859
17.308593
17.237663
17.089844
17.012954
16.457438
16.454458
15.879869
14.712811
14.579892
14.850497
14.595985
14.253855
13.489723
13.689995
13.462901
12.934804
13.052821
11.734962
11.592507
11.827946
12.074709
11.940598
11.560917
10.544658
11.977553
11.357665
##ZVALUE=275
0.624657
0.553727
0.765920
0.697970
0.913739
0.639558
0.980496
0.772476
0.727773
0.842810
0.678897
0.855923
0.877976
0.988841
0.940561
1.272559
1.143813
1.076460
1.597404
3.879666
15.420914
44.773817
131.394863
250.157714
470.555425
646.602511
857.799649
987.722874
1015.587449
1001.385450
892.429948
681.640506
495.104790
282.881856
183.476806
111.637712
94.247460
102.321506
120.956898
148.911476
168.707967
189.434886
191.727877
182.775855
166.927576
136.479735
113.981962
85.405707
67.859888
48.473477
39.528608
31.901598
29.558539
26.803613
25.104880
25.298595
24.131536
23.129582
24.316907
23.530722
22.517443
21.332502
21.716952
19.789934
19.994974
19.144416
18.961430
18.828511
19.048452
17.578602
17.503500
17.718673
17.767549
17.217994
16.278625
16.856790
15.967488
15.017986
15.258789
14.188886
14.780760
14.318824
14.178753
13.312697
12.619495
11.917949
12.388825
12.574792
11.945963
11.488795
11.246800
11.785626
11.538863
11.112690
11.656880
11.061430
##ZVALUE=280
0.666976
0.298619
0.642538
0.708699
0.415444
0.492930
0.540614
0.722408
0.747442
0.907779
0.715852
0.814795
0.826716
1.038909
0.854731
1.046658
1.167655
1.123548
0.968575
1.142621
1.455545
1.658797
8.836985
31.647682
103.127956
195.710659
363.751650
545.975566
789.958835
938.019753
1015.584469
1015.584469
954.962969
740.070939
551.954508
323.925614
203.277469
103.802681
68.324804
62.480569
73.433518
99.526644
121.420622
146.842003
163.309574
166.566968
158.643723
141.115785
122.991800
95.726848
74.256659
53.155422
41.536689
30.731559
24.845600
22.937655
21.454692
22.217631
22.515655
22.052526
21.801591
21.359921
21.876693
20.724535
20.657778
20.481944
20.149946
19.435883
19.127727
19.997954
19.140840
18.137693
18.038750
17.825961
17.750859
17.421842
16.315579
16.361475
15.243888
15.117526
14.828444
14.085770
14.211535
13.798475
13.899803
12.939572
12.893677
12.567639
11.846423
11.639595
11.927485
11.595488
10.817647
11.123419
10.977983
10.628700
##ZVALUE=285
0.545979
0.655651
0.396967
0.484586
0.538826
0.433922
0.457764
0.498891
0.669956
0.591874
0.444651
0.731945
0.513792
0.833869
0.723600
0.803471
0.846982
0.651479
0.934601
1.086593
1.229644
1.312494
1.383424
1.507998
4.838705
16.370416
58.106780
119.617581
266.529918
424.244404
603.339672
850.802660
985.031724
1015.584469
1006.646752
831.133723
656.156540
412.483811
264.882445
127.077699
69.257617
38.540959
40.895939
58.585405
78.715682
108.932853
127.021670
145.275593
153.930783
148.406625
136.656761
116.964579
96.548796
70.631504
53.451657
36.483407
29.544830
25.489926
23.729801
22.968650
22.793412
22.273660
22.448897
22.292733
21.811724
22.049546
21.162629
21.625757
20.584464
20.057559
20.357966
20.134449
19.592643
19.230843
19.162893
18.039942
17.426610
17.550588
17.035604
16.518831
16.283989
15.369654
15.008450
13.953447
13.956428
13.682842
13.584495
12.815595
12.556911
12.277961
12.053847
12.520552
11.928678
11.343956
10.798573
11.096597
##ZVALUE=290
0.672936
0.413656
0.378489
0.321865
0.397563
0.553727
0.421405
0.577569
0.545979
0.558496
0.633597
0.699759
0.609756
0.663996
0.737906
0.643730
0.939965
0.918508
0.711679
0.934601
0.795722
1.088977
1.007915
1.258850
1.355410
1.434684
2.000928
6.767511
32.253861
75.879693
180.570483
308.333635
545.514822
738.880634
953.542590
1015.584469
1015.584469
939.874649
726.381540
543.748736
321.399570
192.954540
83.971620
43.902993
27.931929
33.711791
53.023696
71.050525
100.599527
122.029781
141.591430
150.375962
147.512555
139.306784
117.220879
97.129941
70.025921
55.416822
40.294528
33.101439
28.487444
26.112795
24.600625
24.591684
23.859739
23.497939
23.187995
23.435950
22.574663
22.286773
22.180676
22.191405
20.877719
20.959973
20.475984
19.829869
19.095540
18.403530
17.496943
17.324686
16.689897
15.625954
16.224980
15.272498
14.825463
13.918877
13.916492
13.431907
13.477802
12.883544
12.637973
12.248755
11.764765
12.069941
11.587739
11.143684
##ZVALUE=295
0.462532
0.410676
0.412464
0.318885
0.308752
0.399947
0.453591
0.403523
0.568628
0.567436
0.630617
0.706911
0.571609
0.533462
0.729561
0.662804
0.662804
0.770688
0.560880
0.595450
0.709891
0.960827
0.773668
0.886917
1.102686
1.368523
1.088977
1.529455
1.852512
2.921820
9.999871
46.566725
107.869506
256.253481
417.971015
669.574738
849.798918
1011.101007
1015.584469
985.696912
849.227905
612.683892
426.455736
229.822993
125.215650
49.051642
27.578473
24.491549
32.929778
52.196980
71.489811
99.420547
117.996931
139.069557
147.312880
145.174861
135.424733
115.608573
97.670555
73.316693
57.781935
42.837858
35.274625
28.492808
26.022792
25.536418
24.761558
24.203658
23.881793
23.611784
23.507476
22.407770
22.248626
22.377968
20.916462
20.212531
20.124912
18.945932
18.722415
17.736554
17.193556
16.649961
15.941858
15.607476
15.179515
14.493465
13.829470
14.341474
13.189912
12.677908
12.407899
12.936592
12.556911
11.571646
11.583567
11.514425
##ZVALUE=300
0.481606
0.548959
0.270605
0.418425
0.303984
0.485778
0.192523
0.385642
0.486970
0.475645
0.457764
0.408888
0.620484
0.476837
0.372529
0.576973
0.581741
0.521541
0.665784
0.734925
0.578761
0.688434
0.769496
0.771880
0.923872
0.810623
0.977516
0.955462
1.085997
1.428723
1.597404
1.819730
6.462932
22.840500
81.763864
162.167549
336.042047
518.353581
772.710443
924.443007
1015.584469
1015.584469
915.508866
753.588676
499.569774
330.018997
167.474747
91.502666
37.246943
23.871660
25.606751
34.183860
52.210689
68.249702
94.084740
113.614798
136.494637
143.791437
143.780708
136.473775
117.977858
99.255443
74.540973
59.374571
43.968558
35.337806
28.730631
26.063919
24.790764
23.961663
23.610592
22.445917
22.124648
21.915436
20.895600
20.401478
19.608736
18.972754
18.443465
17.888546
17.101765
16.882420
16.150475
16.002655
14.509559
14.948845
14.358759
13.961792
13.835430
13.044477
12.712479
12.194514
12.118816
11.524558
11.615753
11.301637
##ZVALUE=305
0.376701
0.353456
0.366569
0.291467
0.526905
0.366569
0.495911
0.575781
0.512600
0.454783
0.407696
0.430942
0.428557
0.375509
0.449419
0.510812
0.293851
0.521541
0.408888
0.541806
0.748634
0.604987
0.694990
0.681877
0.881553
0.884533
0.933409
0.952482
0.962615
0.982881
1.076460
1.094937
1.290441
1.415610
3.207922
12.560487
53.575635
117.177963
266.188979
420.469642
664.224029
839.814544
1001.902819
1015.584469
967.246890
821.703672
589.940548
420.255661
228.183866
126.121640
54.637790
30.600429
22.522807
25.712848
36.268830
49.128532
72.775483
91.072917
113.267899
126.714706
138.365626
138.450861
127.241611
113.917589
91.012716
72.645545
53.979754
41.723847
31.304955
26.198626
23.606420
21.738410
20.483732
20.062923
19.588470
18.723607
18.361807
18.374920
17.938614
17.402768
16.677976
16.497970
15.657544
15.196800
14.856458
15.429854
14.136434
13.398528
13.278723
13.060570
12.596846
11.871457
11.462569
11.174679
11.221766
11.286736
##ZVALUE=310
0.267625
0.272989
0.321865
0.383854
0.448823
0.273585
0.311732
0.363588
0.356436
0.288486
0.383854
0.446439
0.405908
0.546575
0.485778
0.506639
0.403523
0.374913
0.488758
0.516772
0.638962
0.485778
0.658631
0.664592
0.534654
0.631809
0.682473
0.851750
0.714660
0.785589
0.708699
0.920892
0.976920
0.900626
1.241565
1.510978
1.747608
6.706715
22.879839
80.316663
157.445669
330.310464
502.945781
749.735832
907.317996
1015.577912
1013.865471
897.534490
741.212964
503.968000
334.586501
173.490644
96.246004
41.037798
24.076700
20.751953
24.989843
34.735799
46.385527
65.390468
81.111789
103.366971
117.241740
127.445459
128.256679
119.817853
106.749535
84.810853
69.264770
48.716664
38.123727
27.802587
23.110509
19.532442
17.892718
16.986728
16.227961
16.201735
16.050935
15.304685
15.065670
14.982820
14.676452
14.425516
13.779998
13.851523
13.188720
12.665987
12.362599
12.621880
12.043715
11.490583
11.419654
10.887980
10.617971
10.770559
##ZVALUE=315
0.406504
0.273585
0.149608
0.159740
0.334978
0.392795
0.204444
0.316501
0.265837
0.205636
0.253916
0.334978
0.192523
0.229478
0.306964
0.417829
0.437498
0.365973
0.353456
0.364780
0.566840
0.432730
0.406504
0.446439
0.506639
0.506639
0.489950
0.644922
0.633597
0.595450
0.651479
0.772476
0.834465
0.813603
0.614524
0.969768
1.016855
1.177788
1.386404
3.075600
11.538863
50.139427
110.404491
252.668858
410.966873
666.312575
829.926729
981.202722
1015.506983
948.671699
822.137594
590.609908
417.963862
226.380825
126.930475
51.469803
27.696490
18.563867
19.384623
23.638606
29.393435
42.795539
55.438876
74.891448
91.988444
109.386444
117.293000
116.352439
110.922456
93.684793
80.056787
59.874654
45.687556
31.235814
23.918748
18.555522
16.065836
14.880896
13.765693
13.605952
13.246536
12.551546
12.598634
12.692809
12.645721
12.140870
11.849999
11.949539
11.897683
11.253953
11.232495
11.160970
10.726452
10.572672
10.731816
10.429621
##ZVALUE=320
0.370741
0.209808
0.357628
0.323653
0.233650
0.299811
0.294447
0.337958
0.349879
0.422597
0.473857
0.394583
0.250936
0.459552
0.297427
0.309944
0.188947
0.328422
0.418425
0.388622
0.396967
0.325441
0.441670
0.556707
0.439882
0.468493
0.389814
0.518560
0.576973
0.516772
0.643730
0.584722
0.728965
0.519753
0.688434
0.876784
0.918508
1.061559
1.044869
1.046658
1.367927
1.607537
6.691813
22.505522
79.339743
161.696672
328.069925
491.114855
721.866488
883.917809
1005.992889
1000.052691
872.857571
717.695951
485.035777
316.420794
149.653554
80.463886
33.828616
18.595457
13.879538
14.398694
17.553568
22.942424
34.203529
46.020746
64.813495
80.165863
98.817945
105.779767
105.945468
101.322532
87.675452
72.737932
53.773522
41.526556
27.758479
20.867586
15.604496
13.722777
11.965632
11.133552
11.287928
11.129975
11.379719
10.934472
11.289716
11.102557
10.682940
10.534525
10.433793
10.557771
9.826422
9.830594
9.971857
9.993911
##ZVALUE=325
0.370741
0.255704
0.282526
0.333786
0.246763
0.276566
0.266433
0.140667
0.306964
0.285506
0.343919
0.362992
0.438690
0.401735
0.312924
0.313520
0.295639
0.403523
0.254512
0.453591
0.418425
0.533462
0.326633
0.438690
0.568628
0.416636
0.603795
0.610948
0.514984
0.543594
0.506639
0.461936
0.714660
0.699759
0.541806
0.789762
0.776649
0.673532
0.840425
0.899434
0.881553
0.990629
1.162887
1.340508
3.478527
12.987852
52.558780
113.687515
256.194472
405.669808
639.390945
800.894499
954.254866
992.779732
912.812948
769.266486
530.155897
367.548466
196.484923
110.399723
42.940974
19.214749
10.364652
9.706616
10.550618
12.656450
19.338727
27.507544
44.061542
59.065819
78.085661
88.537931
97.974539
97.998977
89.816451
80.947876
63.572526
49.746633
33.727884
24.944544
16.948581
13.464689
10.754466
10.508895
10.034442
9.616613
9.701848
9.844899
9.630919
9.802580
9.298921
9.620786
9.415746
9.520650
9.255409
9.334683
##ZVALUE=330
0.335574
0.223517
0.251532
0.204444
0.261664
0.268817
0.298619
0.284910
0.315905
0.279546
0.155568
0.303984
0.378489
0.370741
0.267625
0.307560
0.161529
0.461936
0.287890
0.421405
0.196695
0.459552
0.380874
0.435710
0.408888
0.463724
0.397563
0.481606
0.264645
0.432730
0.476837
0.473857
0.472665
0.547767
0.721812
0.515580
0.766516
0.554919
0.545979
0.673532
0.795722
0.787973
0.946522
1.024604
1.038909
1.451969
1.738667
7.620454
25.036931
83.386898
161.971450
328.390002
490.738750
717.476606
861.156583
958.961844
934.289694
793.715715
640.136003
417.283773
269.517899
126.741529
64.538717
23.945570
11.120439
7.293820
7.373691
8.671880
10.881424
17.560720
25.365949
39.168000
52.083731
70.450902
82.287788
90.730786
91.212988
85.349679
75.066686
58.321953
46.384931
31.514764
23.950934
16.524792
13.287663
10.869503
9.738803
9.048581
9.121895
9.133816
8.914471
8.846521
8.680820
9.216666
8.464456
8.754730
##ZVALUE=335
0.339746
0.491738
0.378489
0.274777
0.522733
0.382662
0.480413
0.347495
0.398755
0.362992
0.271797
0.335574
0.462532
0.365973
0.332594
0.516772
0.266433
0.237823
0.379682
0.542998
0.481606
0.504851
0.448823
0.486970
0.395775
0.425577
0.526905
0.659823
0.357628
0.538826
0.630617
0.551939
0.481606
0.627637
0.659823
0.700951
0.683665
0.731945
0.850558
0.829697
0.797510
0.890493
0.840425
0.878572
0.972748
1.182556
1.153946
1.249909
1.224875
3.421903
12.486577
51.130652
109.574795
244.153738
392.745733
626.673698
781.298876
911.310911
933.177471
841.570497
707.769990
486.840606
335.154533
174.701810
92.401505
31.789541
14.286637
7.679462
7.019639
7.465482
8.469820
11.020899
15.702844
25.983453
35.713911
52.574873
64.948797
77.464581
84.040761
84.903836
80.301762
68.200827
57.299733
43.633580
34.383535
23.646951
17.659664
12.662411
10.657907
9.436607
9.200573
8.827448
8.641481
8.515716
8.765459
8.569956
##ZVALUE=340
0.116825
0.178814
0.155568
0.273585
0.085831
0.330806
0.239611
0.083447
0.239611
0.087619
0.270605
0.286698
0.190735
0.195503
0.256896
0.117421
0.329614
0.109673
0.198483
0.214577
0.300407
0.269413
0.309944
0.394583
0.300407
0.433922
0.418425
0.414848
0.487566
0.603795
0.524521
0.410676
0.298619
0.332594
0.491738
0.514984
0.456572
0.645518
0.510812
0.593662
0.576973
0.661612
0.587702
0.666976
0.699759
0.852942
0.905991
0.871420
0.788569
1.042485
1.091957
1.848936
6.026626
30.396581
75.878501
188.428760
323.225856
537.544489
688.963532
848.927498
904.221535
859.040022
749.609470
558.313727
394.669771
207.147002
114.969611
47.198534
20.008683
8.278489
6.760955
6.842613
7.021427
8.669496
10.533929
16.109943
23.644567
35.964847
47.712922
63.046813
73.034763
79.103708
80.371499
74.963570
67.391992
54.850578
43.956637
31.281710
23.666620
16.687512
12.597442
9.974837
8.867979
8.512735
8.427501
8.143783
##ZVALUE=345
0.034571
0.137687
0.083447
0.167489
0.178814
0.198483
0.140667
0.185966
0.319481
0.125766
0.179410
0.132918
0.255704
0.094771
0.182986
0.296831
0.143647
0.275970
0.212789
0.270605
0.421405
0.499487
0.248551
0.183582
0.378489
0.181794
0.275970
0.168681
0.326633
0.219941
0.296831
0.350475
0.207424
0.450611
0.279546
0.362992
0.456572
0.531673
0.271797
0.369549
0.473857
0.493526
0.338554
0.435710
0.538826
0.461936
0.519753
0.664592
0.752807
0.790954
0.709891
0.984669
0.970960
1.110435
3.332496
13.402700
55.907965
115.044713
243.723989
382.205844
596.240759
739.980936
859.794617
874.336958
777.346492
647.712946
441.608429
290.520787
134.125948
66.501498
23.230910
11.129975
7.274747
6.597638
6.548762
6.725788
7.612705
9.567738
14.930964
20.547509
32.912493
42.823553
55.303574
64.702630
71.781874
74.027777
71.164966
63.763857
52.798986
42.715669
31.326413
23.854971
15.783906
12.331605
9.759665
8.553863
##ZVALUE=350
0.163913
0.210404
0.361800
0.319481
0.089407
0.199676
0.277758
0.213981
0.212789
0.205636
0.232458
0.150800
0.181794
0.063777
0.183582
0.244975
0.107884
0.381470
0.310540
0.457764
0.326633
0.372529
0.467896
0.286698
0.263453
0.214577
0.279546
0.297427
0.332594
0.238419
0.291467
0.482798
0.434518
0.313520
0.482798
0.347495
0.323653
0.419617
0.395775
0.275970
0.504851
0.498891
0.526905
0.560880
0.635982
0.695586
0.522733
0.410676
0.737906
0.643730
0.744462
0.666976
0.781417
0.974536
0.998974
1.186728
1.617670
8.269548
26.953816
85.186958
162.287951
326.119661
474.946499
662.156940
779.919624
852.257609
814.367533
671.204925
517.889857
310.035944
190.602541
87.362528
42.020679
12.982488
7.543564
6.157756
6.316900
6.115437
6.383657
7.567406
9.200573
14.643669
19.589663
28.638840
37.848949
49.443841
58.145523
65.451860
67.648888
65.846443
59.173703
49.004555
40.216446
29.127598
21.983981
15.932918
##ZVALUE=355
0.136495
0.263453
0.168681
0.267625
0.325441
0.267625
0.052452
0.274777
0.211596
0.218749
0.294447
0.290871
0.233650
0.168681
0.287890
0.436902
0.327826
0.097752
0.402927
0.300407
0.317693
0.156760
0.179410
0.268817
0.183582
0.235438
0.269413
0.228882
0.304580
0.381470
0.376701
0.502467
0.316501
0.231862
0.331998
0.283718
0.416636
0.352859
0.376701
0.427961
0.468493
0.361800
0.555515
0.614524
0.500679
0.590682
0.497699
0.636578
0.684857
0.483990
0.413656
0.902414
0.745654
0.786781
0.701547
0.773668
0.960827
1.012683
1.281500
3.888607
14.330745
55.994987
115.085840
242.220759
380.785465
588.987470
720.423460
818.443894
819.537640
704.340935
568.879843
377.707481
242.380500
109.410882
52.239895
16.978979
8.678436
6.139874
5.785823
6.023645
5.851984
5.914569
6.513000
8.430481
11.318922
16.986728
23.542643
33.803582
42.166710
51.555634
57.148933
61.017871
59.907436
53.862929
48.037767
37.313700
##ZVALUE=360
0.251532
0.177622
0.261664
0.122786
0.125766
0.232458
0.296831
0.135899
0.122786
0.212789
0.232458
0.208616
0.182986
0.455976
0.210404
0.285506
0.084639
0.264645
0.196695
0.173450
0.238419
0.299811
0.238419
0.317693
0.279546
0.255704
0.261664
0.442863
0.343919
0.311732
0.308752
0.379682
0.294447
0.283718
0.240803
0.367761
0.298619
0.442863
0.362992
0.405908
0.454783
0.432730
0.422597
0.563860
0.617504
0.462532
0.491738
0.532866
0.332594
0.455976
0.553727
0.719428
0.705719
0.570416
0.713468
0.674725
0.935793
0.838637
0.822544
1.076460
1.233816
2.088547
6.195903
28.659701
68.925619
169.427991
286.607742
483.226776
625.338554
761.656761
798.003674
743.019581
630.673766
433.613658
287.493467
140.992403
73.522925
27.690530
12.308955
6.229877
5.619526
5.553961
5.391836
5.393624
5.396605
6.168485
6.821752
9.767413
13.326406
20.283461
27.037859
37.760735
44.703484
50.967932
55.232644
55.390000
##ZVALUE=365
0.122786
0.120997
0.182986
0.169873
0.356436
0.176430
0.301600
0.202656
0.170469
0.031590
0.227690
0.277758
0.123978
0.240803
0.313520
0.173450
0.298619
0.344515
0.293851
0.168681
0.333786
0.343919
0.283718
0.250936
0.284910
0.226498
0.419617
0.337958
0.415444
0.169873
0.267625
0.319481
0.424981
0.345707
0.321865
0.417829
0.364780
0.364780
0.388622
0.566840
0.584722
0.568628
0.435710
0.369549
0.418425
0.427961
0.333786
0.584722
0.446439
0.436902
0.467896
0.724792
0.550747
0.712872
0.520945
0.594854
0.505447
0.654459
0.636578
0.828505
0.953674
1.051426
1.052618
1.421571
2.774000
16.011000
43.595433
114.912987
212.318897
393.003821
534.664989
687.990785
759.866834
750.811696
662.620664
485.900640
348.224640
193.169713
106.549859
39.474964
16.614795
6.520748
5.364418
5.198717
5.022883
4.770756
4.870892
4.855990
5.034804
5.926490
7.517934
11.368990
16.082525
23.985505
30.482411
39.581656
##ZVALUE=370
0.177622
0.235438
0.046492
0.392795
0.284910
0.240803
0.203848
0.123978
0.062585
0.126958
0.195503
0.119805
0.175834
0.114441
0.156760
0.224710
0.309944
0.230670
0.287890
0.379682
0.281930
0.310540
0.280738
0.224710
0.322461
0.198483
0.204444
0.053644
0.144839
0.385642
0.303984
0.311732
0.378489
0.367761
0.367761
0.403523
0.273585
0.287890
0.201464
0.285506
0.332594
0.266433
0.308752
0.266433
0.425577
0.398755
0.447631
0.450611
0.458956
0.415444
0.349879
0.432730
0.361800
0.568628
0.499487
0.601411
0.596642
0.598431
0.698566
0.483990
0.588894
0.792742
0.922680
0.794530
0.948906
1.145601
1.657605
7.838607
26.321411
85.541606
160.196424
305.498838
448.238850
630.867481
723.497868
751.905441
692.365766
546.772480
405.827761
229.836702
130.182505
52.402616
24.193525
9.316802
5.533695
4.783869
4.565716
4.413724
4.257560
4.419684
4.120469
4.551411
5.112886
7.106662
9.588599
14.540553
##ZVALUE=375
0.126958
0.125766
0.200868
0.066757
0.255704
0.196695
0.127554
0.330806
0.156760
0.190735
0.092983
0.231862
0.264645
0.156760
0.237823
0.197887
0.175834
0.014901
0.215769
0.223517
0.246763
0.285506
0.287890
0.241995
0.324845
0.245571
0.139475
0.174642
0.176430
0.204444
0.371933
0.335574
0.288486
0.336766
0.374913
0.393987
0.403523
0.423789
0.381470
0.332594
0.348687
0.337958
0.366569
0.273585
0.242591
0.260472
0.454783
0.371933
0.294447
0.389814
0.325441
0.316501
0.446439
0.523925
0.413656
0.594854
0.522733
0.413656
0.427961
0.553727
0.525713
0.678897
0.650883
0.705719
0.652671
0.672936
0.794530
1.102686
1.281500
3.867745
13.606548
50.370693
108.213425
240.966678
373.497009
559.144616
672.417879
744.513869
726.706982
608.210564
474.509597
290.728807
185.077786
92.744827
46.308637
15.567541
6.819963
4.551411
4.581809
4.194975
3.980994
3.997684
4.002452
3.954768
4.003644
4.648566
##ZVALUE=380
0.275970
0.131726
0.182986
0.182986
0.293851
0.229478
0.153780
0.175834
0.185966
0.046492
0.008941
0.140667
0.217557
0.183582
0.199676
0.303984
0.254512
0.333786
0.228882
0.065565
0.126958
0.108480
0.261664
0.170469
0.266433
0.153780
0.175834
0.219941
0.272989
0.236630
0.234842
0.236630
0.327826
0.302792
0.153780
0.283718
0.228882
0.359416
0.336766
0.286698
0.364780
0.421405
0.330806
0.387430
0.331998
0.393987
0.384450
0.329614
0.344515
0.274777
0.204444
0.260472
0.305772
0.330806
0.316501
0.417829
0.464916
0.292659
0.374913
0.459552
0.443459
0.317693
0.379682
0.537634
0.739694
0.638962
0.748634
0.809431
0.913739
1.027584
1.215935
1.830459
9.784698
29.500723
90.724826
167.059898
319.152474
462.736487
634.400845
715.517998
728.124976
660.149455
520.603657
392.091870
230.747461
136.188865
57.168603
26.520491
8.486509
4.704595
3.920794
4.039407
3.916621
3.540516
3.695488
3.637671
##ZVALUE=385
0.199676
0.244975
0.154972
0.235438
0.023842
0.306964
0.208616
0.337958
0.158548
0.218749
0.158548
0.202656
0.144839
0.173450
0.120997
0.174642
0.183582
-0.020862
0.090599
0.180602
0.156760
0.208616
0.265837
0.125766
0.239611
0.352859
0.303984
0.362992
0.352859
0.129938
0.218749
0.218749
0.446439
0.497699
0.332594
0.448823
0.276566
0.432730
0.486970
0.408888
0.403523
0.396967
0.370741
0.426769
0.304580
0.281930
0.363588
0.414848
0.274777
0.321865
0.446439
0.251532
0.387430
0.402927
0.386834
0.383854
0.243783
0.358820
0.366569
0.299811
0.368953
0.260472
0.440478
0.544786
0.541806
0.273585
0.466704
0.598431
0.838637
0.811815
0.859499
1.041889
1.146793
1.235604
3.541708
19.602776
51.505566
130.848885
230.943561
406.711698
546.217561
680.342913
721.500516
690.782666
607.831478
449.597836
319.942832
174.822807
99.552870
41.157603
17.401576
5.193949
3.820658
3.576875
3.505945
3.428459
##ZVALUE=390
0.077486
0.268817
0.213981
0.103712
0.124574
0.320673
0.291467
0.152588
0.079870
0.183582
0.131726
0.343919
0.143647
0.207424
0.128746
0.108480
0.124574
0.011921
0.222921
0.100732
0.270605
0.232458
0.393987
0.066757
0.260472
0.373721
0.279546
0.273585
0.329614
0.266433
0.388622
0.483990
0.477433
0.471473
0.541806
0.580549
0.503659
0.648499
0.546575
0.441670
0.518560
0.451803
0.588894
0.500679
0.381470
0.437498
0.435710
0.313520
0.466704
0.515580
0.367761
0.327826
0.405908
0.363588
0.434518
0.302792
0.491738
0.427961
0.304580
0.361800
0.432730
0.502467
0.448823
0.460744
0.475645
0.461936
0.566840
0.587702
0.571609
0.793934
0.836849
0.817776
0.760555
0.936985
0.964999
1.026988
1.780987
10.369420
31.582713
98.574758
185.437799
348.536968
475.269556
618.144870
696.898699
718.216896
662.348866
525.195599
400.291681
244.070888
143.035650
58.999658
26.858449
7.972717
4.318953
3.416538
##ZVALUE=395
0.179410
0.245571
0.089407
0.188947
0.167489
0.188947
0.190735
0.074506
0.046492
0.119805
0.205636
0.034571
0.086427
0.172853
0.082850
-0.026822
0.179410
0.077486
0.107884
0.033975
0.208616
0.271797
0.133514
0.254512
0.246763
0.158548
0.323653
0.229478
0.452995
0.471473
0.451803
0.512600
0.654459
0.615716
0.675917
0.846982
0.735521
0.662804
0.838637
0.658631
0.815988
0.603795
0.518560
0.639558
0.446439
0.510812
0.597835
0.510812
0.499487
0.445843
0.490546
0.407696
0.391603
0.440478
0.275970
0.510812
0.460744
0.311732
0.427961
0.306964
0.495911
0.318885
0.208616
0.418425
0.311732
0.425577
0.555515
0.566840
0.635982
0.727773
0.719428
0.631809
0.692606
0.669956
0.763535
0.739694
1.002550
1.008511
1.203418
5.527735
19.927621
68.336725
134.508014
266.328454
390.092731
562.804937
664.514899
729.146004
709.712505
603.172779
473.253727
293.310881
186.293721
88.608861
42.336583
14.284849
##ZVALUE=400
0.205636
0.024438
0.169873
0.047684
-0.035763
0.308752
0.074506
0.197887
0.009537
0.219941
0.139475
0.093579
0.222921
0.159740
0.049472
0.098944
0.079870
0.070930
0.112653
0.228882
0.398755
0.161529
0.055432
0.228882
0.144839
0.143647
0.356436
0.369549
0.451803
0.537634
0.561476
0.847578
0.758767
0.894666
0.976920
0.868440
0.981688
0.784993
0.837445
0.744462
0.641942
0.715852
0.584722
0.625849
0.613928
0.550747
0.575781
0.533462
0.465512
0.447631
0.529885
0.319481
0.414848
0.578761
0.504851
0.274777
0.294447
0.407696
0.431538
0.422597
0.370741
0.516772
0.359416
0.397563
0.466704
0.506639
0.477433
0.402927
0.646710
0.537634
0.751615
0.545979
0.671744
0.760555
0.646710
0.625849
0.836849
0.793934
0.820756
0.851750
1.193881
2.157688
12.082458
34.502745
96.082687
176.454782
331.956744
461.553931
620.061755
698.050857
706.750751
645.240545
497.784019
365.591645
210.656524
126.826763
##END
