##TITLE=FAAI0852
##FORMAT=SPECTACLE-ASCII V-1.2
##DATA TYPE=ULTRAVIOLET SPECTRUM
##SECOND TYPE=ULTRAVIOLET SPECTRUM
##DATE=01/24/18
##TIME=18:42:33
##SPECTROMETER/DATA SYSTEM=SPECTACLE
##XUNITS=NM EM
##YUNITS=ENERGY
##YFACTOR=1
##FIRSTX=220
##LASTX=410
##NPOINTS=96
##3DDATA=Equidistant
##ZUNITS=NM EX
##FIRSTZ=210
##LASTZ=400
##ZPOINTS=39
##XYDATA=(Y..Y)
##ZVALUE=210
2.156496
2.669692
2.468824
2.236962
2.527833
2.709627
2.431870
2.063513
2.757907
1.627803
2.107620
1.336932
1.377463
1.697540
1.425743
1.751781
0.946522
2.048612
1.661777
1.963973
1.902580
2.321601
2.057552
2.417564
3.159642
3.928542
5.668998
5.888939
8.010864
10.274649
10.961890
14.937520
15.396476
16.280413
17.398000
17.933846
16.150475
16.526580
16.874671
14.990568
14.034510
15.183687
14.305711
12.568831
12.203455
11.424422
11.361837
9.536743
9.218454
8.212924
7.492900
7.788539
7.176995
7.162690
6.139874
5.774498
5.902648
5.819798
5.282760
5.501509
4.833937
4.342794
5.233884
3.885627
4.537702
3.800988
4.384518
4.330873
5.399585
6.413460
6.228685
7.497668
7.150769
9.498596
9.478927
9.678602
9.051561
9.976625
7.281899
8.024573
8.120537
7.244945
6.681681
5.808473
4.628897
4.248619
3.251433
3.993511
2.722740
3.701448
3.705621
3.491640
3.692508
3.647804
4.180670
4.763603
##ZVALUE=215
10.499954
10.382533
8.936524
8.604527
6.526709
5.381703
5.993843
6.049871
6.423593
6.361604
6.254911
4.833937
3.294945
3.510714
2.767444
2.375841
2.384782
2.468824
2.685785
2.425909
2.956986
2.573729
3.176928
3.700852
4.123449
6.310940
6.811619
10.862947
13.501644
16.498566
20.474792
24.962425
24.410486
30.617714
29.736757
30.671954
28.275847
28.906465
29.350519
27.066469
25.264621
24.928451
23.644567
22.183657
19.928813
18.771887
19.051433
16.440749
16.349554
13.335943
12.926459
11.917949
11.396408
11.068583
10.606647
10.334849
8.418560
7.270575
7.831454
6.243587
7.328987
5.896688
6.973743
6.888509
6.029606
6.287694
5.729795
6.289482
5.894899
7.044673
7.431507
7.486939
8.760691
9.677410
9.803772
9.594560
9.747744
9.437799
8.919835
7.964969
8.105636
6.639957
6.270409
5.307794
5.498528
4.957914
4.064441
4.021525
3.784895
3.950596
4.489422
3.986955
3.340840
4.037619
4.824996
3.791451
##ZVALUE=220
31.054616
29.605627
30.718446
29.067993
25.886893
21.517873
18.450618
15.703440
13.511777
13.444424
15.282631
13.907552
13.392568
12.796521
9.783506
8.115768
5.684495
4.613996
3.512502
3.188848
2.824664
3.213882
3.042817
3.478527
5.000830
8.260608
10.088682
16.276836
20.478964
25.706887
31.864643
36.943555
41.508675
44.541955
46.483874
48.086643
46.658516
46.651959
46.135783
42.352676
40.983558
38.886666
35.648942
34.147501
31.662583
28.730631
25.341511
23.095608
23.497939
20.606518
19.936562
18.023849
16.384721
14.217496
13.621449
12.875795
11.432767
11.036992
10.622740
8.958578
9.194613
9.051561
8.824468
8.194447
7.034540
8.079410
7.721782
6.934404
8.875728
8.494854
8.228421
8.666515
9.085536
9.602904
10.688901
11.538863
9.776950
9.223819
10.239482
8.581877
8.507967
8.757710
7.289648
6.872416
5.301833
5.375743
5.671978
5.054474
3.799796
3.749728
3.345609
4.142523
4.381537
3.823638
4.192591
4.032850
##ZVALUE=225
48.228502
48.794746
58.871508
72.065592
78.961849
77.953935
72.145462
56.684613
44.019818
33.317804
27.193427
24.802685
27.405620
29.938817
29.297471
25.980473
21.518469
17.718673
12.092590
9.458661
6.407499
4.245639
3.922582
4.512668
5.570650
9.747744
11.022687
18.314719
23.128986
29.044747
34.150481
43.374896
46.228766
49.398541
51.471591
51.332712
52.788854
54.123998
50.868988
50.825477
45.859814
44.022799
41.525960
37.311912
33.334494
32.602549
29.180646
26.417971
23.294687
24.668574
21.738410
20.590425
18.366575
17.966628
15.865564
16.145706
13.947487
14.132857
12.431741
11.730790
11.643767
10.576844
9.937882
10.024905
9.504557
8.809566
9.303689
7.775426
9.308457
9.525418
8.869767
9.849668
11.975765
9.274483
11.488795
12.312531
10.856986
10.274649
9.434819
10.308623
8.847713
7.926822
7.511973
6.614923
6.886721
6.593466
5.932450
5.005598
5.694628
4.698634
5.215406
5.052686
5.076528
5.158782
4.599690
4.964471
##ZVALUE=230
37.943721
41.144490
63.364506
107.401609
136.861801
165.414810
174.237490
176.172853
159.006715
132.168531
88.570714
67.882538
47.910810
44.642687
47.565699
53.199530
53.645968
49.953461
46.190619
34.666657
26.567578
17.693639
11.502504
8.441806
7.075667
8.074641
10.388494
13.325810
15.132427
22.459626
26.045442
29.127002
34.742951
34.403801
37.891865
37.121773
38.579702
41.054487
38.738847
37.608743
34.091473
35.852790
32.116771
29.530525
29.176474
25.166869
23.494959
22.138953
21.270514
19.390583
18.859506
18.470883
16.005635
15.457869
15.032887
13.540983
14.745593
13.371706
12.206435
11.438727
13.030767
11.152625
10.148883
10.303855
10.624528
9.614825
9.192824
9.614825
10.364652
10.520816
10.220408
11.832714
12.417436
12.335777
12.486577
12.544990
13.500452
12.521744
11.061430
10.605454
10.232925
9.223819
10.077953
7.737875
7.682443
7.827878
7.786751
7.665753
6.188750
7.187724
6.763935
7.402897
7.382631
6.592870
7.413626
6.189942
##ZVALUE=235
12.902617
13.535619
34.030676
61.671734
114.109516
158.298612
242.756605
285.697579
320.871472
319.587588
276.727676
229.044557
172.931552
115.648508
89.756846
73.533654
70.008636
82.951784
83.900690
81.960559
76.664686
66.452622
50.675869
37.523508
24.012923
18.332601
12.084842
11.610985
11.430979
14.400482
15.347600
17.571449
18.891692
19.388795
22.471547
24.119616
22.984743
23.597479
21.828413
22.842884
22.072792
22.524595
21.457672
21.032691
19.566417
17.677546
16.640425
15.643835
16.480684
16.784668
15.044808
12.598634
13.824701
12.682676
13.460517
12.137890
11.690855
11.617541
12.017488
11.070967
10.747910
10.883808
10.688901
9.625554
10.110736
10.885596
9.558797
10.953546
10.459423
11.311769
11.708736
13.910532
12.454987
14.910698
13.256669
14.784932
14.959574
13.754964
13.655424
13.582706
13.174415
11.329651
11.147857
11.039972
10.293722
10.259748
10.374784
9.820461
8.798838
9.607673
9.836555
8.881688
8.544922
9.887815
8.726716
8.671880
##ZVALUE=240
1.728535
1.991987
5.749464
15.995502
41.626692
78.768730
158.804655
233.030915
339.975953
416.387916
483.859777
475.219488
446.661711
350.979567
278.144479
182.980895
132.586956
98.702908
94.766617
100.531578
110.750794
112.308860
117.174983
104.390979
82.812905
67.829490
47.941804
36.535859
24.421811
18.804669
17.580986
17.167926
17.651916
17.486811
18.104911
17.679930
19.982457
19.556880
19.365549
19.795895
20.567775
19.822717
17.953515
19.140840
18.948913
16.682744
17.349720
16.833544
15.074611
15.766621
13.664961
14.394522
13.688803
13.162494
13.027787
11.442900
11.904836
12.662411
11.675954
11.084676
10.871887
11.802912
10.765791
9.608865
9.822845
10.981560
9.287596
10.501742
11.135936
12.046695
12.028813
12.554526
14.034510
14.364719
15.792847
14.379621
15.849471
14.048815
14.227629
14.078617
14.727712
14.104843
13.916492
11.642575
11.862516
11.913776
11.495948
10.961890
10.623932
11.006594
11.362433
10.855794
10.777712
9.560585
10.504723
10.660887
##ZVALUE=245
1.350641
1.233816
1.258850
1.884699
3.699660
10.854602
35.730600
69.954991
163.423419
247.186422
383.122563
473.814607
547.310710
579.200983
552.325845
459.390879
373.736620
258.440971
184.962749
120.751858
100.486875
95.515847
115.295649
129.327774
131.747723
133.346915
114.630461
101.155639
76.994896
62.429905
49.769878
37.783980
30.589700
23.342967
25.487542
25.480986
25.028586
25.184751
24.104714
25.113821
24.476647
22.911429
22.816658
21.503568
19.940734
19.857883
19.057989
18.060803
17.347932
17.054677
16.930699
15.269518
14.132857
14.198422
13.500452
12.299418
12.647510
11.576414
12.149811
10.302663
10.664463
10.714531
9.455681
10.588765
10.207891
11.169910
10.435581
10.637641
10.380745
10.976791
11.066794
12.032986
12.787580
13.939738
12.775660
12.807846
13.833642
14.560819
12.637973
12.019873
13.213754
12.381673
11.637807
11.441708
11.139512
11.475682
9.900928
10.828972
10.634661
11.207461
10.645986
9.918809
9.900928
9.839535
9.584427
9.500980
##ZVALUE=250
1.419783
1.216531
0.822544
1.449585
1.360774
1.070499
2.448559
7.001758
26.259422
58.035851
140.419602
230.291486
333.153605
482.190847
581.122637
657.934546
660.219789
588.668585
499.756932
344.231725
242.838860
160.517693
105.446577
96.161962
109.376907
124.720931
142.889619
148.364902
144.289732
134.500861
118.461847
98.217726
80.597997
60.245991
50.859451
40.775537
38.290620
36.169887
34.378767
31.202435
31.545758
32.431483
29.165745
27.045608
26.793480
25.390983
24.843812
22.501945
21.692514
21.127462
18.918514
18.052459
17.730594
15.629530
15.074611
13.903975
13.366938
12.105703
11.775494
10.918975
11.157990
10.576844
10.762811
9.384751
9.863973
9.650588
9.685755
9.814501
8.698702
10.104775
10.792613
10.692477
9.765625
10.596514
11.685491
11.422634
12.243986
11.156797
11.066794
11.287928
11.025667
10.517836
11.165738
9.470582
10.172725
9.504557
9.629726
9.075999
9.537935
9.019971
10.163784
9.612441
9.112954
8.597970
9.009838
9.375811
##ZVALUE=255
0.977516
0.745654
1.124740
1.323819
1.328588
1.309514
1.275539
1.574755
1.670718
3.707409
18.420815
43.179989
91.412663
189.771652
294.149518
465.929508
588.280559
709.489584
741.156936
702.153444
612.532496
485.798717
312.204957
205.525756
119.761825
96.662641
94.732642
113.813877
139.011741
160.140991
168.528557
172.975659
161.878467
139.285922
120.680928
95.670819
76.151490
61.209798
53.117871
46.504736
43.880939
43.783784
39.820671
39.287806
37.334561
32.909513
32.363534
29.471517
27.594566
25.650859
23.652911
22.345781
20.603538
19.446611
17.488599
17.147660
14.555454
14.331937
13.785958
13.318658
12.045503
11.046529
10.829568
10.156631
9.506941
8.957982
9.046793
8.862615
8.971691
9.139776
9.090900
9.319782
10.060668
10.373592
10.040998
10.477901
9.435415
9.804964
9.705424
8.876920
9.237528
8.632541
9.001493
8.756518
8.196831
8.391738
7.769465
8.393526
8.276701
8.360744
8.240938
8.247495
7.729530
7.660985
8.411407
7.576942
##ZVALUE=260
0.923872
0.968575
1.017451
0.905991
0.885725
0.999570
0.717640
1.103878
1.167655
1.657605
1.272559
2.015829
6.346703
27.187467
64.132810
151.408911
252.992511
416.450500
557.546616
725.181699
803.316832
820.212960
732.488036
604.546666
404.986739
284.957886
172.836781
121.527910
100.662708
111.114979
132.169724
167.056918
188.324451
201.876760
198.887587
183.842778
165.825486
134.747624
118.652582
91.991425
75.735450
62.986612
56.510568
51.182508
47.207475
42.552948
39.394498
38.112998
36.588907
32.366514
30.077696
26.348829
25.846958
22.542477
21.140575
19.593835
18.916726
16.071796
15.447736
14.413595
13.161898
12.089610
12.529492
10.568500
10.579824
10.192990
9.366870
8.934736
9.006858
8.645654
9.192824
8.631945
9.070635
8.804798
9.147525
8.897781
9.306669
8.938909
8.762479
7.888675
8.365512
7.492900
7.104874
7.064939
8.122921
6.964803
7.487535
7.289648
6.816983
7.120967
6.426573
6.961823
7.345676
6.947517
7.139444
7.677674
##ZVALUE=265
0.816584
0.779629
0.955462
0.915527
0.756979
0.861883
0.964999
1.023412
1.032948
0.902414
1.174808
1.106858
1.275539
1.533628
3.484488
18.645525
44.092536
112.082958
201.687813
381.238461
543.823838
699.404478
853.709579
889.965892
819.129944
708.315969
531.487465
393.255949
237.861872
165.465474
127.440691
121.626854
139.848590
175.108910
200.068951
218.325853
226.037502
217.884779
201.871991
170.340538
145.081878
114.061832
94.383955
72.276592
61.467886
52.607656
46.877861
43.203831
40.055513
36.448836
33.875704
29.941797
28.553605
24.865866
23.669600
21.168590
19.855499
17.315745
16.499758
14.913678
14.092922
12.744665
12.311935
11.354685
10.230541
9.731650
9.573698
9.114742
9.314418
8.629560
8.986592
8.961558
8.712411
8.862615
8.697510
9.001493
8.771420
8.096695
8.250475
7.607937
7.426739
7.295609
7.228851
7.056594
6.870627
6.406903
6.529689
6.640553
6.490946
6.488562
6.214976
6.510615
6.331801
6.097555
6.510615
6.530881
##ZVALUE=270
0.745654
0.651479
0.656843
0.915527
0.825524
0.681877
0.841618
0.797510
0.977516
0.846982
0.881553
0.917912
0.960827
0.994802
1.016855
1.473427
1.875758
8.543730
25.312901
82.196593
161.556005
281.069875
502.824783
676.496625
872.115493
942.772627
947.392583
867.343545
692.518950
536.812544
388.530493
235.175490
165.769458
128.391981
128.939748
154.568553
178.359747
205.162764
215.024948
221.328735
211.691856
191.419721
166.027546
131.740570
107.324719
78.743696
65.480471
49.821734
42.779446
36.858916
34.315586
29.033422
29.032826
24.978518
23.584962
21.349788
18.421412
17.514825
16.924739
14.975667
14.421940
13.168454
12.233853
10.969639
10.480881
9.907484
9.668469
8.779764
8.617640
8.847713
8.242726
8.243918
8.813739
7.981658
8.292794
8.019805
8.191466
7.491708
7.922649
7.273555
7.380843
6.722808
6.763935
6.492734
5.823970
5.912781
6.270409
6.226897
6.166697
5.843639
6.014705
6.175637
5.665421
6.249547
6.019473
5.622506
##ZVALUE=275
0.704527
0.606775
0.726581
0.750422
0.747442
0.475645
0.696778
0.605583
0.855923
0.740886
0.724792
0.867844
1.038909
1.014471
1.106858
1.091957
1.095533
1.306534
1.610518
3.846884
14.054775
43.147802
126.053691
236.954689
446.808934
613.033772
815.039873
938.172936
1006.341577
967.953801
860.262513
663.446784
489.169955
287.203789
189.523697
118.259788
101.954937
112.221837
130.065680
155.469775
174.636841
191.400647
195.166469
184.657574
167.147517
136.620998
113.418698
84.700584
64.832568
45.141578
35.829544
26.694536
23.423433
20.419955
18.759966
16.825795
15.417933
14.094710
13.770461
12.995601
11.319518
10.597706
10.340810
9.438992
9.018779
8.464456
8.532405
7.794499
7.853508
7.827878
7.663965
8.194447
7.825494
7.868409
7.857680
7.638931
7.641912
6.970763
6.763935
7.113814
6.880760
6.085634
5.997419
6.459951
5.903840
6.215572
5.947948
5.808473
5.455613
5.965829
5.363822
5.335808
5.393624
5.267859
5.339980
5.469918
##ZVALUE=280
0.543594
0.681877
0.648499
0.492930
0.559688
0.583529
0.597835
0.625849
0.605583
0.730753
0.580549
0.625849
0.937581
0.853539
0.703931
0.966787
1.112819
0.956655
1.036525
1.222491
1.139641
1.821518
9.172559
31.442642
97.192526
183.748007
347.417593
519.587994
747.197866
892.686844
988.327861
999.869704
916.260481
714.229941
542.684793
325.763822
206.687450
107.609630
70.113540
61.600804
72.693825
98.181963
117.557645
143.205523
156.565905
164.471865
156.364441
137.220621
119.631886
88.448524
65.843463
43.161511
31.817555
20.713806
15.300512
11.749864
10.708570
9.339452
9.500980
8.528829
8.230805
8.321404
7.627606
7.747412
7.439852
7.238984
6.882548
6.932616
6.548762
6.597638
6.213784
6.669760
6.934404
6.949902
6.871819
6.843805
6.970763
6.536841
6.580949
5.823970
5.821586
5.865693
5.699992
5.365610
5.356669
5.611777
5.223751
5.621910
5.385876
4.958510
5.648732
5.199909
4.924536
4.837513
5.104542
5.194545
##ZVALUE=285
0.473857
0.623465
0.503659
0.510812
0.339746
0.601411
0.722408
0.759959
0.545979
0.651479
0.502467
0.758767
0.873804
0.608563
0.871420
0.755787
0.764728
0.900626
0.875592
0.977516
1.054406
1.253486
1.366735
1.428723
4.865527
16.260743
57.100654
116.196871
251.148939
398.674607
554.241538
795.079470
930.416584
1008.376479
962.013602
799.245834
633.104444
395.316482
250.900984
120.984912
66.050887
36.502481
36.862493
56.863427
76.312423
103.939772
123.054981
141.213536
147.138834
143.961906
129.776001
107.695460
86.861849
58.098435
41.775703
23.989677
15.856624
9.942651
8.146763
6.760955
6.394982
6.488562
6.002784
6.226897
5.780458
5.934834
5.993843
6.325841
5.934834
6.312728
5.900860
6.251931
6.588697
6.663799
6.556511
6.054640
6.467700
6.034970
6.590486
6.118417
6.095767
5.766749
5.284548
5.350709
5.534887
5.276799
5.258918
5.190969
5.024672
4.935861
5.181432
5.082488
5.069971
4.719496
4.826784
4.594922
##ZVALUE=290
0.411868
0.339746
0.623465
0.396967
0.492930
0.435710
0.510812
0.546575
0.552535
0.461936
0.574589
0.591874
0.597835
0.649691
0.607967
0.667572
0.660419
0.730753
0.861883
0.969768
0.983477
0.913739
1.179576
1.140833
1.234412
1.363754
2.168417
6.346703
30.809641
72.564483
139.054656
300.032496
470.678806
719.475746
877.469778
1005.624533
999.197960
880.085826
729.351640
493.057966
328.209996
164.412856
40.478706
37.089586
26.127696
33.459663
47.086477
71.870685
92.147589
116.989613
130.507946
140.410662
138.466954
124.017596
105.242729
79.503655
58.995485
37.403703
25.233626
14.638901
9.762645
6.755590
6.349683
5.837679
5.669594
5.879998
5.832911
5.873442
5.748868
6.263852
6.347895
6.219745
6.051660
6.650686
6.255507
6.160736
5.968809
6.249547
5.619526
5.612969
5.564690
5.511642
5.606413
5.704761
5.303621
5.374551
5.119443
4.922748
5.069971
4.958510
5.071759
4.767776
4.968643
4.907846
4.699826
5.060434
##ZVALUE=295
0.345707
0.430942
0.489950
0.423789
0.480413
0.451803
0.561476
0.427961
0.710487
0.559688
0.604987
0.439882
0.438690
0.722408
0.657439
0.625849
0.542998
0.622869
0.819564
0.655651
0.807643
0.879765
0.915527
1.071692
0.817776
0.990629
1.242757
1.350641
1.668930
2.705455
15.375614
44.148564
101.319551
237.317681
394.615531
633.111596
801.137686
965.343714
1001.518965
931.539536
804.176927
584.218502
405.566692
212.325454
118.215680
47.462583
24.638772
21.110773
28.520823
46.022534
63.008666
88.920593
107.159615
126.309991
132.625699
131.675601
118.121505
97.348690
78.572631
54.203868
38.999915
23.408532
15.868545
10.070801
7.409453
5.809665
6.214976
5.627871
5.359650
5.678535
5.802512
6.116629
6.131530
6.551743
6.085634
6.315708
5.944967
6.037951
5.732775
5.877614
5.589724
5.412698
5.416870
5.440712
5.215406
5.258918
5.310774
5.205870
5.285740
4.948974
4.954934
4.756451
4.478693
4.953742
4.733801
4.753470
##ZVALUE=300
0.413656
0.296831
0.522733
0.472665
0.358820
0.202656
0.424981
0.474453
0.363588
0.498891
0.374913
0.391603
0.551939
0.509620
0.578761
0.389814
0.575781
0.543594
0.569820
0.637770
0.746846
0.658631
0.659823
0.649691
0.843406
0.973940
0.878572
0.951886
1.041889
1.214743
1.278520
1.556873
4.186630
25.271773
65.117478
169.760585
293.989778
509.324670
689.857006
892.108679
977.994800
980.105996
880.231857
676.146746
502.668619
285.751820
171.825886
77.463984
38.291812
17.111897
17.030835
26.588440
38.380623
58.990717
78.887939
102.525949
117.487907
127.021670
126.206875
113.423467
98.925829
74.932575
56.437850
37.603974
25.671721
14.215708
9.909868
6.955862
6.069541
5.553961
5.496740
5.621910
5.469918
5.513430
5.837679
5.739927
5.803704
5.441904
5.428791
5.367994
5.255938
5.175471
5.108714
5.157590
5.364418
4.916787
4.592538
4.896522
4.831553
4.547834
4.712939
4.789829
4.856586
4.291534
4.373789
4.515648
##ZVALUE=305
0.366569
0.402927
0.526905
0.407696
0.263453
0.350475
0.463724
0.217557
0.337958
0.540614
0.350475
0.371933
0.551939
0.409484
0.503659
0.467896
0.424981
0.662804
0.471473
0.548959
0.477433
0.591874
0.701547
0.533462
0.684857
0.734925
0.592470
0.712872
1.050830
1.043677
1.051426
1.141429
1.267791
1.403689
2.583861
15.080571
42.895675
123.386979
224.822760
423.297882
597.875714
822.086930
944.478512
993.167758
932.722688
750.409961
585.709810
371.480584
234.313607
108.206868
53.981543
19.690990
12.688637
15.730858
23.637414
38.832426
55.129528
78.520775
96.325874
110.704899
118.779540
117.957592
108.702779
92.076659
74.794888
50.518513
36.410689
21.992922
14.498830
8.818507
6.781816
5.539656
5.552769
5.295873
5.361438
5.359650
5.109906
5.286932
5.209446
5.066991
4.852414
5.119443
4.810691
4.978776
4.636645
4.906654
4.781485
5.047917
4.743934
4.538894
4.364848
4.312992
4.555583
4.211664
4.363656
4.420877
##ZVALUE=310
0.308752
0.312924
0.289679
0.375509
0.416636
0.365973
0.403523
0.248551
0.410676
0.273585
0.450611
0.267625
0.346899
0.139475
0.273585
0.421405
0.391603
0.464916
0.550747
0.596642
0.442863
0.561476
0.621676
0.503659
0.695586
0.733733
0.579953
0.699759
0.741482
0.743866
0.790954
0.861883
1.019835
1.164675
1.219511
1.356602
1.718998
6.372929
22.067428
75.952411
150.792599
316.410661
479.458570
709.875822
863.946676
983.168483
971.961021
857.122540
711.333752
477.723479
317.167640
158.064961
83.302855
30.680895
14.229417
10.883808
13.492703
21.359921
31.409860
50.984621
66.834688
89.104772
102.373958
110.987425
111.956596
102.545619
90.111494
70.250630
52.843690
33.730865
23.286939
13.999939
9.779930
6.575584
5.451441
5.213618
4.739761
4.524589
4.729629
4.292727
4.309416
4.614592
4.819632
4.478693
4.439950
4.558563
4.591942
4.713535
4.730821
4.548430
4.589558
4.204512
4.367828
4.154444
4.272461
4.155636
##ZVALUE=315
0.275970
0.315905
0.260472
0.403523
0.388622
0.373721
0.399947
0.303984
0.341535
0.347495
0.502467
0.297427
0.336766
0.413656
0.532866
0.374913
0.325441
0.508428
0.524521
0.490546
0.389814
0.675917
0.456572
0.621676
0.482798
0.445843
0.562668
0.555515
0.709891
0.701547
0.667572
0.890493
0.952482
0.880957
0.961423
1.049638
1.088977
1.359582
1.347661
2.968907
10.611415
45.944452
105.215907
242.616534
390.478969
625.853539
784.733891
937.625766
977.963805
907.568932
783.558488
563.761592
400.092602
212.710500
115.679502
43.672919
18.453598
8.923411
9.390712
12.793541
18.621683
31.410456
44.373870
63.520670
79.121590
97.786784
104.495883
104.900002
98.812580
83.007812
67.990422
49.953461
35.871863
21.187663
13.955832
8.536577
6.470680
5.063415
4.402995
4.339814
4.314780
4.262924
4.013777
4.523993
4.324913
4.242659
4.166961
4.789829
4.530549
4.569888
4.225969
4.527569
4.314780
4.288554
4.105568
4.424453
##ZVALUE=320
0.273585
0.295639
0.276566
0.323653
0.262856
0.343919
0.195503
0.296831
0.178814
0.267625
0.225902
0.277758
0.330806
0.235438
0.266433
0.425577
0.435710
0.455976
0.377893
0.319481
0.234842
0.417829
0.384450
0.536442
0.492930
0.581741
0.542998
0.501871
0.577569
0.697970
0.541806
0.566840
0.713468
0.868440
0.738502
0.868440
0.973940
1.018643
1.071692
1.132488
1.209974
1.657605
4.801750
26.541948
68.212748
179.700851
299.767852
500.380993
671.044588
865.147710
947.006941
939.569473
852.503777
657.104850
481.829643
268.940926
155.399442
66.991448
30.262470
10.531545
7.670522
8.414984
10.837913
16.598701
26.387572
42.236447
56.501627
76.074600
88.232756
98.945498
99.495649
93.210936
82.075000
62.617660
47.445893
31.058788
21.345615
12.701750
8.932948
5.783439
4.886985
4.421473
4.194975
4.115701
4.008412
4.221797
4.024506
4.279613
4.168749
4.143715
4.001856
4.193783
4.093647
3.996491
3.975630
4.237890
##ZVALUE=325
0.366569
0.281930
0.231862
0.453591
0.291467
0.466704
0.329614
0.399947
0.369549
0.304580
0.442863
0.483990
0.344515
0.313520
0.286698
0.511408
0.498891
0.501871
0.587702
0.481606
0.485778
0.750422
0.453591
0.399947
0.418425
0.493526
0.638962
0.466704
0.490546
0.574589
0.671744
0.545979
0.601411
0.802875
0.810623
0.831485
0.804663
0.830889
0.815988
0.959635
1.032948
1.147985
1.383424
1.280904
3.358722
12.668967
49.878955
105.584860
234.910846
383.630991
608.604550
765.656829
911.272764
947.473645
867.945552
738.544464
509.598851
351.494551
188.143849
103.347898
38.459897
16.802549
7.609725
6.927848
7.833838
9.942651
16.083717
24.412870
40.891767
55.406690
74.380636
85.458755
94.277859
93.941689
86.237788
76.326728
58.687925
45.918822
29.020905
19.644499
11.614561
8.253455
6.041527
4.880428
4.409552
4.325509
4.279613
3.874898
4.201531
4.162788
4.130602
3.936887
3.796816
4.184842
4.003644
4.017949
##ZVALUE=330
0.178814
0.313520
0.325441
0.241995
0.341535
0.183582
0.270605
0.320673
0.452995
0.209808
0.198483
0.172853
0.207424
0.382662
0.284910
0.313520
0.419617
0.286698
0.471473
0.286698
0.309944
0.493526
0.274777
0.458956
0.264645
0.356436
0.368953
0.397563
0.475645
0.514984
0.621676
0.565648
0.491738
0.420809
0.647902
0.630617
0.642538
0.665784
0.567436
0.829697
0.858903
0.783801
0.747442
0.905991
0.879765
1.132488
1.486540
7.243752
23.442507
80.526471
155.895948
315.139890
468.846560
685.021877
822.236538
915.169716
895.843506
760.974884
612.337589
397.287011
256.749988
120.102763
61.617494
22.340417
9.742975
6.544590
6.283522
6.908774
9.499788
15.820861
23.205876
37.451982
50.520897
68.560839
79.158545
87.317824
87.760687
80.154538
69.888830
54.394603
42.014718
27.203560
18.878579
11.764765
8.332729
5.767941
4.728436
4.370809
4.093647
3.866553
3.837943
3.937483
3.716946
4.064441
4.068613
3.762841
##ZVALUE=335
0.247955
0.191927
0.137687
0.130534
0.129938
0.107884
0.200868
0.214577
0.425577
0.336766
0.172853
0.097752
0.312924
0.262856
0.277758
0.176430
0.345707
0.222921
0.337958
0.393987
0.289679
0.233650
0.290871
0.238419
0.336766
0.202656
0.307560
0.220537
0.259876
0.216961
0.373721
0.300407
0.367761
0.441670
0.482798
0.547767
0.572801
0.509620
0.448823
0.567436
0.714660
0.599623
0.685453
0.719428
0.603795
0.938773
0.989437
0.994802
1.141429
3.298521
12.206435
48.584938
105.132461
234.518647
377.352834
594.600439
745.111704
868.574977
890.769958
800.758004
674.533844
466.843843
316.747427
165.897608
87.674856
30.316710
13.078451
6.533861
5.806684
5.749464
6.739497
9.071827
13.895631
23.386478
33.668876
49.510598
61.295629
73.964596
80.121756
81.408620
75.753927
63.645840
53.774714
40.445924
29.817820
18.692613
12.872815
8.321404
6.257892
4.778504
4.040599
3.908873
4.056692
3.878474
3.725886
3.816485
##ZVALUE=340
0.311732
0.271797
0.211596
0.204444
0.211596
0.231862
0.297427
0.231862
0.297427
0.194907
0.158548
0.322461
0.258684
0.175834
0.250936
0.233650
0.387430
0.170469
0.174642
0.274777
0.242591
0.314713
0.241995
0.344515
0.287890
0.357628
0.395775
0.322461
0.308752
0.491738
0.480413
0.526905
0.443459
0.229478
0.153780
0.416636
0.373721
0.512600
0.493526
0.628829
0.555515
0.506639
0.691414
0.540614
0.640750
0.810623
0.692606
0.714660
0.884533
1.025796
1.103878
1.468658
7.827878
24.816990
79.965591
158.695579
328.609943
478.028655
674.496889
794.521570
869.745016
844.473839
707.798004
567.576885
357.584953
222.820640
103.973746
50.008893
14.958978
7.180572
5.853772
5.639791
5.705953
6.453991
8.957982
13.131499
21.541715
31.437874
46.504736
57.063699
69.796443
75.393915
75.219870
72.545409
61.887503
52.294731
37.421584
28.496981
18.214583
13.016462
8.234978
6.148815
4.724860
4.253983
4.186630
3.722906
##ZVALUE=345
0.034571
0.219941
0.206828
0.186563
0.181794
0.397563
0.299811
0.174642
0.257492
0.274777
0.304580
0.117421
0.341535
0.232458
0.211596
0.215769
0.324845
0.270605
0.363588
0.264645
0.160933
0.296831
0.148416
0.249743
0.273585
0.211596
0.322461
0.329614
0.397563
0.305772
0.240803
0.264645
0.424981
0.323653
0.467896
0.569820
0.486970
0.286698
0.546575
0.574589
0.551939
0.534654
0.497699
0.571609
0.522733
0.621676
0.652671
0.667572
0.627637
0.796914
0.859499
0.885725
1.096725
1.265407
2.666712
16.290545
45.532584
120.930672
216.474533
397.767425
547.415018
730.927587
816.941857
832.346678
762.058496
591.228604
441.014767
263.491869
149.886608
59.700608
27.551651
9.858608
6.324649
5.067587
5.310774
5.246997
5.736947
8.106828
11.565685
19.902587
28.738976
42.377710
52.633882
63.038468
69.433451
69.898963
67.389607
58.864951
49.762726
37.523508
28.386712
18.466711
12.605786
8.423924
6.202459
4.735589
##ZVALUE=350
0.143647
0.231862
-0.092983
0.231862
0.169873
0.317693
0.189543
0.255704
0.292659
0.098944
0.258684
0.291467
0.233650
0.254512
0.181794
0.132918
0.252724
0.425577
0.253916
0.273585
0.254512
0.264645
0.214577
0.280738
0.299811
0.233650
0.342727
0.385642
0.395775
0.318885
0.232458
0.366569
0.429749
0.471473
0.363588
0.330806
0.439882
0.439882
0.371933
0.555515
0.408888
0.428557
0.552535
0.625849
0.628829
0.504851
0.588894
0.697970
0.794530
0.541806
0.861883
0.733733
0.666976
0.775456
0.908971
1.126528
1.559854
7.694960
25.594831
80.842972
154.501796
312.216878
456.660986
638.561845
749.475956
816.318989
781.584978
641.834736
495.980978
306.449533
187.403560
83.964467
39.843917
11.642575
6.301999
5.273819
4.946589
4.960895
4.668832
5.473495
7.126927
11.735559
17.508864
26.924610
35.331845
47.564507
55.211782
62.538981
64.859986
61.546564
55.960417
45.442581
36.979914
26.939511
19.602776
12.610555
##ZVALUE=355
0.281930
0.114441
0.103712
0.278950
0.149608
0.198483
0.236630
0.191927
0.230670
0.375509
0.262856
0.246763
0.108480
0.218749
0.321865
0.101924
0.094771
0.341535
0.226498
0.203848
0.245571
0.103712
0.349879
0.316501
0.302792
0.403523
0.376701
0.229478
0.285506
0.370741
0.276566
0.328422
0.219941
0.238419
0.326633
0.341535
0.312924
0.483990
0.524521
0.420809
0.390410
0.377893
0.514984
0.350475
0.438690
0.417829
0.570416
0.625849
0.660419
0.567436
0.661612
0.748634
0.594854
0.644922
0.835657
0.984669
0.912547
1.002550
1.329780
3.650784
13.361573
53.144693
108.326674
229.623914
361.566544
562.605858
689.553022
783.095956
785.997510
673.753619
545.416474
364.533663
233.327746
104.313493
50.053000
15.882850
7.341504
4.961491
4.651546
4.349947
4.153848
4.352927
4.927516
6.604791
9.296536
15.396476
21.771789
32.145977
40.260553
49.898624
55.286884
58.791637
57.496428
51.903725
45.076609
35.092831
##ZVALUE=360
0.222921
0.182986
0.244975
0.319481
0.219941
0.208616
0.228882
0.208616
0.151992
0.197887
0.138879
0.333786
0.221729
0.285506
0.283718
0.235438
0.258684
0.157952
0.359416
0.239611
0.340939
0.229478
0.269413
0.367761
0.264645
0.259876
0.285506
0.290871
0.477433
0.512600
0.500679
0.558496
0.509620
0.491738
0.364780
0.389814
0.476837
0.234842
0.376701
0.387430
0.340939
0.321865
0.405908
0.442863
0.485778
0.412464
0.394583
0.572801
0.381470
0.495911
0.651479
0.658631
0.562668
0.811815
0.695586
0.709891
0.764728
0.855923
0.786781
1.097918
1.202822
1.913905
5.912781
27.079582
66.148639
164.769888
275.489688
452.288985
594.759583
735.942721
771.940947
721.139908
613.057017
422.083735
284.065008
140.349865
73.195696
26.560426
10.871887
5.299449
4.597902
4.475713
4.245639
4.111528
3.953576
4.399419
5.495548
8.222461
11.460781
18.319488
25.096536
34.672618
41.758418
49.831867
52.883625
52.811503
##ZVALUE=365
0.137687
0.113845
0.079870
0.122786
0.224710
0.179410
0.039935
0.310540
0.262856
0.171661
0.250936
0.180602
0.154972
0.052452
0.177622
0.168681
0.092983
0.154972
0.256896
0.056624
0.279546
0.186563
0.182986
0.215769
0.204444
0.215769
0.175834
0.198483
0.335574
0.281930
0.369549
0.362992
0.319481
0.255704
0.281930
0.246763
0.287890
0.290871
0.375509
0.333786
0.356436
0.409484
0.349879
0.396967
0.391603
0.445843
0.397563
0.461936
0.298619
0.404716
0.480413
0.364780
0.341535
0.622869
0.496507
0.579953
0.544786
0.565648
0.659823
0.857711
0.923872
0.990629
1.013875
1.283884
2.655983
15.000701
41.217804
108.882785
201.307535
377.441645
511.799455
657.729506
732.410550
723.994970
640.997887
471.709967
338.798761
188.797712
103.175640
37.304759
15.176535
5.776882
4.459620
3.867745
3.945827
3.683567
3.542900
3.464818
3.545880
4.560947
6.152987
10.066628
14.345646
22.281408
29.091835
37.390590
##ZVALUE=370
0.120997
0.099540
0.280738
0.061989
0.080466
0.268817
0.160933
0.049472
0.258684
0.235438
0.239611
0.345707
0.293851
0.241995
0.171661
0.237823
0.117421
0.231862
0.252724
0.240803
0.210404
0.360608
0.340939
0.250936
0.440478
0.406504
0.242591
0.373721
0.317693
0.360608
0.400543
0.298619
0.152588
0.290871
0.298619
0.304580
0.313520
0.301600
0.187755
0.502467
0.431538
0.412464
0.328422
0.249743
0.213981
0.296831
0.383854
0.412464
0.442863
0.392795
0.350475
0.467896
0.411868
0.451803
0.512600
0.537634
0.573993
0.556707
0.619888
0.475645
0.645518
0.819564
0.819564
0.911951
0.843406
1.059771
1.837611
6.006956
31.031966
74.854493
177.142620
282.322764
451.719761
583.093762
702.899694
728.913546
664.609671
553.803444
371.862650
243.321657
115.510821
59.534907
22.578835
9.352565
4.565716
3.926754
3.607869
3.615618
3.330708
3.160834
3.178716
3.254414
4.011989
5.271435
8.684993
12.126565
##ZVALUE=375
0.244975
0.132918
0.132918
0.186563
0.308752
0.073910
0.089407
0.324845
0.209808
0.115633
0.237823
0.381470
0.297427
0.311732
0.202656
0.287890
0.130534
0.126958
0.268817
0.323653
0.234842
0.086427
0.170469
0.282526
0.274777
0.230670
0.452995
0.305772
0.492930
0.165701
0.297427
0.352859
0.339746
0.241995
0.366569
0.194907
0.337958
0.309944
0.352859
0.316501
0.311732
0.191927
0.177622
0.292659
0.466704
0.360608
0.267625
0.347495
0.489950
0.295639
0.367761
0.260472
0.399947
0.393987
0.273585
0.395775
0.421405
0.427961
0.507832
0.609756
0.670552
0.637770
0.698566
0.710487
0.810623
0.758767
0.789762
0.870824
1.291633
3.707409
13.261437
50.772429
108.178854
235.746503
358.957648
525.204539
636.740923
714.273453
699.808002
584.524870
456.619859
282.861590
180.747509
90.382695
45.346618
14.136434
6.141663
3.827810
3.518462
3.537536
3.079772
3.212690
2.909899
2.821684
2.895594
3.453493
##ZVALUE=380
0.218749
0.220537
0.182986
0.274777
-0.048876
0.096560
0.044703
0.190735
0.199676
0.015497
0.259876
0.288486
0.063777
0.115633
0.120997
0.195503
0.178814
0.164509
0.148416
0.269413
0.193715
0.168681
0.237823
0.157952
0.320673
0.205636
0.330806
0.305772
0.278950
0.299811
0.436902
0.457764
0.292659
0.393987
0.371933
0.453591
0.341535
0.328422
0.349879
0.260472
0.308752
0.396967
0.318885
0.346899
0.360608
0.193715
0.297427
0.360608
0.334978
0.317693
0.337958
0.348687
0.318885
0.277758
0.400543
0.396967
0.296831
0.506639
0.375509
0.445843
0.464916
0.453591
0.521541
0.429749
0.552535
0.660419
0.675917
0.763535
0.940561
0.893474
1.014471
1.979470
6.978512
33.403635
78.917742
183.426738
297.271609
466.140509
592.291951
700.408816
708.936453
622.030497
513.515472
360.631943
244.105458
121.538639
62.624812
21.812916
8.959770
4.071593
3.399849
2.979636
3.127456
2.874732
2.778769
2.608895
##ZVALUE=385
0.075698
0.022650
0.106692
0.126958
0.073910
0.015497
0.185966
0.246763
0.163913
0.222921
0.113845
0.197887
0.073910
0.010729
0.007749
0.053644
0.019670
0.051856
0.065565
0.174642
0.164509
0.247955
0.064969
0.021458
0.145435
0.141859
0.207424
0.306964
0.171661
0.285506
0.016689
0.436902
0.370741
0.301600
0.423789
0.460744
0.425577
0.439882
0.352859
0.468493
0.418425
0.393987
0.292659
0.398755
0.292659
0.420809
0.187755
0.249743
0.347495
0.376701
0.406504
0.180602
0.344515
0.346899
0.293851
0.268817
0.406504
0.253916
0.238419
0.310540
0.425577
0.221729
0.455976
0.550747
0.512600
0.474453
0.455976
0.639558
0.727773
0.673532
0.754595
0.877976
0.977516
1.048446
3.051758
18.653870
48.328638
122.692585
217.799544
388.001800
521.564484
653.817654
692.812800
662.868619
586.556792
432.245731
309.811831
169.725418
97.486973
40.014982
16.202927
4.872680
3.468990
2.990961
2.909899
2.687573
##ZVALUE=390
-0.013709
-0.076890
-0.037551
0.029802
0.049472
-0.022650
-0.158548
-0.068545
-0.185966
-0.067949
-0.097752
0.030994
0.071526
0.022650
-0.085831
0.047684
-0.083447
-0.016689
-0.054836
-0.000596
-0.039935
-0.057817
-0.116825
0.030994
-0.017881
-0.007749
0.009537
0.294447
0.214577
0.179410
0.362992
0.452995
0.403523
0.391603
0.487566
0.330806
0.423789
0.394583
0.561476
0.311732
0.324845
0.287890
0.380874
0.244975
0.198483
0.383854
0.301600
0.238419
0.338554
0.026822
0.254512
0.260472
0.201464
0.069737
0.193715
0.070930
0.292659
0.158548
0.157952
0.127554
0.218749
0.232458
0.223517
0.243783
0.166893
0.227690
0.383854
0.353456
0.466704
0.520945
0.714660
0.506639
0.688434
0.717640
0.783801
0.825524
1.404881
9.372830
30.143857
92.822909
174.891949
329.422951
451.376438
588.398576
666.015744
690.984726
639.784932
508.001447
389.780998
239.064693
140.137672
57.678819
26.652813
8.301735
3.156662
2.670884
##ZVALUE=395
0.140667
0.090599
0.127554
0.224710
0.108480
0.052452
0.160933
0.012517
0.172853
0.066757
0.106692
0.180602
0.252724
0.189543
0.244975
0.159740
0.030994
0.111461
0.242591
0.163913
0.227690
0.201464
0.121593
0.180602
0.118613
0.228882
0.277758
0.507832
0.641942
0.540614
0.605583
0.692606
0.829697
0.718832
0.936985
0.893474
0.871420
0.844598
0.859499
0.766516
0.802875
0.574589
0.634789
0.690818
0.595450
0.676513
0.440478
0.474453
0.671744
0.500679
0.369549
0.432730
0.499487
0.498891
0.368953
0.554919
0.557899
0.322461
0.474453
0.404716
0.348687
0.448823
0.468493
0.416636
0.433922
0.318885
0.396967
0.632405
0.665784
0.585914
0.580549
0.687838
0.695586
0.691414
0.739694
0.773668
0.856519
0.860691
1.100898
5.084872
18.679500
65.540671
128.003955
254.023671
372.532010
538.240671
635.823607
697.085857
688.745975
578.092933
453.663468
286.212564
181.145668
86.720586
41.787624
13.531446
##ZVALUE=400
0.149608
0.057817
0.076890
0.169873
0.177622
0.114441
0.222921
0.129938
0.098944
0.238419
0.340939
0.047684
0.208616
0.200868
0.081658
0.293851
0.142455
0.187755
0.114441
0.236630
0.180602
0.260472
0.012517
0.268817
0.210404
0.138879
0.374913
0.375509
0.525713
0.587702
0.616908
0.762939
0.799894
0.961423
0.832677
1.072884
0.992417
0.992417
0.975728
0.989437
0.947714
0.823736
0.901818
0.623465
0.763535
0.566840
0.541806
0.622869
0.493526
0.478625
0.517964
0.403523
0.412464
0.424981
0.554919
0.560880
0.503659
0.437498
0.344515
0.481606
0.366569
0.254512
0.172853
0.303984
0.449419
0.423789
0.448823
0.488758
0.577569
0.564456
0.637770
0.682473
0.719428
0.743866
0.556707
0.707507
0.759959
0.640750
0.857711
0.818968
0.977516
2.662539
10.373592
38.162470
82.550645
185.022950
296.962857
462.459922
573.866963
665.757656
679.306984
601.342916
497.394800
332.733989
220.644474
112.089515
##END
