##TITLE=FAAI0801
##FORMAT=SPECTACLE-ASCII V-1.2
##DATA TYPE=ULTRAVIOLET SPECTRUM
##SECOND TYPE=ULTRAVIOLET SPECTRUM
##DATE=01/24/18
##TIME=18:54:19
##SPECTROMETER/DATA SYSTEM=SPECTACLE
##XUNITS=NM EM
##YUNITS=ENERGY
##YFACTOR=1
##FIRSTX=220
##LASTX=410
##NPOINTS=96
##3DDATA=Equidistant
##ZUNITS=NM EX
##FIRSTZ=210
##LASTZ=400
##ZPOINTS=39
##XYDATA=(Y..Y)
##ZVALUE=210
4.258752
3.759861
3.143549
3.310442
3.927946
3.153682
3.230572
2.811551
3.259778
3.402829
2.326965
2.535582
2.033710
1.962781
2.255440
2.108812
1.927614
2.284646
3.099442
2.764463
2.617836
3.489852
3.046989
3.327727
3.507733
4.454851
3.954768
4.449487
4.816651
5.596876
5.965829
6.502867
6.542802
7.087588
7.342696
7.524490
7.856488
8.230805
6.436706
6.553531
6.420612
6.413460
7.659793
6.874800
6.868839
6.504655
6.548762
6.819963
6.459951
5.902648
6.798506
5.868673
5.739927
6.804466
5.846620
5.830526
5.860925
6.048679
5.097985
5.364418
5.480647
5.725622
6.351471
6.455779
5.454421
6.575584
5.988479
6.317496
7.856488
7.712841
10.378957
11.489987
11.642575
13.419986
15.446544
14.333725
15.463829
15.699863
14.376640
14.550686
12.476444
14.201999
10.223985
9.963512
8.317828
7.079840
5.339980
5.705953
5.212426
5.495548
4.946589
5.623698
6.127954
5.777478
6.174445
6.983876
##ZVALUE=215
11.315942
11.399984
10.473728
9.968877
7.464886
7.501841
7.044673
7.365942
7.557869
6.905794
5.761981
4.277825
4.509687
3.479719
2.601743
3.236532
2.492666
2.674460
2.950430
3.143549
3.652573
3.361702
3.314614
3.917813
4.326701
3.631711
4.932880
4.731417
6.942749
6.966591
8.150935
7.972717
10.465980
8.735657
10.554790
10.157824
10.658503
11.164546
9.681582
9.948611
9.711981
9.149909
8.986592
9.576678
8.999705
8.921623
8.802414
7.350445
8.360744
7.922649
7.121563
8.066893
7.760525
6.492734
6.812811
7.282495
6.960630
6.535649
7.144809
7.434487
6.478429
6.255507
6.972551
7.108450
6.103516
6.601810
7.694960
7.047653
8.040667
8.836985
10.670424
9.980798
11.598468
12.149811
13.571978
14.239550
14.682412
14.024973
13.314486
11.965632
12.380481
9.983778
9.542704
8.217692
7.800460
6.767511
5.057454
5.771518
5.194545
5.760789
4.399419
4.935861
5.042553
5.015731
5.442500
5.805492
##ZVALUE=220
36.857724
34.117699
37.200451
36.751628
32.207966
27.061701
20.526648
15.647411
14.718771
12.778640
15.233755
15.909672
14.943480
12.679696
8.678436
7.497668
5.370975
4.538894
2.837777
3.811717
3.462434
3.016591
2.771616
4.153848
3.836751
4.869699
5.652905
6.945729
8.379817
9.410977
10.413527
12.315512
13.310909
12.613535
14.199615
15.416741
13.639927
13.116598
14.097691
14.351606
13.838410
13.013482
13.138652
11.787415
13.291836
11.022687
10.738969
9.213686
9.241700
10.273457
9.892583
10.215640
9.633899
8.445978
8.725524
8.009672
8.093715
8.606911
8.086562
8.155704
7.060766
8.787513
7.987618
8.205771
7.571578
7.459521
7.157922
8.831620
9.486675
10.063648
10.199547
12.597442
12.743473
15.099645
14.182925
14.112592
15.118718
14.822483
14.527440
13.752580
12.610555
12.374520
11.325479
10.160804
8.318424
8.057952
7.291436
6.099939
6.888509
5.476475
6.914735
5.522966
5.111694
5.507469
5.354881
5.661845
##ZVALUE=225
56.704879
69.194436
77.709556
86.638927
91.362596
91.086626
79.774857
55.203438
47.806501
30.786991
29.125810
27.910471
26.907921
28.768778
29.170513
26.914477
23.372769
17.722845
12.972951
9.345412
6.527901
5.517602
4.014969
4.244447
4.720688
5.469918
6.474853
7.937551
8.139610
10.837913
11.830926
12.148619
14.679432
16.024709
16.567707
15.093684
19.108653
16.948581
16.396642
15.032887
16.119480
15.616417
15.468597
13.150573
14.127493
12.450814
12.899637
11.083484
11.707544
11.472702
11.606812
12.274981
11.797547
12.058616
11.159778
11.615753
10.898709
10.392666
11.320710
11.334419
9.673834
10.988712
10.806918
11.016726
9.957552
10.721684
10.862947
11.630654
11.356473
12.722611
12.601614
13.284683
14.280677
16.059875
15.481710
15.619993
16.131997
16.054511
15.790462
13.772845
14.045835
12.909770
12.787580
10.915995
9.803772
8.919835
8.958578
8.931756
7.825494
7.201433
8.173585
7.564425
7.300973
7.621646
7.014871
8.490682
##ZVALUE=230
46.938658
51.020980
82.308650
127.223730
160.779953
194.983482
210.479498
208.927989
186.450481
164.227486
110.135674
81.523657
57.210922
47.682524
49.771667
51.871538
52.333474
49.939752
44.356585
35.279989
27.784705
17.330647
11.845827
8.337498
6.908774
6.514788
7.244945
7.885695
8.993745
10.579824
11.358857
13.540983
13.289452
14.337897
13.944507
14.448762
14.737844
15.336871
15.537739
14.816523
14.654994
13.951659
14.091730
13.796687
11.709929
11.896491
11.579990
13.141632
11.558533
12.603998
12.150407
11.130571
12.613535
12.540817
13.691783
12.413859
12.784600
13.375878
12.674928
13.101697
13.592839
13.557673
13.988614
14.650822
15.037656
14.546514
14.199615
14.737844
16.741753
15.383959
15.060902
17.026663
18.219948
18.634796
19.001961
20.028949
18.653870
17.420650
18.293858
17.140508
16.720891
15.833974
14.419556
13.761520
13.582706
12.489557
11.515617
12.589693
11.476874
10.819435
10.378957
10.551810
10.224581
11.480451
11.211634
10.297894
##ZVALUE=235
16.264915
20.454526
38.809776
82.902908
133.792758
210.306644
274.961591
348.424911
374.392867
381.339788
336.841941
282.782912
192.527771
137.410760
99.595785
76.662898
75.120926
76.711774
86.734891
83.470941
76.736808
65.511465
53.434968
38.097501
24.538636
15.878677
12.412667
9.245872
9.764433
9.530783
9.610653
11.480451
11.330843
12.108684
12.912750
13.223886
12.473464
12.809634
12.615919
12.312531
11.869669
12.344718
11.987686
12.088418
13.008714
11.752844
11.282563
11.149645
13.042688
13.535619
11.848807
14.588833
14.331937
14.275908
15.610456
15.754700
16.045570
15.299916
15.818477
17.172694
16.615987
18.338561
18.080473
16.394854
17.382503
18.082857
18.503666
18.860698
18.290877
18.636584
19.636750
20.585656
22.213459
22.167563
22.683740
24.872422
24.486780
20.550489
21.050572
21.160841
20.569563
20.182729
18.519759
17.807484
17.452836
17.319918
16.705990
15.294552
15.203953
14.783740
15.077591
14.189482
15.302896
13.787746
13.968945
14.129877
##ZVALUE=240
1.888871
2.424717
7.320642
20.679832
54.037571
103.507638
198.734999
289.729834
438.694954
511.897802
577.659607
568.820834
513.010621
411.660671
312.834978
194.647908
144.228935
105.146766
96.643567
100.960732
111.529827
115.935802
113.550425
101.007819
84.048510
68.153739
48.445463
36.630630
23.975968
17.410517
15.213490
13.677478
13.079643
13.055801
12.240410
12.887716
12.217760
12.799501
12.172461
12.492537
11.535883
11.247993
12.613535
10.968447
10.997653
11.769533
10.977983
13.451576
13.378859
13.554692
14.431477
14.438629
14.763474
16.226768
17.370582
17.543435
19.894838
18.244982
19.194484
19.823909
20.478964
18.827915
20.199418
18.977523
21.372437
21.648407
20.934939
21.354556
23.272634
25.010705
24.503469
24.602413
25.621653
25.452971
26.330948
26.795864
29.664636
24.958849
25.380850
23.955703
25.008917
22.614598
22.677779
22.622943
21.681786
22.205710
21.399856
19.774437
19.123554
18.705726
20.475984
18.206835
18.211603
19.190907
18.807650
17.753839
##ZVALUE=245
1.434684
1.500845
1.576543
1.891851
4.642606
13.902783
47.538877
99.573731
215.196609
322.994590
475.675464
576.818585
645.929575
664.193034
629.087687
510.098934
408.174992
287.213922
197.159648
124.893785
101.683736
98.051429
116.790533
125.013590
131.817460
127.852559
117.400885
101.650953
75.569749
58.795810
43.420792
31.125546
23.298860
16.625524
14.556646
14.286637
14.276505
13.269782
13.196468
13.275743
11.652708
11.932850
12.457967
11.822581
11.247993
10.811687
11.234879
12.385845
13.045669
12.787580
14.346838
15.002489
14.957786
17.055869
15.217662
17.081499
17.696619
17.735958
18.897653
18.863678
20.188689
19.615889
19.324422
19.611716
20.173788
20.141602
21.246672
20.852685
20.839572
21.464825
22.801757
22.855997
22.453666
22.534728
23.090839
24.469495
22.978783
23.645759
23.171902
22.951961
21.098852
23.497939
21.180511
20.217896
21.496415
20.456910
20.418763
18.094778
19.246936
17.933846
17.376542
18.193722
17.383695
17.787814
18.009543
16.747713
##ZVALUE=250
1.203418
1.361966
1.282692
1.350641
1.453757
1.556873
3.180504
10.767579
42.329431
87.864995
190.778971
301.097631
421.706438
575.282574
671.908855
729.954839
718.685985
635.491610
529.077649
371.164680
257.901549
170.668960
111.637712
94.930530
108.977556
123.768449
144.600868
142.657757
140.003562
129.271746
107.100606
84.443688
66.110492
43.776631
34.188628
22.984743
18.746853
15.939474
15.303493
13.967752
14.208555
13.458729
13.384819
13.192892
13.373494
12.039542
12.463927
12.779832
11.977553
12.912750
14.209747
14.317632
13.463497
14.023781
15.767813
14.911890
15.379786
15.918612
16.565919
16.237497
16.327500
15.844703
16.417503
16.726851
17.080903
17.267466
16.116500
17.964840
17.672777
18.692613
17.414689
19.031763
18.598437
19.092560
19.180775
21.529794
19.677877
18.881559
19.105673
17.406940
18.145442
18.956661
17.992854
17.839670
17.482638
17.007589
16.166568
16.763806
16.434789
16.370416
15.406609
15.410781
15.573502
16.045570
15.730858
14.903545
##ZVALUE=255
1.145601
1.205802
1.027584
1.256466
1.221895
1.153946
1.346469
1.538992
1.762509
6.492734
21.994710
67.833662
132.172704
259.865522
370.721817
546.628833
662.052035
782.880783
804.630518
744.359493
659.049749
528.077483
338.944793
220.070481
123.039484
95.116496
93.303919
109.516978
132.270455
149.413943
150.605440
150.682926
136.377811
117.574930
85.897446
68.459511
45.213699
32.403469
22.517443
19.388795
17.105937
15.525818
16.148686
14.902949
14.931560
13.300776
13.383627
13.253689
13.753772
12.143850
13.825893
12.793541
13.795495
13.675690
13.486743
12.646914
13.691783
12.806654
14.336705
14.767647
13.747811
14.193654
14.570951
13.981462
13.713837
13.452768
14.778972
14.553666
13.903975
14.859438
15.184879
16.642809
16.255975
15.971661
16.655922
16.719699
16.570687
15.412569
15.438795
15.229583
15.075803
15.601516
15.367866
14.247894
14.238954
14.143586
14.851689
14.369488
14.049411
14.161468
13.169646
13.174415
13.409853
14.032722
14.527440
13.924837
##ZVALUE=260
0.760555
1.015663
0.758767
0.834465
0.852942
1.147985
1.108646
1.100898
1.191497
1.391768
1.317859
3.087521
11.392832
40.961504
85.545778
187.002420
300.954580
476.506948
622.752905
798.997879
883.702636
865.377784
781.717896
641.209483
430.382490
294.563770
173.791647
113.564730
82.892776
89.631677
111.380816
132.545829
155.766606
163.676739
158.321857
143.561959
121.160746
94.712973
67.644715
51.561594
35.740733
26.407838
20.343661
17.656684
16.300678
16.513467
15.245676
15.524626
15.287995
15.390515
14.191866
15.190840
15.577674
15.087724
14.341474
13.788939
13.504624
13.747811
14.259815
14.276505
14.168620
14.337897
14.218688
13.444424
13.273954
14.096498
13.418794
13.851523
14.513731
14.710426
14.289618
14.374852
15.388727
15.595555
14.903545
14.976859
14.637709
14.119744
14.529824
14.706850
13.831854
13.705492
13.129711
12.814999
12.906790
13.184547
13.322830
12.129545
12.546778
12.612939
12.354851
12.201667
11.930466
12.163520
11.951923
12.735724
##ZVALUE=265
0.912547
0.669956
0.841618
0.805855
0.883937
0.709891
0.818968
1.024604
1.173615
1.421571
1.080632
1.328588
1.266599
1.568794
4.673004
21.977425
51.708817
129.975677
225.114822
416.284800
592.536926
749.230981
909.515023
940.248966
864.405036
744.012594
555.886626
394.248962
223.763585
143.594742
90.429783
79.478621
92.431903
119.458437
145.549774
165.734887
169.461966
163.772702
146.200657
119.823813
98.460913
68.522692
51.249862
35.260916
26.185513
19.697547
18.452406
17.199516
16.894937
16.671419
15.740991
17.049909
16.589761
15.312433
16.596913
15.282631
15.622973
14.788508
15.423894
16.350746
14.803410
15.625954
14.835000
14.431477
14.788508
14.548898
15.109777
15.326738
14.783740
14.356971
15.537739
15.456676
14.729500
14.591813
15.203953
14.778972
14.899969
13.892651
13.729930
13.392568
13.339520
13.040900
13.399720
12.352467
13.295412
12.446642
12.283921
12.231469
12.861490
12.521744
11.942983
12.533665
11.751652
11.777878
11.360645
12.039542
##ZVALUE=270
0.757575
0.652671
0.542998
0.873804
0.847578
0.830889
0.844598
0.932813
0.924468
1.052618
0.880957
1.069903
1.208782
1.224875
1.381636
1.407862
2.499819
7.998943
23.475885
76.762438
157.159567
335.942507
502.805710
731.160641
880.813003
985.483527
979.164839
863.441825
725.288987
504.915714
346.702933
185.098648
113.433003
74.849725
74.913502
99.229813
121.271610
150.669813
165.390968
171.774626
168.457627
148.633718
126.973987
95.720887
72.706938
49.195886
36.678910
24.857521
20.909905
18.640757
17.736554
16.441941
17.058849
16.502738
17.705560
16.574860
17.248988
17.636418
17.477870
16.441941
16.669631
16.854405
16.484857
17.009974
16.282797
16.081929
16.231537
15.378594
14.954805
15.191436
16.098619
15.287995
15.786886
15.223622
15.292764
14.728904
15.349984
14.748573
14.675856
13.987422
13.296604
13.187528
13.784766
13.041496
12.221932
12.375712
11.914968
12.289882
12.080669
11.937618
11.673570
11.638999
11.167526
11.084676
10.929704
11.627674
##ZVALUE=275
0.622869
0.574589
0.629425
0.597835
0.790954
0.678897
0.798702
0.874996
0.735521
0.734925
0.823736
0.816584
0.908971
0.981688
1.090765
0.997782
1.129508
1.133680
1.283884
2.900958
16.876459
47.292709
140.509605
252.472758
465.423465
635.135770
847.461820
963.030457
1015.584469
980.217457
819.231868
657.925010
467.844605
256.989598
154.199004
79.026818
61.916709
70.639849
90.771914
118.358731
140.387416
160.561800
162.524581
157.494545
143.125653
117.336512
95.584989
67.602992
50.593615
34.403801
26.004910
19.759536
17.924905
17.721653
16.789436
17.401576
17.662644
17.942786
17.622709
18.827915
17.678738
19.023418
18.143654
17.495751
17.464757
17.211437
17.579794
16.850829
16.851425
17.086864
17.197728
15.906692
16.303658
15.733838
16.841888
15.789866
14.939904
15.053749
14.663935
14.616847
13.524890
13.384819
13.638735
12.899637
13.523698
12.466908
11.958480
11.798739
11.895895
11.584759
11.633635
11.429787
10.805726
10.923743
11.143684
11.252761
##ZVALUE=280
0.521541
0.524521
0.616908
0.509620
0.687838
0.608563
0.744462
0.592470
0.677705
0.851750
0.757575
0.846982
0.753999
0.981688
0.787973
0.667572
1.074672
1.061559
0.936985
1.281500
1.587868
2.066493
9.963512
32.066703
103.236437
191.006660
357.298851
528.653860
763.309002
917.329788
1010.035872
1015.584469
936.717987
721.342564
537.760854
311.154723
188.323855
88.585615
54.266453
48.038960
59.370995
86.210966
107.548833
134.597421
150.951743
156.377554
150.591731
134.060979
117.403865
88.641644
68.736672
47.773719
35.409927
24.971962
20.369887
18.158555
17.829537
18.464923
18.703938
18.380880
19.399524
19.634962
19.093752
19.414425
19.795895
18.624663
18.012524
18.068552
18.233657
18.195510
18.350482
18.283725
17.534494
17.261505
16.689897
16.714931
16.414523
15.661716
15.907884
14.987588
14.772415
13.991594
13.679862
13.297796
13.537407
12.767911
12.157559
12.268424
11.911988
11.631846
11.209846
11.188984
10.874867
11.242628
11.024475
10.436773
##ZVALUE=285
0.461936
0.546575
0.754595
0.437498
0.573993
0.636578
0.568628
0.378489
0.716448
0.627637
0.633597
0.490546
0.576973
0.865459
0.740886
0.603795
0.754595
0.675917
0.785589
1.075864
1.106858
1.298785
1.299977
1.463890
4.362464
15.912652
56.617856
117.427707
261.963606
415.384769
639.463663
818.954706
970.345736
1015.584469
1001.593471
826.916695
647.963881
405.400991
256.509781
124.066472
66.942573
36.223531
38.282871
57.572722
75.397491
104.568601
124.356747
144.288540
149.976611
147.178769
137.056708
113.892555
94.883442
68.471432
51.376820
35.095811
27.715564
23.614764
21.386743
20.931959
21.002889
20.777583
21.402836
21.345615
21.408796
20.647645
20.760894
20.761490
20.533800
20.344853
20.526648
19.545555
19.592643
18.631816
17.806888
17.695427
17.558932
16.937852
16.636848
15.534759
15.337467
15.039444
14.809966
14.328957
13.338923
13.583899
13.175607
13.167858
12.766719
12.510419
12.072921
11.408925
11.373758
10.911822
10.897517
10.878444
##ZVALUE=290
0.509620
0.518560
0.466704
0.443459
0.528693
0.446439
0.548959
0.656843
0.643730
0.614524
0.632405
0.600815
0.681877
0.766516
0.530481
0.607967
0.849962
0.730753
0.826716
0.909567
0.849962
1.048446
1.225471
1.142621
1.351833
1.615882
2.090931
6.848574
31.676888
75.070858
180.732608
314.533710
494.857430
753.782988
911.953449
1015.584469
1015.584469
900.642872
747.631788
506.630540
336.916447
169.810653
89.126825
36.854744
26.641488
35.241842
49.690604
74.084997
96.015930
124.076605
140.346885
149.007440
148.263574
133.137703
119.629502
90.958476
72.228909
52.735806
41.724443
31.718612
26.881695
24.826527
24.525523
23.895502
23.218989
23.137927
22.350550
22.333860
21.462440
22.667646
22.070408
21.497607
20.668507
20.077825
19.628406
18.848777
18.651485
17.975569
17.113686
16.842484
15.774965
15.390515
15.073419
14.843941
14.044642
13.700724
13.336539
12.983680
12.745857
12.938976
12.079477
12.074709
11.308789
11.516809
11.369586
11.033416
##ZVALUE=295
0.444651
0.503659
0.493526
0.570416
0.555515
0.522733
0.496507
0.450611
0.650883
0.652671
0.624657
0.540614
0.747442
0.566840
0.706911
0.550747
0.742674
0.776649
0.595450
0.743866
0.831485
0.747442
0.828505
0.962615
0.912547
1.051426
1.058578
1.349449
1.448989
2.819896
10.746717
46.779513
106.223822
253.729820
414.279699
669.692755
848.001838
1008.570790
1015.584469
983.073711
851.497650
612.734556
428.134799
228.622556
125.568509
48.089623
26.518703
23.232698
32.165647
51.784515
70.548654
97.571611
119.412541
138.940811
146.624446
145.770907
135.454535
114.858747
96.167922
72.780848
58.434606
42.413473
34.337640
28.411746
26.428699
24.734735
23.927689
24.071932
23.825765
23.197532
22.876859
22.290945
21.771789
20.942688
21.253824
19.880533
19.295812
18.989444
17.490983
17.413497
16.778708
15.984774
15.424490
15.163422
15.123487
14.886856
14.223456
13.290644
12.976527
12.532473
12.348890
11.641979
11.726618
11.260509
11.253953
10.538697
##ZVALUE=300
0.264645
0.415444
0.450611
0.502467
0.446439
0.506639
0.443459
0.479817
0.495911
0.491738
0.275970
0.584722
0.366569
0.493526
0.617504
0.609756
0.391603
0.650883
0.653863
0.668764
0.599623
0.623465
0.795722
0.864863
0.630617
1.025796
1.030564
1.022816
1.017451
1.357794
1.406670
1.551509
6.803870
23.463964
81.395507
162.069798
336.986780
514.469743
761.808753
915.088654
1015.584469
1015.584469
903.945565
745.925903
500.120521
329.789519
169.126987
92.949867
37.753582
23.144484
25.686622
34.000874
51.326752
68.632960
93.740821
113.789439
135.386586
142.986774
142.628551
133.625865
115.472674
98.330975
74.121952
58.768988
43.418407
34.717917
28.119683
26.444793
24.239421
23.939610
22.705793
22.113919
21.835566
21.028519
19.801855
20.217896
19.740462
18.313527
18.139482
17.958879
16.868711
16.357899
15.915632
15.597939
14.893413
14.524460
14.005899
13.115406
13.234615
12.925863
12.488961
11.931658
11.400580
11.761785
11.270642
10.570884
##ZVALUE=305
0.337958
0.422597
0.424981
0.399947
0.322461
0.355840
0.489950
0.449419
0.463724
0.521541
0.497699
0.424981
0.418425
0.567436
0.483990
0.540614
0.444651
0.690818
0.614524
0.516772
0.551939
0.690818
0.625849
0.597835
0.751615
0.831485
0.809431
0.882745
0.931621
1.016855
0.909567
1.060963
1.429915
1.476407
3.343821
12.675524
52.986741
116.918683
264.843702
414.769650
656.800866
828.053951
995.012522
1015.584469
962.234735
825.406909
598.213673
425.694585
234.680772
132.118464
55.158734
30.964613
22.998452
26.208758
36.644936
48.735738
72.335005
90.528727
113.753676
128.535628
137.501955
137.073994
127.788782
113.647580
89.215636
72.394609
53.340793
42.081475
31.031966
25.908947
22.556782
21.647811
20.556450
19.771457
19.127727
18.401742
18.782616
17.796755
17.205477
16.839504
16.541481
15.406609
15.007854
14.739633
14.659762
14.049411
13.159513
13.301969
12.966990
12.721419
12.056828
11.626482
11.146665
10.969639
10.429621
10.530949
##ZVALUE=310
0.399947
0.352859
0.491738
0.307560
0.233650
0.474453
0.366569
0.427961
0.388622
0.478625
0.210404
0.491738
0.444651
0.429749
0.394583
0.444651
0.443459
0.530481
0.506639
0.604987
0.547767
0.351667
0.640750
0.546575
0.839829
0.747442
0.671744
0.830889
0.899434
0.948906
0.771880
0.861883
1.122952
1.084805
1.181960
1.421571
1.669526
6.466508
22.495985
78.200698
157.658458
324.728489
503.027439
754.419565
911.594033
1015.584469
1015.584469
909.366012
755.734444
519.908667
351.492763
181.116462
100.902915
42.978525
24.551749
21.386743
25.060773
34.339428
45.083761
65.130591
81.867576
102.968812
117.075443
127.585530
128.266811
117.776990
106.751919
86.230636
68.827868
48.183799
37.855506
27.055740
22.262931
18.859506
17.625690
16.421676
16.317964
15.737414
15.210509
14.730692
15.152693
13.969541
14.179945
13.613701
13.033748
13.233423
12.895465
12.693405
11.876822
12.458563
11.734962
11.230707
10.809898
10.645986
10.373592
10.351539
##ZVALUE=315
0.405908
0.319481
0.261664
0.316501
0.217557
0.322461
0.493526
0.254512
0.412464
0.281930
0.420809
0.375509
0.380874
0.535846
0.437498
0.458956
0.437498
0.409484
0.415444
0.554919
0.484586
0.496507
0.599623
0.562668
0.573993
0.621676
0.542998
0.602603
0.764728
0.770688
0.701547
0.908971
0.778437
0.828505
1.049638
0.840425
1.223683
1.487732
1.389980
2.945662
11.371970
49.773455
111.292601
258.033872
415.152907
666.880012
826.804638
990.912914
1015.584469
974.189639
849.536657
621.988773
445.351601
243.106484
136.309862
55.302978
28.195977
18.444657
18.925667
23.518801
29.514432
42.384863
55.545568
75.047612
90.793967
108.813643
116.039515
117.781758
111.726522
93.661547
79.355836
58.164597
45.142770
30.646920
23.851991
18.731952
15.751719
14.003515
13.237596
13.091564
12.940764
12.902617
12.471676
12.319684
11.739731
12.099743
11.873841
11.763573
11.181831
11.447668
10.864735
10.535717
10.359883
10.279417
10.148883
9.839535
##ZVALUE=320
0.236630
0.368953
0.385642
0.341535
0.290871
0.369549
0.364780
0.278950
0.341535
0.403523
0.353456
0.409484
0.505447
0.430942
0.316501
0.404716
0.448823
0.385642
0.430942
0.343919
0.277758
0.406504
0.414848
0.470877
0.474453
0.598431
0.510812
0.558496
0.627637
0.658631
0.676513
0.541806
0.750422
0.832677
0.772476
0.899434
0.950694
0.974536
0.948906
1.141429
1.347661
1.715422
5.140901
28.230548
74.649453
189.434886
313.980579
527.780652
707.381964
912.012458
1005.436778
1011.320949
927.117467
722.723603
533.580780
300.463438
176.687837
78.154802
38.373470
17.006993
14.149547
15.310645
17.597675
24.524927
32.882690
48.182607
63.100457
82.269907
95.432997
104.862452
105.956793
100.577474
88.710785
69.735646
55.043697
37.594438
28.168559
19.564629
15.681982
12.574792
11.339784
10.729432
10.633469
10.606647
10.603666
10.427833
10.581613
10.207891
10.008812
9.817481
10.101795
9.770989
9.701848
9.458661
9.573698
9.251833
##ZVALUE=325
0.305772
0.222921
0.407696
0.377893
0.149608
0.335574
0.166893
0.269413
0.252724
0.315905
0.419617
0.372529
0.324845
0.338554
0.352859
0.297427
0.366569
0.402927
0.245571
0.307560
0.253916
0.434518
0.478625
0.458956
0.404716
0.552535
0.453591
0.465512
0.451803
0.644922
0.613928
0.609756
0.677705
0.679493
0.748634
0.772476
0.781417
0.637770
0.791550
0.838637
0.989437
1.037717
1.337528
1.688600
2.950430
18.012524
48.388839
127.046704
228.660703
433.932543
610.990524
838.520527
959.299803
1015.594602
966.182947
771.483779
596.919656
367.813706
228.110552
99.999905
48.832893
17.609596
10.556579
9.572506
10.468960
13.867617
18.217564
29.166937
40.380955
60.538650
73.694587
88.768601
96.328855
96.968412
92.216730
76.556802
64.236522
47.332644
35.822988
23.105741
17.265677
12.750626
10.863543
9.833574
9.725690
9.383559
9.275675
9.194613
8.691549
9.095669
9.148717
8.893609
8.897781
8.832812
9.270906
8.970499
##ZVALUE=330
0.269413
0.256896
0.070930
0.227690
0.091791
0.146627
0.213981
0.152588
0.398755
0.222921
0.281930
0.214577
0.237823
0.297427
0.171661
0.253916
0.331998
0.336766
0.248551
0.274777
0.388622
0.273585
0.366569
0.284910
0.306964
0.414848
0.460744
0.475645
0.325441
0.429749
0.513792
0.477433
0.678897
0.549555
0.539422
0.736713
0.723600
0.712872
0.890493
0.825524
0.843406
0.718832
0.963807
1.034737
1.080632
1.231432
1.564622
7.617474
25.024414
85.600615
165.004730
330.908895
493.158698
727.425814
880.631804
984.614491
968.527794
825.451016
673.085451
445.476770
287.720561
135.844946
69.369674
24.673939
11.276603
7.281899
7.534623
8.644462
10.847449
17.953515
25.551915
39.068460
52.679777
70.904493
82.482696
90.462565
92.126727
83.709955
73.745847
57.905912
45.397878
30.729771
23.556948
16.795993
12.987852
10.423660
9.530783
8.677840
8.800626
8.430481
8.628964
8.643866
8.615851
8.689761
8.310676
7.889867
##ZVALUE=335
0.299811
0.237823
0.191927
0.387430
0.246763
0.254512
0.075698
0.236630
0.231862
0.100732
0.243783
0.306964
0.317693
0.404716
0.296831
0.237823
0.263453
0.281930
0.169873
0.329614
0.270605
0.269413
0.185966
0.304580
0.324845
0.282526
0.522733
0.471473
0.437498
0.474453
0.582933
0.391603
0.350475
0.605583
0.571609
0.483990
0.597835
0.543594
0.600815
0.558496
0.634789
0.677705
0.916719
0.770688
1.031756
0.935793
0.920892
1.281500
1.363754
3.369451
12.898445
51.344633
109.382868
245.040655
394.837856
626.136661
788.871646
929.588675
961.300731
874.425769
741.698742
511.234999
347.739458
183.365941
96.462965
33.465624
14.434457
7.515550
6.860495
7.262826
8.173585
11.007786
15.055537
25.550723
35.769939
51.591992
64.542890
77.540874
83.202720
84.293485
79.019666
68.399906
57.044625
43.543577
33.279657
22.844672
17.068982
12.285709
10.281801
8.608699
8.471608
8.161664
8.235574
7.852912
8.053780
7.856488
##ZVALUE=340
0.133514
0.081658
0.159740
0.084639
0.241995
0.090599
0.224710
0.320673
0.215769
0.065565
0.148416
0.035763
0.282526
0.138879
0.117421
0.131726
0.212789
0.091791
0.147820
0.249743
0.160933
0.212789
0.302792
0.175834
0.209808
0.085831
0.189543
0.222921
0.269413
0.347495
0.005960
0.467896
0.343919
0.314713
0.387430
0.507832
0.433922
0.394583
0.561476
0.465512
0.542998
0.427961
0.604987
0.571609
0.518560
0.752807
0.867844
0.785589
0.660419
0.983477
0.996590
1.626611
6.084442
31.543970
77.864528
192.340612
323.264003
532.496572
699.189901
874.606967
942.010880
905.418992
798.584819
596.954823
422.146916
221.677423
121.410489
48.676729
20.417571
7.902980
7.070899
6.640553
6.938577
8.286834
10.681748
16.435981
23.126602
35.634637
46.852827
62.859654
71.912408
78.504682
79.045892
74.844956
66.978931
53.613782
42.927861
30.933619
23.180842
16.128421
12.319684
9.704828
8.403659
7.898808
7.775426
7.741451
##ZVALUE=345
0.317693
0.219941
0.314713
0.123978
0.265837
0.149608
0.222921
0.262856
0.124574
0.183582
0.173450
0.259876
0.193715
0.228882
0.337958
0.270605
0.164509
0.310540
0.344515
0.400543
0.282526
0.336766
0.344515
0.299811
0.445843
0.210404
0.470877
0.274777
0.305772
0.290871
0.419617
0.390410
0.434518
0.395775
0.416636
0.438690
0.447631
0.559688
0.363588
0.437498
0.541806
0.582933
0.620484
0.569820
0.662804
0.673532
0.586510
0.755787
0.819564
0.866652
0.693798
1.051426
1.134872
1.325607
2.805591
17.228723
48.129559
129.062533
231.072903
425.087810
591.126680
792.919993
893.099904
916.607976
852.389932
664.377809
500.152707
298.301578
172.489882
66.778660
30.156970
10.736585
7.297993
6.518960
6.537437
6.896853
7.356405
10.495782
13.710856
22.612810
31.366944
45.643449
55.095553
66.384673
71.176887
73.298812
70.352554
62.436461
53.709745
41.747689
31.904578
22.011995
16.369820
11.603832
9.711981
8.404851
##ZVALUE=350
0.151992
0.121593
0.098944
0.128746
0.151992
0.147820
0.351667
0.265837
0.265837
0.156760
0.266433
0.227690
0.129938
0.090599
0.052452
0.222921
0.423789
0.187755
0.277758
0.207424
0.239611
0.292659
0.399947
0.368953
0.379682
0.376701
0.268817
0.230670
0.329614
0.395775
0.358820
0.355840
0.399947
0.454783
0.461936
0.573993
0.415444
0.376701
0.238419
0.523925
0.487566
0.469685
0.602603
0.489950
0.444651
0.550747
0.522733
0.651479
0.596642
0.556707
0.697970
0.696778
0.693798
0.688434
0.862479
1.121759
1.569986
8.387566
28.343797
89.013577
170.804858
342.531800
499.847531
708.031654
840.290785
920.360684
888.704658
741.406679
576.675534
346.529484
214.022994
98.083615
45.020580
13.648868
7.508993
6.493926
6.227493
6.163716
6.340742
7.488728
9.342432
13.773441
19.327998
28.579831
37.117600
49.882531
57.888627
65.755844
67.169666
64.973831
59.218407
48.131943
39.753914
28.338432
22.141933
15.575886
##ZVALUE=355
0.209808
0.179410
0.318885
0.333786
0.302792
0.247955
0.293851
0.316501
0.172853
0.263453
0.263453
0.305772
0.253916
0.283718
0.083447
0.282526
0.143647
0.155568
0.183582
0.286698
0.319481
0.175834
0.356436
0.278950
0.214577
0.255704
0.289679
0.293851
0.377893
0.426769
0.382662
0.456572
0.381470
0.401735
0.319481
0.558496
0.398755
0.485778
0.644922
0.492930
0.438690
0.497699
0.313520
0.442863
0.413656
0.400543
0.637770
0.477433
0.684857
0.712872
0.605583
0.650883
0.846982
0.691414
0.865459
0.879765
1.187921
1.070499
1.219511
3.120899
17.718673
48.873425
130.019784
233.701468
424.932837
586.282015
769.540668
862.300992
866.148472
773.130655
581.561923
427.470803
241.786838
133.732557
51.355958
22.442937
8.279681
6.055832
5.930662
6.015897
5.635619
5.980730
6.799698
8.198619
11.838675
16.419888
24.389625
32.292604
44.544935
51.369667
58.482885
60.896873
58.477521
54.316521
45.291781
38.783550
##ZVALUE=360
0.253916
0.277758
0.176430
0.259876
0.189543
0.163913
0.091791
0.154972
0.212789
0.414848
0.187755
0.400543
0.191927
0.158548
0.193715
0.316501
0.320673
0.176430
0.238419
0.293851
0.218749
0.225902
0.128746
0.366569
0.245571
0.418425
0.233650
0.417829
0.364780
0.278950
0.303984
0.419617
0.466704
0.444651
0.414848
0.431538
0.377893
0.279546
0.462532
0.409484
0.575781
0.286698
0.318885
0.486970
0.537634
0.415444
0.387430
0.439882
0.431538
0.601411
0.582933
0.652671
0.735521
0.542998
0.744462
0.727773
0.621676
0.941753
1.016855
1.089573
1.228452
1.798868
7.782578
25.078654
79.801679
158.292651
323.720574
481.160879
697.248578
819.286704
866.186619
820.861459
670.996904
513.002872
306.483507
183.910728
74.020624
32.470822
10.209680
6.398559
5.854964
5.583763
5.135536
5.127788
5.222559
5.839467
7.032752
9.429455
14.198422
19.304752
28.023720
35.609603
45.295954
50.930977
55.035949
55.383444
##ZVALUE=365
0.297427
0.172853
0.222921
0.273585
0.277758
0.243783
0.392795
0.231862
0.112653
0.157952
0.299811
0.251532
0.136495
0.136495
0.266433
0.192523
0.362992
0.370741
0.359416
0.363588
0.232458
0.342727
0.389814
0.182986
0.298619
0.224710
0.222921
0.350475
0.292659
0.543594
0.251532
0.287890
0.299811
0.421405
0.473857
0.341535
0.322461
0.339746
0.497699
0.352859
0.386834
0.256896
0.450611
0.361800
0.419617
0.458956
0.390410
0.454783
0.577569
0.570416
0.647902
0.616908
0.591874
0.647902
0.740886
0.689626
0.644922
0.788569
0.875592
0.791550
0.991821
1.123548
1.220703
1.377463
2.709627
15.855432
43.749809
118.016005
221.050978
413.965583
567.269921
738.592744
826.326609
821.954608
730.339885
544.470549
390.420556
218.303800
118.868947
43.899417
17.678738
6.801486
5.399585
4.990697
4.981756
4.975796
5.018711
4.606843
5.134940
6.171465
7.589459
11.544824
15.778542
24.212599
30.775666
38.962960
##ZVALUE=370
0.187755
0.307560
0.258684
0.198483
0.136495
0.136495
0.201464
0.154972
0.265837
0.108480
0.192523
0.198483
0.282526
0.123978
0.277758
0.246763
0.211596
0.072718
0.202656
0.165701
0.194907
0.297427
0.389814
0.289679
0.257492
0.401735
0.228882
0.148416
0.158548
0.111461
0.194907
0.357628
0.377893
0.302792
0.381470
0.405908
0.425577
0.246763
0.317693
0.396967
0.512600
0.442863
0.440478
0.368953
0.344515
0.342727
0.478625
0.391603
0.428557
0.447631
0.530481
0.432730
0.469685
0.636578
0.483990
0.532866
0.627637
0.823736
0.628829
0.699759
0.784993
0.787973
0.855923
1.019835
0.994802
1.150966
1.686811
8.358955
27.097464
89.931488
170.485973
327.955484
481.477976
684.499741
786.418915
821.327567
759.699941
604.016781
449.898839
254.744887
145.259500
57.651997
26.642680
9.714961
5.688667
4.849434
4.467964
4.393458
4.378557
4.297495
4.323721
4.899502
5.116463
7.218719
9.398460
14.679432
##ZVALUE=375
0.231862
0.337958
0.181794
0.183582
0.087619
0.204444
0.145435
0.183582
0.278950
0.198483
0.259876
0.151992
0.192523
0.221729
0.252724
0.050664
0.276566
0.079870
0.130534
0.117421
0.245571
0.040531
0.176430
0.159740
0.131726
0.363588
0.209808
0.286698
0.183582
0.479817
0.405908
0.412464
0.363588
0.249743
0.261664
0.143647
0.307560
0.450611
0.327826
0.339746
0.366569
0.363588
0.398755
0.337958
0.363588
0.413656
0.340939
0.371933
0.393987
0.435710
0.354648
0.388622
0.373721
0.378489
0.326633
0.456572
0.618696
0.482798
0.543594
0.602603
0.659823
0.761747
0.676513
0.642538
0.620484
0.789762
0.865459
1.199841
1.210570
4.083514
14.661551
56.709647
121.943951
274.660587
424.111485
628.475547
751.340985
820.273757
798.308849
667.465925
522.348881
325.761437
205.309987
98.088980
48.768520
16.263723
6.956458
4.554987
4.408956
4.340410
3.952980
4.129410
3.915429
3.866553
4.056692
4.714727
##ZVALUE=380
0.184774
0.189543
0.127554
0.217557
0.279546
0.219941
0.270605
0.274777
0.228882
0.166893
0.264645
0.195503
0.289679
0.126958
0.167489
0.102520
0.020862
0.303984
0.243783
0.212789
0.103712
0.297427
0.182986
0.098944
0.255704
0.291467
0.282526
0.258684
0.387430
0.286698
0.305772
0.299811
0.303984
0.348687
0.197887
0.212789
0.254512
0.109673
0.111461
0.376701
0.399947
0.408888
0.364780
0.284910
0.446439
0.286698
0.210404
0.314713
0.397563
0.299811
0.452995
0.562668
0.464916
0.332594
0.437498
0.403523
0.354648
0.458956
0.481606
0.567436
0.556707
0.432730
0.524521
0.550747
0.668764
0.618696
0.677705
0.864863
1.000762
1.047850
1.485944
1.961589
9.732842
30.787587
97.564459
184.097886
356.183648
518.775582
707.753897
798.095465
803.343654
727.082491
573.312640
431.749821
257.432461
151.650906
64.583421
30.110478
9.077787
4.741549
4.233718
3.890991
3.810525
3.596544
3.482699
3.371835
##ZVALUE=385
0.202656
0.111461
0.236630
0.122786
0.187755
0.126958
0.175834
0.248551
0.049472
0.061989
0.096560
0.115633
0.146627
0.160933
0.096560
0.368953
0.094771
0.191927
0.143647
0.129938
0.306964
0.159740
0.244975
0.208616
0.009537
0.131726
0.322461
0.242591
0.171661
0.263453
0.212789
0.348687
0.261664
0.457764
0.388622
0.285506
0.312924
0.228882
0.348687
0.202656
0.245571
0.258684
0.438690
0.438690
0.282526
0.282526
0.299811
0.364780
0.257492
0.267625
0.284910
0.376701
0.277758
0.348687
0.411868
0.321865
0.285506
0.452995
0.435710
0.414848
0.360608
0.339746
0.437498
0.414848
0.579953
0.624657
0.638962
0.549555
0.709891
0.792742
1.071692
1.050830
1.150966
1.514554
3.557801
20.351410
53.482652
139.074922
250.033736
447.243452
600.380898
753.895640
798.595548
754.140615
657.361746
480.153561
341.604948
187.954903
107.852817
45.457482
18.857718
5.857944
3.984571
3.544688
3.774762
3.329515
##ZVALUE=390
0.174642
0.041723
0.194907
0.173450
0.227690
0.111461
0.165701
0.156760
0.156760
0.307560
0.039935
0.143647
0.168681
0.208616
0.157952
0.011921
0.125766
0.113845
0.030994
0.352859
0.256896
0.132918
0.150800
0.240803
0.295639
0.077486
0.147820
0.268817
0.352859
0.213981
0.204444
0.371933
0.198483
0.341535
0.238419
0.307560
0.339746
0.249743
0.290871
0.266433
0.422597
0.338554
0.296831
0.335574
0.432730
0.305772
0.418425
0.340939
0.288486
0.425577
0.261664
0.347495
0.489950
0.419617
0.325441
0.395775
0.209808
0.423789
0.353456
0.442863
0.410676
0.426769
0.354648
0.438690
0.485778
0.388622
0.811815
0.632405
0.679493
0.822544
0.704527
0.783801
0.919700
0.982881
1.015663
1.118779
1.898408
10.201931
32.740831
101.887584
195.641518
378.042459
522.812605
685.067773
773.980618
796.947479
732.461810
575.686693
436.796546
265.933871
155.813694
64.212680
28.651953
8.326769
4.421473
3.699660
##ZVALUE=395
0.073910
0.047684
0.141859
0.154972
0.238419
0.171661
0.146627
0.114441
0.182986
0.051856
0.406504
0.302792
0.179410
0.090599
0.161529
0.335574
0.051856
0.184774
0.188947
0.075698
0.080466
0.223517
0.151992
0.182986
0.172853
0.395775
0.250936
0.404716
0.289679
0.341535
0.301600
0.367761
0.322461
0.388622
0.284910
0.425577
0.282526
0.341535
0.384450
0.465512
0.536442
0.355840
0.217557
0.330806
0.265837
0.258684
0.226498
0.236630
0.260472
0.214577
0.245571
0.478625
0.387430
0.302792
0.249743
0.386834
0.398755
0.344515
0.465512
0.387430
0.225902
0.366569
0.382662
0.303984
0.365973
0.609756
0.501871
0.612736
0.593662
0.709891
0.740886
0.828505
0.867844
1.008511
0.966787
0.760555
0.919700
0.994802
1.171827
5.852580
21.706820
76.056719
144.659877
281.387568
426.606536
630.870461
755.208731
832.556486
807.623863
675.639510
523.736477
321.566463
204.311609
95.652938
45.060515
14.823675
##ZVALUE=400
0.199676
0.164509
0.403523
0.212789
0.202656
0.128746
0.271797
0.199676
0.165701
0.289679
0.214577
0.156760
0.174642
0.211596
0.322461
0.303984
0.281930
0.158548
0.120997
0.169873
0.291467
0.200868
0.196695
0.345707
0.446439
0.255704
0.371933
0.360608
0.389814
0.402927
0.414848
0.437498
0.430942
0.445843
0.480413
0.533462
0.478625
0.482798
0.502467
0.466704
0.517964
0.337958
0.408888
0.451803
0.522733
0.347495
0.472665
0.467896
0.462532
0.347495
0.397563
0.523925
0.374913
0.369549
0.426769
0.432730
0.310540
0.310540
0.288486
0.423789
0.392795
0.533462
0.313520
0.526905
0.456572
0.577569
0.588894
0.572801
0.677705
0.801682
0.760555
0.895858
0.854731
0.768900
0.837445
0.728965
0.816584
0.839829
0.955462
1.031756
1.162887
3.097653
11.039972
41.011572
89.442730
204.232931
336.084962
536.146760
674.605966
793.986917
815.698504
724.365711
591.839552
392.028689
258.135796
127.892494
##END
