##TITLE=FAAI0851
##FORMAT=SPECTACLE-ASCII V-1.2
##DATA TYPE=ULTRAVIOLET SPECTRUM
##SECOND TYPE=ULTRAVIOLET SPECTRUM
##DATE=01/24/18
##TIME=18:38:01
##SPECTROMETER/DATA SYSTEM=SPECTACLE
##XUNITS=NM EM
##YUNITS=ENERGY
##YFACTOR=1
##FIRSTX=220
##LASTX=410
##NPOINTS=96
##3DDATA=Equidistant
##ZUNITS=NM EX
##FIRSTZ=210
##LASTZ=400
##ZPOINTS=39
##XYDATA=(Y..Y)
##ZVALUE=210
3.036857
3.955960
3.598928
4.034638
3.677607
4.226565
3.627539
3.955960
3.037453
2.853870
3.102422
2.407432
2.103448
2.472997
2.700686
2.759695
2.893806
2.507567
1.973510
2.643466
2.847910
3.515482
2.985597
3.581643
3.711581
4.349947
3.978610
5.128980
6.297827
6.521940
7.246733
8.627772
9.748936
10.175705
10.420680
9.610653
9.862781
9.186864
8.747578
9.694695
9.132624
8.613467
8.788705
7.943511
8.079410
7.159710
7.168651
7.328987
6.959438
7.202625
6.899834
7.162690
6.161928
6.759763
6.471872
5.844831
7.246733
6.146431
5.456805
6.242990
5.872846
5.373955
5.952716
6.321669
6.039739
6.485581
5.805492
7.242560
7.256866
8.726716
10.032654
11.718869
11.773705
14.367700
14.078617
16.326904
16.990900
16.050935
16.055703
16.602874
15.280843
14.265776
14.124513
10.748506
10.172725
8.783937
7.065535
5.501509
4.778504
4.743934
5.656481
4.995465
5.342960
5.544424
5.646944
5.105734
##ZVALUE=215
11.199713
11.195540
9.048581
8.995533
7.456541
6.222725
6.984472
7.111430
6.880760
7.335544
6.670952
5.531907
4.320741
4.091859
2.919436
2.760887
2.907515
2.806783
2.730489
2.492666
2.887845
2.638698
2.925992
3.721714
4.035830
5.521774
6.091595
6.690621
7.714629
9.521842
10.366440
11.683702
12.482405
14.217496
14.665723
14.854670
14.646649
14.777780
14.691949
12.989640
12.424588
13.669729
12.773871
11.653900
10.403991
10.786653
9.538531
9.933710
9.364486
8.139610
8.987784
7.244945
7.688999
7.849932
6.694794
6.628633
6.955862
5.677938
5.118847
6.592870
5.485415
5.792975
5.983710
5.416870
5.676746
5.132556
5.600452
5.399585
5.886555
6.307960
7.506609
7.955432
8.247495
8.691549
9.747744
9.382963
10.284781
9.787679
9.466410
8.934736
8.764863
7.896423
7.151961
5.489588
5.228519
5.560517
4.270673
4.164577
3.758669
3.856421
4.041791
3.229976
3.728867
3.633499
3.640652
4.235506
##ZVALUE=220
30.107498
28.668642
31.853914
32.053590
27.422905
22.522807
18.808842
15.694499
15.636683
13.481975
14.277697
15.629530
13.735890
13.148785
11.144876
8.065701
6.080866
5.524755
3.884435
3.080964
3.120899
3.055930
2.844930
4.300475
3.910661
5.291700
6.817579
8.534789
10.969639
12.210608
15.385747
17.316937
19.358993
20.742416
21.228790
20.202994
20.601749
21.357536
21.064878
19.540787
19.819736
17.377734
18.199682
15.780926
14.907718
14.603734
13.234615
13.102889
11.635423
10.387897
9.648800
10.405779
8.647442
8.087754
8.947849
8.471608
7.798672
7.845759
7.553697
7.352829
6.372929
6.849766
6.766915
5.709529
5.912781
5.599856
6.421804
6.775856
5.922914
6.586909
7.875562
8.819699
9.367466
9.482503
9.291768
9.444952
10.363460
8.874536
9.723902
8.723736
8.276701
8.036494
7.312894
6.685853
4.861951
4.956722
5.346537
4.477501
4.513860
4.707575
4.875660
4.409552
3.539920
4.236698
3.892779
3.913641
##ZVALUE=225
47.832727
49.653649
63.564777
77.948570
80.202818
76.215863
71.790814
53.501725
45.837760
36.102533
29.033422
26.289821
26.552677
31.137466
28.497577
25.314689
21.137595
19.519925
11.672974
8.156896
6.056428
4.244447
3.665686
4.287958
4.691482
4.984736
7.697940
9.700656
11.799932
15.354753
17.592907
19.644499
21.512508
24.078488
24.859905
24.861693
24.686456
23.302436
23.943782
23.973584
21.154881
20.628572
20.450950
19.961596
16.892552
16.341805
15.425682
13.657808
13.422966
11.943579
11.896491
11.284947
10.517836
9.861588
9.806752
8.623600
7.978678
9.370446
8.950830
9.323955
7.528663
7.977486
7.824898
7.040501
7.855892
6.072521
6.804466
7.922649
7.180572
7.306933
7.999539
9.220839
9.777546
10.173917
10.062456
11.418462
10.045767
8.932948
8.482933
9.250641
7.431507
7.933974
6.762743
6.616712
6.493926
6.140471
5.803704
5.892515
5.312562
4.940629
5.379915
4.932880
5.407929
5.289912
5.127788
4.952550
##ZVALUE=230
39.032698
41.881800
67.955852
106.908679
134.342909
167.685747
177.520514
181.442499
156.186819
132.108927
96.866488
68.434477
50.378442
46.696663
49.355626
50.877929
55.281520
49.915910
46.180487
37.004948
29.190779
18.229485
12.229681
7.571578
5.520582
6.049871
6.842613
9.057522
9.685755
13.032556
14.503598
17.825961
19.697547
18.008947
19.041896
20.868778
21.402836
19.416809
20.616651
19.555688
17.848611
18.813610
16.773939
15.475750
15.162826
14.829636
12.856722
12.743473
13.573766
10.539889
10.508895
11.665821
11.682510
11.090636
10.635853
9.848475
9.756684
8.846521
8.962750
8.788705
8.525848
8.198619
8.497834
8.414984
8.530617
8.832812
7.978678
8.271933
9.544492
8.423924
9.516478
10.215640
11.614561
12.775660
10.598898
11.538863
11.388659
11.621714
12.302995
10.454655
10.166764
9.263754
9.564757
8.114576
8.228421
8.038878
7.649660
7.308722
6.550550
6.721616
7.405877
7.440448
5.793571
6.944537
6.280541
6.609559
##ZVALUE=235
13.589859
14.031529
35.201907
62.684417
117.533803
164.946914
240.128636
287.565589
324.604511
321.756005
280.133486
230.582952
180.526972
120.631456
92.031956
71.509480
72.410703
81.967711
84.381700
81.625581
76.685548
66.789985
49.812794
39.141774
24.756789
15.997887
12.222528
9.750724
10.129809
10.471940
11.300445
11.386871
12.460947
14.332533
13.175607
12.957454
14.391541
14.462471
13.168454
14.050603
13.961792
13.957620
12.960434
12.618899
13.645887
11.405945
11.314750
11.174679
11.259913
11.521578
10.546446
11.259913
9.368658
9.992719
10.720491
9.552836
8.952618
9.804964
8.879900
9.946823
9.178519
8.939505
10.348558
9.608865
9.684563
9.876490
10.457635
9.802580
10.967851
10.908842
11.169910
11.743903
13.227463
14.465451
14.200807
13.947487
12.994409
12.077689
13.060570
12.735724
13.334751
11.745691
11.505485
11.586547
10.218620
10.656714
9.100437
8.885860
9.506941
9.602904
9.124875
8.069873
10.166764
8.534789
8.641481
8.442998
##ZVALUE=240
2.055764
1.949668
3.571510
17.590523
36.643744
85.459948
148.083568
246.632695
333.951712
440.692902
484.224558
486.368537
443.157554
352.509618
273.206830
201.011896
130.744576
101.013780
92.062950
97.662807
111.081004
114.155412
111.544728
104.973912
82.227588
65.011978
51.399469
32.847524
23.548603
17.518997
13.868809
12.583733
13.958812
13.726950
12.889504
13.743639
13.931990
15.389919
12.930632
13.938546
12.720823
12.592673
12.936592
12.664795
12.301803
13.129711
11.701584
11.893511
11.452436
10.617971
11.436939
11.382699
11.203885
11.498928
9.785891
9.496808
9.687543
9.296536
8.705854
9.067655
9.782910
10.377765
9.402633
8.985996
9.662509
9.994507
10.133982
9.816885
11.590719
10.989904
11.630654
12.309551
12.903810
14.074445
14.033914
13.228655
14.004707
13.851523
15.559793
14.882684
12.403727
12.518764
12.269616
11.115670
12.478828
11.517406
11.757612
11.084676
11.540651
10.409951
11.184812
11.346936
10.416508
10.032654
8.849502
10.499954
##ZVALUE=245
1.517534
1.078844
1.590848
1.600981
3.747940
10.740757
35.082698
69.954991
156.471729
249.765515
386.683941
486.443639
551.479459
587.297678
561.731458
471.928716
382.506847
262.275934
185.985565
120.005608
100.879669
100.050569
115.359426
126.052499
131.412745
126.426816
115.461946
98.262429
77.544451
59.599876
44.276714
30.570626
24.757981
19.336939
18.424988
18.050671
14.668703
17.028451
16.619563
16.517639
15.821457
14.739633
15.213490
14.294982
14.913678
13.849735
13.923645
12.984872
11.662841
10.839701
11.030436
11.201501
10.754466
10.121465
10.352731
10.072589
8.902550
8.551478
8.508563
8.330941
8.405447
9.647608
8.071661
8.595586
8.665919
9.206533
8.832812
9.266734
9.851456
9.895563
10.472536
11.463761
12.258887
12.192726
12.739897
12.379885
11.999607
12.785792
12.606978
12.704730
11.418462
12.203455
10.732412
11.513829
10.519624
10.273457
10.534525
10.612607
10.943413
10.071993
9.532571
10.924935
10.356903
10.583997
9.434819
8.936524
##ZVALUE=250
1.178980
1.092553
1.170635
1.041889
1.338720
1.398921
1.958609
7.531643
23.288727
63.620806
121.675730
234.930515
347.597599
498.979688
585.298538
659.874678
658.881664
581.290722
498.453975
352.371931
245.020986
150.926709
107.571483
102.542639
106.762648
139.160752
144.876838
147.718787
135.008693
128.123760
93.967915
89.924932
52.282810
48.455000
27.193427
27.486682
18.968582
20.663738
19.528866
20.385981
18.038750
18.185973
18.517971
16.338825
15.787482
15.643835
14.742613
13.659000
12.490749
12.745857
13.297796
11.666417
11.611581
9.849668
10.350943
10.183454
9.535551
8.878708
8.474588
8.030534
8.368492
7.836819
7.779598
8.215904
8.523464
8.219481
7.942915
7.991791
7.900000
8.740425
8.846521
8.971691
10.307431
10.659695
11.560917
11.334419
11.672974
11.291504
11.499524
11.436939
9.587407
10.244846
9.635687
8.940697
9.468794
9.871721
9.585619
9.222627
8.667707
9.352565
9.300709
9.111762
8.337498
8.925796
9.142756
8.672476
##ZVALUE=255
0.792742
1.214743
1.088977
1.122952
1.051426
1.182556
1.404881
1.265407
1.572967
4.066825
13.637543
46.759844
97.262859
203.173757
310.516953
476.583838
592.783689
716.921687
753.301978
708.280802
621.273518
463.109612
325.982571
207.078457
120.805502
95.075965
91.698766
107.178688
133.656859
148.231983
158.314705
151.703954
139.357448
120.775700
92.120767
71.937442
51.863790
39.550662
29.628873
26.003718
22.781491
22.632480
20.042658
20.175576
18.435717
17.859936
16.919971
15.834570
14.737844
14.163852
13.019443
13.282895
11.831522
12.225509
10.065436
10.169744
9.684563
9.798408
8.911490
8.851886
8.271933
8.588433
8.183718
7.047653
7.136464
8.157492
7.177591
7.351637
8.572936
7.450581
8.004904
8.453727
8.947849
8.968711
9.246469
9.078979
9.796619
9.740591
9.841919
9.503961
8.925796
8.937716
8.463860
8.639693
7.872581
8.031726
7.596612
8.359551
7.494688
8.540750
8.007884
7.116795
8.098483
7.775426
7.689595
7.141829
##ZVALUE=260
0.808835
0.874996
0.889897
0.865459
0.975728
0.983477
1.016855
1.018643
0.985861
1.221895
1.361966
2.383590
6.627440
27.763844
63.626766
153.328776
254.454017
423.244834
557.775497
733.780861
813.192725
822.283626
732.702613
607.178807
408.473611
281.821489
170.320868
114.312768
86.368918
93.619823
112.552643
142.520666
160.868764
170.244575
165.148973
149.315596
130.551457
102.477670
80.797672
56.919456
43.676496
32.829642
27.543902
23.588538
22.711754
21.655560
20.139813
17.713904
17.589927
16.640425
15.424490
13.592839
13.301969
12.904406
11.324883
10.591745
10.651946
9.198785
9.269714
7.808805
8.496642
8.146763
7.918477
6.865859
7.273555
7.333755
7.148981
6.538630
6.571412
7.055998
8.085966
7.644892
8.039474
8.123517
8.116961
8.325577
7.290840
7.469654
8.481741
8.089542
6.997585
7.163882
7.140636
7.214546
6.877780
6.783605
7.248521
6.882548
7.413626
6.809831
6.532669
6.721616
6.647706
6.229877
6.961823
6.832480
##ZVALUE=265
0.648499
0.840425
0.853539
0.812411
0.744462
0.953674
0.987649
0.829697
1.146793
1.264811
1.373887
1.426935
1.296997
1.630783
3.701448
18.034577
44.318438
115.377903
207.750797
385.666490
552.840829
705.001950
866.350532
898.790956
827.813745
719.245672
537.181497
387.470722
222.466588
147.642493
102.277994
88.665485
101.346970
131.927729
153.344870
172.131658
179.955959
170.980692
157.385468
130.892992
107.866526
77.177882
60.407519
40.813684
31.884909
25.239587
23.010969
20.271540
19.401908
17.233491
16.384721
15.410781
13.675690
13.360977
12.961626
11.132956
11.034608
9.435415
9.271502
8.712411
7.984638
8.262992
7.439852
7.154942
6.923676
6.586909
6.704926
6.533861
6.786585
7.136464
6.686449
7.439852
7.393956
7.399917
7.720590
7.544756
7.295609
7.127523
7.048845
6.469488
6.637573
6.910563
6.513000
6.168485
6.032586
5.978942
6.083846
5.768538
6.516576
6.070733
6.149411
6.443858
5.865693
6.142855
6.392598
6.030798
##ZVALUE=270
0.918508
0.821948
0.891685
0.993609
0.790954
0.873804
0.840425
1.035929
1.064539
1.063943
0.950694
1.204610
1.333952
1.314878
1.411438
1.498461
2.173781
8.618832
23.755431
82.125664
160.377622
283.872485
504.074693
677.044988
870.451927
944.143534
929.158926
857.937932
676.370859
509.279966
363.355875
200.922489
128.531456
87.330937
84.929466
109.651685
131.498575
161.260962
168.422461
177.541971
174.377561
153.735876
131.464005
99.874735
76.564550
50.106645
37.810802
27.505755
21.657944
18.602610
16.159415
15.067458
14.399886
13.310909
12.310743
10.524988
11.161566
9.710789
9.147525
9.020567
8.063912
7.683635
7.502437
7.388592
6.827712
6.675720
6.718636
6.141663
6.177425
6.365776
6.802678
6.663799
6.850958
7.019639
7.123947
6.563663
6.384850
6.469488
6.113648
6.120801
6.142855
5.723834
5.977750
5.669594
5.910993
5.919933
5.736947
6.006956
5.514622
5.693436
5.387664
5.541444
5.715489
5.724430
5.447865
5.626678
##ZVALUE=275
0.776649
0.606775
0.688434
0.607967
0.810623
0.666976
0.673532
0.832677
0.794530
0.894666
0.978708
0.906587
0.949502
0.928640
1.107454
1.133680
1.300573
1.356602
1.589656
3.829598
14.599562
42.564869
122.746825
233.520865
442.426801
608.927011
809.722543
926.464796
990.163684
942.924023
837.529898
630.735755
453.642011
254.544616
155.497789
84.774494
68.878531
76.506734
97.343922
125.331879
142.023563
162.561536
168.970823
157.595873
142.389536
115.347505
94.779730
66.499710
48.195720
30.565858
22.693872
15.490651
13.147593
11.249781
10.263920
9.110570
8.708835
8.090734
8.325577
7.808805
7.360578
6.883740
6.828904
6.012917
5.975962
5.791783
6.048679
5.244613
6.093979
6.221533
6.060600
5.848408
5.812645
6.200671
6.037951
6.014705
6.218553
6.303787
6.307960
5.726814
5.318522
5.420446
5.384684
5.177855
5.075932
4.953742
5.155802
5.009770
5.191565
5.067587
4.780889
5.038977
4.999638
4.871488
4.927516
5.153418
##ZVALUE=280
0.549555
0.710487
0.619888
0.536442
0.572801
0.648499
0.595450
0.401735
0.776649
0.690818
0.778437
0.881553
0.804663
0.810623
1.007915
0.951886
1.018643
1.034737
0.972748
1.252890
1.428723
1.663566
8.591413
30.113459
94.935894
181.450844
340.403914
508.150458
742.468834
888.071656
930.472016
991.188884
902.203918
693.963766
521.430969
301.009417
186.836720
89.599490
54.700971
48.630834
60.369968
86.771846
107.504725
134.760737
147.406459
153.050423
147.386789
129.432678
110.729933
82.241893
61.862469
37.981868
26.158690
16.019940
11.151433
7.677674
6.766915
6.515980
6.240606
5.979538
5.535483
5.572438
5.645752
4.774928
5.170703
5.446672
5.645752
5.084872
5.317926
5.512834
5.565882
5.723834
5.857944
5.668998
6.351471
5.868673
6.026626
5.737543
5.667806
5.476475
4.818439
5.092621
4.876852
5.284548
4.918575
5.032420
4.752874
4.665852
4.626513
4.986525
4.944801
4.965663
5.145669
4.772544
4.575849
4.629493
##ZVALUE=285
0.573993
0.481606
0.445843
0.500679
0.633597
0.656843
0.535846
0.775456
0.591874
0.594854
0.755787
0.673532
0.632405
0.858903
0.666976
0.874996
0.603795
0.907779
0.976920
1.043677
1.080632
1.200438
1.276731
1.547933
4.299879
15.344620
52.196980
113.409758
253.259540
399.404764
561.677814
792.669654
934.453607
1006.632447
960.162878
789.268017
624.590516
392.060876
246.230960
119.095445
63.542724
33.099651
34.691691
53.136945
72.342753
103.241801
121.528506
139.237642
143.695474
139.223933
127.047896
105.981827
83.940625
57.744980
39.989948
23.168921
14.385581
8.616447
6.532669
5.212426
4.994869
5.137920
4.585981
4.720688
4.815459
4.524589
4.651546
4.789829
5.120635
5.317926
4.891753
5.147457
5.339980
5.071759
5.540848
5.427599
5.316734
5.086660
5.392432
4.899502
4.871488
4.782677
4.882812
4.553795
4.712939
4.670620
4.803538
4.599690
4.385710
4.743934
4.490614
4.572868
4.724860
4.849434
4.185438
4.699826
##ZVALUE=290
0.459552
0.362992
0.517964
0.446439
0.432730
0.494719
0.631809
0.453591
0.572801
0.556707
0.566840
0.526905
0.681877
0.620484
0.564456
0.733733
0.746846
0.694990
0.787973
0.829697
0.759959
1.030564
0.963807
1.218915
1.352429
1.424551
1.973510
6.079674
28.631687
71.561933
142.521858
304.898024
475.255847
720.409751
880.497694
1007.371545
1006.614566
879.071951
724.344850
489.012003
329.750776
166.851878
88.769794
37.000775
25.461912
33.077598
46.917796
69.320798
88.667870
115.536451
130.618811
138.378739
135.430694
122.524500
104.511976
77.410936
57.271719
36.777854
24.362803
13.924837
8.593798
5.832911
4.946589
4.657507
4.466772
4.307628
4.383922
4.646778
4.559755
4.398823
4.757643
5.164742
5.013943
5.076528
5.449653
4.842877
5.039573
5.146861
4.744530
4.536510
4.794598
4.954934
4.517436
4.664660
4.679561
4.601479
4.444718
4.362464
4.393458
4.721880
4.252791
4.244447
4.335642
4.140735
4.448891
4.454851
##ZVALUE=295
0.452995
0.521541
0.528693
0.475645
0.570416
0.450611
0.410676
0.560880
0.591874
0.495911
0.583529
0.548959
0.564456
0.707507
0.680685
0.678897
0.649691
0.823736
0.747442
0.859499
0.795722
1.037717
0.939965
0.887513
0.909567
1.309514
1.420975
1.171827
1.422763
2.782941
14.745593
41.025877
118.323565
224.019885
424.670577
601.442456
828.495026
960.069895
1014.176011
958.792567
788.425803
616.813898
386.637449
243.818760
110.625625
55.568814
23.910999
19.443631
29.255748
42.251945
66.026449
84.760785
109.736919
123.263001
132.857561
130.084753
114.109516
100.606680
76.070428
57.686567
35.832524
23.865700
13.655424
9.043813
6.172657
4.920959
4.521608
4.149675
4.295707
4.615784
4.781485
4.740953
5.153418
5.165935
4.970431
5.106926
5.114675
5.230904
4.565716
4.653931
4.606843
4.845858
4.528761
4.721880
4.455447
4.817843
4.256964
4.479885
4.452467
4.195571
4.305840
4.334450
4.393458
4.355907
4.121661
3.976822
##ZVALUE=300
0.360608
0.486970
0.378489
0.337958
0.436902
0.277758
0.471473
0.353456
0.498891
0.428557
0.545979
0.440478
0.379682
0.412464
0.497699
0.404716
0.407696
0.411868
0.504851
0.718832
0.606775
0.874996
0.575781
0.901818
0.847578
0.936985
0.892878
1.057982
1.211762
1.178980
1.420975
1.747608
4.661679
25.567412
66.393614
171.335936
294.820666
513.599515
698.348880
895.219445
988.285542
986.800790
884.384513
675.907731
502.942801
284.049511
170.351863
74.944496
36.636591
16.791821
16.424656
25.794506
36.428571
58.088899
76.364875
101.364851
115.342736
126.088858
123.131871
112.173557
98.108649
73.753595
56.333542
35.845637
24.206638
12.826920
8.795857
5.464554
4.757643
4.364848
4.248619
4.444718
4.830956
4.480481
4.757643
4.515648
4.409552
4.696846
4.617572
4.748702
4.266500
4.203916
4.433990
4.398823
4.524589
4.289746
4.311800
4.516840
4.051924
4.136562
4.271865
4.139543
3.921986
3.948808
3.841519
3.860593
##ZVALUE=305
0.349879
0.490546
0.314713
0.382662
0.480413
0.326633
0.311732
0.458956
0.485778
0.365973
0.626445
0.527501
0.390410
0.492930
0.462532
0.543594
0.606775
0.518560
0.511408
0.638962
0.711679
0.619888
0.778437
0.693798
0.792742
0.823736
0.849962
0.995994
1.041889
0.914931
0.952482
1.013875
1.197457
1.643896
2.686977
15.092492
43.550730
124.980807
229.493976
431.433916
606.352687
832.036734
952.675939
999.569893
939.128995
753.338933
587.924719
370.393991
232.026577
107.029676
52.264929
18.854737
12.254715
15.943646
22.973418
38.251877
54.284930
76.588988
93.919635
111.117959
117.791891
116.704702
108.518600
90.319514
73.297620
49.697757
35.336614
21.799803
13.669729
8.031726
5.907416
4.757643
4.616976
4.462600
4.490614
4.267693
4.220605
4.346967
4.260540
4.525781
4.541874
4.124641
4.292727
4.266500
4.280806
4.289746
4.456639
4.263520
4.096627
4.141927
4.034638
3.897548
4.117489
3.845692
3.810525
3.992915
##ZVALUE=310
0.369549
0.338554
0.361800
0.289679
0.399947
0.266433
0.271797
0.507832
0.389814
0.340939
0.484586
0.501871
0.356436
0.466704
0.366569
0.514984
0.465512
0.490546
0.476837
0.458956
0.586510
0.470877
0.661612
0.670552
0.627637
0.725985
0.836849
0.624657
0.763535
0.843406
0.716448
0.828505
1.142621
1.102686
0.945926
1.298785
1.552701
6.500483
22.266507
77.339411
155.208707
319.089890
484.429598
715.490580
870.119929
984.932780
980.925560
859.822035
710.971951
478.279591
322.218537
162.735581
86.872578
31.054616
14.000535
9.774566
13.271570
20.904541
30.861497
49.558878
66.583753
87.804794
102.343559
110.098720
111.680627
103.326440
90.433955
69.523454
52.607656
33.721924
23.370981
13.213754
9.314418
6.201863
4.997849
4.719496
4.400611
4.006624
4.303455
4.012585
4.116893
3.982782
4.009604
4.189610
3.852844
4.132986
4.150867
4.008412
4.034638
4.249811
3.931522
3.920794
3.774762
3.735423
4.007816
3.801584
##ZVALUE=315
0.363588
0.154972
0.353456
0.239611
0.279546
0.335574
0.135899
0.515580
0.518560
0.450611
0.333786
0.291467
0.213981
0.435710
0.368953
0.519753
0.319481
0.351667
0.358820
0.437498
0.571609
0.468493
0.463724
0.621676
0.542998
0.676513
0.654459
0.662804
0.579953
0.630617
0.762939
0.766516
0.776649
0.984669
0.835657
1.058578
1.139641
1.263618
1.441836
3.123879
11.308789
47.075748
107.662678
247.636437
396.279693
631.337762
790.155530
941.044688
987.588763
915.709734
788.652897
571.887493
403.672457
215.867758
118.718743
45.152903
18.095970
8.697510
8.638501
12.480617
17.784834
31.383634
43.275952
63.037872
79.773664
97.484589
104.437470
105.612874
98.855495
82.865953
67.499876
48.292875
35.383701
20.586848
13.587475
8.126497
5.834699
4.780889
4.339814
3.913641
4.053712
3.935695
3.985763
3.934503
4.047751
3.630519
3.916621
3.946424
4.105568
3.816485
3.922582
3.866553
3.903508
3.927946
3.758669
3.772974
##ZVALUE=320
0.259876
0.249743
0.309944
0.390410
0.305772
0.270605
0.350475
0.371933
0.286698
0.400543
0.424981
0.357628
0.289679
0.218749
0.412464
0.458956
0.402927
0.362992
0.401735
0.218749
0.345707
0.370741
0.468493
0.391603
0.659823
0.519753
0.527501
0.587702
0.396967
0.548959
0.538826
0.521541
0.596642
0.712872
0.732541
0.683665
0.998974
1.073480
0.978708
1.014471
1.268983
1.488924
6.463528
21.795630
77.265501
156.228542
315.874815
471.633673
695.294738
846.068859
961.523652
957.095027
840.637684
694.855452
475.666523
308.912396
144.269466
75.863600
27.860999
12.137890
7.420778
7.806420
11.003613
15.834570
27.337670
38.297772
57.408810
72.703958
90.573430
98.060966
98.976493
92.864633
79.646707
65.323710
45.949817
33.250451
20.670891
13.594627
7.869601
5.647540
4.255772
4.096627
3.930926
3.889799
3.725886
3.992915
3.746748
3.817677
3.761649
3.885627
3.774762
3.641844
3.792644
3.711581
3.857613
3.951788
##ZVALUE=325
0.166893
0.185966
0.282526
0.243783
0.311732
0.300407
0.336766
0.228882
0.235438
0.330806
0.260472
0.378489
0.355840
0.094771
0.288486
0.290871
0.293851
0.321865
0.376701
0.287890
0.472665
0.412464
0.584722
0.464916
0.365973
0.307560
0.589490
0.557899
0.438690
0.467896
0.466704
0.598431
0.572801
0.667572
0.536442
0.594854
0.724792
0.708699
0.794530
1.016855
0.922680
1.171827
1.181960
1.271963
2.434850
17.215610
46.308637
122.214556
220.940709
413.172841
583.080649
790.277719
899.480581
946.164727
885.607600
706.913471
540.112853
333.474874
202.168822
91.228485
43.365955
13.943911
7.382631
6.768703
6.992817
10.506511
15.665889
25.400519
37.913918
55.154562
69.892406
85.446835
91.849566
92.848539
87.108612
72.101951
59.140921
41.746497
30.577779
17.986894
11.756420
7.210970
5.426407
4.636645
4.115701
3.869534
4.016757
3.700852
3.751516
3.739595
3.711581
3.605485
3.736615
3.581643
3.533959
3.745556
##ZVALUE=330
0.023842
0.129938
0.161529
0.218749
0.250936
0.259876
0.225902
0.203848
0.186563
0.241995
0.191927
0.117421
0.150800
0.172853
0.256896
0.175834
0.250936
0.116825
0.229478
0.254512
0.300407
0.212789
0.168681
0.292659
0.215769
0.226498
0.122786
0.336766
0.205636
0.348687
0.345707
0.432730
0.334978
0.434518
0.580549
0.482798
0.517964
0.449419
0.777841
0.576973
0.734925
0.633597
0.733733
0.800490
1.159906
1.072884
1.699924
5.093813
27.353764
69.326758
173.604488
290.886760
499.207973
663.468838
840.900540
916.235447
890.761018
790.208578
600.648522
441.019535
246.045589
140.885711
57.626963
25.512576
8.633733
6.174445
6.057620
6.707907
9.845495
14.355779
25.655627
35.512447
51.592588
64.974427
79.186559
84.853768
86.445808
81.250668
68.645477
56.601763
39.164424
29.014945
18.111467
12.431741
8.074641
5.720854
4.137754
4.019737
3.781915
3.721714
3.530979
3.529787
3.539920
3.298521
3.425479
3.410578
##ZVALUE=335
0.249743
0.193715
0.191927
0.394583
0.279546
0.157952
0.266433
0.355840
0.190735
0.224710
0.195503
0.359416
0.323653
0.240803
0.359416
0.186563
0.329614
0.370741
0.287890
0.335574
0.199676
0.347495
0.338554
0.361800
0.355840
0.339746
0.344515
0.375509
0.484586
0.348687
0.735521
0.477433
0.620484
0.432730
0.388622
0.490546
0.516772
0.688434
0.681877
0.611544
0.603795
0.777841
0.624657
0.760555
0.711679
0.801682
0.934601
1.090765
1.139641
3.116727
12.107491
50.129890
106.489658
238.050818
386.827588
611.991882
761.990547
881.943703
902.901888
811.358690
681.779981
469.383001
319.849849
168.065429
89.372993
30.543804
13.297796
6.341934
5.666614
5.950928
6.804466
9.314418
13.425946
23.415685
33.602715
49.168468
60.905814
73.575974
79.354644
81.228614
75.966716
64.040422
52.663684
39.477944
29.325485
18.712878
13.111830
8.180737
5.690455
4.355907
3.936887
3.740788
3.684759
3.499985
3.737807
3.515482
##ZVALUE=340
0.239611
0.145435
0.215769
0.274777
0.288486
0.307560
0.250936
0.255704
0.340939
0.338554
0.226498
0.273585
0.151992
0.124574
0.140667
0.203848
0.253916
0.318885
0.259876
0.367761
0.334978
0.226498
0.272989
0.568628
0.275970
0.360608
0.375509
0.358820
0.402927
0.410676
0.286698
0.484586
0.456572
0.359416
0.595450
0.403523
0.425577
0.489950
0.523925
0.700951
0.542998
0.597835
0.633597
0.822544
0.655651
0.701547
0.708699
0.781417
0.788569
0.836849
1.010895
1.674891
5.797744
28.955936
72.461963
181.884766
313.580632
522.232652
671.737790
827.573538
880.580544
836.880803
732.004642
546.379685
385.251641
201.420784
112.075806
45.084953
18.257499
6.873608
5.595684
5.458593
5.635619
6.322861
8.635521
14.198422
20.444989
32.618642
44.319630
59.346557
69.848895
75.914860
76.625943
71.120858
64.611435
49.831867
39.887428
27.035475
19.510984
12.009740
8.400679
5.452633
4.594922
3.842711
3.796816
3.605485
##ZVALUE=345
0.184774
0.321865
0.333786
0.494719
0.275970
0.191927
0.193715
0.117421
0.157952
0.208616
0.229478
0.237823
0.220537
0.216961
0.340939
0.260472
0.355840
0.264645
0.226498
0.185966
0.295639
0.281930
0.138879
0.312924
0.481606
0.285506
0.209808
0.381470
0.245571
0.409484
0.406504
0.293851
0.374913
0.367761
0.361800
0.337958
0.410676
0.491738
0.411868
0.485778
0.697970
0.602603
0.516772
0.649691
0.639558
0.615716
0.722408
0.703931
0.567436
0.776649
0.930429
0.810623
1.030564
1.223683
2.723932
16.532540
46.472549
123.881698
223.962665
406.238437
559.287667
746.113658
834.942460
853.969455
777.012706
597.253442
446.383953
265.496969
150.929689
59.979558
27.271509
9.635687
6.358624
5.530715
5.203485
5.098581
5.663633
7.910728
11.532903
19.779801
28.545856
42.049885
51.877499
62.978864
67.692995
69.743991
67.269802
58.272481
50.236583
38.610697
28.690696
18.089414
12.814999
8.341670
6.027818
4.421473
##ZVALUE=350
0.150800
0.274777
0.169873
0.152588
0.360608
0.268817
0.248551
0.142455
0.201464
0.282526
0.142455
0.323653
0.174642
0.281930
0.211596
0.220537
0.391603
0.234842
0.295639
0.111461
0.252724
0.193715
0.153780
0.335574
0.329614
0.389814
0.180602
0.366569
0.418425
0.248551
0.301600
0.389814
0.302792
0.361800
0.322461
0.300407
0.407696
0.355840
0.481606
0.356436
0.606775
0.575781
0.392795
0.491738
0.419617
0.600815
0.514984
0.491738
0.759959
0.680685
0.553727
0.578761
0.771880
0.950694
0.953674
1.079440
1.876950
6.202459
29.906631
69.999695
171.229839
288.000703
485.297441
632.872581
786.544681
841.230750
789.877772
680.061579
472.394824
319.120884
162.262917
89.298487
34.953952
13.892651
5.983710
5.426407
4.842877
4.793406
4.810691
5.176663
7.567406
11.061430
17.685890
24.670959
36.160946
45.078993
56.715608
61.340928
64.497590
62.675476
55.314898
47.679543
34.993887
27.044415
17.682910
12.760758
##ZVALUE=355
0.235438
0.085831
0.159740
0.209808
0.262856
0.300407
0.371933
0.203848
0.096560
0.196695
0.183582
0.246763
0.204444
0.251532
0.144839
0.288486
0.276566
0.219941
0.215769
0.366569
0.291467
0.252724
0.406504
0.271797
0.225902
0.359416
0.446439
0.340939
0.233650
0.374913
0.349879
0.376701
0.161529
0.395775
0.239611
0.207424
0.335574
0.518560
0.576973
0.453591
0.243783
0.374913
0.400543
0.410676
0.508428
0.395775
0.404716
0.365973
0.631809
0.592470
0.681877
0.508428
0.695586
0.899434
0.801682
0.775456
0.847578
0.897646
1.278520
3.826618
13.914704
54.327846
111.432672
233.308673
369.439721
573.553443
704.137683
800.541639
798.908472
684.582591
553.698540
371.469855
236.874819
104.895830
50.719976
16.026497
7.474422
4.992485
4.709959
4.422665
4.218817
4.120469
4.917979
6.451607
9.059906
15.094876
21.503568
31.996965
39.655566
49.414635
54.756999
58.430433
57.067871
50.740838
43.766499
33.712983
##ZVALUE=360
0.164509
0.247955
0.255704
0.108480
0.359416
0.256896
0.220537
0.091791
0.295639
0.188947
0.138879
0.408888
0.208616
0.312924
0.295639
0.154972
0.342727
0.098944
0.314713
0.109673
0.223517
0.338554
0.339746
0.298619
0.291467
0.352859
0.260472
0.366569
0.437498
0.386834
0.315905
0.285506
0.258684
0.496507
0.532866
0.444651
0.491738
0.380874
0.416636
0.347495
0.388622
0.313520
0.534654
0.337958
0.441670
0.501871
0.497699
0.519753
0.498891
0.461936
0.564456
0.522733
0.537634
0.655651
0.764728
0.767708
0.678897
0.989437
0.997782
1.061559
1.296997
1.894832
6.361604
29.116869
70.060492
173.271894
286.748409
463.731885
610.494614
751.836896
788.548589
725.655556
606.756806
414.209962
282.146931
148.223639
77.492595
26.671886
11.000633
5.195737
4.675984
4.342794
4.031658
3.804564
4.126430
4.434586
5.260706
7.783771
11.118650
17.671585
24.454594
34.685731
41.654706
48.977733
52.371621
52.285790
##ZVALUE=365
0.115633
0.188947
0.203848
0.038743
0.152588
0.199676
0.057817
0.162721
0.241995
0.264645
0.177622
0.176430
0.294447
0.216961
0.397563
0.305772
0.284910
0.217557
0.066757
0.233650
0.342727
0.380874
0.307560
0.188947
0.309944
0.193715
0.339746
0.402927
0.452995
0.262856
0.140667
0.448823
0.499487
0.213981
0.252724
0.308752
0.330806
0.295639
0.284910
0.360608
0.409484
0.276566
0.381470
0.496507
0.410676
0.445843
0.499487
0.483990
0.482798
0.400543
0.496507
0.404716
0.488758
0.594854
0.509620
0.613928
0.720620
0.865459
0.756979
0.852942
0.835657
0.978708
1.040697
1.244545
2.677441
15.784502
42.455792
111.349821
208.506584
388.280749
528.749824
685.600638
757.789612
751.487613
658.912659
482.702851
342.348814
190.105438
104.050636
38.032532
15.546679
5.778670
4.662871
4.322529
4.073977
3.723502
3.447533
3.450513
3.563762
4.417896
6.015897
9.696484
14.242530
21.820664
28.765798
36.567450
##ZVALUE=370
0.166893
0.289679
0.214577
0.181794
0.285506
0.199676
0.174642
0.168681
0.261664
0.251532
0.116825
0.251532
0.313520
0.312924
0.183582
0.029802
0.227690
0.438690
0.227690
0.135899
0.089407
0.223517
0.191927
0.247955
0.426769
0.301600
0.340939
0.406504
0.326633
0.190735
0.323653
0.221729
0.456572
0.180602
0.265837
0.258684
0.347495
0.231862
0.291467
0.443459
0.470877
0.386834
0.443459
0.373721
0.261664
0.507832
0.486970
0.289679
0.370741
0.404716
0.430942
0.449419
0.431538
0.527501
0.542998
0.550747
0.560880
0.506639
0.602603
0.553727
0.618696
0.568628
0.784993
0.974536
1.086593
1.052618
1.690984
7.714629
26.267767
85.649490
159.157515
302.916765
444.909930
630.872846
725.443959
752.061009
689.710975
545.376539
404.608846
231.276751
132.513642
53.681731
24.189949
7.789731
4.619956
4.163980
3.748536
3.403425
3.381968
3.151894
3.040433
3.044605
3.930926
5.429983
7.839799
12.464523
##ZVALUE=375
0.138879
0.088811
0.237823
0.105500
0.210404
0.233650
0.131726
0.128746
0.154972
0.082850
0.240803
0.181794
0.355840
0.242591
0.174642
0.278950
0.240803
0.257492
0.257492
0.253916
0.120997
0.189543
0.110865
0.118613
0.285506
0.370741
0.310540
0.272989
0.310540
0.260472
0.270605
0.313520
0.299811
0.250936
0.176430
0.156760
0.251532
0.320673
0.179410
0.218749
0.307560
0.342727
0.513792
0.422597
0.245571
0.175834
0.273585
0.332594
0.347495
0.329614
0.255704
0.237823
0.480413
0.386834
0.388622
0.488758
0.355840
0.584722
0.542998
0.491738
0.612736
0.507832
0.607967
0.659823
0.803471
0.791550
0.769496
1.100898
1.117587
3.877878
14.008880
50.135851
108.641982
240.627527
374.005437
563.300848
676.816702
752.573609
733.909011
606.166720
469.907522
285.266638
178.567767
89.268684
44.199824
14.423728
6.146431
3.815889
3.567934
3.369451
3.311634
3.025532
2.687573
2.744794
2.826452
3.321767
##ZVALUE=380
0.178814
0.084639
0.122786
0.184774
0.224710
0.133514
0.172853
0.093579
0.352859
0.375509
0.199676
0.255704
0.278950
0.337958
0.277758
0.101924
0.070930
0.200868
0.090599
0.209808
0.222921
0.160933
0.252724
0.154972
0.228882
0.144839
0.126958
0.201464
0.132918
0.377893
0.277758
0.244975
0.260472
0.151992
0.266433
0.202656
0.325441
0.419617
0.253916
0.301600
0.213981
0.320673
0.246763
0.312924
0.326633
0.301600
0.286698
0.341535
0.335574
0.263453
0.373721
0.262856
0.197887
0.242591
0.358820
0.397563
0.309944
0.410676
0.447631
0.531673
0.342727
0.452995
0.434518
0.535846
0.533462
0.620484
0.621676
0.968575
0.822544
0.909567
1.082420
1.973510
7.045865
35.104752
81.667900
191.037655
307.000875
483.235717
612.987876
722.620487
729.146004
634.897947
523.757935
363.807678
244.009495
120.273829
62.375665
21.384954
9.098649
4.149675
3.487468
3.132820
3.086925
2.792478
2.748966
2.662539
##ZVALUE=385
0.107884
0.140667
0.197887
0.104904
0.191927
0.302792
0.191927
0.146627
0.103712
0.170469
0.182986
0.074506
0.147820
0.167489
0.218749
0.165701
0.289679
0.078678
0.270605
0.158548
0.120997
0.243783
0.174642
0.093579
0.302792
0.352859
0.173450
0.264645
0.277758
0.293851
0.149608
0.324845
0.282526
0.343919
0.242591
0.333786
0.399947
0.424981
0.292659
0.427961
0.262856
0.386834
0.282526
0.211596
0.276566
0.401735
0.422597
0.293851
0.268817
0.375509
0.214577
0.371933
0.360608
0.396967
0.511408
0.362992
0.341535
0.393987
0.383854
0.294447
0.518560
0.410676
0.357628
0.475645
0.550747
0.662804
0.598431
0.672936
0.767708
0.867844
0.892878
0.912547
1.104474
1.324415
3.509521
20.452738
54.731965
140.627623
247.335434
431.308746
568.527579
695.767999
728.143454
688.022971
600.919724
441.467762
312.409997
170.690417
96.374750
39.094687
16.009808
5.099773
3.289580
2.892613
2.949834
2.742410
##ZVALUE=390
0.171661
0.083447
0.151992
0.146627
0.162721
0.131726
0.234842
0.136495
0.150800
0.178814
0.119805
0.247955
0.173450
0.106692
0.195503
0.185966
0.214577
0.195503
0.247955
0.148416
0.230670
0.277758
0.208616
0.328422
0.281930
0.248551
0.257492
0.210404
0.441670
0.460744
0.262856
0.510812
0.381470
0.338554
0.300407
0.357628
0.358820
0.269413
0.241995
0.311732
0.485778
0.524521
0.357628
0.207424
0.430942
0.244975
0.281930
0.465512
0.229478
0.367761
0.384450
0.236630
0.255704
0.336766
0.361800
0.365973
0.354648
0.298619
0.293851
0.444651
0.391603
0.537634
0.585914
0.556707
0.654459
0.684857
0.602603
0.645518
0.721812
0.714660
0.746846
0.848770
0.861883
0.899434
0.907779
1.183748
1.884699
10.257959
32.020807
99.787712
191.936493
360.461473
491.863489
635.124445
705.878735
719.210505
657.141805
514.703989
392.367840
239.038467
140.208602
57.680607
26.686788
8.495450
3.911853
3.140569
##ZVALUE=395
0.310540
0.120997
-0.004768
0.047684
0.186563
0.081658
0.085831
0.138879
0.177622
0.236630
0.167489
0.261664
0.138879
0.215769
0.143647
0.320673
0.222921
0.189543
0.083447
0.070930
0.192523
0.042915
-0.008941
-0.021458
0.180602
0.150800
0.061989
0.285506
0.289679
0.422597
0.243783
0.349879
0.519753
0.484586
0.432730
0.329614
0.609756
0.435710
0.587702
0.441670
0.441670
0.379682
0.392795
0.462532
0.265837
0.290871
0.407696
0.420809
0.331998
0.311732
0.434518
0.452995
0.250936
0.268817
0.314713
0.374913
0.222921
0.363588
0.394583
0.374913
0.527501
0.391603
0.261664
0.411868
0.367761
0.367761
0.452995
0.550747
0.567436
0.636578
0.818968
0.886917
0.972748
0.710487
0.759959
0.814795
0.682473
0.712872
1.055598
5.434752
20.362735
70.564747
135.672688
259.245634
384.304523
557.584763
662.586689
724.852681
703.219771
590.364933
462.936759
289.642811
180.931687
79.561472
37.456751
11.993647
##ZVALUE=400
0.182986
0.142455
0.020862
0.203848
0.218749
0.228882
0.291467
0.062585
0.357628
0.125766
0.170469
0.209808
0.034571
-0.000596
0.131726
0.200868
0.130534
0.021458
0.066757
-0.017881
0.114441
0.065565
0.152588
0.198483
0.288486
0.166893
0.213981
0.268817
0.303984
0.414848
0.587702
0.480413
0.459552
0.393987
0.344515
0.417829
0.572801
0.498891
0.468493
0.368953
0.407696
0.385642
0.646710
0.473857
0.447631
0.444651
0.415444
0.458956
0.436902
0.407696
0.333786
0.262856
0.489950
0.416636
0.320673
0.354648
0.470877
0.381470
0.363588
0.310540
0.192523
0.321865
0.297427
0.541806
0.419617
0.470877
0.396967
0.458956
0.623465
0.672936
0.651479
0.637770
0.563860
0.697970
0.624657
0.757575
0.687838
0.889897
0.803471
0.905991
0.949502
3.008842
10.804534
39.829612
86.797476
196.058750
315.081477
489.389896
605.883598
701.323748
711.140633
620.456934
508.859754
334.727764
221.209526
111.132860
##END
