##TITLE=FAAI0502
##FORMAT=SPECTACLE-ASCII V-1.2
##DATA TYPE=ULTRAVIOLET SPECTRUM
##SECOND TYPE=ULTRAVIOLET SPECTRUM
##DATE=01/24/18
##TIME=19:11:38
##SPECTROMETER/DATA SYSTEM=SPECTACLE
##XUNITS=NM EM
##YUNITS=ENERGY
##YFACTOR=1
##FIRSTX=220
##LASTX=410
##NPOINTS=96
##3DDATA=Equidistant
##ZUNITS=NM EX
##FIRSTZ=210
##LASTZ=400
##ZPOINTS=39
##XYDATA=(Y..Y)
##ZVALUE=210
2.909899
2.646446
3.728867
3.055930
3.158450
3.658533
3.140569
3.296733
2.950430
2.908707
2.226830
1.807809
1.906753
2.160668
2.017617
2.437830
2.352595
2.154708
2.534986
2.370477
2.758503
2.454519
2.682805
3.431439
3.453493
4.058480
5.790591
5.363822
8.300543
8.543730
9.572506
11.047721
11.749864
13.260841
13.606548
13.090968
14.214516
13.214946
12.924671
13.119578
11.864901
11.834502
11.471510
11.180639
10.254979
9.687543
9.406805
8.323789
8.483529
8.728504
8.270741
7.685423
7.244945
6.849766
5.650520
6.815791
5.847812
6.144643
5.936623
5.047917
5.044937
4.978776
4.872680
4.865527
4.158616
4.820824
5.254745
5.500913
6.306767
6.724000
7.295609
9.008646
9.137988
10.275841
13.325810
13.377666
13.313890
12.757778
13.297796
12.069941
10.792613
9.763837
9.293556
6.788969
5.396605
5.460978
4.546642
4.093647
3.917813
3.457665
4.856586
3.706813
4.839897
4.884601
4.324913
4.575849
##ZVALUE=215
8.046627
8.571744
8.077621
6.952882
6.103516
6.210804
5.635619
5.947948
5.918741
6.277561
5.028844
5.042553
4.087687
3.683567
2.607703
2.141595
1.440644
2.406836
1.659989
2.297759
1.737475
2.171993
2.263784
2.958775
3.752708
4.937649
6.598830
8.741617
10.525584
12.296438
15.936494
16.433001
19.461513
21.380782
21.616817
22.293925
20.871758
21.464825
20.779967
20.059943
19.747615
20.225644
18.163919
17.034411
16.203523
14.852881
14.020801
13.114810
11.574626
11.782646
10.927916
9.204745
9.381771
8.805990
8.330941
7.146597
7.165670
6.417632
6.991625
6.963611
7.146597
5.594492
5.964637
5.669594
4.729629
5.400777
4.860759
5.418658
5.965829
5.743504
6.760955
7.228851
7.786751
8.855462
9.676814
9.523630
10.336637
10.284781
9.478927
8.571744
8.953810
7.453561
6.983876
5.263686
5.493760
4.656911
4.013777
4.176497
3.599524
3.305674
2.837777
3.746748
3.757477
3.644824
4.448891
3.290772
##ZVALUE=220
25.782585
26.405454
29.381514
27.235746
26.604533
21.155477
18.251538
14.772415
12.880564
13.304949
14.201999
14.483929
13.286471
12.785792
8.907914
8.121729
5.532503
4.775524
3.693700
3.046989
2.734661
2.718568
3.343821
3.713965
5.513430
6.462932
9.583831
12.032986
15.381575
19.518733
23.978949
26.466846
27.968884
32.487512
32.316446
33.270717
34.432411
35.900474
33.068657
32.097697
30.351877
28.806925
28.885603
24.247766
25.345683
22.691488
21.990538
18.604994
17.363429
17.437935
15.020967
14.057755
13.049841
12.461543
13.123751
10.975599
10.641813
9.857416
9.310842
7.191896
8.659959
7.373691
6.997585
7.557869
8.239746
8.023977
6.762743
6.800890
8.561611
7.768869
7.803440
9.425879
9.777546
9.821653
10.018945
10.321736
10.293722
9.658933
10.353923
10.212660
8.987784
7.393956
5.848408
6.451607
6.546974
5.283952
5.691648
4.907846
4.465580
4.262924
4.959702
4.766583
4.260540
4.274845
4.887581
4.243851
##ZVALUE=225
44.806600
41.695833
55.991411
68.883896
74.826479
73.328614
68.051815
50.638914
43.615699
35.354495
27.681589
28.797984
26.521683
27.740598
28.017759
24.303794
21.981597
15.351772
13.813972
7.937551
6.022453
3.985763
4.035830
4.072785
5.571842
7.320642
8.599758
14.198422
18.180609
23.099780
26.755929
29.531717
35.073757
38.484931
39.266944
38.238764
37.912726
38.184524
36.641955
36.935806
37.293434
32.556653
32.535791
30.265450
27.572513
24.292469
21.761656
23.962855
21.677613
19.876957
18.324852
17.314553
15.882850
16.240478
13.882518
12.813807
11.986494
12.357831
10.818839
10.402799
10.556579
10.011792
9.559989
8.900762
8.147955
8.458495
8.670688
8.907914
8.773804
8.795857
7.942915
9.789467
9.899735
11.314750
10.821819
10.796785
9.596944
10.230541
10.598898
8.863807
9.078979
8.501410
8.148551
7.339716
6.967783
7.096529
6.698966
6.621480
7.159710
6.872416
5.606413
6.469488
6.084442
5.745888
5.885959
6.152987
##ZVALUE=230
36.888719
35.396814
67.481995
94.456673
131.771564
151.390433
167.979002
160.907507
146.940947
121.565461
84.925890
65.276623
51.789880
45.860410
45.300722
52.247643
52.722692
50.233603
44.860840
35.803914
25.645494
20.029545
10.705590
7.346869
5.820990
6.739497
8.332729
12.170672
13.687611
18.133521
19.078851
23.643970
25.824904
27.946830
29.719472
29.937625
29.646754
31.534433
30.713677
29.067993
28.995872
25.974512
25.919676
23.556948
22.821426
22.150874
20.261407
18.093586
17.650723
17.864704
18.525720
16.694665
13.398528
13.633966
14.551878
12.931824
12.099743
10.998845
11.255741
11.239648
11.489987
12.107491
9.847879
9.972453
10.247827
9.588599
9.709597
10.709763
10.177493
9.647608
11.382699
11.823773
12.661815
12.895465
12.419820
12.948513
13.040900
12.561679
11.729598
11.933446
11.065602
10.293722
9.557605
11.126995
8.884668
9.158850
8.406639
9.574890
9.666681
9.796619
7.941723
7.711649
9.141564
8.529425
8.198619
7.863641
##ZVALUE=235
12.510419
15.191436
30.006766
65.066814
104.901791
170.244575
225.976706
278.460979
311.447978
305.934548
275.246501
224.315524
155.911446
114.982724
85.738897
72.879791
70.964694
78.289509
83.510876
81.712604
79.373717
61.912537
52.666664
34.863949
22.679567
18.226504
12.711883
10.203719
9.675622
13.046861
12.613535
15.692711
15.442967
16.003847
17.185807
18.925667
18.533468
19.403696
17.650723
18.348694
17.954707
17.450452
18.730760
16.373992
15.720725
15.103817
15.463829
14.210939
13.547540
12.307763
12.184978
12.613535
12.507439
12.716651
11.275411
11.724830
11.194944
11.124611
11.831522
10.222793
11.259913
10.722876
11.714697
10.463595
9.982586
10.253787
11.560917
10.214448
11.154413
12.545586
12.302995
13.846755
13.392568
14.781952
14.805794
15.775561
14.969707
15.709996
15.131831
14.470816
14.029741
12.365580
13.929605
12.864470
12.231469
12.056828
11.859536
11.945963
11.353493
11.041760
11.580586
11.935830
12.938976
11.824965
10.549426
11.897683
##ZVALUE=240
1.705885
1.631975
5.519986
14.998913
40.570498
76.830983
147.720575
226.973891
344.884992
411.372781
462.616682
465.505719
433.123708
348.430872
272.317529
182.701945
133.621693
99.163651
93.860626
101.408958
111.906528
117.586851
114.056468
103.763938
82.694888
66.146851
48.793554
34.343600
23.609996
19.007921
15.818477
15.021563
15.998483
15.470982
15.263557
15.517473
15.310645
16.893744
17.862916
14.745593
14.302731
14.705658
14.619827
14.688969
14.257431
13.070703
14.797449
12.945533
12.211800
12.806654
13.298988
12.136698
11.229515
10.629892
10.355711
12.031794
12.211800
10.180473
10.832548
10.800958
9.976625
11.234879
11.327863
10.809898
10.887980
11.298656
11.279583
12.415648
13.270974
13.730526
14.156699
14.982820
16.149879
16.766787
16.535521
17.260909
17.020702
16.676784
16.963482
17.155409
16.479492
15.460849
15.770793
16.165972
16.191602
14.371872
14.661551
13.912916
15.320778
14.182925
13.129711
14.649630
14.332533
13.953447
12.801886
13.597608
##ZVALUE=245
1.314878
1.079440
1.492500
1.895428
3.706813
10.785460
33.087730
68.015456
152.814984
237.082839
371.623635
465.812683
535.970926
568.058491
539.518595
452.087522
365.481973
253.797770
181.944966
117.930770
98.436475
97.782612
112.336874
127.819777
137.683749
130.860806
118.667483
101.620555
79.864860
62.491894
50.254464
33.223629
27.140975
21.834970
19.648671
20.651817
20.504594
20.773411
18.638968
18.404722
19.277930
18.171668
17.693639
17.915964
17.012954
14.641881
14.669895
16.346574
14.171600
13.052821
13.383627
12.200475
12.325644
12.078881
12.006760
9.996891
10.089874
10.444522
10.547638
9.607673
11.266470
9.761453
10.105968
11.767745
10.540485
10.088682
10.602474
10.722876
11.057854
11.597872
13.024807
12.938976
13.549924
15.288591
14.427900
15.013814
15.115738
16.140938
14.657974
15.006661
14.633536
15.114546
14.617443
15.221834
15.143752
13.703704
15.455484
13.812780
13.564825
14.465451
14.559627
12.970567
12.561679
12.746453
13.096929
13.249516
##ZVALUE=250
1.227856
1.295805
1.049638
0.976920
1.169443
1.409650
2.037883
5.962849
25.966763
54.990649
138.176680
225.097537
326.684713
474.168658
567.447543
636.645555
635.519028
571.678877
481.331944
337.175727
234.529972
155.828595
104.898810
96.185803
110.193491
124.274492
142.578483
144.428611
143.847466
134.765506
115.780830
95.991492
74.489713
54.130554
41.069984
35.510659
30.355453
26.852489
26.109815
25.256872
24.857521
22.956729
22.892952
22.168756
21.121502
21.018982
20.237565
18.079877
17.555952
16.264915
15.223622
14.781952
14.364719
13.833642
13.642907
12.089610
11.756420
10.745525
10.730624
10.284781
10.594726
10.354519
9.966493
9.502769
9.518862
9.513497
9.747744
10.135770
10.325909
10.008812
12.600422
13.289452
12.438893
13.779998
12.836456
12.368560
13.123751
12.872815
14.349818
13.910532
13.619661
12.625456
13.235807
12.383461
11.727810
13.085604
13.790727
11.351705
11.225939
12.674928
11.630654
12.671947
12.532473
13.227463
12.118816
12.069941
##ZVALUE=255
0.970960
0.855923
0.941753
0.997782
1.056790
1.176000
1.187921
1.312494
1.719594
3.199577
17.419457
43.020844
86.098909
183.335543
289.278626
458.755493
574.782491
684.165955
716.258883
682.428479
594.033599
478.817821
304.110646
200.556517
115.768909
93.785524
95.674992
113.414526
138.300657
155.970454
164.981484
161.453485
155.052543
132.791996
111.368895
84.613562
67.638755
51.556826
45.444965
36.215782
35.887957
32.504797
31.596422
29.751658
28.410554
27.801991
26.307702
23.787618
22.233725
21.153688
18.462539
19.360781
17.304420
15.836954
15.765429
13.261437
12.355447
12.557507
12.349486
12.633801
11.514425
10.534525
10.538697
10.712743
9.817481
11.055470
9.516478
9.989738
10.392666
10.646582
10.665655
10.209680
10.969639
10.170937
11.185408
11.977553
11.514425
12.259483
12.073517
11.021495
11.513829
11.915565
11.239648
10.538697
10.646582
10.648966
10.723472
10.999441
11.065602
10.604858
11.393428
10.739565
11.597872
11.459589
11.094809
11.293888
##ZVALUE=260
0.911951
0.876784
0.954866
1.136661
1.041889
1.264811
0.984669
1.034737
1.208782
1.570582
1.502633
1.861453
6.618500
27.247667
59.675574
146.947503
242.879987
404.384732
536.576509
708.686709
787.736773
789.901614
706.823468
580.841899
391.779542
273.372531
162.603855
114.746690
92.987418
104.965568
126.872659
157.963634
182.612538
193.924904
188.951492
171.672702
153.747797
124.135613
102.301836
79.775453
66.332817
53.067803
46.634674
42.685866
39.996505
36.203861
34.552813
31.634569
29.644966
27.782917
25.338531
24.817586
23.267865
19.854903
18.468499
17.407537
16.415715
15.957952
14.925599
13.489723
12.678504
12.176633
12.331605
10.803938
11.009574
10.430813
9.712577
10.390878
9.820461
10.775924
9.989738
9.970665
11.370778
10.283589
11.508465
10.955930
10.667443
11.001825
10.647774
9.908676
10.309815
10.299683
10.570884
10.134578
9.639859
10.169744
10.101795
9.484887
9.830594
10.284781
10.090470
10.030866
9.044409
10.117888
9.348989
9.756684
##ZVALUE=265
0.802875
0.757575
0.757575
0.775456
0.837445
0.826716
0.794530
0.921488
1.122952
1.294613
1.110435
1.319647
1.207590
1.840591
4.070401
18.227696
45.109987
114.596486
202.424526
382.078886
531.773567
663.771629
823.189020
853.092670
789.473653
687.123537
517.444611
372.282863
223.934650
152.546763
110.151768
107.660890
123.228431
158.107877
182.886720
203.230977
208.048820
200.984478
187.961459
159.903765
135.389566
105.554461
85.593462
65.080523
53.883791
46.715736
42.001605
38.749576
36.616921
32.206774
29.982924
28.244853
26.503801
23.611784
22.944808
20.589828
18.089414
17.385483
16.921759
15.321970
14.460683
13.566613
12.819767
12.528896
11.802912
11.714697
11.217594
10.721684
10.312796
9.759665
10.860562
10.619760
10.856986
10.280609
10.936856
11.119843
10.106564
10.299683
9.847879
10.023713
10.046959
10.337830
9.619594
9.672642
9.855628
9.947419
9.575486
9.680986
9.716749
9.015799
8.913875
9.688735
9.399652
9.147525
9.336472
9.188652
##ZVALUE=270
0.695586
0.800490
0.788569
0.673532
0.695586
0.882745
0.912547
1.029968
0.892878
0.828505
0.999570
0.840425
1.151562
1.170635
1.259446
1.166463
1.833439
8.169413
24.041533
78.523755
154.939890
274.469852
486.619473
660.061836
838.359594
910.323858
899.977684
826.800466
653.092861
502.038598
361.095667
212.315917
147.635937
109.920502
116.183758
139.223933
162.452459
190.444589
204.967856
211.480856
201.701522
180.847645
159.719586
126.240849
101.670623
74.280500
60.036778
47.685504
41.299462
35.305619
32.625794
28.314590
28.086901
25.629997
22.528768
21.013618
20.087957
18.472672
17.558932
16.923547
15.548468
14.420748
13.464689
13.044477
11.828542
10.692477
11.291504
11.197925
10.707974
10.975599
10.591745
10.510683
10.491610
10.610819
10.511875
10.931492
9.996891
10.049939
10.631680
9.295940
9.569526
9.937882
9.138584
9.253621
9.067655
8.718967
8.548498
9.233952
8.940697
8.533597
8.676648
8.696914
8.912683
8.309484
8.666515
8.728504
##ZVALUE=275
0.705719
0.700951
0.577569
0.727773
0.699759
0.792742
0.737906
0.936985
0.912547
1.032948
0.977516
0.847578
0.971556
1.156926
0.973940
1.092553
1.161695
1.273751
1.350641
4.063845
14.236569
41.234493
121.167898
225.638747
426.523685
590.661764
780.089498
894.773602
960.543752
911.978483
818.680525
622.123480
453.006625
261.385441
170.142651
106.066465
91.765523
102.861524
120.798945
149.921775
170.027614
185.722709
189.073682
183.503628
167.271495
135.282874
112.286806
86.836815
64.606667
46.377778
36.166906
28.043985
24.974942
21.991730
20.039678
18.637776
17.417669
16.211867
14.870763
13.962984
13.743639
13.062954
12.276769
11.956692
11.091828
11.015534
11.026859
10.700822
10.023713
10.449886
10.212660
10.178685
10.998845
10.931492
9.635687
10.318756
9.855628
9.933710
10.363460
10.125637
9.432435
9.364486
9.488463
9.281635
9.043813
8.911490
8.390546
8.774996
8.613467
8.700490
8.689761
8.669496
8.568764
8.704662
8.658767
8.122921
##ZVALUE=280
0.465512
0.612736
0.606775
0.549555
0.561476
0.615716
0.523925
0.457764
0.759959
0.830889
0.597835
0.683665
0.678897
0.810623
0.988841
0.759959
1.017451
0.808835
0.999570
1.167655
1.278520
1.578927
8.845925
30.853748
94.987750
177.316666
329.405665
492.160916
707.063675
851.320028
943.606496
955.085754
869.333744
670.703650
503.339767
298.863649
186.724663
96.521974
66.337585
60.587525
74.321628
100.309849
121.197701
146.759748
159.822702
166.065693
161.839724
140.192509
123.390555
91.223717
71.048737
47.731996
34.885406
23.260713
18.216968
14.207959
13.297796
12.536645
12.023449
11.326671
11.228919
10.882616
10.694861
10.724664
10.087490
9.461641
9.750724
9.018779
9.915829
9.421706
9.679794
9.655952
9.649992
9.635687
9.810925
9.807944
9.617805
9.400845
9.562969
9.506941
8.976460
8.797646
8.959770
8.368492
8.678436
8.545518
8.136630
8.238554
8.461475
8.145571
8.288622
8.317828
8.216500
8.560419
8.088946
8.116961
##ZVALUE=285
0.489950
0.388622
0.439882
0.477433
0.499487
0.375509
0.621676
0.507832
0.536442
0.520945
0.649691
0.697970
0.471473
0.748634
0.680685
0.659823
0.713468
0.806451
0.844598
0.801682
1.176596
0.965595
1.163483
1.639724
4.232526
15.121698
51.294565
109.002590
241.988897
383.413434
548.592806
766.623020
896.008611
966.262817
916.704535
757.664442
603.449941
376.016498
239.871740
115.970969
64.008832
38.131475
39.675832
59.710741
77.454448
107.502937
127.217770
143.415928
149.317980
146.645904
134.001970
107.815862
88.708997
60.611963
43.340921
26.408434
18.876791
12.223721
10.482669
9.331703
9.085536
8.814931
8.581877
8.454919
8.628964
8.516908
8.559823
8.693933
8.738637
8.988976
8.887649
9.503961
9.357929
9.292960
9.552836
9.318590
9.284616
8.728504
9.230971
9.242892
9.287000
8.606911
8.713603
7.980466
8.117557
8.528829
8.326769
8.122921
8.210540
8.058548
8.235574
8.085966
7.610917
7.836819
8.100867
7.545948
##ZVALUE=290
0.558496
0.491738
0.362992
0.480413
0.479817
0.282526
0.419617
0.541806
0.462532
0.599623
0.561476
0.695586
0.532866
0.637770
0.643730
0.743866
0.660419
0.710487
0.612736
0.790954
0.774860
0.848770
1.048446
1.076460
1.121759
1.414418
1.914501
5.936623
28.329492
69.403648
139.709711
292.944908
459.264517
700.116754
846.429467
969.735980
960.019827
837.512016
693.001747
468.511581
313.816667
156.975985
84.697008
36.912560
26.059747
36.087632
49.171448
72.311759
92.919469
118.782520
133.280754
142.396688
139.300823
125.544667
107.991695
79.395771
59.134960
39.698482
26.158690
16.269684
11.871457
8.680820
8.467436
7.778406
7.610917
7.522702
7.599592
7.984638
8.038878
8.395910
8.112788
8.200407
8.646846
8.859634
8.771420
8.951426
9.237528
9.147525
8.665919
8.620620
8.311868
8.132458
8.575916
8.255839
8.247495
8.129478
7.759929
8.637905
8.311868
7.881522
7.715821
7.657409
7.589459
7.806420
7.729530
7.787943
##ZVALUE=295
0.610948
0.562668
0.644922
0.696778
0.672936
0.490546
0.510812
0.554919
0.532866
0.649691
0.673532
0.470877
0.694990
0.582933
0.648499
0.665784
0.768900
0.668764
0.929832
0.823736
0.810623
0.823736
0.903606
1.079440
1.087785
1.211762
1.269579
1.286864
1.507998
2.779961
14.447570
41.623712
96.974969
231.316686
378.401875
612.539649
775.187612
934.103727
970.577002
900.440812
775.341988
558.385849
391.562581
210.349560
114.567876
44.359565
25.009513
21.565557
29.293895
46.638846
64.290762
89.808702
107.484460
125.337839
134.691596
132.150650
122.346878
99.451542
79.914927
55.150986
40.552616
24.419427
16.396642
10.448694
8.628964
7.377863
7.216930
7.622838
6.950498
7.652640
7.786751
7.996559
8.393526
8.623600
8.533597
8.616447
8.520484
8.532405
8.209944
8.273721
8.344650
8.469820
8.464456
8.132458
8.208752
8.471608
7.938743
7.970929
8.180737
8.345842
7.971525
7.682443
8.170605
7.866621
7.605553
7.202625
##ZVALUE=300
0.126958
0.459552
0.391603
0.363588
0.358820
0.475645
0.368953
0.330806
0.484586
0.528693
0.383854
0.528693
0.550747
0.512600
0.432730
0.508428
0.396967
0.461936
0.582933
0.678897
0.703931
0.623465
0.547767
0.966787
0.746846
0.881553
0.998974
0.746846
0.984669
1.204610
1.365542
1.587868
4.128814
24.634004
62.355399
163.611770
283.150673
496.745706
667.045712
861.420035
949.551463
944.164991
851.802826
651.144981
479.895473
273.380876
160.971880
72.076917
35.728812
16.616583
17.002821
26.432872
38.168430
59.461594
78.442693
103.134513
118.678808
126.398802
125.365853
114.843845
99.549890
74.573755
58.184862
37.791729
25.726557
15.851855
11.022687
8.344650
7.618666
7.551908
7.138848
7.042885
7.511973
7.539988
7.872581
7.682443
8.160472
8.072853
8.073449
8.039474
8.072853
7.827878
8.354783
8.122921
8.094907
8.187890
7.894635
8.272529
7.980466
8.283854
7.768869
8.045435
7.931590
7.959604
7.594824
7.693768
##ZVALUE=305
0.199676
0.238419
0.419617
0.242591
0.190735
0.274777
0.315905
0.387430
0.185966
0.386834
0.246763
0.364780
0.177622
0.249743
0.440478
0.493526
0.398755
0.276566
0.327826
0.300407
0.421405
0.524521
0.375509
0.699759
0.528693
0.677705
0.676513
0.614524
0.756979
0.803471
1.085997
0.909567
1.114607
1.205802
2.342463
13.970733
41.600466
117.620826
216.201544
405.983925
576.511621
787.404776
908.612609
954.867601
892.774463
718.908906
560.634732
354.139805
220.283866
102.562904
50.113797
18.683672
12.282729
16.075969
23.570657
39.649606
54.961443
78.233480
95.540881
113.451481
118.171573
118.908882
110.489726
91.331601
75.432658
52.412748
36.747456
23.632646
15.869737
10.316968
8.420944
7.742643
7.249713
7.426739
7.240772
7.343888
7.485747
7.570982
7.406473
8.009672
7.823706
7.931590
7.901788
8.125901
8.389950
8.329749
7.901788
8.183718
7.626414
7.714629
7.604957
8.000731
7.792711
7.452965
7.859468
7.700920
##ZVALUE=310
0.091791
0.170469
0.144839
-0.004768
0.267625
0.235438
0.210404
0.135899
0.207424
0.106692
0.281930
0.310540
0.274777
0.364780
0.243783
0.168681
0.311732
0.298619
0.374913
0.312924
0.357628
0.248551
0.338554
0.368953
0.455976
0.433922
0.292659
0.562668
0.556707
0.666976
0.532866
0.736713
0.745654
0.879765
0.935793
1.087785
1.380444
5.861521
20.815730
71.055889
143.657923
299.228430
460.233688
684.918761
831.443667
945.577621
934.200883
819.386840
679.154992
455.741882
302.789807
153.193474
81.038475
29.842854
13.753772
10.431409
13.263822
21.331906
31.924844
50.012469
66.348910
88.460445
101.821423
112.237930
114.032626
104.375482
90.604424
72.150826
54.700971
35.629869
25.297999
16.591549
11.712909
8.694530
7.719994
7.496476
7.597804
7.600784
7.421970
7.601976
7.817745
7.959604
7.625818
7.998943
8.174777
8.065701
7.780790
8.130670
8.086562
7.794499
7.802844
7.840991
7.667542
7.515550
7.609725
7.531643
##ZVALUE=315
0.417829
0.180602
0.316501
0.395775
0.298619
0.436902
0.482798
0.352859
0.433922
0.526905
0.559688
0.391603
0.442863
0.464916
0.407696
0.496507
0.411868
0.530481
0.431538
0.493526
0.386834
0.471473
0.560880
0.451803
0.497699
0.731945
0.555515
0.585914
0.738502
0.759959
0.779629
0.753999
0.819564
0.913739
0.830889
1.000762
1.180768
1.276731
1.268983
2.966523
10.585785
45.134425
100.490451
231.561661
378.422737
612.021685
759.290457
901.399851
939.242840
871.763825
752.618909
545.385480
386.138558
206.624866
112.885833
42.323470
18.545985
9.382963
9.346604
13.337731
18.913746
31.241775
44.794679
64.962506
80.707669
99.329948
106.224418
107.950568
101.647973
84.260702
71.016550
51.464438
37.687421
24.105906
16.495585
11.403561
9.603500
8.312464
7.800460
7.816553
7.876754
7.851720
8.002520
7.459521
7.803440
8.167624
8.303523
8.018613
8.262992
8.296967
8.239746
7.906556
8.026958
8.322597
8.363724
7.841587
##ZVALUE=320
0.409484
0.393987
0.379682
0.236630
0.271797
0.404716
0.390410
0.368953
0.463724
0.313520
0.420809
0.516772
0.464916
0.545979
0.584722
0.555515
0.439882
0.507832
0.486970
0.407696
0.581741
0.517964
0.583529
0.543594
0.695586
0.557899
0.717640
0.709891
0.659823
0.774860
0.807643
0.560880
0.727773
0.799894
0.922680
0.893474
0.838637
1.264811
1.049638
1.373887
1.484752
1.737475
4.990697
26.073456
66.240430
172.909498
285.422802
478.124619
638.548732
825.516582
905.648470
907.688737
822.898746
632.571578
464.481711
259.624720
149.112940
63.996911
29.443502
10.809898
8.047819
8.755922
11.208653
18.083453
26.323795
42.847991
56.588650
76.574683
89.576840
98.701715
100.285411
94.495416
84.007978
65.371990
50.494671
34.218431
24.412870
15.742779
11.873841
9.495616
8.373857
7.992983
8.276701
8.035898
8.210540
7.883906
8.216500
8.564591
8.247495
8.513927
8.334517
8.025765
8.122921
8.126497
8.287430
8.088946
##ZVALUE=325
0.425577
0.285506
0.509620
0.620484
0.512600
0.454783
0.313520
0.425577
0.385642
0.416636
0.432730
0.396967
0.396967
0.436902
0.441670
0.447631
0.458956
0.372529
0.558496
0.612736
0.601411
0.635982
0.554919
0.559688
0.616908
0.578761
0.628829
0.466704
0.514984
0.553727
0.643730
0.772476
0.689626
0.589490
0.783801
0.897646
0.865459
0.845790
0.980496
0.927448
1.149774
1.082420
1.182556
1.361966
2.801418
16.442537
44.159889
115.480423
209.739804
395.529866
556.105971
757.205486
864.156485
911.961794
850.407481
676.817894
517.351627
316.566825
194.460750
85.545778
41.662455
14.317632
8.236766
7.259846
8.047819
11.349916
16.428828
27.006865
38.706660
58.106780
71.874857
87.175965
94.057918
96.244812
89.660883
76.406598
62.526464
46.145916
34.396648
22.242665
16.397834
11.554956
9.855628
8.588433
8.375645
8.206964
8.181930
8.250475
8.132458
7.694960
8.006692
8.030534
7.851720
7.920861
7.567406
8.178949
##ZVALUE=330
0.319481
0.321865
0.383854
0.363588
0.439882
0.427961
0.266433
0.250936
0.348687
0.454783
0.463724
0.358820
0.373721
0.459552
0.384450
0.371933
0.543594
0.406504
0.314713
0.387430
0.503659
0.389814
0.522733
0.373721
0.660419
0.546575
0.405908
0.585914
0.589490
0.606775
0.557899
0.523925
0.666976
0.624657
0.601411
0.593662
0.723600
0.701547
0.756979
0.818968
0.806451
0.975728
0.881553
0.933409
1.316667
1.258850
1.752973
5.085468
26.562810
66.933632
166.523457
280.597806
479.784608
636.165738
807.742476
877.268910
850.259662
752.084851
568.771958
414.191484
231.375694
131.864548
54.276586
24.965405
9.325743
6.904602
7.186532
7.930994
11.066794
16.343594
27.334690
37.243962
54.199696
67.518950
81.544518
88.305473
89.322925
84.277987
70.505738
58.980584
41.495562
32.071471
22.090673
16.790628
12.172461
9.974837
8.452535
8.480549
8.183718
7.845759
7.751584
7.538795
7.766485
7.694960
7.497668
7.661581
##ZVALUE=335
0.191927
0.137687
0.219941
0.237823
0.148416
0.281930
0.123978
0.325441
0.258684
0.296831
0.423789
0.369549
0.220537
0.209808
0.310540
0.347495
0.369549
0.238419
0.343919
0.440478
0.377893
0.678897
0.492930
0.353456
0.263453
0.256896
0.376701
0.409484
0.530481
0.266433
0.219941
0.449419
0.220537
0.508428
0.603795
0.418425
0.553727
0.489950
0.441670
0.534654
0.651479
0.703931
0.607967
0.771880
0.766516
0.849962
0.896454
1.180768
1.204610
3.346801
11.737943
47.111511
101.242661
225.711465
365.262032
576.622486
721.824765
838.506818
860.695839
775.817037
647.920966
449.419618
306.139588
160.189867
84.631443
31.597614
13.625622
6.747842
6.404519
6.399751
7.592440
10.772943
14.901757
24.750829
35.413504
51.736832
63.495636
77.147484
81.925988
83.880424
78.265667
67.228675
56.328773
42.140484
32.461882
22.202730
16.066432
11.695623
9.677410
8.254647
7.734895
7.362962
7.351637
7.174611
7.259846
6.962419
##ZVALUE=340
0.184774
0.274777
0.134706
0.086427
0.273585
0.232458
0.284910
0.242591
0.135899
0.254512
0.177622
0.262856
0.223517
0.181794
0.279546
0.280738
0.333786
0.342727
0.174642
0.269413
0.323653
0.356436
0.328422
0.284910
0.202656
0.210404
0.283718
0.317693
0.211596
0.417829
0.394583
0.389814
0.351667
0.487566
0.572801
0.508428
0.494719
0.411868
0.467896
0.449419
0.526905
0.483990
0.691414
0.680685
0.633597
0.615716
0.897646
0.863671
0.954866
1.025796
1.221895
1.767874
5.623698
28.248429
70.353746
175.333023
298.303962
496.631861
636.623502
778.557658
832.279921
792.255998
693.411827
515.550971
362.481475
191.287994
104.873776
42.762756
18.594861
7.950664
6.650686
6.531477
6.850958
8.004904
10.363460
15.930533
22.671819
34.692883
46.627522
61.869621
71.445704
78.972578
79.638958
74.021816
66.458583
53.084493
43.069720
30.588508
23.153424
15.529990
11.929870
9.240508
7.750988
7.194877
7.245541
6.967783
##ZVALUE=345
0.377893
0.198483
0.251532
0.171661
0.162721
0.173450
0.049472
0.122786
0.170469
0.118613
0.158548
0.204444
0.220537
0.287890
0.199676
0.253916
0.157952
0.241995
0.220537
0.268817
0.181794
0.258684
0.100732
0.356436
0.399947
0.200868
0.300407
0.346899
0.257492
0.264645
0.402927
0.372529
0.308752
0.315905
0.461936
0.360608
0.389814
0.518560
0.422597
0.391603
0.456572
0.506639
0.387430
0.646710
0.572801
0.446439
0.641942
0.702739
0.727773
0.830889
0.999570
1.061559
1.063943
1.138449
2.667904
16.000867
43.975711
116.716623
209.423900
383.031964
527.202487
705.462694
786.321759
801.770687
734.047890
561.075807
417.886972
249.239802
143.180490
56.916475
26.204586
10.290742
6.805658
6.066561
6.153584
6.428957
7.390976
9.741783
13.536811
21.702647
30.376911
43.908954
54.206848
65.566897
70.867538
72.028637
69.980621
61.419606
53.339601
40.748715
31.106472
21.253824
15.860796
11.293888
8.747578
7.666945
##ZVALUE=350
0.223517
0.125766
0.184774
0.134706
0.095963
0.202656
0.128746
0.197887
0.098944
0.117421
0.226498
0.116825
0.216961
0.146627
0.213981
0.261664
0.164509
0.243783
0.195503
0.306964
0.348687
0.336766
0.396967
0.246763
0.399947
0.206828
0.324845
0.294447
0.350475
0.220537
0.271797
0.273585
0.434518
0.404716
0.136495
0.342727
0.323653
0.367761
0.457764
0.407696
0.646710
0.460744
0.380874
0.554919
0.346899
0.504851
0.616908
0.487566
0.646710
0.617504
0.669956
0.667572
0.843406
0.776649
0.772476
1.031756
1.816750
6.130934
27.817488
66.406727
161.906481
271.109939
456.513762
594.525933
742.365718
786.702037
746.470690
641.165972
447.473526
303.158760
153.144002
85.271001
33.308864
14.322996
6.966591
6.123781
5.946755
5.808473
5.807877
6.845593
8.967519
12.550950
19.313693
26.623607
37.258863
47.529936
58.123469
63.502789
66.140890
64.541698
57.136416
50.121546
38.076639
29.496551
20.749569
15.752912
##ZVALUE=355
0.264645
0.200868
0.242591
0.248551
0.113845
0.188947
0.203848
0.229478
0.276566
0.203848
0.239611
0.470877
-0.035763
0.185966
0.268817
0.105500
0.165701
0.125766
0.184774
0.266433
0.151992
0.326633
0.204444
0.142455
0.480413
0.140667
0.401735
0.203848
0.258684
0.249743
0.349879
0.274777
0.178814
0.291467
0.298619
0.356436
0.341535
0.351667
0.389814
0.397563
0.410676
0.465512
0.586510
0.438690
0.260472
0.430942
0.503659
0.368953
0.451803
0.783801
0.500679
0.631809
0.630617
0.739694
0.745654
0.828505
0.847578
1.006722
1.228452
3.377795
13.359785
51.817894
107.335448
221.733451
348.193645
539.845824
663.524866
760.232806
755.228996
651.372671
525.909662
347.998738
220.656991
97.574592
47.596693
15.743971
7.775426
5.828738
5.500913
5.379915
5.411506
5.760789
6.259680
8.136630
10.892749
17.008781
23.859739
32.347441
40.872693
51.637888
57.303905
60.812831
58.963895
53.700805
47.141910
37.292838
##ZVALUE=360
0.188947
0.191927
0.216961
0.265837
0.205636
0.150800
0.224710
0.208616
0.194907
0.287890
0.203848
0.136495
0.104904
0.195503
0.201464
0.244975
0.210404
0.198483
0.289679
0.217557
0.317693
0.266433
0.233650
0.170469
0.408888
0.207424
0.366569
0.385642
0.288486
0.225902
0.350475
0.314713
0.350475
0.208616
0.381470
0.323653
0.217557
0.396967
0.395775
0.576973
0.459552
0.392795
0.493526
0.321865
0.561476
0.468493
0.548959
0.521541
0.521541
0.625849
0.542998
0.497699
0.657439
0.714660
0.699759
0.629425
0.838637
0.619888
0.935793
1.091957
0.931621
1.669526
5.688667
26.756525
63.158870
154.309869
263.711810
443.656445
578.920841
702.318549
739.886761
685.007572
583.457947
399.487019
265.887976
132.296681
68.376660
25.989413
11.266470
6.040931
5.376935
5.331635
5.186796
4.921556
5.167723
5.848408
6.604791
9.194613
12.267828
19.514561
26.294589
37.062764
44.040680
50.998926
54.601431
54.451823
##ZVALUE=365
0.172853
0.386834
0.197887
0.235438
0.237823
0.252724
0.213981
0.309944
0.023842
0.343919
0.242591
0.065565
0.140667
0.315905
0.314713
0.166893
0.312924
0.447631
0.363588
0.156760
0.164509
0.315905
0.222921
0.356436
0.222921
0.210404
0.194907
0.208616
0.305772
0.326633
0.343919
0.341535
0.285506
0.338554
0.249743
0.401735
0.360608
0.321865
0.445843
0.371933
0.358820
0.430942
0.289679
0.362992
0.415444
0.461936
0.515580
0.535846
0.418425
0.441670
0.465512
0.566840
0.665784
0.537634
0.571609
0.558496
0.685453
0.695586
0.695586
0.831485
0.925660
1.039505
1.071692
1.244545
2.615452
14.796853
39.651990
105.857849
196.637511
362.545848
493.212938
638.263822
708.794594
695.549846
614.955425
449.259877
320.451856
178.631544
97.851753
36.243796
15.215874
6.226897
5.267859
4.907846
4.764795
4.650950
4.512668
4.577637
5.002618
5.668998
7.482767
11.428595
15.573502
23.695827
30.410886
39.085746
##ZVALUE=370
0.233650
0.282526
0.133514
0.157952
0.283718
0.230670
0.167489
0.045896
0.236630
0.154972
0.193715
0.142455
0.192523
0.269413
0.278950
0.387430
0.231862
0.257492
0.208616
0.271797
0.220537
0.348687
0.254512
0.174642
0.282526
0.134706
0.233650
0.149608
0.244975
0.452995
0.343919
0.132918
0.370741
0.337958
0.263453
0.223517
0.192523
0.293851
0.293851
0.331998
0.403523
0.233650
0.320673
0.401735
0.256896
0.389814
0.340939
0.461936
0.492930
0.360608
0.394583
0.543594
0.439882
0.365973
0.506639
0.410676
0.433922
0.512600
0.593662
0.761747
0.769496
0.650883
0.628829
0.756979
0.975728
1.057982
1.553893
7.807612
25.453568
78.558922
150.100589
288.378596
417.512655
589.872599
674.433708
699.828863
645.725727
508.489609
378.445983
216.808915
124.715567
50.171614
23.245811
8.000731
5.212426
4.381537
4.259944
4.275441
4.207492
3.946424
4.090667
4.378557
5.193949
6.487966
8.859634
13.747811
##ZVALUE=375
0.202656
0.236630
0.151992
0.247955
0.032783
0.232458
0.187755
0.187755
0.037551
0.233650
0.149608
0.129938
0.073910
0.230670
0.259876
0.255704
0.239611
0.371933
0.158548
0.215769
0.276566
0.056624
0.355840
0.091791
0.174642
0.312924
0.027418
0.185966
0.265837
0.358820
0.285506
0.355840
0.215769
0.254512
0.343919
0.256896
0.261664
0.230670
0.413656
0.336766
0.190735
0.255704
0.206828
0.420809
0.276566
0.354648
0.385642
0.429749
0.315905
0.309944
0.347495
0.425577
0.515580
0.439882
0.374913
0.434518
0.462532
0.451803
0.441670
0.482798
0.540614
0.533462
0.602603
0.623465
0.709891
0.638962
0.763535
0.845790
1.185536
3.642440
12.918711
46.846867
101.224780
223.346949
348.040462
523.510575
628.696680
694.617629
675.423741
561.013818
435.996652
268.170834
170.314908
85.043907
42.690635
14.292002
6.476641
4.404783
4.216433
3.843904
3.881454
3.795624
3.738999
3.626943
3.804564
4.336834
##ZVALUE=380
0.099540
0.150800
0.042915
0.102520
0.028610
0.028610
0.061989
0.183582
0.058413
0.216961
0.289679
0.250936
0.163913
0.197887
0.117421
0.203848
0.217557
0.138879
0.175834
0.177622
0.214577
0.267625
0.028610
0.254512
0.238419
0.136495
0.259876
0.222921
0.315905
0.300407
0.265837
0.271797
0.432730
0.338554
0.375509
0.317693
0.404716
0.384450
0.312924
0.328422
0.316501
0.363588
0.349879
0.411868
0.357628
0.407696
0.350475
0.229478
0.335574
0.294447
0.304580
0.276566
0.269413
0.456572
0.347495
0.417829
0.374913
0.368953
0.332594
0.370741
0.429749
0.362992
0.320673
0.425577
0.523925
0.527501
0.709891
0.885725
0.769496
0.797510
0.999570
1.921654
6.893873
33.746958
77.008605
180.711746
290.603638
453.222990
573.640466
676.674843
684.496760
598.507524
491.130948
332.948565
223.341584
110.404491
58.023930
20.611882
8.975863
4.387498
3.814697
3.737807
3.420711
3.462434
3.377795
3.453493
##ZVALUE=385
-0.174642
-0.036955
-0.108480
-0.034571
-0.020862
-0.238419
-0.098944
-0.133514
-0.051856
-0.053644
-0.017881
-0.021458
-0.054836
-0.128746
0.021458
-0.045896
-0.037551
-0.090599
-0.236630
-0.148416
0.107884
0.044703
0.070930
-0.037551
-0.009537
-0.058413
0.027418
0.161529
0.023842
0.061989
0.080466
0.000000
0.016689
0.055432
0.038743
0.073910
0.074506
0.219941
0.166893
0.187755
0.192523
0.199676
0.140667
0.179410
-0.016689
0.058413
0.117421
0.134706
0.099540
-0.014901
0.090599
0.033975
0.087619
0.103712
0.223517
0.057817
0.256896
0.259876
0.078678
-0.092983
0.204444
0.261664
0.127554
0.115633
0.284910
0.152588
0.194907
0.425577
0.585914
0.434518
0.633597
0.594854
0.791550
0.915527
2.883673
18.035769
47.798753
121.547580
214.496851
382.021666
510.321856
636.253953
672.359467
640.349984
565.334558
414.790511
294.206738
160.548687
90.796947
37.335753
15.155673
4.748702
3.489852
3.068447
3.051758
2.919436
##ZVALUE=390
0.148416
0.082850
0.111461
0.136495
0.136495
0.156760
0.155568
0.173450
0.172853
0.032783
0.218749
0.141859
0.299811
0.176430
0.018477
0.190735
0.235438
0.072718
0.227690
0.279546
0.105500
0.097752
0.141859
0.180602
0.193715
0.148416
0.251532
0.399947
0.421405
0.357628
0.471473
0.438690
0.349879
0.408888
0.285506
0.526905
0.524521
0.514984
0.583529
0.497699
0.375509
0.452995
0.268817
0.456572
0.502467
0.452995
0.368953
0.219941
0.379682
0.305772
0.301600
0.404716
0.558496
0.375509
0.302792
0.415444
0.491738
0.478625
0.415444
0.412464
0.418425
0.418425
0.430942
0.298619
0.371933
0.471473
0.415444
0.588894
0.668764
0.642538
0.617504
0.870824
0.880957
0.733733
0.694990
0.868440
1.925826
7.707477
35.820603
81.768632
190.816522
298.841000
452.193618
563.329458
658.584833
674.957037
605.778694
504.360795
346.628428
233.765841
120.343566
61.250925
22.050738
8.612871
3.834963
3.370643
##ZVALUE=395
0.192523
0.155568
0.090599
0.026822
0.086427
0.097752
0.024438
0.070930
0.045896
0.051856
0.179410
0.061989
0.177622
0.041723
0.126958
0.319481
0.117421
0.177622
0.137687
0.145435
0.071526
0.216961
0.233650
0.151992
0.110865
0.291467
0.343919
0.259876
0.297427
0.473857
0.633597
0.460744
0.665784
0.834465
0.751615
0.648499
0.656843
0.758767
0.630617
0.648499
0.559688
0.522733
0.400543
0.548959
0.475645
0.485778
0.486970
0.443459
0.303984
0.507832
0.556707
0.672936
0.307560
0.461936
0.456572
0.356436
0.270605
0.414848
0.441670
0.347495
0.286698
0.277758
0.439882
0.362992
0.453591
0.480413
0.507832
0.522733
0.545979
0.585914
0.620484
0.778437
0.661612
0.700951
0.797510
0.684857
0.945926
1.050830
1.218915
5.455613
19.606948
67.465901
126.668811
240.905881
358.088017
522.902608
623.355508
683.938861
667.663813
564.242005
442.811847
274.487734
171.039701
74.710846
36.203861
12.141466
##ZVALUE=400
0.365973
0.202656
0.182986
0.227690
0.205636
0.222921
0.065565
0.159740
0.181794
0.215769
0.229478
0.238419
0.238419
0.209808
0.315905
0.275970
0.212789
0.354648
0.392795
0.277758
0.337958
0.172853
0.280738
0.272989
0.357628
0.306964
0.358820
0.356436
0.658631
0.645518
0.696778
0.720620
0.913739
0.679493
0.769496
0.725985
0.892878
0.917912
0.823736
0.936985
0.773668
0.731945
0.652671
0.649691
0.736713
0.656843
0.629425
0.570416
0.590682
0.453591
0.490546
0.386834
0.510812
0.356436
0.512600
0.557899
0.518560
0.523925
0.459552
0.531673
0.629425
0.387430
0.448823
0.546575
0.442863
0.588894
0.660419
0.628829
0.755787
0.730753
0.698566
0.653863
0.698566
0.799894
0.793934
0.702739
0.814795
0.772476
0.811815
0.879765
1.150966
2.815723
10.267496
37.067533
80.552697
180.040002
289.487839
449.631810
557.635427
649.005771
662.463903
581.480861
480.434895
315.656662
208.843946
105.608702
##END
