##TITLE=DDW02
##FORMAT=SPECTACLE-ASCII V-1.2
##DATA TYPE=ULTRAVIOLET SPECTRUM
##SECOND TYPE=ULTRAVIOLET SPECTRUM
##DATE=03/22/18
##TIME=11:55:26
##SPECTROMETER/DATA SYSTEM=SPECTACLE
##XUNITS=NM EM
##YUNITS=ENERGY
##YFACTOR=1
##FIRSTX=220
##LASTX=410
##NPOINTS=96
##3DDATA=Equidistant
##ZUNITS=NM EX
##FIRSTZ=210
##LASTZ=400
##ZPOINTS=39
##XYDATA=(Y..Y)
##ZVALUE=210
17.849803
16.746521
14.513731
10.049939
9.557605
9.866953
8.914471
6.624460
6.023645
5.675554
4.001856
3.024936
2.758503
2.814531
2.682805
2.884865
3.193617
3.253818
3.335476
3.763437
3.825426
3.936887
4.107952
4.468560
4.582405
5.100965
5.411506
5.668998
6.408691
5.982518
6.266832
6.669760
6.515980
7.609725
7.590652
7.245541
8.144975
8.082986
7.760525
8.862615
9.700656
9.786487
9.532571
9.659529
10.401607
9.401441
10.326505
10.699630
10.651946
10.691881
10.699630
10.678768
10.751486
9.678602
9.571910
10.801554
10.176897
9.107590
10.260940
10.011792
9.341836
9.085536
9.816885
10.374784
10.061860
11.137724
11.491776
12.243986
14.587641
15.015602
16.709566
19.007921
22.269487
24.602413
30.165911
29.487610
31.527877
30.403733
31.327605
28.918982
27.512908
23.886561
19.779801
17.729998
14.261603
11.581779
10.129809
11.302829
10.519624
11.740923
12.707710
15.568733
21.997690
26.368499
32.408834
38.032532
##ZVALUE=215
53.054690
52.912831
39.518476
28.415918
21.923780
17.544627
16.373992
13.797879
12.649894
12.610555
11.291504
8.594990
6.094575
5.667806
4.185438
2.881885
3.207922
3.782511
3.262758
3.507733
3.568530
3.822446
4.270673
4.446507
4.536510
5.568862
4.706979
6.118417
5.814433
5.440712
6.454587
7.475615
6.559491
7.239580
8.128881
8.813739
8.450747
8.451939
9.838939
9.284616
8.573532
11.118650
9.906888
10.436773
9.149909
11.508465
9.302497
10.885000
10.455847
10.838509
10.729432
10.778904
10.391474
10.416508
10.678768
10.688901
12.545586
12.742877
11.039972
10.731816
11.393428
10.935664
12.384653
11.668801
10.803938
12.491941
12.655854
12.318492
11.271834
14.962554
16.741753
18.744469
21.433830
22.562742
23.637414
25.878549
26.185513
24.556518
25.340915
22.223592
21.020770
17.091632
17.041564
15.143752
12.964606
10.807514
9.759665
8.314848
9.574890
8.737445
8.056760
7.833838
9.127855
10.752678
13.188720
18.570423
##ZVALUE=220
140.566826
142.678618
135.079622
108.118653
87.270737
61.591864
45.419931
30.239820
27.785897
25.611520
24.220943
21.916628
19.614697
17.817616
12.776852
11.002421
7.672906
5.628467
5.231500
4.949570
5.148649
3.896952
5.313754
5.850792
5.679727
5.656481
6.369948
6.234646
6.721616
7.910728
6.878972
8.767843
8.070469
9.252429
9.982586
11.251569
10.966659
11.232495
11.430979
12.368560
11.769533
13.096929
12.549758
12.417436
13.622642
14.086962
12.011528
12.964606
12.823939
13.598800
13.416409
14.113784
15.107989
13.767481
15.017986
13.879538
13.826489
15.003681
15.064478
14.307499
15.647411
14.360547
15.662909
15.199780
15.194416
15.907884
16.299486
17.520785
17.474890
19.158721
21.825433
24.279952
26.671886
28.355718
28.514862
30.498505
31.114817
29.926896
30.046701
27.839541
26.946664
24.513602
20.876527
18.188953
16.932487
13.899803
13.684630
12.179613
13.324618
11.171699
10.399818
9.526610
10.646582
9.880662
10.415912
11.289716
##ZVALUE=225
241.256952
254.845619
298.821926
314.584970
299.003720
249.846578
206.473470
136.356950
94.918609
67.114830
44.285655
40.436983
39.658546
38.119555
37.444830
31.523705
24.528503
21.330714
16.836524
10.986924
8.929968
7.254481
6.607771
6.184578
7.236600
6.148815
7.519722
8.699894
8.310676
8.520484
8.491874
9.466410
9.607673
11.118650
12.021661
12.674928
12.987852
13.065934
13.656616
16.569495
15.893579
15.548468
16.141534
15.357733
16.141534
16.235709
18.351674
15.774965
17.939806
17.817616
17.981529
20.110607
19.754767
18.559694
19.098520
19.261837
19.530654
20.318627
19.169450
19.931793
19.969940
20.063519
19.309521
19.700527
19.023418
20.217896
20.688772
20.891428
24.058819
24.913549
26.678443
30.823946
31.030774
33.953786
35.122633
34.509897
34.854412
33.531785
30.665994
32.044649
28.682947
26.475787
24.049878
18.304586
17.923713
16.540885
13.887882
13.863444
14.041662
13.470650
12.506843
12.327433
12.550950
12.832880
11.562705
11.835694
##ZVALUE=230
166.493654
179.461837
258.733630
375.463963
446.740985
498.361588
488.444567
430.117846
345.493555
270.409584
157.976747
104.720592
68.201423
56.208968
54.319501
59.086680
59.576631
54.613948
50.228834
38.878918
29.591918
19.897819
16.348958
10.780692
8.905530
8.023977
8.437634
7.531643
8.634925
8.948445
9.430647
10.636449
11.703968
11.089444
11.848807
13.204813
12.244582
13.517737
15.174747
16.063452
16.117692
17.451644
16.504526
18.420815
17.373562
16.906857
19.326806
17.451644
16.557574
19.497871
18.112659
18.321872
19.158721
20.570755
20.778775
20.065904
21.091700
21.876693
22.155643
18.955469
20.269752
20.833611
19.281507
20.000935
20.755529
20.336509
21.014810
21.714568
22.638440
22.466779
24.471879
26.770830
26.552677
28.699636
28.179884
27.907491
26.987791
24.983883
26.634932
22.790432
22.214651
21.724701
17.861724
17.279983
15.971661
15.711784
14.935732
12.955666
12.923479
13.096929
12.509823
11.607409
11.386871
11.646748
11.611581
11.483431
##ZVALUE=235
37.093759
43.944716
89.257956
196.352005
298.702717
429.778695
525.406599
613.250732
634.185672
595.233440
485.478640
373.419523
243.307948
167.468786
109.252930
86.469650
80.126524
80.915689
84.802508
84.654689
79.329610
64.721704
51.251650
35.264492
27.045608
15.312433
12.003779
9.120703
9.008646
8.829832
8.513927
9.237528
9.400845
9.666681
12.415648
12.936592
12.794733
13.263822
14.146566
14.135838
14.986992
15.356541
15.977621
16.391873
16.917586
17.381907
19.043684
17.945766
19.727945
17.777681
19.143820
17.882586
17.949939
18.002987
19.536614
19.873977
18.073916
18.461943
20.146966
19.768476
20.133853
20.221472
18.685460
19.485950
19.626617
19.117594
19.912720
18.209815
20.694733
23.849607
24.607778
23.872852
24.353862
27.448535
24.167895
27.005672
25.096536
24.416447
22.756457
22.314787
22.723675
18.516779
18.433928
16.299486
15.557408
14.750957
15.483499
14.440417
13.725758
12.582541
12.543797
11.806488
11.848807
12.209415
12.013912
12.709498
##ZVALUE=240
2.820492
2.860427
7.677674
33.708811
79.943538
166.593790
268.221498
446.967483
570.689440
703.524947
747.711658
724.508762
624.078512
516.048670
358.699560
254.858732
151.762962
112.672448
92.067719
95.985532
106.362700
108.364820
102.352500
96.760988
74.667931
57.969689
46.181679
29.104948
19.468665
13.307929
11.069775
9.018779
8.448958
10.140538
9.863973
10.949969
13.145804
14.549494
14.533997
15.193820
16.939640
15.803576
16.676784
18.381476
17.750859
17.873645
17.164946
16.853809
17.562509
16.773939
17.130971
17.469525
16.857982
17.687678
16.862750
16.967654
17.439723
17.464757
16.045570
16.934872
16.609430
16.411543
17.145872
16.115904
15.618801
16.436577
18.442869
17.077923
18.158555
20.042658
19.592643
21.623969
21.054745
24.094582
24.302602
24.162531
22.120476
23.827553
20.473599
19.724965
18.637776
18.851757
17.025471
16.165972
16.387701
13.895631
14.567971
13.093948
14.432669
13.935566
14.070868
11.724830
13.730526
11.982918
12.372732
11.554956
##ZVALUE=245
1.674891
1.670718
2.285838
2.218485
6.604791
17.627478
64.389706
134.131908
301.203728
462.829471
711.246729
873.971581
969.997644
1009.047627
929.031968
747.510791
584.245920
369.265676
247.728825
142.081976
104.708672
96.410513
106.231570
112.953782
118.239522
112.818480
99.563003
89.235902
64.535737
51.703453
36.439896
22.224784
16.589761
11.834502
11.954904
12.182593
12.324452
13.787746
14.710426
15.691519
15.845895
15.854836
17.392635
16.796589
17.301440
18.539429
17.869473
17.140508
18.213987
17.142892
16.684532
16.391873
14.667511
16.270876
16.311407
15.624762
16.414523
15.703440
15.420914
14.186502
15.471578
15.064478
15.081763
15.347600
15.379786
15.589595
16.176701
15.379786
16.604662
18.297434
19.932985
20.353794
22.133589
24.114847
25.289655
23.402572
24.985671
22.956729
22.648573
20.474792
20.077825
18.322468
16.799569
15.823841
14.903545
13.527870
12.833476
13.100505
13.537407
11.024475
12.406707
12.562871
12.320876
10.869503
11.262894
11.520982
##ZVALUE=250
1.493692
1.516938
1.819730
1.615882
1.848936
1.759529
3.504753
9.914637
48.446655
116.832852
292.727947
477.393866
689.269900
970.014930
1015.861630
1015.861630
1015.861630
941.372514
757.112503
504.522920
329.626799
205.148458
117.827654
90.407729
95.288754
108.575821
121.204853
125.943422
121.640563
109.267831
97.278953
71.745515
54.103732
34.793615
24.842620
17.510653
16.686916
14.624596
14.620423
15.993714
15.641451
16.153455
16.670823
16.627908
16.731620
16.286969
16.442537
16.813874
16.545653
17.489791
16.340613
16.186833
14.942884
15.102625
15.267730
14.083982
14.038682
13.903975
13.210773
13.901591
13.193488
13.066530
13.612509
12.741685
13.390779
13.287663
13.777614
14.159679
14.750957
15.440583
17.100573
18.464923
18.728971
19.358993
20.530820
18.850565
17.740726
17.423630
16.608834
14.957786
13.800859
14.158487
12.661815
12.582541
12.281537
11.168718
11.024475
9.692907
10.457635
10.292530
10.400414
9.310842
9.479523
9.591579
9.667873
10.117888
##ZVALUE=255
1.273751
1.482964
1.406670
1.702905
1.375675
1.825690
1.865625
1.887679
2.271533
6.748438
37.062764
89.508891
179.199576
374.091864
564.205647
833.128691
998.670459
1015.852690
1015.852690
1015.852690
868.284702
675.948858
419.628620
263.608694
138.727427
96.198916
83.066821
93.137622
110.076666
126.757622
133.060813
127.862692
120.284557
97.872615
79.015493
53.154826
38.410425
26.733875
20.164847
15.988946
14.868975
14.226437
14.744997
15.787482
16.056895
16.329885
15.478730
15.198588
15.479922
15.120506
14.742613
15.008450
14.426708
14.998913
13.886690
13.484955
13.901591
13.919473
12.058616
12.020469
12.143850
12.546778
12.418628
12.799501
12.859702
11.636615
11.615753
12.937784
13.382435
13.512969
13.523698
14.745593
14.984608
15.756488
14.656782
14.796853
15.031695
14.408827
13.262630
12.056828
11.951923
10.348558
10.715723
9.840727
10.041595
9.084940
8.910894
8.687973
8.396506
8.224845
8.465648
7.793903
8.714795
7.919669
8.408427
7.993579
##ZVALUE=260
1.559854
1.364946
1.338720
1.537800
1.125932
1.637936
1.443624
1.725554
1.948476
1.850724
2.130866
3.373623
14.025569
66.796541
140.177608
316.808820
500.067472
779.962540
987.191796
1015.985012
1015.985012
1015.985012
1015.985012
865.468383
558.795929
374.589562
208.330750
127.636790
81.111789
78.926682
89.911819
114.742517
131.008625
144.022703
136.511922
123.247504
105.243921
79.123974
59.731603
40.973425
30.231476
21.006465
17.810464
15.743971
15.308857
15.237927
16.126633
16.471744
15.954971
15.298724
15.641451
15.250444
14.558434
14.252663
15.165806
13.590455
14.145970
14.122725
13.971925
13.356805
13.748407
12.950897
12.515783
12.626648
12.306571
12.398958
12.550950
11.397600
12.071729
12.209415
12.586713
14.046431
13.856888
14.033914
14.874935
13.845563
13.252497
13.249516
12.043715
12.030602
10.377765
8.926988
9.942651
8.969903
8.788705
8.327961
8.233786
7.896423
8.192658
7.816553
7.527471
7.500648
7.777810
7.614493
7.673502
8.070469
##ZVALUE=265
1.097918
0.999570
1.176596
1.113415
1.046658
1.134872
1.119971
1.315475
1.916885
1.517534
1.688600
1.864433
1.621842
2.738833
6.070733
34.689903
89.913011
223.345757
387.898684
697.538853
960.101485
1015.871763
1015.871763
1015.871763
1015.871763
1008.403897
747.452974
516.218543
280.216932
165.144801
105.046630
68.980455
76.607466
100.984573
120.853782
139.632821
144.056678
139.207840
126.200914
103.433728
84.274411
59.808493
44.225454
29.667616
23.085475
17.595887
16.612411
16.317964
15.702844
16.216636
15.317798
15.643835
15.871525
15.697479
15.760660
14.487505
15.355945
14.876723
14.738441
14.007688
14.188886
12.791753
13.614893
13.033748
12.892485
12.656450
13.188720
12.640953
12.692809
12.567639
12.889504
12.703538
12.843609
13.540983
12.605786
12.743473
11.873841
11.947751
10.869503
10.238886
9.131432
9.143949
8.675456
7.925630
8.051991
7.874966
7.867813
7.418990
7.084608
7.344484
7.353425
6.896853
7.068515
7.432699
7.391572
7.530451
##ZVALUE=270
0.847578
0.952482
0.867844
1.101494
1.190901
1.208782
1.185536
1.120567
1.083612
1.227856
1.345873
1.458526
1.570582
1.581907
1.937747
2.322793
2.949834
13.945699
45.571923
150.708556
289.237499
502.874851
854.209661
1015.861630
1015.861630
1015.861630
1015.861630
1015.861630
945.826769
706.259608
425.822735
258.045793
124.603510
75.912476
62.858462
77.693462
103.739500
121.612549
138.176680
147.753954
140.617490
128.672719
104.561448
86.130500
60.402751
45.040846
31.587481
24.958849
19.187927
17.305613
16.540885
16.615987
16.392469
16.699433
16.388893
15.499592
15.893579
15.867949
15.785694
15.554428
14.894605
15.443563
14.077425
13.718605
13.485551
13.145804
13.235807
12.482405
12.700558
13.095737
13.544559
13.109446
12.991428
13.652444
12.766719
12.818575
11.978745
11.032820
10.500550
9.934902
9.241700
8.844733
8.309484
7.876754
7.966757
7.519722
7.441640
7.749796
7.495880
7.008910
7.389784
7.232428
6.969571
7.036924
7.900596
7.238984
##ZVALUE=275
1.216531
1.136661
1.090765
0.968575
1.081824
1.145601
1.107454
1.110435
1.325607
1.341701
1.351833
1.404881
1.530647
1.539588
1.667738
1.544952
2.016425
2.164841
2.378821
6.385446
26.580691
77.723861
231.877565
425.172448
775.067806
1009.698510
1015.972495
1015.972495
1015.972495
1015.972495
1015.972495
891.339779
624.462962
327.993631
190.295577
84.467530
55.874586
59.530735
77.598691
101.715922
120.079517
138.995647
144.595504
139.939785
128.629804
105.229616
85.443854
63.493848
46.165586
32.271743
26.261806
20.694733
18.571615
17.545819
17.276406
16.089678
16.128421
16.530752
15.955567
15.158653
16.116500
15.407801
14.410615
14.786720
14.019608
13.899803
13.561845
13.816953
12.978911
13.436675
13.358593
12.978911
12.726784
13.271570
13.136864
12.084842
11.609793
11.405945
10.618567
10.079741
9.858608
8.721948
8.530617
8.204579
7.806420
7.365942
7.825494
7.623434
7.226467
7.081628
7.118583
7.513762
7.220507
7.715821
7.223487
7.465482
##ZVALUE=280
0.982881
0.872612
0.789762
1.044869
0.860691
1.017451
1.046658
1.094937
1.061559
1.041889
0.994802
1.138449
1.209974
1.210570
1.437664
1.509786
1.500845
1.624823
1.919866
1.885891
2.383590
3.603697
14.719963
69.751740
163.887739
378.559828
599.727631
953.583717
1015.861630
1015.861630
1015.861630
1015.861630
1015.861630
990.394950
748.666525
428.564548
251.043439
109.813809
60.137510
44.769645
55.363774
80.328584
100.540519
123.309493
135.188699
141.584873
137.779713
121.160746
105.288625
80.302954
62.873960
44.111609
33.193827
23.745894
19.813776
17.269850
15.964508
15.497804
15.196800
15.852451
15.357733
14.816523
14.318824
14.620423
14.245510
13.167858
12.790561
12.517571
12.937784
12.497902
13.181567
12.592673
12.764931
12.074709
12.040734
11.395812
11.123419
10.615587
10.243654
9.697676
9.388924
8.228421
8.159876
7.981658
7.890463
7.384419
7.458925
6.803870
7.354617
7.265806
7.206798
7.193685
7.343888
7.512569
6.926656
7.890463
##ZVALUE=285
0.766516
0.762939
0.805855
0.981688
0.969768
0.869632
0.942945
0.853539
0.809431
0.810623
1.167655
1.000762
1.047850
1.051426
1.293421
1.335740
1.269579
1.286864
1.440644
1.708865
1.809597
1.891851
2.081990
2.505779
8.238554
29.176474
102.695823
212.080479
449.741483
705.474019
977.890491
1015.864611
1015.864611
1015.864611
1015.864611
1015.864611
944.148898
588.308573
368.835926
171.881914
88.695884
40.776730
36.955476
51.470995
69.985986
96.440911
113.574862
131.828785
137.605667
134.404898
123.860836
102.966428
86.783767
61.326623
46.738982
30.631423
22.763610
16.479492
15.549660
14.186502
13.727546
13.252497
13.266802
12.796521
12.529492
12.389421
12.218952
12.118816
11.871457
12.081861
11.548996
12.312531
11.512637
11.148453
10.699630
10.596514
9.989738
9.786487
9.406805
8.657575
8.475780
7.863641
8.066893
7.600784
7.578731
7.053614
6.956458
7.584691
7.148981
6.988645
6.983876
6.963611
6.515980
7.011890
6.876588
7.155538
##ZVALUE=290
0.639558
0.791550
0.857711
0.839829
0.673532
0.824928
0.982881
0.944734
0.825524
0.899434
0.974536
0.971556
0.806451
0.820756
1.042485
1.027584
1.091957
1.201630
1.216531
1.246929
1.353621
1.364946
1.953840
1.719594
2.133846
2.574921
3.955960
12.070537
57.033896
138.213634
268.476605
562.435985
852.777958
1015.861630
1015.861630
1015.861630
1015.861630
1015.861630
1015.861630
744.499564
488.532782
241.473913
126.807690
49.839616
30.282736
34.733415
46.556592
67.904592
85.007548
108.801723
124.277472
133.033991
130.699873
117.348433
101.378560
77.121854
59.230924
40.886998
28.929710
19.445419
15.636683
12.723804
11.924505
10.686517
10.934472
10.435581
10.500550
10.489821
10.119677
10.273457
10.473728
10.267496
10.565519
10.038614
10.080934
9.455681
9.686947
8.749962
8.612871
8.133650
7.909536
7.452965
6.784797
7.104874
7.056594
6.641746
7.079840
6.735921
6.685853
6.626844
6.548762
6.120801
6.667972
6.580949
6.437898
6.739497
##ZVALUE=295
0.788569
0.726581
0.758767
0.720620
0.719428
0.753999
0.906587
0.815988
0.857711
0.860691
0.926852
0.899434
0.776649
0.899434
0.852942
0.917912
0.988841
0.938773
1.219511
1.165867
1.265407
1.328588
1.276731
1.604557
1.655817
1.704693
1.828671
2.197623
2.489686
5.053878
19.480586
84.551573
193.530917
444.651842
709.959865
1015.861630
1015.861630
1015.861630
1015.861630
1015.861630
1015.861630
917.328596
636.027455
333.750844
178.247690
66.410899
32.529831
22.951961
28.443933
43.503642
59.429407
83.244443
98.583698
116.806626
123.638511
121.471882
110.971928
91.403723
74.733496
52.963495
39.200783
25.089979
18.027425
12.708902
10.364652
8.857846
8.879900
8.528829
8.181930
8.530617
8.609891
8.521676
8.558631
8.314848
8.633733
8.105636
7.988811
7.843971
7.233620
6.769896
7.034540
6.636977
6.366968
6.388426
6.396770
6.478429
6.404519
6.412864
6.068945
6.205440
6.117821
5.994439
6.118417
6.412864
6.258488
6.354451
##ZVALUE=300
0.619888
0.619888
0.687838
0.795722
0.623465
0.847578
0.722408
0.807643
0.710487
0.963807
0.844598
0.735521
0.770688
0.863671
0.825524
0.891685
0.857711
1.111627
1.084805
1.244545
1.091957
1.128912
1.222491
1.218915
1.303554
1.494884
1.649857
1.767874
1.822710
2.370477
2.300739
2.888441
12.583733
44.779778
148.729682
292.280912
591.102839
889.306664
1015.861630
1015.861630
1015.861630
1015.861630
1015.861630
1015.861630
769.531727
497.710705
246.589780
130.808949
47.611594
22.027493
19.030571
25.187731
38.854480
52.388906
73.293447
90.566874
108.937621
114.893913
114.890933
106.503963
89.513659
73.068738
52.398443
38.212538
23.229718
16.522408
10.516644
8.776784
7.532835
7.369518
7.122755
7.020831
7.182956
7.175803
6.885529
7.065535
6.755590
6.784797
6.264448
5.822778
6.058812
6.073713
6.105900
5.825758
5.957484
5.925894
6.161928
5.908608
6.125569
5.655885
5.994439
5.893707
6.065965
5.882978
5.800724
5.627871
##ZVALUE=305
0.576973
0.787973
0.642538
0.622869
0.688434
0.630617
0.658631
0.652671
0.647902
0.559688
0.632405
0.672936
0.662804
0.731945
0.747442
0.824928
0.686646
1.007915
0.888705
0.797510
0.819564
1.005530
1.181960
1.145601
1.271963
1.273751
1.399517
1.281500
1.465678
1.603961
1.786947
1.856685
2.096891
2.640486
4.859567
29.204488
82.875490
235.807896
422.389507
768.589973
1015.802026
1015.802026
1015.802026
1015.802026
1015.802026
1015.802026
960.800648
590.305924
367.133617
165.406466
78.693628
26.306510
15.030503
16.478896
22.450686
36.676526
50.475001
70.474744
85.573792
100.629926
107.424855
107.105970
100.006461
83.174706
68.243742
47.867894
34.711957
22.100806
15.190840
9.831786
7.975698
7.031560
6.359816
6.174445
6.380677
6.028414
5.927682
5.914569
5.839467
5.378723
5.539656
5.709529
5.362630
5.416870
5.740523
5.295873
5.271435
5.559921
5.524755
5.243421
5.347729
5.145669
5.426407
5.375743
5.268455
5.130768
##ZVALUE=310
0.568628
0.638962
0.635982
0.617504
0.722408
0.518560
0.592470
0.649691
0.812411
0.754595
0.740886
0.803471
0.821948
0.691414
0.671744
0.819564
0.890493
0.773668
0.717640
0.970960
0.841618
0.969768
0.855923
1.039505
0.963807
1.094937
1.156926
1.142621
1.264811
1.373887
1.524687
1.641512
1.717806
1.683831
2.137423
2.161860
3.330708
9.934902
51.292777
124.634504
311.985016
537.885427
924.704671
1015.861630
1015.861630
1015.861630
1015.861630
1015.861630
1015.861630
851.816535
477.215648
283.228755
119.287968
53.017735
17.545819
11.807680
14.835596
19.864440
31.263828
42.912960
61.821938
75.544715
93.087554
100.624561
102.311969
95.659494
81.608891
67.032576
46.853423
33.902526
21.388531
15.021563
10.250807
7.826686
6.431937
5.974770
5.541444
5.495548
5.027652
4.905462
4.471540
4.929900
4.984736
5.054474
4.930496
5.352497
4.918575
5.167723
4.878640
5.061626
5.387664
5.258918
5.063415
5.094409
5.045533
5.058646
##ZVALUE=315
0.441670
0.659823
0.755787
0.669956
0.736713
0.582933
0.653863
0.549555
0.736713
0.801682
0.858903
0.634789
0.820756
0.853539
0.715852
0.725985
0.693798
0.865459
0.687838
0.869632
0.836849
0.758767
0.825524
0.956655
0.884533
0.995994
1.119971
1.088977
1.193881
1.468658
1.368523
1.392961
1.537800
1.462698
1.589656
1.599789
1.876950
2.181530
2.600551
5.737543
22.446513
92.021823
202.523470
457.449555
739.755630
1015.861630
1015.861630
1015.861630
1015.861630
1015.861630
1015.861630
951.106548
663.665533
348.719954
187.811852
67.625642
27.069449
11.408925
10.328889
13.298988
18.033981
29.040575
39.837956
57.031512
70.779920
86.605549
94.189644
96.350908
89.229941
76.967478
63.384771
45.172572
32.925606
20.537972
14.191866
8.952618
6.797910
5.487800
5.082488
5.044937
4.812479
4.696846
4.346967
4.409552
4.653931
4.641414
4.807711
4.793406
4.924536
4.707575
4.729629
4.909635
4.719496
4.768968
4.921556
4.917979
##ZVALUE=320
0.697970
0.560880
0.621676
0.484586
0.695586
0.690818
0.592470
0.581741
0.615716
0.809431
0.652671
0.694990
0.819564
0.732541
0.854731
0.560880
0.680685
0.770688
0.672936
0.598431
0.755787
0.714660
0.800490
0.980496
0.910759
1.002550
0.920892
1.052618
0.979900
0.963807
1.158714
1.028776
1.057982
1.241565
1.349449
1.521707
1.467466
1.716614
1.853704
2.074838
2.255440
2.934933
10.094643
54.363608
134.669542
341.835618
567.739010
949.468613
1015.857458
1015.857458
1015.857458
1015.857458
1015.857458
1015.857458
837.675929
464.331508
259.647965
103.742480
46.404600
14.846921
9.734631
9.238720
10.927916
16.828775
23.880601
38.255453
50.984621
67.225695
79.521537
89.457631
90.798736
84.591508
74.643493
57.602525
44.705868
30.737519
21.246672
12.920499
9.003878
6.005764
5.203485
4.391670
4.402995
4.192591
4.371405
4.463792
4.203916
4.275441
4.346967
4.342794
4.605651
4.595518
4.521608
4.567504
4.609823
4.782677
##ZVALUE=325
0.323653
0.309944
0.293851
0.383854
0.384450
0.437498
0.571609
0.448823
0.493526
0.482798
0.620484
0.550747
0.585914
0.388622
0.410676
0.497699
0.539422
0.616908
0.657439
0.561476
0.501871
0.573993
0.628829
0.684857
0.763535
0.719428
0.714660
0.510812
0.706911
0.744462
0.740886
0.944734
0.919700
1.036525
1.102686
1.084805
1.167655
1.188517
1.274943
1.458526
1.487732
1.897812
1.936555
2.204776
4.892945
32.525659
86.908937
234.954953
422.498584
789.280534
1015.691757
1015.691757
1015.691757
1015.691757
1015.691757
1015.691757
953.150392
576.065779
346.724391
150.109529
70.053935
20.986795
10.214448
7.609725
8.500814
11.140704
14.498830
22.889972
34.559965
51.134825
63.173771
76.013803
83.529949
84.511638
79.254508
66.449642
54.898858
39.577484
28.417706
17.380714
11.800528
7.017851
5.557537
4.932880
4.474521
4.191995
4.117489
4.032850
3.926754
4.106760
4.059672
4.090667
4.242659
4.042983
4.036427
4.310608
##ZVALUE=330
0.535846
0.447631
0.516772
0.480413
0.625849
0.704527
0.608563
0.586510
0.470877
0.457764
0.667572
0.629425
0.848770
0.528693
0.688434
0.660419
0.737906
0.721812
0.711679
0.617504
0.712872
0.626445
0.761747
0.892878
0.848770
0.588894
0.830889
0.968575
0.891685
0.777841
0.791550
0.960827
0.951886
1.123548
1.126528
0.992417
1.128912
1.275539
1.323819
1.388788
1.536608
1.553893
1.661777
1.824498
1.993775
2.252460
2.869964
13.914704
46.031475
155.828595
301.515460
613.709688
906.711817
1015.861630
1015.861630
1015.861630
1015.861630
1015.861630
1015.861630
716.531873
461.045504
213.445425
106.948614
34.795403
13.969541
7.475615
7.209778
8.012652
9.632707
15.439987
22.461414
33.523440
44.854879
60.918927
71.609616
78.359842
79.807639
73.554516
64.494610
49.771667
38.410425
24.639964
18.053651
11.702776
8.598566
5.978942
5.079508
4.448891
4.366636
4.359484
4.260540
4.245639
4.214644
4.245639
4.537702
4.278421
##ZVALUE=335
0.515580
0.587702
0.628829
0.587702
0.505447
0.523925
0.528693
0.641942
0.564456
0.511408
0.796914
0.693798
0.611544
0.446439
0.555515
0.704527
0.650883
0.597835
0.574589
0.511408
0.744462
0.777841
0.835657
0.884533
0.707507
0.784993
0.710487
0.692606
0.795722
0.744462
0.913739
0.816584
0.814795
0.875592
0.809431
0.876784
1.084805
1.147985
1.190901
1.238585
1.114607
1.307726
1.484752
1.568794
1.456738
1.727939
1.867414
1.876950
2.395511
6.250739
23.587942
97.788572
210.247040
470.305681
757.078528
1015.861630
1015.861630
1015.861630
1015.861630
1015.861630
1015.861630
856.801867
576.677918
296.919942
156.207681
54.699779
20.046830
8.019805
7.018447
6.763935
7.390976
9.892583
13.427734
21.550655
30.170679
43.962598
54.933429
66.710711
71.873665
73.048472
69.643855
58.624744
48.571825
35.840869
27.284622
17.838478
12.566447
8.191466
6.257892
4.830956
4.381537
4.278421
4.256964
4.258752
4.344583
4.466772
##ZVALUE=340
0.628829
0.614524
0.551939
0.574589
0.501871
0.568628
0.496507
0.570416
0.486970
0.633597
0.674725
0.513792
0.582933
0.539422
0.518560
0.483990
0.633597
0.550747
0.470877
0.692606
0.803471
0.689626
0.605583
0.599623
0.498891
0.658631
0.702739
0.599623
0.727773
0.793934
0.772476
0.787973
0.900626
0.938773
0.906587
1.035929
0.928640
1.053810
1.080632
1.094937
1.082420
1.216531
1.081824
1.242757
1.326799
1.520514
1.549721
1.700521
1.897812
2.050996
2.163649
2.842546
15.435815
50.214529
163.479447
325.838923
665.943623
959.056616
1015.861630
1015.861630
1015.861630
1015.861630
1015.861630
1015.861630
667.361021
413.879752
187.418461
88.188648
23.795962
9.747744
7.148981
6.896853
6.941557
7.162690
9.323955
12.630820
20.057559
28.440952
41.254759
51.412582
62.887669
68.236589
69.495440
64.794421
56.220889
47.951937
35.334826
27.033687
17.719865
12.736917
8.336902
6.333590
5.006790
4.611611
4.373789
4.565716
##ZVALUE=345
0.544786
0.501871
0.484586
0.481606
0.497699
0.414848
0.479817
0.584722
0.476837
0.636578
0.535846
0.487566
0.546575
0.461936
0.581741
0.492930
0.551939
0.489950
0.625849
0.514984
0.652671
0.725985
0.764728
0.806451
0.706911
0.695586
0.648499
0.771880
0.660419
0.686646
0.881553
0.542998
0.663996
0.811815
0.873804
0.892878
0.974536
1.032948
0.955462
1.008511
0.995994
0.959635
1.049638
1.170635
1.256466
1.215935
1.214743
1.508594
1.480579
1.495481
1.592636
1.970530
1.916885
2.427697
5.066991
32.353401
92.287660
252.856612
451.596975
816.082954
1015.861630
1015.861630
1015.861630
1015.861630
1015.861630
1015.861630
857.797861
502.438545
280.359983
108.075738
46.545863
14.764667
7.791519
6.819963
6.341934
5.894899
6.195903
8.086562
10.971427
18.223524
25.944710
38.169622
47.140718
55.884719
62.236786
64.013600
61.568618
54.749846
46.602488
36.012530
27.151704
17.662644
12.910962
8.470416
6.612539
5.275607
##ZVALUE=350
0.404716
0.357628
0.332594
0.287890
0.288486
0.298619
0.410676
0.326633
0.478625
0.446439
0.366569
0.421405
0.586510
0.520945
0.512600
0.591874
0.483990
0.449419
0.562668
0.547767
0.613928
0.446439
0.438690
0.439882
0.530481
0.566840
0.688434
0.620484
0.830889
0.672936
0.593662
0.726581
0.628829
0.689626
0.672936
0.725985
0.773668
0.728965
0.764728
0.910759
0.713468
0.789762
0.784993
0.814795
0.992417
1.123548
1.066923
0.967979
1.098514
1.388788
1.327991
1.478791
1.519918
1.656413
1.904964
2.100468
3.026724
15.935898
53.225756
169.790387
327.427983
653.345585
947.745442
1015.757918
1015.757918
1015.757918
1015.757918
1015.757918
973.518491
581.550598
355.120897
161.963701
72.360635
19.830465
8.635521
6.445646
5.806684
5.547404
5.233884
5.670786
7.410645
10.896921
15.454888
23.008585
30.575991
41.632652
49.207807
55.882931
57.335496
56.423545
52.161813
42.629838
35.100579
24.761558
18.476844
12.794733
##ZVALUE=355
0.491738
0.529885
0.609756
0.462532
0.676513
0.600815
0.420809
0.656843
0.398755
0.558496
0.524521
0.656843
0.453591
0.775456
0.641942
0.656843
0.701547
0.684857
0.493526
0.538826
0.686646
0.656843
0.761747
0.702739
0.614524
0.688434
0.803471
0.761747
0.682473
0.667572
0.693798
0.776649
0.769496
0.738502
0.758767
0.838637
0.769496
0.821948
0.880957
0.866652
1.023412
0.995994
0.979900
1.008511
0.827909
0.794530
0.952482
1.216531
1.269579
1.136661
1.317859
1.307726
1.452565
1.564622
1.470447
1.889467
1.959801
1.997948
2.423525
7.861853
28.406978
113.188624
234.759450
495.890975
779.682994
1015.861630
1015.861630
1015.861630
1015.861630
1015.861630
1015.861630
730.964541
459.615588
202.059746
95.114708
28.158426
10.801554
6.492734
5.832911
5.235672
4.949570
5.038977
5.277991
6.688833
8.975863
13.782978
19.640923
28.439760
35.683513
44.472814
49.755573
54.068565
52.905679
46.918988
41.698813
33.235550
##ZVALUE=360
0.485778
0.536442
0.418425
0.484586
0.437498
0.520945
0.450611
0.335574
0.595450
0.597835
0.434518
0.454783
0.493526
0.463724
0.504851
0.390410
0.449419
0.621676
0.609756
0.765920
0.670552
0.657439
0.458956
0.701547
0.512600
0.555515
0.680685
0.750422
0.544786
0.613928
0.717640
0.686646
0.599623
0.715852
0.626445
0.762939
0.773668
0.752807
0.791550
0.831485
0.793934
0.806451
0.957847
0.884533
0.698566
0.943542
1.041889
0.877976
1.062751
1.159906
1.039505
1.182556
1.270771
1.371503
1.463890
1.406670
1.527667
1.667738
1.804829
1.971722
2.475977
3.280640
14.679432
49.725771
166.736841
321.329832
637.802482
938.062668
1015.792489
1015.792489
1015.792489
1015.792489
1015.792489
903.930664
538.372993
316.470861
134.417415
56.287646
14.887452
7.127523
5.649924
5.333424
5.145669
4.703999
4.704595
4.611611
5.973577
7.480979
11.550784
15.835762
23.858547
30.713677
39.508939
44.709444
48.143864
48.629642
##ZVALUE=365
0.549555
0.452995
0.674725
0.557899
0.617504
0.628829
0.574589
0.662804
0.540614
0.560880
0.655651
0.745654
0.591874
0.581741
0.664592
0.658631
0.627637
0.491738
0.440478
0.606775
0.715852
0.619888
0.553727
0.505447
0.607967
0.593662
0.559688
0.527501
0.707507
0.626445
0.660419
0.759959
0.625849
0.550747
0.699759
0.680685
0.803471
0.730753
0.724792
0.787973
0.828505
0.833869
0.959635
0.903606
0.966787
0.965595
0.905991
1.054406
1.072884
0.938773
1.072884
1.145601
1.174808
1.278520
1.280904
1.313686
1.356602
1.503825
1.556873
1.875758
1.972914
1.977682
2.386570
2.968907
5.584955
32.998919
91.322660
245.409608
451.944470
824.088454
1015.825868
1015.825868
1015.825868
1015.825868
1015.825868
972.242951
693.336725
377.507806
202.017426
70.559978
26.663542
8.100867
5.672574
5.113482
5.116463
4.712939
4.469752
4.269481
4.581809
5.090833
6.485581
9.849668
13.853908
20.552874
26.808977
34.338832
##ZVALUE=370
0.490546
0.464916
0.435710
0.528693
0.445843
0.622869
0.533462
0.546575
0.429749
0.593662
0.772476
0.488758
0.566840
0.638962
0.690818
0.503659
0.625849
0.593662
0.633597
0.499487
0.442863
0.573993
0.552535
0.617504
0.607967
0.724792
0.674725
0.766516
0.714660
0.616908
0.611544
0.690818
0.614524
0.655651
0.598431
0.868440
0.710487
0.818968
0.676513
0.714660
0.767708
0.742674
0.871420
0.754595
0.834465
0.756979
0.875592
0.837445
0.944734
0.942945
1.048446
1.095533
0.951886
0.978708
1.217723
1.328588
1.123548
1.170635
1.278520
1.508594
1.352429
1.499653
1.680851
1.938939
2.308488
2.463460
3.457665
16.526580
56.453943
185.377002
349.097848
656.456947
956.905484
1015.844941
1015.844941
1015.844941
1015.844941
1015.844941
833.072662
463.925004
259.235501
99.600554
43.856502
13.552904
6.509423
5.173683
4.699826
4.545450
4.472733
4.221797
4.126430
4.256964
4.855990
6.093979
8.385777
12.525916
##ZVALUE=375
0.567436
0.439882
0.399947
0.569820
0.519753
0.603795
0.444651
0.497699
0.482798
0.570416
0.453591
0.596642
0.469685
0.479817
0.672936
0.514984
0.593662
0.544786
0.507832
0.549555
0.602603
0.589490
0.543594
0.527501
0.540614
0.793934
0.706911
0.584722
0.488758
0.741482
0.691414
0.699759
0.617504
0.666976
0.656843
0.706911
0.742674
0.629425
0.648499
0.878572
0.826716
0.717640
0.754595
0.768900
0.774860
0.672936
0.803471
0.770688
0.531673
0.862479
0.948906
1.040697
0.882745
1.022816
0.885725
0.871420
0.930429
0.986457
1.149774
1.135468
1.074672
1.144409
1.372695
1.386404
1.716614
1.737475
1.906753
2.287626
2.628565
8.232594
30.155778
109.992623
241.043568
537.250638
824.407935
1015.861630
1015.861630
1015.861630
1015.861630
1015.861630
986.282825
612.617731
384.758711
183.692575
88.758469
25.926828
9.880662
5.283952
4.657507
4.346967
4.440546
4.199743
3.920794
3.929734
3.975630
4.353523
##ZVALUE=380
0.404716
0.480413
0.573993
0.557899
0.510812
0.531673
0.469685
0.506639
0.442863
0.329614
0.596642
0.453591
0.463724
0.541806
0.588894
0.509620
0.562668
0.538826
0.756979
0.561476
0.517964
0.441670
0.594854
0.523925
0.526905
0.705719
0.606775
0.602603
0.694990
0.527501
0.667572
0.693798
0.666976
0.645518
0.582933
0.612736
0.857711
0.578761
0.704527
0.688434
0.775456
0.600815
0.670552
0.629425
0.723600
0.690818
0.872612
0.730753
0.764728
0.694990
0.781417
0.919700
0.852942
0.899434
0.881553
0.738502
0.827909
0.782609
0.875592
1.077652
1.004934
1.056790
1.193881
1.263618
1.176596
1.308918
1.525879
1.907945
1.971722
2.236962
2.738833
4.596710
16.456842
79.194903
184.671879
436.112881
698.238611
1015.861630
1015.861630
1015.861630
1015.861630
1015.861630
1015.861630
810.046792
540.762544
259.696841
130.959749
43.948889
16.351938
6.148815
4.685521
4.179478
4.204512
4.080534
4.120469
3.888607
##ZVALUE=385
0.449419
0.360608
0.404716
0.237823
0.390410
0.378489
0.681877
0.421405
0.498891
0.423789
0.489950
0.429749
0.446439
0.553727
0.419617
0.536442
0.464916
0.590682
0.443459
0.319481
0.395775
0.382662
0.390410
0.555515
0.660419
0.526905
0.481606
0.592470
0.504851
0.576973
0.581741
0.522733
0.727773
0.604987
0.502467
0.574589
0.550747
0.771880
0.640750
0.644922
0.636578
0.847578
0.840425
0.819564
0.742674
0.723600
0.775456
0.688434
0.726581
0.861883
0.867844
0.859499
0.801682
0.787973
0.788569
0.864863
0.915527
0.867844
0.891685
1.014471
1.013875
0.947714
0.960827
1.060963
1.188517
1.302958
1.264811
1.450777
1.673698
1.999736
1.988411
2.164841
2.573729
2.977848
7.626414
44.209957
116.235614
298.452973
534.619689
937.559605
1015.861630
1015.861630
1015.861630
1015.861630
1015.861630
988.825560
714.950562
386.032462
216.329694
84.688663
31.984448
8.130670
5.082488
4.567504
4.175901
4.154444
##ZVALUE=390
0.450611
0.515580
0.334978
0.622869
0.501871
0.549555
0.480413
0.396967
0.476837
0.479817
0.489950
0.466704
0.565648
0.358820
0.452995
0.297427
0.378489
0.520945
0.532866
0.580549
0.464916
0.488758
0.457764
0.515580
0.444651
0.526905
0.514984
0.610948
0.628829
0.558496
0.502467
0.636578
0.675917
0.573993
0.526905
0.692606
0.645518
0.858903
0.711679
0.691414
0.707507
0.737906
0.727773
0.702739
0.752807
0.731945
0.868440
0.673532
0.987649
0.781417
0.782609
0.954866
0.849962
0.895858
0.884533
0.796914
0.954866
0.960827
0.927448
0.953674
1.029968
0.971556
1.067519
1.122952
0.919700
1.112819
1.313686
1.378655
1.568794
1.575947
1.833439
1.945496
2.008677
2.029538
2.166629
2.304912
4.581809
18.440485
85.967779
199.180841
466.476679
732.318759
1015.861630
1015.861630
1015.861630
1015.861630
1015.861630
1015.861630
845.417976
568.406582
286.417603
145.047903
47.464967
16.780496
5.736947
4.548430
##ZVALUE=395
0.435710
0.576973
0.519753
0.478625
0.302792
0.435710
0.254512
0.351667
0.418425
0.373721
0.563860
0.387430
0.341535
0.508428
0.590682
0.387430
0.504851
0.315905
0.561476
0.495911
0.359416
0.422597
0.595450
0.452995
0.539422
0.491738
0.487566
0.640750
0.504851
0.619888
0.620484
0.610948
0.696778
0.475645
0.607967
0.657439
0.628829
0.710487
0.744462
0.803471
0.800490
0.654459
0.642538
0.666976
0.613928
0.888705
0.739694
0.768900
0.665784
0.800490
0.754595
0.884533
0.713468
0.855923
0.947714
0.886917
0.865459
0.791550
0.866652
0.789762
0.982881
1.008511
0.978708
0.993609
1.041889
1.140833
1.202822
1.350641
1.394749
1.483560
1.583695
1.735687
1.789927
1.757741
1.720786
1.929998
2.076626
2.158880
2.973676
13.297796
47.714710
165.184736
312.421918
603.131652
891.839862
1015.861630
1015.861630
1015.861630
1015.861630
1015.861630
1015.861630
667.567849
411.430001
176.057816
81.106424
24.651885
##ZVALUE=400
0.612736
0.524521
0.517964
0.463724
0.394583
0.394583
0.403523
0.422597
0.401735
0.556707
0.465512
0.566840
0.523925
0.520945
0.452995
0.345707
0.515580
0.445843
0.562668
0.454783
0.416636
0.484586
0.523925
0.437498
0.282526
0.513792
0.561476
0.532866
0.582933
0.509620
0.277758
0.602603
0.574589
0.638962
0.435710
0.587702
0.758767
0.882745
0.772476
0.595450
0.736713
0.833869
0.782609
0.838637
0.928640
0.939965
0.796914
0.860691
0.833869
0.824928
0.772476
0.776649
0.802875
1.075864
0.928640
0.868440
0.829697
0.810623
0.760555
0.866652
0.827909
0.909567
0.939965
0.901818
0.929832
1.180768
1.188517
1.310706
1.440644
1.564622
1.589656
1.639724
1.571774
1.695752
1.525879
1.543760
1.569986
1.715422
2.004504
2.112985
2.512932
6.698966
24.286509
93.337893
204.181671
459.682941
729.973912
1015.871763
1015.871763
1015.871763
1015.871763
1015.871763
1015.871763
783.900619
514.356494
255.675912
##END
