##TITLE=DDW01
##FORMAT=SPECTACLE-ASCII V-1.2
##DATA TYPE=ULTRAVIOLET SPECTRUM
##SECOND TYPE=ULTRAVIOLET SPECTRUM
##DATE=03/22/18
##TIME=11:50:29
##SPECTROMETER/DATA SYSTEM=SPECTACLE
##XUNITS=NM EM
##YUNITS=ENERGY
##YFACTOR=1
##FIRSTX=220
##LASTX=410
##NPOINTS=96
##3DDATA=Equidistant
##ZUNITS=NM EX
##FIRSTZ=210
##LASTZ=400
##ZPOINTS=39
##XYDATA=(Y..Y)
##ZVALUE=210
10.327697
11.307597
10.097623
8.816719
7.284880
8.241534
5.760789
6.318688
4.741549
4.004836
2.770424
2.263784
1.930594
2.340674
2.208948
1.994967
2.063513
2.638698
2.260804
2.147555
2.512932
2.628565
2.923608
3.160834
2.556443
3.854632
3.051758
3.320575
3.690720
3.932714
4.469752
4.136562
4.574656
5.997419
5.408525
5.707741
5.917549
7.244945
6.297827
6.804466
7.007718
6.666780
6.857514
7.226467
6.828904
8.173585
8.114576
7.153749
7.270575
7.204413
7.833838
7.663965
7.658601
7.184744
7.420778
7.558465
7.060766
7.161498
8.061528
6.759763
7.298589
6.840825
7.766485
7.924438
7.309914
8.399487
8.292794
8.092523
9.696484
11.274815
11.394620
14.162660
14.670491
18.311739
17.726421
17.828941
18.123984
19.279718
17.629862
17.474890
15.994906
15.035868
14.371872
11.253953
10.024905
8.854866
7.048845
7.541776
7.695556
8.776784
9.866953
13.972521
15.614629
20.614862
23.872852
30.181408
##ZVALUE=215
35.482645
34.704804
30.910969
20.181537
16.773939
12.412667
12.248755
11.375546
10.556579
11.008978
8.377433
6.080866
4.027486
3.463626
3.175735
2.740622
2.180934
2.372861
2.622604
2.398491
2.679825
3.304482
2.778769
2.792478
3.787875
3.456473
3.545880
3.599524
4.157424
5.083680
5.638599
5.605817
5.597472
6.681681
5.983710
7.637739
7.143617
7.945895
7.565618
8.698702
7.988811
8.196831
7.287860
7.997751
8.126497
8.481741
8.441806
8.128881
7.953644
7.646680
8.504987
8.529425
9.148717
7.604957
9.441972
7.894635
8.889437
7.971525
8.202791
8.056760
9.051561
9.133816
8.261800
8.781552
9.270906
7.964969
8.746982
9.150505
9.673834
10.360479
12.575984
12.953877
15.498996
16.634464
17.091632
18.256903
17.606616
17.473698
15.957952
14.219880
14.255643
15.200973
12.772679
10.843873
9.797812
8.273721
8.049607
7.513762
6.838441
5.986691
6.536841
6.430745
6.955862
7.600784
10.469556
12.969971
##ZVALUE=220
93.888640
90.368986
88.866949
70.595741
58.099627
42.279959
32.534599
23.193955
20.304918
19.469857
19.208789
17.876625
16.469955
13.292432
9.921789
7.543564
6.066561
3.839731
3.283620
3.087521
3.126860
2.788901
3.019571
2.782941
3.376603
3.277659
4.313588
5.208850
4.451871
5.995631
5.332828
6.333590
6.639957
7.715821
8.264780
8.041859
8.478761
8.535981
9.015799
10.102987
9.533763
9.577870
9.992719
10.774732
11.037588
10.923743
10.355711
10.744929
9.827614
9.827614
10.213852
10.256767
11.678934
11.030436
11.361837
11.471510
10.143518
10.596514
11.406541
10.607839
11.147857
9.745955
11.443496
11.427999
11.482835
9.628534
10.925531
10.879636
12.041926
13.579726
13.687611
14.500618
15.984774
19.837618
17.593503
19.621849
17.798543
19.317865
17.825961
16.076565
16.225576
14.445782
13.698936
11.921525
10.575652
8.642673
9.088516
8.317828
8.118749
7.575750
6.900430
6.972551
7.561445
6.927848
6.409883
7.084608
##ZVALUE=225
135.419965
138.714910
153.515935
165.908933
159.735680
140.209794
114.460588
74.918866
59.927702
41.002631
33.403635
31.499863
27.748942
28.529763
30.465722
23.831725
20.629764
16.821623
10.839701
8.245707
5.708933
4.100800
3.612638
2.847910
4.250407
4.209876
4.272461
4.352927
5.048513
5.745888
6.039739
7.702708
7.606745
8.146763
9.857416
9.446740
10.396838
11.585951
11.781454
12.500882
12.654662
11.999607
11.425614
13.659596
13.323426
14.516711
13.417602
12.618899
13.866425
13.987422
13.362765
13.397932
14.821887
14.060736
14.798641
14.941692
13.973713
14.784932
14.579892
14.640689
14.594793
14.816523
14.468431
13.368726
14.856458
13.803840
12.442470
14.323592
13.469458
14.780760
16.927719
15.828609
16.809702
18.450618
18.576980
19.433498
19.005537
18.296838
17.162561
17.304420
14.839768
14.036894
14.274716
11.450648
11.776686
11.105537
10.442734
9.401441
8.855462
9.797812
7.964969
8.783937
8.821487
8.806586
9.081960
8.757710
##ZVALUE=230
107.484460
112.600923
159.548521
216.050744
263.532996
283.958912
281.900764
242.888927
207.618475
165.162683
106.332898
71.586967
52.468777
49.535632
46.518445
47.120452
49.895644
46.077967
42.262673
32.687783
24.157763
16.000867
10.885000
8.151531
5.526543
4.752874
4.665852
5.145669
5.783439
6.418824
6.982684
8.050799
7.596612
9.416938
9.530783
11.376739
12.425780
13.095737
15.409589
14.665723
15.316606
16.280413
15.484691
17.345548
17.265677
16.113520
17.122626
17.763972
16.603470
16.494989
18.582940
16.583800
17.768741
17.441511
15.510917
16.895533
16.143918
17.758608
17.731786
18.254519
17.248988
16.504526
17.609596
17.641783
16.406775
16.734600
17.172694
16.996861
18.281937
17.752647
19.794703
20.891428
19.711852
21.411777
21.662712
22.586584
21.646619
20.294785
20.638704
18.701553
16.782880
16.418695
15.408993
16.256571
13.271570
12.959838
12.293458
12.227893
12.108684
11.446476
10.807514
11.222959
11.008978
10.639429
11.393428
9.941459
##ZVALUE=235
34.101605
37.238598
71.676970
152.894855
228.900909
322.669744
384.835601
462.139845
461.453795
433.757901
362.094641
274.089575
177.247524
124.937892
86.466670
69.900751
65.949559
67.842603
71.100593
72.262883
64.913630
51.339865
41.822791
29.485822
20.086765
12.120605
9.281635
6.763935
6.566644
6.947517
8.050799
7.664561
8.494854
9.816885
11.277795
12.381673
12.158751
13.308525
15.782714
15.885830
16.734600
16.029477
17.267466
17.720461
18.972754
17.946959
18.702745
17.589927
17.300844
18.164515
18.550754
19.153953
19.159913
17.203689
18.974543
17.361641
17.482638
18.924475
19.347668
19.451976
19.007921
18.659830
18.392801
17.811656
17.665625
17.541647
19.116998
17.015934
19.641519
20.401478
19.855499
21.299720
22.482872
23.701787
25.207996
25.456548
23.138523
23.522973
21.142960
21.691918
19.555688
18.737912
17.995834
16.343594
15.701652
15.334487
14.624596
14.296770
14.122725
13.181567
14.431477
14.463663
13.184547
13.153553
12.278557
12.967587
##ZVALUE=240
1.824498
2.766848
9.417534
40.921569
85.060000
178.151727
280.417800
442.432761
549.360514
636.527538
691.411495
661.017895
561.328530
459.782481
317.691565
217.824578
133.051872
101.779699
89.594722
93.505979
96.550584
102.534890
100.912452
87.786913
74.254870
53.504705
40.516853
25.121570
17.520785
10.971427
10.046959
8.409619
9.332895
9.263754
11.083484
13.027787
13.945699
13.918877
14.672875
15.868545
16.651750
18.834472
17.576814
17.804503
19.704700
17.866492
18.356442
18.845797
20.731688
17.751455
17.906427
18.266439
17.818809
18.632412
18.972754
15.832782
18.982887
18.044710
17.756820
17.442703
16.702414
17.372966
17.507672
18.607974
18.293858
17.204881
17.976761
19.458532
19.462705
21.362901
22.191405
24.723411
22.416711
26.034713
25.049448
26.770830
24.166703
25.189519
23.917556
24.219751
21.720529
21.214485
20.425916
18.806458
19.182563
18.076897
17.979741
16.497970
16.347766
17.475486
15.980601
16.464591
15.432835
17.239451
15.387535
15.496612
##ZVALUE=245
1.292825
1.715422
1.645684
1.923442
6.617904
21.683574
76.852441
145.013928
299.595594
441.677570
633.788705
751.395822
814.675689
815.048814
748.364925
599.337816
457.991958
303.238630
202.296972
124.846697
97.730756
91.614723
102.323890
114.058852
114.640594
110.819936
97.956657
82.742572
62.124729
45.892596
33.256412
20.482540
15.369654
11.404753
10.576844
12.524724
12.584925
14.088750
14.517903
14.463663
16.365647
15.819669
18.456578
17.091632
16.244650
17.375946
18.326640
16.216636
17.951727
16.738772
17.335415
17.468929
15.699863
15.372634
15.681982
14.762878
15.593767
15.596747
14.885664
13.747811
14.800429
14.449954
14.508963
15.437603
15.155673
15.449524
16.266704
16.485453
16.966462
17.755628
19.682646
21.495819
21.657944
20.824671
23.012757
22.637844
24.808645
21.821856
22.123456
20.136833
20.126700
18.990636
17.543435
18.570423
17.110705
15.571713
16.571879
17.381907
15.883446
15.640855
15.758872
15.983582
15.296936
15.209913
15.322566
15.833974
##ZVALUE=250
1.153946
1.054406
1.174808
1.409650
1.823902
1.829863
2.415776
14.303923
45.359731
101.419687
246.653557
392.679572
629.578829
766.001940
910.537839
955.576897
895.034671
796.509981
672.229528
440.740585
288.311839
160.585642
111.019611
87.489486
93.255639
109.539628
118.419528
120.600462
116.934776
104.298592
90.898871
66.792965
48.622489
31.969547
24.253726
16.435981
14.092922
13.550520
14.020801
14.736652
14.202595
15.242696
16.268492
16.799569
15.043616
17.081499
16.305447
15.389919
16.339421
16.103983
16.028881
15.628934
14.875531
14.798641
13.505816
14.187694
14.087558
13.435483
13.524890
12.237430
13.801455
13.152957
13.312697
13.984442
14.244914
14.129877
14.608502
14.755726
16.000867
16.729832
18.097758
18.530488
19.900799
20.651817
20.538568
19.741654
20.433664
19.588470
19.791722
17.648935
16.980767
16.093850
15.669465
15.857816
14.337897
15.459657
13.592839
13.975501
15.272498
14.152527
14.365911
13.098717
13.720989
13.785958
13.781786
13.474822
##ZVALUE=255
0.957847
1.123548
0.899434
1.060963
0.905991
1.364946
1.560450
1.604557
2.117753
6.960630
26.492476
98.427534
194.289684
380.883813
552.580953
785.738826
942.448974
1015.864611
1015.864611
938.270688
796.601772
621.427894
383.026600
236.374736
124.189854
89.616776
82.442760
94.010830
115.492940
124.358535
127.034783
127.092004
114.768744
91.918707
74.702501
50.642490
37.479997
26.099682
20.374656
15.588999
15.773773
15.648603
16.598701
15.797615
16.513467
15.996695
17.196536
16.049743
15.651584
15.851855
16.107559
15.117526
15.239716
15.841722
15.074611
14.705658
13.612509
13.366938
13.728738
13.517737
13.377666
13.043880
12.855530
13.383627
13.449788
13.701916
14.239550
14.296770
15.128851
15.096664
16.116500
16.864538
17.341971
17.148852
18.093586
18.076897
17.833710
16.663671
17.488599
14.827847
15.779734
14.475584
14.620423
13.574958
14.378428
13.383627
12.648702
13.534427
12.688637
12.571812
12.745857
12.756586
12.546778
12.843609
12.593865
12.937784
##ZVALUE=260
1.123548
0.986457
0.814795
0.907779
1.007915
1.266599
1.118779
1.208782
1.576543
1.597404
1.427531
2.563000
11.378527
55.567622
128.592849
292.539597
466.033816
727.002025
919.407606
1015.861630
1015.861630
1015.861630
971.999764
764.573812
494.200587
330.760479
184.287429
114.844441
76.603889
75.162649
92.463493
113.662481
126.972795
138.243437
132.865906
117.607713
100.858808
77.871680
59.602857
39.755702
30.357838
22.142529
18.418431
17.323494
16.449690
16.074777
17.212629
16.557574
15.879869
15.913844
15.715957
15.947819
16.164780
15.382767
14.666915
14.687777
14.495850
15.090704
14.189482
13.886690
13.883710
13.534427
13.728738
13.403893
14.182925
14.641881
13.784766
14.815927
14.480948
14.847517
14.377832
15.225410
15.632510
15.954971
16.240478
16.918778
16.402602
16.300678
15.376806
15.247464
14.785528
13.617873
12.910962
13.632774
12.235641
12.726784
11.760592
11.206865
11.455417
11.938810
12.142658
12.195706
11.774898
11.749864
12.554526
12.605786
##ZVALUE=265
0.919700
0.886917
1.085997
0.846982
0.912547
0.815988
0.970960
0.882745
1.263618
1.270771
1.525879
1.243949
1.713634
2.568960
6.263852
38.927794
96.308589
230.756402
397.525430
685.666800
925.895572
1015.847921
1015.847921
1015.847921
1015.847921
926.215649
658.184886
459.484458
254.289508
151.232481
93.057752
67.240000
75.699687
102.255940
120.667815
138.376951
142.131448
136.518478
122.702718
98.991990
82.195997
57.857633
43.424964
30.201674
23.497939
19.435883
17.407537
17.341971
17.809868
16.789436
17.455816
16.719699
17.426610
16.451478
16.247630
15.279651
15.781522
15.279651
15.866756
14.767647
15.160441
13.762712
14.802814
14.464855
13.827682
14.308691
14.108419
13.630986
14.093518
14.582872
15.084743
15.265942
15.732646
15.095472
15.818477
16.029477
14.974475
14.632940
14.095902
13.335943
12.783408
13.859868
12.508631
11.539459
11.686683
11.718869
11.339784
11.744499
11.571646
11.537671
11.267662
11.274815
11.754632
11.583567
11.870861
12.534857
##ZVALUE=270
0.830889
0.714660
0.911951
0.748634
0.887513
0.912547
0.810623
1.053810
1.087785
1.298785
1.393557
1.427531
1.502633
1.268983
1.526475
1.912713
3.479719
13.699532
63.562989
149.559975
340.645909
557.088852
896.826982
1015.861630
1015.861630
1015.861630
1015.861630
1015.861630
898.487568
600.279570
401.192904
200.305581
115.880966
66.143870
62.253475
82.786679
102.220774
127.938986
139.039755
147.333741
143.627524
123.186707
106.434822
80.915689
61.725974
40.720701
31.416416
25.038719
20.628572
19.077659
18.152595
17.558932
18.386841
17.482638
16.321540
17.958879
17.879605
16.963482
16.437769
16.592741
16.191602
15.675426
15.614629
15.197992
14.881492
14.932752
15.111566
14.671683
14.702678
15.031695
14.820695
15.616417
14.620423
15.272498
15.459657
14.482737
14.762878
15.585423
14.086962
13.063550
12.681484
12.007952
11.823773
11.488795
11.662841
11.580586
11.298656
11.648536
11.133552
11.279583
11.195540
10.952950
11.160970
11.275411
11.510849
12.051463
##ZVALUE=275
0.642538
0.680685
0.723600
0.393987
0.769496
0.832677
0.834465
0.761747
0.885725
1.030564
1.101494
1.131892
1.356602
1.186728
1.075864
1.552701
1.413822
1.958609
2.229810
7.623434
31.272769
93.210936
258.080363
456.894636
800.725818
1009.479761
1015.861630
1015.861630
1015.861630
1015.861630
1015.861630
794.335008
545.912981
287.455916
164.573789
76.692700
53.480864
61.600804
78.263879
102.800727
121.008754
139.819980
143.700838
137.454867
123.638511
101.841688
82.407594
60.783625
45.502782
31.171441
24.662614
20.742416
19.205809
18.271804
19.181967
17.417669
17.032623
18.017888
16.723871
16.223788
17.249584
16.369820
15.328526
15.494823
15.177727
15.523434
14.650822
15.318990
14.732480
14.681816
15.549660
15.025735
15.103817
15.033484
15.391707
14.580488
13.995767
14.712811
13.890862
13.124943
12.848973
12.239814
12.084842
11.255741
11.288524
10.898709
10.742545
10.871887
11.448860
10.786653
11.018515
10.771751
11.895895
11.676550
11.796951
12.138486
##ZVALUE=280
0.743866
0.811815
0.943542
0.753999
0.931621
0.986457
0.810623
0.903606
1.074672
0.841618
1.081824
1.075864
1.044869
0.988841
1.271963
1.493692
1.279712
1.329780
1.587868
1.930594
1.880527
3.080964
20.158887
66.371560
204.282999
362.870693
639.628768
900.447965
1015.926003
1015.926003
1015.926003
1015.926003
1015.926003
927.632451
668.963790
374.054909
220.650434
98.497868
55.733919
45.318604
55.507421
78.439713
98.813772
123.145580
134.527683
138.394833
133.222938
118.923783
103.406906
78.752637
62.086582
43.796897
32.954812
23.885965
20.226836
17.779469
17.326474
17.007589
17.082691
16.339421
16.687512
15.986562
16.067624
15.941858
15.428662
15.279651
14.732480
15.147924
14.707446
14.294982
14.703870
14.944673
14.726520
14.665723
14.383793
14.170408
14.133453
13.825893
12.993813
12.868643
12.332797
11.976957
11.235476
10.794997
11.341572
10.963678
10.735989
11.077523
11.239648
10.637641
10.952950
11.219978
10.803938
11.126995
11.317730
11.917949
##ZVALUE=285
0.415444
0.595450
0.567436
0.411868
0.590682
0.569820
0.589490
0.410676
0.617504
0.592470
0.782609
0.640750
0.991821
1.002550
1.005530
0.720620
1.102686
0.912547
0.972748
1.347661
1.252890
1.477599
1.860857
2.137423
8.956790
34.548640
115.378499
232.579708
477.383733
724.815726
978.142023
1015.774012
1015.774012
1015.774012
1015.774012
1015.774012
841.419697
508.862734
315.585732
144.290924
75.990558
37.934780
36.569834
53.421855
70.724487
97.705722
112.335682
128.721595
133.806467
131.258965
119.393468
99.677444
82.216859
58.917999
43.324828
29.484630
22.780895
18.426776
16.244650
15.034676
14.914870
14.626980
14.601946
14.475584
14.028549
13.585687
14.213920
13.197660
14.025569
13.266802
13.981462
14.024973
13.516545
13.216734
13.598800
12.688637
12.868643
12.681484
12.306571
11.749864
11.367798
11.142492
10.960698
10.738969
10.741949
10.658503
10.206699
10.573864
10.459423
10.794997
10.518432
10.377765
10.604858
10.837913
11.285543
11.263490
##ZVALUE=290
0.626445
0.551939
0.699759
0.606775
0.788569
0.574589
0.658631
0.678897
0.905991
0.704527
0.676513
0.784993
0.848770
0.839829
0.906587
0.891685
0.859499
1.213551
0.990629
1.187921
1.216531
1.208782
1.410842
1.505613
1.895428
2.286434
3.564954
15.079975
68.728924
153.014660
276.168585
570.872426
846.496820
1015.904546
1015.904546
1015.904546
1015.904546
1015.904546
992.161632
660.132766
425.745845
207.791924
106.099844
41.322708
28.761625
35.230517
46.890974
68.593621
85.662603
107.799768
120.883584
129.729509
126.734972
114.631653
96.933842
73.266625
57.158470
38.287640
27.932525
19.982457
15.940666
13.762712
12.631416
12.311935
11.596680
11.805892
11.701584
12.215972
12.019873
11.733770
11.911988
11.812449
12.179613
12.324452
12.074709
11.451840
11.615753
11.161566
11.013746
10.924935
10.340810
10.437965
10.486841
10.384917
10.611415
10.009408
10.375977
10.058880
10.164976
10.345578
10.592937
10.210872
10.823607
10.769963
10.297894
10.962486
##ZVALUE=295
0.702739
0.521541
0.482798
0.526905
0.616908
0.576973
0.614524
0.617504
0.708699
0.801682
0.801682
0.794530
0.669956
0.949502
0.733733
0.928640
0.704527
0.826716
0.968575
0.951886
1.055598
1.026988
1.296997
1.340508
1.497865
1.621842
1.668930
1.918674
2.288818
5.428791
22.814870
92.101693
203.283429
455.953479
710.978508
1015.861630
1015.861630
1015.861630
1015.861630
1015.861630
1015.861630
816.227794
557.248592
291.014910
155.097842
56.481957
29.607415
22.338629
29.096603
44.417977
59.360862
82.540512
99.060535
114.724636
120.977759
117.271543
106.354952
87.069869
71.329474
51.165819
38.063526
24.353862
17.464757
12.767911
10.737777
9.949803
9.677410
9.062886
9.484887
9.634495
10.006428
10.128617
10.249615
10.501742
10.520816
10.493994
9.863973
10.204911
9.744763
9.583831
9.501576
9.482503
9.155869
9.493828
9.165406
9.688735
9.447932
9.611845
9.809732
9.767413
9.638667
9.685755
9.439588
9.864569
9.707808
10.242462
##ZVALUE=300
0.481606
0.542998
0.454783
0.509620
0.625849
0.643730
0.601411
0.613928
0.643730
0.651479
0.731945
0.744462
0.562668
0.580549
0.465512
0.626445
0.679493
0.735521
0.821948
0.846982
0.982881
0.965595
1.012683
1.054406
1.128912
1.261830
1.362562
1.394749
1.635551
1.676679
2.005696
2.698898
14.789701
49.625635
157.686472
300.898552
592.649579
868.090987
1015.861630
1015.861630
1015.861630
1015.861630
1015.861630
1011.596918
680.629611
437.091589
212.389827
108.957887
38.076639
19.214749
17.956495
24.710894
38.873553
51.905513
73.223710
90.202689
108.264685
112.373829
110.429525
103.049874
85.002780
69.387555
49.549937
35.861731
22.181869
16.298890
10.798573
9.179711
8.622408
8.212924
8.448958
8.516908
8.467436
8.690953
8.901954
8.568764
8.881688
8.563995
8.370876
8.219481
8.722544
8.561611
8.219481
9.109974
8.723736
8.944869
8.733869
8.961558
8.851886
8.907914
9.206533
8.874536
9.142756
9.052753
9.359717
9.257793
##ZVALUE=305
0.453591
0.442863
0.453591
0.485778
0.429749
0.541806
0.523925
0.605583
0.523925
0.527501
0.684857
0.495911
0.671744
0.717640
0.599623
0.676513
0.479817
0.409484
0.587702
0.835657
0.728965
0.980496
0.982881
0.906587
1.118779
1.080632
1.247525
1.129508
1.110435
1.306534
1.424551
1.581907
1.829863
2.151728
7.080436
27.443767
101.973414
216.804743
468.356013
719.956756
1015.861630
1015.861630
1015.861630
1015.861630
1015.861630
1015.861630
840.296745
581.654906
301.082730
160.904527
59.179664
27.000904
13.782978
15.794635
23.557544
34.491420
53.609610
68.135858
86.450577
97.462535
105.546713
104.349852
94.653964
82.329512
63.275695
48.108697
32.162666
22.503734
14.166832
10.585785
8.685589
8.046627
8.297563
8.120537
8.154511
7.687807
7.885695
7.713437
8.152723
7.695556
8.023977
8.344650
8.166432
8.201599
8.242726
7.950664
8.139610
8.233786
8.345842
8.339882
8.261800
8.644462
8.613467
8.662939
8.693933
8.936524
##ZVALUE=310
0.522733
0.465512
0.665784
0.526905
0.386834
0.458956
0.300407
0.324845
0.495911
0.423789
0.508428
0.602603
0.575781
0.472665
0.605583
0.760555
0.673532
0.532866
0.602603
0.461936
0.637770
0.704527
0.731945
0.843406
0.931621
0.936985
0.907779
0.939965
0.995994
1.239777
1.204610
1.374483
1.425743
1.706481
1.822710
1.998544
2.839565
14.534593
46.482682
148.180723
288.831592
586.738586
864.459872
1015.853882
1015.853882
1015.853882
1015.853882
1015.853882
1015.853882
722.278953
474.105477
229.403973
119.720697
41.482449
17.038584
11.137724
13.084412
21.111965
29.979944
45.968890
59.352517
78.522563
89.805722
98.483562
99.034905
92.106462
80.065727
62.595606
47.672987
32.236576
22.663474
15.215874
11.244416
8.732677
7.742643
7.339716
7.374883
7.038713
7.154942
6.991625
7.123947
7.018447
7.316470
7.869601
7.391572
7.758737
7.845759
7.973909
7.944703
8.056760
7.923841
8.204579
8.161664
8.086562
8.155704
8.233786
##ZVALUE=315
0.331998
0.393987
0.582933
0.444651
0.411868
0.454783
0.607967
0.548959
0.550747
0.531673
0.563860
0.457764
0.448823
0.706911
0.492930
0.560880
0.454783
0.682473
0.666976
0.695586
0.790954
0.678897
0.743866
0.751615
0.638962
0.832677
0.769496
0.767708
0.887513
0.891685
1.041889
0.964999
1.197457
1.220703
1.384616
1.536608
1.698732
1.935959
2.333522
5.106926
30.099750
82.025528
230.798721
415.393710
770.539641
1015.861630
1015.861630
1015.861630
1015.861630
1015.861630
1015.861630
913.195610
555.526614
341.296792
153.687596
71.085691
20.716786
10.848641
10.029674
12.630820
18.982887
27.163625
42.055845
55.555701
73.087811
84.648728
93.255639
94.301701
84.895492
75.223446
57.528615
44.662952
30.877590
22.206903
14.361739
10.652542
8.131862
7.625818
6.663799
6.622672
6.863475
6.860495
6.981492
6.998777
7.402897
7.259846
7.151961
7.534623
7.557869
7.418990
7.664561
7.526875
7.873774
7.672906
7.905960
7.934570
##ZVALUE=320
0.373721
0.382662
0.511408
0.418425
0.505447
0.311732
0.488758
0.523925
0.494719
0.403523
0.434518
0.557899
0.513792
0.522733
0.540614
0.637770
0.701547
0.647902
0.616908
0.555515
0.660419
0.548959
0.648499
0.625849
0.797510
0.731945
0.898838
0.784993
0.793934
0.916719
0.968575
0.946522
1.010895
0.872612
1.173615
1.284480
1.427531
1.439452
1.467466
1.746416
1.931787
3.072619
10.623932
54.763556
137.285590
344.216824
565.989614
929.685831
1015.861630
1015.861630
1015.861630
1015.861630
1015.861630
1011.937857
760.750771
414.819717
233.811736
94.685555
41.636825
13.006926
9.095669
9.696484
11.034608
17.418861
24.147630
38.871765
50.157905
67.975521
79.201460
88.652968
89.244843
82.628727
73.532462
56.267977
43.907762
29.278994
21.023750
14.004707
10.082722
8.041859
6.940961
6.475449
6.879568
6.851554
6.817579
6.952882
6.856918
7.066727
7.185936
7.493496
7.382631
7.394552
7.530451
7.617474
7.434487
7.647872
##ZVALUE=325
0.353456
0.311732
0.264645
0.440478
0.429749
0.425577
0.648499
0.426769
0.425577
0.540614
0.452995
0.427961
0.525713
0.334978
0.550747
0.412464
0.479817
0.625849
0.458956
0.628829
0.584722
0.589490
0.573993
0.565648
0.618696
0.630617
0.738502
0.785589
0.923872
0.681877
0.696778
0.822544
0.728965
0.864863
0.946522
1.217723
1.286864
1.165867
1.411438
1.446605
1.386404
1.669526
1.921654
2.360940
5.794764
37.073493
93.398690
241.598487
433.969498
793.509483
1015.861034
1015.861034
1015.861034
1015.861034
1015.861034
1015.861034
879.492760
526.199937
314.932466
134.871602
62.388778
19.230843
9.681582
7.985830
8.383989
10.971427
15.579462
25.111437
35.133958
50.830841
63.026547
76.140761
83.289742
83.332658
77.618957
65.688491
53.511858
39.717555
29.701591
18.753409
13.507605
9.621978
7.854700
6.830692
6.760955
6.668568
6.786585
6.807446
6.890893
6.749630
7.069707
6.952882
7.125735
7.399917
7.280707
7.451773
##ZVALUE=330
0.425577
0.359416
0.385642
0.503659
0.431538
0.524521
0.341535
0.425577
0.393987
0.462532
0.418425
0.431538
0.443459
0.466704
0.580549
0.491738
0.457764
0.237823
0.493526
0.603795
0.428557
0.602603
0.555515
0.545979
0.727773
0.572801
0.701547
0.580549
0.833869
0.938773
0.801682
0.789762
0.656843
0.872612
0.939965
0.793934
0.991821
1.028776
1.075864
1.038909
1.275539
1.281500
1.565814
1.490712
1.787543
2.119541
2.754927
16.264915
51.033497
161.559582
310.267806
622.384548
907.965899
1015.869975
1015.869975
1015.869975
1015.869975
1015.869975
1004.761457
663.458109
420.731902
192.214847
96.183419
31.832457
12.882948
7.357597
7.485747
8.064508
10.390878
15.939474
22.682548
34.264922
45.983791
61.452985
70.582628
77.865720
78.696609
71.563721
62.987804
48.467517
38.003922
26.066899
18.968582
13.227463
10.278821
8.149743
7.396936
7.077456
6.721616
6.627440
6.622672
6.749630
6.781816
7.414818
7.201433
7.165670
##ZVALUE=335
0.478625
0.343919
0.474453
0.441670
0.383854
0.347495
0.237823
0.481606
0.375509
0.495911
0.481606
0.380874
0.549555
0.420809
0.585914
0.430942
0.458956
0.480413
0.412464
0.655651
0.587702
0.452995
0.598431
0.500679
0.476837
0.643730
0.579953
0.591874
0.869632
0.547767
0.635982
0.706911
0.739694
0.674725
0.633597
0.779629
0.967979
0.985861
1.067519
0.973940
0.989437
1.043677
1.210570
1.231432
1.534820
1.603961
1.763701
1.778603
2.238750
7.615685
27.699471
105.168819
218.167901
481.206775
763.541460
1015.883684
1015.883684
1015.883684
1015.883684
1015.883684
1015.883684
814.075470
543.711782
278.750658
143.763423
46.849847
18.276572
8.267760
7.175803
7.226467
7.853508
10.444522
14.171600
23.230910
31.646490
45.952797
55.995584
67.062974
72.649717
73.295832
68.858862
57.953000
47.979951
36.455989
27.794838
19.025803
14.257431
9.983778
8.529425
7.524490
7.045865
7.333755
7.002950
6.853938
6.923676
7.294416
##ZVALUE=340
0.433922
0.477433
0.353456
0.444651
0.312924
0.381470
0.344515
0.420809
0.406504
0.436902
0.528693
0.441670
0.319481
0.512600
0.329614
0.421405
0.326633
0.512600
0.498891
0.388622
0.504851
0.638962
0.625849
0.478625
0.628829
0.600815
0.671744
0.573993
0.424981
0.568628
0.592470
0.661612
0.632405
0.737906
0.704527
0.827909
0.795722
0.682473
0.824928
0.808835
0.908971
0.788569
1.050830
1.099706
1.055598
1.164675
1.262426
1.470447
1.628995
1.780987
1.989603
3.892779
13.948679
65.139532
155.389905
382.857919
636.078715
995.602608
1015.861630
1015.861630
1015.861630
1015.861630
1015.861630
965.891480
679.170489
357.368588
188.585520
67.681670
26.373863
9.467602
7.573962
6.929636
7.201433
8.071661
10.057688
14.938712
20.637512
31.628609
41.231513
54.203868
62.736869
69.096684
69.049597
62.827468
56.579709
45.475960
36.859512
26.180744
20.142794
14.013648
10.861754
8.466840
7.566810
7.420778
7.221699
7.277727
##ZVALUE=345
0.429749
0.485778
0.450611
0.291467
0.455976
0.352859
0.442863
0.345707
0.516772
0.435710
0.456572
0.441670
0.417829
0.329614
0.525713
0.423789
0.423789
0.478625
0.461936
0.624657
0.514984
0.414848
0.546575
0.441670
0.537634
0.475645
0.658631
0.562668
0.503659
0.624657
0.675917
0.690818
0.699759
0.736713
0.798702
0.778437
0.813603
0.811815
0.774860
0.924468
0.787973
0.807643
0.750422
0.861883
1.031756
1.028776
0.948906
1.195669
1.235604
1.212955
1.376867
1.687407
1.918674
2.330542
5.971789
36.978722
101.848841
272.566676
475.455523
838.248730
1015.861630
1015.861630
1015.861630
1015.861630
1015.861630
1015.861630
804.566741
460.740924
254.219770
99.487901
42.676926
13.647676
8.302927
7.336736
6.845593
6.927848
7.265806
9.247661
12.741685
20.154715
27.856827
39.511919
48.796535
57.070851
61.928630
63.542724
60.959458
53.637624
46.604872
36.509633
27.945638
19.309521
14.873743
10.860562
9.091496
8.094907
##ZVALUE=350
0.325441
0.389814
0.332594
0.378489
0.300407
0.286698
0.437498
0.531673
0.384450
0.469685
0.387430
0.330806
0.417829
0.475645
0.306964
0.387430
0.427961
0.375509
0.325441
0.466704
0.355840
0.298619
0.334978
0.573993
0.533462
0.584722
0.573993
0.486970
0.441670
0.493526
0.735521
0.706911
0.728965
0.676513
0.689626
0.751615
0.757575
0.572801
0.581741
0.789762
0.703931
0.872612
0.749826
0.807643
0.897646
0.886917
0.970960
1.069903
1.065731
0.895858
1.200438
1.418591
1.358986
1.589656
1.791716
1.928806
3.252625
19.267797
58.812499
179.359913
340.981483
672.562718
966.503024
1015.861630
1015.861630
1015.861630
1015.861630
1015.861630
944.937468
554.602742
334.816575
149.470568
66.081882
18.241405
8.754730
6.777644
6.651878
6.203651
6.251931
6.889701
8.408427
12.601614
17.334819
25.620461
33.504963
43.719411
51.075816
56.903958
59.225559
57.355762
52.607656
43.034554
35.697818
26.944876
20.783544
14.633536
##ZVALUE=355
0.302792
0.273585
0.351667
0.307560
0.356436
0.295639
0.540614
0.379682
0.411868
0.352859
0.472665
0.531673
0.529885
0.435710
0.506639
0.602603
0.476837
0.473857
0.531673
0.516772
0.491738
0.622869
0.575781
0.589490
0.623465
0.313520
0.576973
0.652671
0.506639
0.759959
0.673532
0.634789
0.536442
0.671744
0.723600
0.561476
0.693798
0.598431
0.797510
0.752807
0.730753
0.734925
0.838637
0.800490
0.663996
0.802875
0.899434
1.006722
0.986457
1.069903
1.105666
1.188517
1.410842
1.371503
1.439452
1.574755
1.637936
1.773834
2.410412
9.223819
33.135414
120.356679
244.254470
516.613722
793.770552
1015.861630
1015.861630
1015.861630
1015.861630
1015.861630
1015.861630
693.346858
429.654717
185.406804
86.658597
25.504827
10.594726
6.752610
6.357431
6.040931
5.937815
6.118417
6.717443
8.227825
10.557771
16.163588
21.729469
30.347705
37.361979
46.100616
51.355958
54.080486
53.009987
48.573613
42.689443
34.183860
##ZVALUE=360
0.428557
0.463724
0.321865
0.483990
0.368953
0.486970
0.464916
0.394583
0.474453
0.345707
0.376701
0.489950
0.503659
0.494719
0.538826
0.478625
0.602603
0.401735
0.544786
0.578761
0.529885
0.295639
0.576973
0.497699
0.605583
0.487566
0.551939
0.456572
0.638962
0.657439
0.569820
0.663996
0.682473
0.761747
0.615716
0.799894
0.652671
0.586510
0.775456
0.684857
0.850558
0.799894
0.868440
0.797510
0.725985
0.729561
0.774860
0.930429
0.919700
1.002550
0.943542
1.275539
1.196861
1.295805
1.401901
1.355410
1.514554
1.648664
1.672506
1.971722
2.303720
4.221797
15.100837
65.630674
155.641437
385.198593
633.996725
993.663669
1015.861630
1015.861630
1015.861630
1015.861630
1015.861630
828.009844
546.385646
263.651609
133.453608
45.579672
17.007589
7.098913
6.376505
6.314516
5.952716
5.831718
5.835891
6.274581
7.015467
9.657741
12.899637
18.486977
24.789572
33.783913
40.544868
46.953559
49.639940
49.555898
##ZVALUE=365
0.399947
0.339746
0.374913
0.361800
0.486970
0.398755
0.473857
0.447631
0.482798
0.566840
0.494719
0.449419
0.292659
0.464916
0.479817
0.487566
0.437498
0.410676
0.537634
0.416636
0.659823
0.611544
0.639558
0.544786
0.491738
0.568628
0.568628
0.465512
0.563860
0.571609
0.821948
0.596642
0.648499
0.694990
0.612736
0.770688
0.698566
0.689626
0.646710
0.760555
0.597835
0.604987
0.718832
0.779629
0.744462
0.778437
0.764728
0.911951
0.858903
0.844598
1.012683
0.917912
1.069903
1.095533
1.287460
1.173615
1.006722
1.193881
1.570582
1.598597
1.885891
1.897812
2.363920
2.714992
6.445646
34.961700
97.309947
266.484022
485.413671
862.558484
1015.861630
1015.861630
1015.861630
1015.861630
1015.861630
965.246558
677.915812
363.636613
196.788907
71.402788
27.810931
8.602738
6.476641
5.792975
5.846620
5.703568
5.573630
5.708933
5.700588
6.741881
8.086562
12.009740
15.716553
22.373796
28.164983
35.816431
##ZVALUE=370
0.416636
0.444651
0.344515
0.427961
0.354648
0.403523
0.476837
0.377893
0.296831
0.191927
0.363588
0.489950
0.504851
0.387430
0.246763
0.425577
0.495911
0.341535
0.519753
0.476837
0.535846
0.612736
0.503659
0.614524
0.455976
0.400543
0.546575
0.612736
0.705719
0.540614
0.599623
0.375509
0.595450
0.569820
0.673532
0.679493
0.619888
0.757575
0.610948
0.507832
0.664592
0.705719
0.664592
0.653863
0.715852
0.772476
0.726581
0.779629
0.714660
0.723600
0.782609
0.935793
0.915527
0.965595
0.900626
1.054406
0.994802
0.986457
1.188517
1.276731
1.471639
1.497865
1.622438
1.816750
1.967549
2.282858
3.632903
20.171404
63.143969
198.998451
371.943712
703.492761
990.235806
1015.868783
1015.868783
1015.868783
1015.868783
1015.868783
819.949508
446.741581
248.351693
94.954967
41.548610
13.253689
6.931424
5.815625
5.447865
5.458593
5.238652
5.300641
5.423427
5.753636
6.224513
7.984638
10.094643
14.668703
##ZVALUE=375
0.390410
0.299811
0.281930
0.425577
0.444651
0.495911
0.433922
0.349879
0.390410
0.477433
0.185966
0.356436
0.400543
0.241995
0.313520
0.375509
0.461936
0.434518
0.424981
0.523925
0.468493
0.351667
0.485778
0.429749
0.330806
0.411868
0.395775
0.380874
0.460744
0.427961
0.503659
0.439882
0.591874
0.605583
0.599623
0.606775
0.428557
0.619888
0.385642
0.605583
0.671744
0.531673
0.687838
0.617504
0.624657
0.745654
0.743866
0.814795
0.766516
0.801682
0.700951
0.682473
0.648499
0.673532
0.741482
0.785589
0.915527
0.961423
0.861883
0.861883
0.931621
1.104474
1.271963
1.392961
1.396537
1.783967
1.590848
2.059937
2.366900
10.215640
34.564734
118.249655
254.853964
567.839742
867.911577
1015.855670
1015.855670
1015.855670
1015.855670
1015.855670
985.741615
610.024929
372.439623
166.785717
81.198812
24.655461
9.667873
5.912781
5.547404
5.535483
5.299449
5.194545
5.298853
5.239844
5.276799
5.981922
##ZVALUE=380
0.359416
0.405908
0.229478
0.378489
0.277758
0.369549
0.356436
0.433922
0.401735
0.290871
0.328422
0.215769
0.252724
0.409484
0.333786
0.176430
0.219941
0.314713
0.476837
0.471473
0.440478
0.462532
0.235438
0.543594
0.412464
0.395775
0.534654
0.552535
0.323653
0.374913
0.481606
0.425577
0.495911
0.698566
0.521541
0.401735
0.577569
0.500679
0.486970
0.474453
0.513792
0.600815
0.647902
0.875592
0.665784
0.600815
0.505447
0.563860
0.568628
0.658631
0.625849
0.924468
0.776649
0.661612
0.793934
0.733733
0.796914
0.505447
0.847578
0.725985
0.760555
0.819564
1.046658
1.076460
1.134872
1.397729
1.276731
1.567602
1.819730
2.147555
2.207756
5.157590
19.243956
85.889697
195.865035
458.420515
738.645792
1015.859842
1015.859842
1015.859842
1015.859842
1015.859842
1015.859842
763.533711
503.740907
239.266753
120.717883
40.102601
15.565753
6.472468
5.612969
5.404949
5.332828
5.362630
5.179644
5.299449
##ZVALUE=385
0.422597
0.330806
0.362992
0.467896
0.376701
0.313520
0.375509
0.477433
0.324845
0.496507
0.252724
0.388622
0.236630
0.303984
0.425577
0.520945
0.254512
0.424981
0.553727
0.422597
0.552535
0.503659
0.594854
0.572801
0.420809
0.364780
0.386834
0.485778
0.484586
0.507832
0.305772
0.476837
0.463724
0.583529
0.771880
0.565648
0.528693
0.528693
0.631809
0.728965
0.635982
0.635982
0.689626
0.716448
0.759959
0.655651
0.781417
0.789762
0.705719
0.692606
0.566840
0.804663
0.701547
0.748634
0.656843
0.781417
0.729561
0.702739
0.743866
0.721812
0.889897
0.966787
0.951886
1.005530
1.081824
1.136661
1.262426
1.398921
1.386404
1.808405
1.829863
2.103448
2.282858
3.175735
9.511709
50.943494
127.540827
321.578979
563.485622
972.629786
1015.910506
1015.910506
1015.910506
1015.910506
1015.910506
953.677893
664.551854
353.960991
196.297765
76.625943
29.817820
8.335710
5.817413
5.256534
5.332828
5.314946
##ZVALUE=390
0.375509
0.505447
0.217557
0.405908
0.243783
0.421405
0.410676
0.388622
0.209808
0.390410
0.566840
0.374913
0.515580
0.290871
0.333786
0.313520
0.219941
0.455976
0.312924
0.481606
0.469685
0.473857
0.536442
0.481606
0.391603
0.489950
0.449419
0.408888
0.486970
0.375509
0.477433
0.510812
0.575781
0.423789
0.543594
0.589490
0.694990
0.534654
0.604987
0.702739
0.736713
0.687838
0.936985
0.737906
0.736713
0.677705
0.721812
0.628829
0.641942
0.674725
0.718832
0.527501
0.644922
0.770688
0.957847
0.729561
0.744462
0.867844
0.713468
0.745654
0.811815
0.944734
0.929832
0.902414
0.883937
1.089573
1.236796
1.341701
1.359582
1.569986
1.751781
1.718998
1.950860
1.868606
2.031922
2.396703
4.687905
27.980804
83.341599
247.322917
462.647676
851.888657
1015.887856
1015.887856
1015.887856
1015.887856
1015.887856
1015.887856
869.628787
516.612530
290.497541
114.644766
49.837828
13.028979
6.182790
5.357862
##ZVALUE=395
0.395775
0.483990
0.425577
0.413656
0.313520
0.331998
0.307560
0.138879
0.323653
0.426769
0.346899
0.363588
0.445843
0.399947
0.402927
0.260472
0.227690
0.164509
0.436902
0.470877
0.353456
0.337958
0.430942
0.381470
0.387430
0.460744
0.509620
0.456572
0.454783
0.475645
0.370741
0.505447
0.569820
0.539422
0.531673
0.514984
0.560880
0.511408
0.626445
0.818968
0.817776
0.640750
0.638962
0.703931
0.822544
0.779629
0.760555
0.807643
0.653863
0.626445
0.765920
0.698566
0.703931
0.852942
0.738502
0.738502
0.816584
0.710487
0.900626
0.752807
0.869632
0.907779
0.927448
0.919700
0.903606
1.055598
0.955462
1.225471
1.147985
1.543760
1.530647
1.587868
1.512766
1.758933
1.859665
1.734495
1.965761
2.123713
2.895594
14.530420
51.061511
171.434879
336.158872
664.336681
965.624452
1015.861630
1015.861630
1015.861630
1015.861630
1015.861630
1008.029580
634.630919
393.616557
178.030729
82.274675
25.112629
##ZVALUE=400
0.439882
0.497699
0.443459
0.234842
0.402927
0.298619
0.308752
0.436902
0.302792
0.558496
0.450611
0.450611
0.229478
0.194907
0.385642
0.382662
0.312924
0.194907
0.420809
0.404716
0.545979
0.422597
0.333786
0.330806
0.267625
0.359416
0.518560
0.407696
0.462532
0.343919
0.468493
0.466704
0.416636
0.449419
0.634789
0.550747
0.677705
0.687838
0.680685
0.688434
0.574589
0.855923
0.673532
0.621676
0.633597
0.615716
0.809431
0.713468
0.792742
0.645518
0.666976
0.673532
0.648499
0.824928
0.617504
0.720620
0.691414
0.810623
0.784993
0.833869
0.914931
0.754595
0.711679
0.838637
0.924468
0.912547
0.924468
1.346469
1.351833
1.505613
1.481771
1.453757
1.472831
1.503825
1.469851
1.507998
1.711845
1.599789
1.868606
1.864433
2.244711
8.302927
29.608607
103.275776
221.308470
494.092703
777.246952
1015.861630
1015.861630
1015.861630
1015.861630
1015.861630
1015.861630
752.116442
484.047532
235.845447
##END
