##TITLE=FDDW02
##FORMAT=SPECTACLE-ASCII V-1.2
##DATA TYPE=ULTRAVIOLET SPECTRUM
##SECOND TYPE=ULTRAVIOLET SPECTRUM
##DATE=03/22/18
##TIME=12:07:05
##SPECTROMETER/DATA SYSTEM=SPECTACLE
##XUNITS=NM EM
##YUNITS=ENERGY
##YFACTOR=1
##FIRSTX=220
##LASTX=410
##NPOINTS=96
##3DDATA=Equidistant
##ZUNITS=NM EX
##FIRSTZ=210
##LASTZ=400
##ZPOINTS=39
##XYDATA=(Y..Y)
##ZVALUE=210
16.119480
16.613603
14.665723
12.277961
10.634661
10.171533
9.349585
8.171797
7.396936
5.401969
4.179478
3.320575
3.042817
2.665520
3.238916
2.898574
3.612638
3.705621
3.581643
4.238486
3.719926
4.553795
4.318953
4.947782
6.467700
8.249879
11.208653
15.495420
19.846559
24.572611
28.867722
32.806993
35.542846
38.235784
41.901469
41.152835
39.983988
40.867925
38.922429
35.505891
37.065744
36.611557
33.545494
32.297969
31.949878
30.473471
28.618574
25.761724
25.263429
24.946928
21.499991
23.487806
21.927953
21.054745
18.498898
19.650459
16.839504
16.452670
15.654564
15.545487
13.844967
13.738871
14.880896
13.172626
13.167858
13.188720
14.818907
14.732480
15.400648
17.225742
17.121434
19.834638
24.436712
25.053620
27.594566
30.348897
30.067563
31.735897
28.535724
29.089451
24.606586
22.185445
19.798875
18.361807
14.402866
11.345744
9.556413
9.056926
10.987520
11.593699
14.942884
15.607476
21.205544
25.638938
34.378767
40.632486
##ZVALUE=215
53.558946
51.488876
39.719939
33.114552
25.795698
22.130609
17.473698
14.422536
14.891624
13.553500
11.891723
9.302497
7.162690
5.575418
4.317760
3.547668
4.136562
3.962517
3.753901
4.161596
3.907681
4.876852
5.306602
5.932450
7.972717
9.419918
13.441443
17.146468
22.679567
26.496649
32.821894
34.824610
41.482449
44.574738
48.045516
48.764944
51.504970
50.345659
49.147606
45.339465
46.138763
40.501952
41.189790
37.160516
37.934780
33.980608
31.312704
31.244755
27.552843
28.538704
25.785565
24.528503
24.002790
22.038817
21.784902
21.896958
20.001531
18.971562
18.140674
16.581416
16.105771
16.233921
15.467405
15.881658
13.587475
16.482472
15.549660
14.861822
16.145706
16.745925
18.829703
19.569993
23.158789
24.575591
27.001500
28.400421
28.601885
28.326511
27.307868
25.978684
23.068786
20.549893
19.691586
15.922785
13.982654
12.372732
10.401607
10.683537
10.246634
10.200739
8.456707
8.233786
9.299517
8.981824
11.965632
14.628768
##ZVALUE=220
116.295815
113.458633
111.671686
99.575520
80.580711
59.065819
48.007965
32.050610
27.078986
23.826957
25.104880
23.847818
20.592809
18.886924
14.778972
11.564493
7.146597
5.969405
5.008578
4.359484
4.248619
4.548430
4.700422
6.542802
7.508993
10.319948
14.199615
18.747449
24.721622
31.062961
36.106706
41.534901
47.525764
50.401688
54.121614
58.165789
59.222579
58.223605
58.363676
53.823590
52.853823
51.563978
51.329732
46.395659
42.460561
39.480925
36.617517
36.352873
32.731891
29.722452
28.727651
29.176474
26.233792
25.077462
22.587776
23.391843
21.231771
22.349954
21.461844
18.865466
17.916560
18.838644
17.460585
15.952587
16.465783
16.407967
15.499592
15.537739
16.536713
15.833974
18.724799
19.262433
21.100640
21.692514
24.751425
26.717782
26.532412
26.911497
26.861429
24.623871
23.736954
22.602677
20.359755
17.335415
15.446544
14.229417
12.505651
10.944605
10.775924
9.529591
9.728670
8.614659
8.210540
8.610487
8.643866
8.269548
##ZVALUE=225
141.946673
146.059990
173.467994
191.572905
188.237429
163.614750
144.190788
99.452734
81.622601
62.242746
42.793751
38.273931
38.767457
38.349628
36.034584
35.546422
26.815534
21.348596
15.753508
10.983944
7.723570
5.249977
5.078912
5.385876
7.319450
9.384751
12.930632
15.817881
23.395419
28.159618
33.070445
42.085648
44.111609
48.858523
49.620867
53.502917
52.999854
54.366589
50.227642
50.642490
48.429966
46.536922
43.403506
42.366982
39.955974
35.845637
37.444830
34.294724
34.884810
31.417608
29.892921
27.319789
25.085807
24.949908
24.736524
23.840666
21.776557
20.762682
20.276904
19.585490
18.212795
17.658472
18.255711
17.575622
17.769933
17.363429
15.206933
18.100739
17.421842
17.826557
18.819571
19.492507
20.059943
23.693442
24.770498
20.905733
21.175742
21.109581
22.602677
19.103885
20.030737
17.942786
15.187860
14.841557
13.500452
11.120439
11.442900
12.096763
10.320544
11.219978
10.347962
11.077523
9.388924
8.835793
9.358525
9.001493
##ZVALUE=230
95.842481
99.992752
151.933432
224.940777
268.403888
312.436819
317.825675
291.007757
252.787471
202.031732
135.860443
93.242526
68.394542
59.770942
57.195425
59.021711
59.093833
55.620670
49.681664
38.282871
31.258464
18.612742
13.048649
9.596944
6.447434
9.557605
10.289550
12.180805
15.056729
18.586516
22.431612
26.020408
26.612878
30.170679
32.539964
32.986999
34.309626
34.988523
34.695864
34.342408
35.655499
33.123493
32.848716
34.200549
31.508803
27.474761
31.287670
25.211573
26.811957
26.544929
25.219917
22.566915
22.269487
21.319985
21.868944
21.379590
19.100904
18.812418
19.537807
19.298792
18.917918
19.350648
19.075871
17.524958
18.597841
16.556978
17.792583
18.305779
17.278790
17.928481
19.621849
20.743608
21.103621
23.036599
22.092462
22.408962
23.336411
21.206737
21.321774
20.048618
18.983483
18.097758
16.062856
15.161633
14.066696
14.682412
11.933446
11.731982
10.765791
10.918975
10.181665
11.000633
9.667873
10.129809
10.798573
9.578466
##ZVALUE=235
27.625561
31.676888
63.788891
138.291717
207.877755
311.236978
388.126969
471.629500
495.538712
479.170680
402.260423
321.263671
216.815472
154.609680
106.404424
88.122487
81.205964
84.804893
91.054440
90.060830
82.005858
69.377422
55.072904
38.008690
26.576519
17.134547
13.809800
9.596944
11.432767
11.498928
13.413429
14.305711
16.113520
18.485785
18.110871
19.516945
21.859407
23.255944
22.690892
21.308661
22.535920
23.453832
23.201704
22.444725
24.313927
23.995638
22.748709
21.799803
20.024776
21.071434
21.298528
21.000504
20.357966
20.148754
20.288825
19.679666
19.606948
17.164946
19.851923
18.262863
17.245412
17.302632
18.223524
16.722679
17.061830
17.561913
17.149448
17.051697
16.998649
19.741654
20.692945
20.646453
22.039413
23.237467
22.389889
22.654533
23.337603
21.942854
20.096898
20.004511
19.425750
17.726421
16.812682
15.088916
15.405416
14.069676
13.056993
13.466477
14.353991
12.584925
12.657642
12.467504
12.636781
11.395812
12.332797
11.708736
##ZVALUE=240
1.962781
2.207756
9.355545
24.899840
69.967508
128.786564
238.522887
355.013609
498.055816
588.324666
657.183528
636.055470
572.158694
446.037650
346.055627
214.524865
153.388977
107.144713
93.358755
100.969672
105.469823
115.519762
102.924705
100.897551
78.846812
63.174963
46.250820
30.591488
20.344853
16.259551
12.415648
12.113452
13.702512
13.882518
14.525652
15.986562
17.817616
18.070936
19.523501
20.345449
20.429492
20.023584
20.551682
20.032525
21.257997
20.841956
21.945834
18.986464
19.803643
20.375848
21.590590
20.889640
17.832518
18.423796
17.542839
17.952919
17.013550
17.294884
17.307997
15.811920
15.571713
16.450882
14.860630
16.282797
16.407967
15.979409
15.370846
15.699863
16.132593
17.932653
17.745495
19.289851
21.022558
22.900701
22.575855
21.186471
21.992922
20.091534
21.008849
18.948913
17.637610
16.056895
14.353991
15.365481
14.899969
13.074875
13.837814
12.388825
13.016462
11.065602
12.360811
12.625456
12.038946
12.636781
10.023713
10.972619
##ZVALUE=245
1.470447
1.770854
1.613498
2.212524
4.407763
18.168688
47.507882
118.988752
215.556622
336.103439
514.773726
639.218688
738.560557
749.234557
692.499876
605.132580
450.998545
325.532556
205.879807
137.786865
103.508830
98.551512
104.995966
118.140578
124.761462
119.581819
109.111667
89.561939
70.724487
50.751567
39.575696
25.819540
21.499991
18.144846
16.987920
18.574595
18.556714
20.004511
20.178556
20.839572
21.386743
22.589564
22.000670
21.992922
22.401810
21.547675
20.679832
20.529628
19.610524
19.360781
19.213557
20.184517
18.215775
17.364621
16.476512
16.473532
15.886426
16.822815
15.284419
14.925599
14.845729
15.234947
13.358593
13.825893
14.225841
14.466643
14.329553
13.168454
14.759898
14.976859
16.495585
16.548634
17.289519
19.067526
17.558932
18.520951
17.302632
16.759634
16.792417
15.330911
14.128685
15.111566
13.943911
14.089942
11.968613
11.335611
11.283755
11.846423
11.178851
10.486841
10.544658
10.557771
9.908676
10.689497
11.294484
10.928512
##ZVALUE=250
1.432896
1.779795
1.585484
1.835823
1.765490
1.771450
3.215671
9.176731
39.080977
86.233616
197.232962
329.780579
482.548475
675.824881
797.326565
865.553617
843.942761
747.650862
623.135567
416.286588
279.469490
183.437467
110.374689
92.933774
100.433826
113.526583
125.565529
130.827427
132.074952
119.686723
107.827783
85.247755
65.100789
47.003627
36.761761
29.018521
28.399825
25.999546
26.680827
25.849938
25.774837
24.845600
24.585724
25.600791
25.591850
24.639964
24.061799
23.514628
23.283958
21.404624
21.568537
20.010471
20.820498
17.924905
18.045902
17.731786
17.337799
16.970634
17.161965
15.516877
16.077757
14.801621
13.674498
14.098883
13.598800
12.528896
12.854934
12.867451
13.326406
14.463663
13.874769
13.849735
14.980435
15.705824
14.118552
14.789701
15.278459
14.421940
13.912916
14.111996
12.234449
11.490583
12.124777
10.646582
10.223985
9.052753
9.560585
9.967685
8.595586
9.487867
9.363890
8.395910
10.100603
9.166598
9.601712
8.330941
##ZVALUE=255
1.054406
1.173615
1.297593
1.539588
1.278520
1.437664
1.479983
2.097487
2.174973
4.812479
25.567412
64.406991
131.257772
282.183886
440.281630
661.132932
812.224746
950.306654
970.705748
891.169906
767.998695
611.727834
374.081731
244.746804
130.769610
94.396472
88.244677
97.444654
124.244690
142.404437
148.263574
150.031447
140.410662
120.733976
98.737478
75.072646
60.272813
45.200586
39.641857
35.086870
34.582615
32.508969
32.595992
30.495524
29.784441
27.572513
29.379725
26.985407
27.318001
26.000738
24.658442
23.440719
22.143722
21.067858
19.652843
18.236637
18.325448
17.205477
17.666817
16.072989
15.966892
15.467405
14.731884
14.175773
13.523698
13.188720
12.695789
12.866855
12.645721
12.767911
12.410879
12.839437
13.983846
13.714433
13.461709
12.947917
13.905764
12.514591
10.953546
10.966659
10.500550
10.255575
9.867549
9.318590
9.226799
8.592606
8.926988
8.081794
8.006692
7.504821
7.793903
7.869601
7.673502
7.900000
7.673502
7.978678
##ZVALUE=260
0.986457
0.925660
1.197457
0.957847
1.123548
1.192689
1.575947
1.422763
1.740456
1.491904
1.788735
2.925992
8.778572
39.418936
92.844963
228.618383
370.395780
605.242848
789.448619
1000.338793
1015.765667
1015.765667
939.950943
766.423941
513.930917
348.240733
198.241472
125.491619
90.008974
92.277527
108.902454
137.724876
156.256557
169.975758
169.073939
156.243443
138.127804
111.363530
91.452003
69.816709
57.794452
48.582554
43.783784
40.557981
36.959648
36.059618
33.076406
31.742454
30.180812
28.890967
27.797818
25.752783
25.268793
24.469495
21.632910
20.982623
19.271970
19.129515
18.512607
16.870499
17.349720
15.078783
16.081929
14.961958
13.922453
13.429523
13.273954
12.687445
12.309551
12.605786
11.765957
13.850927
13.232827
12.033582
12.799501
12.524724
12.226701
11.704564
10.615587
10.017753
8.819699
8.783937
9.144545
7.634759
7.768869
7.461905
7.929802
6.966591
7.442832
7.712841
6.999969
6.568432
6.947517
6.873608
7.306933
7.382631
##ZVALUE=265
1.085997
1.077652
1.174808
1.263618
1.112819
1.244545
1.283884
1.288652
1.290441
1.270771
1.592636
1.733899
1.934767
2.253652
5.089641
25.762916
66.147447
172.585845
309.807658
567.591786
781.449676
983.094573
1015.861630
1015.861630
1015.861630
907.996893
663.195848
472.838879
273.970962
175.599456
116.199851
93.446970
105.931759
135.637522
159.547925
181.953907
188.146830
178.991556
166.028738
144.335628
122.342706
93.307495
78.286529
59.182644
50.602555
41.886568
40.028691
36.494732
34.878850
32.950640
31.216741
28.738976
28.497577
26.235580
24.578571
22.699833
21.181703
20.140409
20.080805
18.330812
18.174648
16.727448
15.682578
15.103817
14.626980
13.633966
13.303757
12.865663
12.926459
12.818575
13.651848
12.892485
12.935996
12.404919
12.207627
12.268424
11.344552
10.564923
10.529757
9.850860
8.887649
8.566976
8.094907
7.877946
7.721782
7.242560
7.386804
7.136464
6.914735
6.918907
6.912947
6.446838
7.406473
7.164478
7.417798
6.713867
##ZVALUE=270
1.143813
1.032948
1.111627
1.033545
1.259446
1.104474
1.088977
0.895858
1.131892
1.471639
1.388788
1.652837
1.625419
1.603961
1.870990
2.218485
2.555847
11.734962
37.347674
120.897889
245.898962
422.729850
735.214949
964.325666
1015.861630
1015.861630
1015.861630
1015.861630
859.877467
650.579929
450.795889
250.058770
158.594847
100.831985
96.496940
119.459629
140.534639
169.391632
180.264711
190.054774
185.711980
166.391730
147.867799
116.771460
94.676614
70.721507
57.710409
45.951605
39.018989
36.157966
33.517480
30.439496
28.589964
27.397871
26.023984
23.413897
22.565722
20.352602
19.916892
19.388795
17.673969
16.869903
16.418695
15.415549
15.586615
14.194846
13.819933
12.617707
13.017654
12.895465
12.893677
12.648702
12.207627
12.296438
11.628866
11.055470
10.778904
9.912848
9.925961
9.183884
9.012818
8.502603
8.300543
8.108616
8.059740
7.444620
7.158518
7.287860
7.120967
7.150769
6.964803
7.256866
6.518960
6.949902
7.437468
7.801652
##ZVALUE=275
1.030564
0.825524
1.085997
1.199841
0.994802
1.164675
1.229644
1.060963
1.281500
1.081824
1.167655
1.090765
1.233816
1.500845
1.449585
1.661777
1.732707
1.816750
2.266765
4.481673
24.617910
72.486997
208.534002
371.955633
533.956885
898.059607
1015.861630
1015.861630
1015.861630
1015.861630
1015.861630
784.457922
563.192964
319.945812
196.384788
108.203888
83.984733
90.056658
107.713938
133.315921
153.168440
171.783566
176.997781
169.343948
157.952905
129.907727
108.087659
80.549717
64.851642
47.590733
38.003922
31.292439
26.716590
24.800897
23.596883
20.696521
20.500422
19.782782
18.173456
17.728806
17.603636
16.452670
15.712976
14.792681
13.931990
13.559461
13.572574
12.590885
12.149811
11.900663
12.616515
11.858940
12.308955
12.221932
12.088418
11.756420
10.940433
9.784698
10.206699
9.560585
9.000897
8.697510
8.173585
7.476807
7.502437
7.164478
7.611513
7.033944
7.200837
7.512569
7.046461
7.205606
6.947517
7.350445
7.460713
7.697940
##ZVALUE=280
0.941753
0.952482
1.038909
1.093745
1.079440
1.086593
1.022816
1.047850
0.906587
1.056790
1.276731
1.276731
1.004934
1.064539
1.259446
1.350641
1.477599
1.433492
1.888871
1.749992
2.126694
2.451539
14.463663
48.249960
149.830580
275.892615
516.122580
747.447014
1013.197899
1015.861630
1015.861630
1015.861630
1015.861630
923.924446
685.935020
396.827459
242.858529
117.581487
72.733760
59.015751
70.843697
93.549490
116.529465
137.280822
153.638721
159.985423
153.786540
137.591958
119.131804
91.965795
72.593689
49.933791
38.894415
27.485490
22.837520
19.354820
17.731786
16.314983
15.439987
15.534759
14.895797
14.223456
13.776422
13.628602
12.849569
12.312531
12.446642
12.180805
11.688471
10.894537
10.993481
11.310577
11.378527
11.254549
11.207461
10.659695
10.562539
9.673834
9.456873
9.352565
8.770823
8.298755
7.812977
7.909536
7.921457
7.755756
7.313490
6.896853
6.997585
7.094741
7.094741
6.877780
7.163882
7.408857
7.413626
7.763505
##ZVALUE=285
0.997782
0.948906
1.119971
0.760555
0.756979
1.030564
0.927448
1.025796
0.865459
0.817776
1.021624
0.985861
0.932813
1.110435
1.152754
1.178980
1.305938
1.389980
1.305938
1.469851
1.549721
1.706481
2.144575
2.383590
7.205606
24.883747
84.424615
176.629424
369.368792
584.775805
821.847916
1015.862823
1015.862823
1015.862823
1015.862823
1015.862823
846.406817
526.616573
330.833793
159.129500
87.778568
44.364929
41.369796
57.750940
77.202916
103.949904
122.672915
138.803720
145.789981
140.372515
131.870508
108.778477
89.927912
63.320994
46.312809
30.792952
22.321939
15.958548
14.090538
12.568831
12.429953
11.972785
11.996627
11.571646
11.551976
10.907650
10.676980
10.657907
10.688901
10.333657
10.551810
10.489821
10.261536
10.713935
10.463595
9.941459
9.504557
9.468794
8.925796
8.785725
8.320808
7.958412
7.542968
8.153915
7.659793
7.588863
7.303953
7.420778
7.329583
7.242560
7.298589
7.281899
6.979704
7.294416
7.055998
6.835461
##ZVALUE=290
0.927448
0.762939
0.877976
0.786781
0.663996
0.879765
0.818968
0.965595
0.938773
0.902414
0.991821
0.838637
0.993609
1.071692
1.184940
1.092553
1.144409
0.869632
1.260638
1.148582
1.296997
1.377463
1.480579
1.749992
2.004504
2.449751
3.025532
14.184713
42.440891
129.730701
241.813660
492.197871
725.750923
1012.196541
1015.861630
1015.861630
1015.861630
1015.861630
981.754065
660.911798
435.903668
217.718482
116.164684
47.470927
30.525923
35.396814
48.101544
70.637465
89.552999
113.787651
127.608776
136.571527
136.302710
121.856928
105.752945
78.381896
59.769750
40.561557
29.232502
18.636584
14.258623
11.593699
10.511875
9.578466
9.248853
9.380579
9.083748
9.559989
9.094477
9.103417
9.168983
9.945631
9.693503
9.351969
9.663701
9.254813
9.104609
8.433461
8.429885
7.997751
8.111596
7.919669
7.640719
7.757545
7.686615
7.442832
7.056594
6.930828
7.361770
7.194877
7.444620
7.188916
7.310510
7.031560
6.902814
6.698966
##ZVALUE=295
0.745654
0.766516
0.795722
0.701547
0.848770
0.931621
0.808835
0.846982
0.880957
0.915527
0.770688
0.886917
0.840425
0.815988
0.879765
0.948906
0.934601
1.016855
1.152754
1.277924
1.106858
1.124740
1.227856
1.640916
1.690984
1.709461
1.812577
1.986623
2.411604
4.352927
23.884773
68.835616
155.763030
360.143781
579.248667
915.666819
1015.861630
1015.861630
1015.861630
1015.861630
1015.861630
803.775787
553.369522
288.400650
159.669518
60.823560
30.353665
22.731423
28.714538
45.439601
61.204433
85.258484
102.210641
121.203661
127.605796
125.418901
116.020441
96.611977
79.178810
54.751635
40.030479
25.167465
17.694831
12.323856
9.722710
8.415580
8.335710
7.700920
7.928610
7.989407
8.318424
8.531809
8.414984
8.266568
8.526444
8.389950
8.005500
8.111596
8.131862
7.586479
7.834435
7.333755
7.134676
7.254481
7.195473
7.063746
7.115602
7.002950
7.121563
7.148981
7.055998
6.919503
7.032752
6.367564
6.866455
6.878972
##ZVALUE=300
0.730753
0.747442
0.606775
0.691414
0.729561
0.616908
0.895858
1.004934
0.927448
0.752807
0.920892
0.974536
0.858903
0.783801
0.900626
0.841618
0.863671
0.917912
1.050830
1.029968
1.040697
0.804663
1.094937
1.223683
0.923872
1.363754
1.439452
1.548529
1.551509
1.956820
1.832843
2.500415
6.970763
41.420460
101.019740
257.923603
435.232520
752.444863
987.676978
1015.861630
1015.861630
1015.861630
1015.861630
947.813988
697.581768
385.641456
230.628848
102.779865
49.410462
20.118952
18.124580
26.118755
36.449432
56.378841
74.205995
97.837448
110.906959
121.758580
119.664669
108.571649
94.967484
73.519945
57.410598
38.176775
26.716590
15.660524
11.435747
8.638501
7.667542
7.377863
7.373691
7.607937
7.426739
7.293820
7.887483
7.464886
7.252693
6.952882
6.971955
6.761551
7.100701
6.895661
6.764531
6.779432
6.958842
6.742477
6.817579
6.931424
6.470680
6.428957
6.303787
6.315708
6.411672
6.463528
6.309748
6.573796
##ZVALUE=305
0.705719
0.731945
0.776649
0.728965
0.824928
0.628829
0.786781
0.718832
0.746846
0.657439
0.731945
0.693798
0.560880
0.751615
0.791550
0.977516
0.742674
1.023412
0.836849
0.981688
0.947714
0.957847
0.907779
1.020432
1.122952
1.167655
1.308918
1.210570
1.293421
1.399517
1.530647
1.767874
1.981854
2.066493
3.863573
23.103952
65.643787
189.056396
338.031650
625.906587
874.477029
1015.861630
1015.861630
1015.861630
1015.861630
1012.156010
816.955566
514.686704
321.652889
145.753622
71.401000
24.698973
14.536977
16.639829
23.138523
37.328601
52.502751
74.393749
88.983774
107.356906
112.434626
112.592578
105.233788
88.510513
71.262717
50.521493
36.167502
23.087859
15.580654
10.110736
8.131862
7.129908
7.131696
6.927848
6.395578
6.793737
6.704926
6.554723
6.537437
6.344914
6.405711
6.269813
6.433725
6.398559
6.776452
6.535649
6.373525
6.197691
6.493926
6.482601
6.279945
6.383657
6.601810
6.183982
6.183982
6.226897
##ZVALUE=310
0.640750
0.774860
0.881553
0.856519
0.768900
0.759959
0.813603
0.850558
0.735521
0.774860
0.926852
0.864863
0.875592
0.757575
0.801682
0.806451
0.911951
0.972748
0.815988
1.018643
0.941753
0.924468
1.105666
1.084805
1.079440
1.224875
1.218915
1.294613
1.291633
1.350641
1.326799
1.624823
1.670718
1.810789
2.024770
2.110600
2.464652
10.010600
33.665895
112.992525
226.354599
467.149615
715.232491
1015.933752
1015.933752
1015.933752
1015.933752
1015.933752
992.766619
684.569478
455.385447
230.153799
121.115446
42.915940
18.198490
11.700988
14.031529
21.545887
30.950904
46.933889
61.884522
83.532929
95.798969
104.658604
106.541514
98.998547
87.869763
68.729520
52.919984
34.479499
24.319887
15.295744
11.059642
8.017421
6.910563
6.388426
6.390810
6.162524
6.260872
5.934834
5.876422
6.254911
6.091595
6.211996
6.329417
5.935431
5.911589
6.305575
6.233454
6.420612
5.932450
6.152987
6.403923
5.939603
5.825758
5.770922
##ZVALUE=315
0.485778
0.695586
0.611544
0.624657
0.667572
0.593662
0.576973
0.522733
0.827909
0.656843
0.748634
0.760555
0.755787
0.878572
0.779629
0.786781
0.798702
0.760555
1.014471
0.690818
0.819564
0.825524
0.819564
1.017451
0.946522
0.993609
1.004934
1.019835
1.238585
1.227856
1.232624
1.234412
1.380444
1.502633
1.339912
1.633763
1.608729
1.931787
2.212524
4.475713
17.384887
72.957873
160.486698
365.208983
584.589839
929.590464
1015.861630
1015.861630
1015.861630
1015.861630
1015.861630
828.347802
589.572787
318.054557
175.955892
66.672564
27.484894
10.562539
10.075569
12.940764
17.956495
29.730797
41.335821
59.178472
74.353814
90.752840
99.178553
100.217462
94.844699
80.236793
66.862702
47.949553
34.857988
21.333694
14.892817
9.459853
7.329583
6.187558
5.824566
5.622506
5.941987
5.403757
5.658865
5.449653
5.810857
5.435944
5.534887
5.603433
5.879998
5.729795
5.554557
5.567670
5.511642
5.710721
5.657673
5.634427
##ZVALUE=320
0.649691
0.548959
0.729561
0.658631
0.650883
0.588894
0.700951
0.659823
0.710487
0.676513
0.719428
0.721812
0.759959
0.627637
0.824928
0.711679
0.712872
0.770688
0.708699
0.752807
0.686646
0.825524
0.792742
0.806451
0.669956
0.910759
0.967979
0.978708
0.936985
1.006722
0.976920
1.099706
1.191497
1.111627
1.056790
1.309514
1.413822
1.569986
1.723766
1.658797
2.118945
2.520680
8.055568
42.298436
104.580522
270.139575
448.694825
748.485923
986.477733
1015.861630
1015.861630
1015.861630
1015.861630
970.946550
717.625618
400.700569
230.035782
96.935630
42.457581
13.986826
9.327531
9.088516
11.206865
17.157793
24.497509
39.543509
52.592754
70.694685
82.776546
92.834830
94.955564
89.267492
79.076886
61.805844
47.467947
31.243563
21.971464
13.830662
9.830594
6.791949
5.826950
5.582571
5.373955
5.302429
5.088449
5.185604
5.126595
5.094409
5.190969
5.480647
5.441904
5.268455
5.455613
5.467534
5.466938
5.511642
##ZVALUE=325
0.605583
0.581741
0.598431
0.590682
0.616908
0.446439
0.700951
0.596642
0.589490
0.619888
0.745654
0.642538
0.535846
0.718832
0.741482
0.553727
0.642538
0.650883
0.634789
0.816584
0.675917
0.660419
0.903606
0.821948
0.803471
0.755787
0.869632
0.760555
0.932813
0.818968
1.048446
0.844598
0.882745
1.122952
1.136661
1.263618
1.278520
1.319647
1.275539
1.555681
1.372695
1.729727
1.779795
2.097487
4.015565
25.822520
68.532825
182.511806
332.341790
624.938607
873.049498
1015.861630
1015.861630
1015.861630
1015.861630
1013.121605
804.654956
490.223765
300.693512
131.873488
62.956810
18.689632
9.178519
7.624626
8.043647
10.808706
15.081763
24.801493
35.530925
53.714514
66.039562
79.413652
87.851882
88.840723
84.202886
70.311427
58.011413
42.729974
30.741692
19.441843
13.239980
8.396506
6.505847
5.628467
5.011559
5.205870
4.858971
5.149841
4.995465
5.038977
5.157590
5.224943
5.144477
5.142689
5.024672
5.213618
##ZVALUE=330
0.606775
0.510812
0.584722
0.557899
0.576973
0.653863
0.726581
0.563860
0.438690
0.700951
0.589490
0.778437
0.650883
0.625849
0.639558
0.820756
0.727773
0.666976
0.780821
0.732541
0.720620
0.839829
0.656843
0.639558
0.771880
0.812411
0.747442
0.884533
0.931621
0.923872
0.911951
0.990629
0.777841
0.845790
0.899434
1.081824
1.148582
1.224875
1.153946
1.259446
1.258850
1.528859
1.354814
1.545548
1.963973
1.955628
2.581477
11.015534
35.804510
120.972991
236.518979
481.516719
714.838505
1011.251807
1015.861630
1015.861630
1015.861630
1015.861630
930.740833
610.448718
392.843485
183.277726
91.962814
31.700730
12.531877
7.024407
6.776452
7.542968
9.502769
14.999509
21.660924
34.407973
46.167970
63.516498
73.101521
81.864595
82.944632
76.856613
67.503452
52.352548
40.821433
26.679635
19.290447
12.544990
9.287596
6.491542
5.460978
4.876852
5.161762
4.811883
4.746914
4.601479
4.700422
4.886985
5.043745
4.847646
##ZVALUE=335
0.610948
0.498891
0.581741
0.600815
0.509620
0.548959
0.448823
0.524521
0.522733
0.570416
0.540614
0.563860
0.605583
0.531673
0.576973
0.599623
0.651479
0.782609
0.680685
0.719428
0.607967
0.725985
0.701547
0.746846
0.711679
0.784993
0.703931
0.742674
0.839829
0.867844
0.728965
0.761747
0.645518
0.849962
0.921488
0.858903
1.020432
1.138449
1.213551
1.030564
1.185536
1.147985
1.318455
1.339912
1.399517
1.500845
1.749992
1.890659
2.047420
5.030632
18.352866
75.471997
161.106586
360.963941
585.267544
926.280618
1015.861630
1015.861630
1015.861630
1015.861630
1013.934612
724.357963
493.838787
254.730582
133.121014
44.966936
17.699599
7.901788
6.539822
6.648898
7.215738
9.414554
13.435483
22.190809
31.463504
45.916438
56.927800
69.456697
75.068474
76.237917
72.525740
62.238574
51.682591
39.223433
30.024648
19.349456
13.798475
9.126663
7.244945
5.536675
4.993677
4.842877
4.486442
4.671812
4.919767
4.921556
##ZVALUE=340
0.609756
0.580549
0.652671
0.555515
0.450611
0.594854
0.610948
0.325441
0.523925
0.396967
0.627637
0.640750
0.470877
0.611544
0.543594
0.439882
0.645518
0.450611
0.519753
0.559688
0.614524
0.681877
0.639558
0.779629
0.809431
0.674725
0.676513
0.773668
0.800490
0.697970
0.764728
0.706911
0.762939
0.658631
0.820756
0.907779
0.815988
0.964999
1.059771
0.856519
0.974536
1.092553
1.081824
1.157522
1.241565
1.374483
1.527667
1.589656
1.496673
1.617670
1.971722
2.682805
9.175539
45.423508
112.773776
285.736918
480.007529
788.803697
1006.041765
1015.895009
1015.895009
1015.895009
1015.895009
841.897726
594.247580
312.246680
173.024535
68.215728
26.244521
8.525848
6.635785
6.315708
6.572604
7.126927
8.859634
13.581514
19.804835
30.747652
41.151643
56.066513
64.386725
71.236491
71.778893
67.532659
60.586929
48.147440
38.618445
26.646852
19.735694
12.816787
9.253621
6.724000
5.550981
5.225539
4.763603
4.950762
##ZVALUE=345
0.644922
0.614524
0.555515
0.625849
0.616908
0.576973
0.494719
0.518560
0.652671
0.600815
0.647902
0.710487
0.662804
0.578761
0.553727
0.562668
0.605583
0.729561
0.592470
0.783801
0.700951
0.590682
0.581741
0.723600
0.643730
0.782609
0.863671
0.876784
0.640750
0.753999
0.844598
0.839829
0.831485
0.761747
0.920892
0.997782
0.907779
0.905991
0.933409
0.961423
0.930429
1.031756
0.968575
0.988841
1.118779
1.233816
1.297593
1.279712
1.285672
1.415610
1.494884
1.735687
1.827478
2.158880
4.195571
25.504827
72.016716
194.371939
349.217653
633.697510
871.770978
1015.951633
1015.951633
1015.951633
1015.951633
934.364796
699.157715
408.836603
232.185721
92.484951
40.308833
12.885928
7.687807
6.411672
5.995631
5.759597
6.155968
8.099675
11.190772
18.825531
27.342439
39.487481
49.170852
58.959723
64.167976
67.165494
64.639449
56.726933
48.737526
37.840605
28.420687
18.772483
13.621449
8.999705
7.056594
5.790591
##ZVALUE=350
0.640750
0.778437
0.662804
0.544786
0.698566
0.623465
0.732541
0.788569
0.779629
0.749826
0.652671
0.638962
0.691414
0.675917
0.710487
0.713468
0.784993
0.743866
0.737906
0.685453
0.752807
0.859499
0.807643
0.801682
0.965595
0.834465
0.814795
0.894666
0.759959
0.712872
0.890493
0.738502
0.907779
0.806451
0.949502
1.017451
0.902414
0.950694
1.019835
0.878572
0.928640
1.016855
1.072884
1.116991
1.130700
1.279712
1.382828
1.241565
1.155734
1.271963
1.296997
1.445413
1.578927
1.637936
1.713634
2.021790
2.765656
12.532473
40.450692
129.441619
249.922872
504.636765
730.091929
1004.378796
1015.989780
1015.989780
1015.989780
1008.159518
806.911588
485.676527
298.542976
138.120651
62.224865
17.250776
8.292794
6.314516
5.555749
5.250573
5.297661
6.035566
7.464886
11.467934
16.302466
24.024844
32.199621
43.289661
51.469803
58.680773
61.341524
58.728456
53.860545
44.421554
36.435723
26.011467
19.738674
13.400912
##ZVALUE=355
0.484586
0.535846
0.431538
0.631809
0.485778
0.537634
0.558496
0.626445
0.696778
0.538826
0.618696
0.660419
0.696778
0.482798
0.513792
0.609756
0.466704
0.510812
0.620484
0.603795
0.629425
0.531673
0.672936
0.623465
0.658631
0.647902
0.606775
0.732541
0.782609
0.745654
0.884533
0.724792
0.653863
0.858903
0.784993
0.716448
0.850558
0.648499
0.676513
0.766516
0.905991
0.738502
0.939965
0.940561
0.967979
1.061559
0.981688
0.997782
0.984669
1.044869
1.084805
1.184940
1.304746
1.369715
1.421571
1.457930
1.653433
1.909733
2.095699
5.930662
21.205544
84.557533
175.948739
373.539925
590.927601
916.252732
1015.864611
1015.864611
1015.864611
1015.864611
891.344547
597.158670
376.801491
168.481469
81.011653
23.775697
9.678602
6.052852
5.314946
5.029440
4.772544
4.946589
5.305409
6.897449
9.068847
14.233589
20.067692
29.513836
37.007928
46.383739
51.761866
55.842996
54.666996
49.363971
42.997599
34.043789
##ZVALUE=360
0.496507
0.469685
0.597835
0.629425
0.749826
0.555515
0.563860
0.624657
0.472665
0.623465
0.656843
0.568628
0.713468
0.773668
0.483990
0.645518
0.638962
0.667572
0.671744
0.610948
0.503659
0.572801
0.725985
0.585914
0.533462
0.662804
0.538826
0.634789
0.665784
0.622869
0.648499
0.800490
0.664592
0.834465
0.800490
0.804663
0.851750
0.826716
0.800490
0.922680
0.782609
0.812411
0.891685
0.878572
0.868440
0.796914
0.870824
0.955462
1.005530
0.993609
0.998974
1.188517
1.115799
1.254678
1.285672
1.502633
1.369715
1.467466
1.617670
1.700521
2.052784
3.075600
9.411573
44.838786
110.496879
274.732709
458.348989
747.827888
982.976556
1015.861630
1015.861630
1015.861630
992.710590
691.731572
464.262962
227.821469
118.640661
42.516589
16.183853
6.408691
5.477667
4.903674
4.742742
4.417896
4.542470
4.766583
5.943775
8.137822
11.148453
16.974807
23.199916
33.313632
39.283633
46.396852
50.308704
50.475597
##ZVALUE=365
0.630617
0.542998
0.604987
0.737906
0.658631
0.516772
0.609756
0.674725
0.532866
0.601411
0.614524
0.670552
0.596642
0.686646
0.583529
0.567436
0.717640
0.705719
0.677705
0.798702
0.661612
0.770688
0.578761
0.643730
0.694990
0.771880
0.755787
0.753999
0.776649
0.745654
0.589490
0.727773
0.813603
0.861883
0.795722
0.850558
0.829697
0.845790
0.910759
0.952482
0.852942
0.977516
1.028776
1.001954
0.942945
0.948906
1.055598
1.002550
1.013875
0.976920
1.136661
1.139641
1.160502
1.139641
1.278520
1.040697
1.342893
1.440644
1.416802
1.513958
1.596808
1.771450
2.017617
2.433658
4.266500
22.950768
67.010522
189.437866
345.223546
622.840524
852.078795
1015.964746
1015.964746
1015.964746
1015.964746
794.312954
567.968488
312.286615
171.131492
63.774586
25.192499
7.581711
5.351901
4.981756
4.620552
4.287958
4.543662
4.108548
4.326701
4.962683
6.734729
10.030866
13.692975
20.343661
27.004480
34.824610
##ZVALUE=370
0.397563
0.443459
0.557899
0.463724
0.332594
0.578761
0.388622
0.565648
0.549555
0.645518
0.498891
0.396967
0.526905
0.397563
0.368953
0.596642
0.574589
0.624657
0.454783
0.440478
0.650883
0.533462
0.406504
0.669956
0.569820
0.591874
0.645518
0.536442
0.463724
0.669956
0.739694
0.607967
0.585914
0.554919
0.723600
0.570416
0.658631
0.819564
0.638962
0.735521
0.900626
0.554919
0.727773
0.746846
0.734925
0.909567
0.814795
0.779629
0.736713
0.879765
0.877976
0.820756
1.054406
1.051426
1.238585
0.967979
0.948906
1.017451
1.020432
1.131892
1.340508
1.340508
1.330972
1.542568
1.562834
2.064705
2.606511
12.312531
42.200685
138.815641
260.831714
498.726964
738.345981
1011.439562
1015.836000
1015.836000
1015.836000
902.183652
669.537783
379.799604
216.202736
85.826516
38.074851
12.218952
5.901456
4.674792
4.395843
4.163980
4.092455
3.566742
3.946424
3.807545
4.439950
6.063581
8.015633
12.638569
##ZVALUE=375
0.472665
0.460744
0.574589
0.456572
0.498891
0.481606
0.478625
0.500679
0.399947
0.347495
0.452995
0.370741
0.501871
0.333786
0.484586
0.576973
0.513792
0.507832
0.670552
0.420809
0.414848
0.534654
0.419617
0.515580
0.486970
0.591874
0.664592
0.666976
0.539422
0.649691
0.777841
0.698566
0.700951
0.624657
0.627637
0.588894
0.640750
0.782609
0.791550
0.600815
0.692606
0.788569
0.774860
0.765920
0.682473
0.888705
0.699759
0.756979
0.837445
0.797510
0.858903
0.884533
0.836849
0.701547
1.067519
0.860691
0.898838
0.943542
0.918508
0.986457
0.913739
1.106858
0.994802
1.090765
1.364946
1.495481
1.613498
1.681447
2.130866
6.265640
22.463799
82.460642
181.425810
402.517915
625.111461
937.348008
1015.827656
1015.827656
1015.827656
993.155837
785.249472
485.789776
308.036804
149.765611
73.695779
22.377968
8.577704
4.680753
4.227757
4.016757
3.974438
3.743768
3.521442
3.572702
3.674626
4.228950
##ZVALUE=380
0.413656
0.465512
0.477433
0.587702
0.428557
0.545979
0.575781
0.360608
0.681877
0.399947
0.413656
0.554919
0.264645
0.413656
0.417829
0.385642
0.380874
0.500679
0.512600
0.507832
0.584722
0.620484
0.471473
0.543594
0.473857
0.454783
0.726581
0.736713
0.677705
0.851750
0.862479
1.005530
0.912547
0.927448
0.874996
1.007915
1.049638
0.827909
1.141429
0.981688
0.956655
1.061559
0.816584
0.946522
1.058578
1.154542
0.969768
1.001954
0.926852
0.932813
0.930429
0.816584
0.847578
0.963807
0.907779
1.003742
1.049638
0.989437
0.938773
0.977516
0.969768
0.943542
1.139641
1.085997
1.159906
1.115799
1.351833
1.586676
1.579523
1.771450
2.011657
3.400445
12.210608
58.382750
136.061907
320.742726
518.199801
810.651779
1007.484794
1015.861630
1015.861630
1015.861630
893.761516
607.906580
409.472585
203.191638
103.935599
35.912991
14.006495
5.161762
4.231930
3.783703
3.671646
3.832579
3.669858
3.573895
##ZVALUE=385
0.251532
0.480413
0.523925
0.528693
0.447631
0.383854
0.516772
0.547767
0.453591
0.561476
0.579953
0.585914
0.538826
0.522733
0.350475
0.418425
0.548959
0.491738
0.464916
0.536442
0.394583
0.433922
0.488758
0.521541
0.639558
0.673532
0.726581
0.837445
0.944734
1.140833
1.222491
1.241565
1.431704
1.489520
1.478791
1.621842
1.656413
1.563430
1.520514
1.634955
1.398921
1.396537
1.648664
1.379848
1.337528
1.208782
1.211762
1.208782
1.086593
1.090765
1.018643
1.086593
0.966787
1.078844
0.819564
1.069903
0.958443
1.038909
1.107454
1.036525
0.904799
0.919700
1.010895
1.098514
1.129508
1.206994
1.277924
1.328588
1.176000
1.578927
1.639724
1.797676
1.841784
2.140999
5.672574
32.629967
85.498691
219.998956
393.005610
693.393946
924.842954
1015.861630
1015.861630
1015.861630
1004.405618
755.023956
537.221432
295.899510
167.129636
67.673922
26.607513
6.918907
4.522800
3.822446
3.785491
3.695488
##ZVALUE=390
0.482798
0.474453
0.530481
0.259876
0.440478
0.425577
0.410676
0.429749
0.500679
0.601411
0.492930
0.405908
0.479817
0.457764
0.541806
0.554919
0.604987
0.529885
0.553727
0.569820
0.584722
0.397563
0.452995
0.590682
0.718832
0.664592
0.851750
0.976920
1.345873
1.469851
1.728535
1.967549
2.090931
2.461672
2.286434
2.526641
2.456903
2.361536
2.272725
2.226830
2.140999
2.051592
1.870990
1.894832
1.706481
1.547933
1.735687
1.557469
1.578927
1.457930
1.327991
1.231432
1.260638
1.205802
1.140833
1.125932
1.140833
1.062751
1.059771
1.204610
1.051426
0.894666
1.103878
1.095533
1.115799
1.110435
1.114607
1.156926
1.376867
1.254678
1.636744
1.691580
1.615882
1.709461
1.859665
2.069473
2.997518
17.116666
54.508448
166.150928
314.709544
590.026975
804.508924
1015.861630
1015.861630
1015.861630
1015.861630
896.060467
686.223507
417.312980
242.491961
98.168850
43.807626
11.289716
5.069971
3.880858
##ZVALUE=395
0.494719
0.528693
0.504851
0.434518
0.456572
0.486970
0.345707
0.427961
0.367761
0.542998
0.550747
0.518560
0.391603
0.459552
0.421405
0.423789
0.410676
0.448823
0.471473
0.345707
0.456572
0.437498
0.505447
0.557899
0.729561
0.760555
1.035929
1.234412
1.687407
1.853704
2.357960
2.571940
2.571940
2.863407
3.028512
2.940893
3.096461
3.312826
2.962947
3.009439
2.782941
2.551675
2.605915
2.424717
2.223849
2.243519
2.148747
2.032518
1.975894
1.724958
1.691580
1.447797
1.265407
1.520514
1.341701
1.266599
1.252890
1.195669
1.270771
1.104474
1.148582
0.980496
1.147985
1.196861
0.942945
1.170635
1.214743
1.321435
1.225471
1.595616
1.549721
1.394749
1.529455
1.574755
1.577735
1.591444
1.777411
1.764894
2.201796
9.219646
34.380555
119.555593
228.163600
438.361764
652.210712
952.586532
1015.861630
1015.861630
1015.861630
1011.109948
818.666816
512.551665
319.199562
139.696002
66.206455
20.823479
##ZVALUE=400
0.467896
0.355840
0.171661
0.288486
0.368953
0.337958
0.378489
0.311732
0.483990
0.276566
0.208616
0.342727
0.264645
0.374913
0.257492
0.294447
0.399947
0.399947
0.419617
0.506639
0.398755
0.353456
0.375509
0.358820
0.552535
0.647902
0.829697
1.222491
1.513958
1.830459
2.294779
2.550483
2.712607
3.019571
3.131628
3.127456
3.381968
3.290772
3.270507
3.009439
3.145933
2.794862
2.710819
2.590418
2.378821
2.174973
2.128482
2.034903
1.938939
1.800656
1.761913
1.474619
1.418591
1.301765
1.249909
1.138449
1.002550
1.020432
1.014471
1.042485
1.127720
1.130700
0.997782
1.104474
1.098514
0.880957
0.982881
1.087785
1.259446
1.058578
1.319647
1.212955
1.234412
1.408458
1.046658
1.095533
1.194477
1.395941
1.446605
1.687407
1.786947
5.221963
17.945766
67.867637
150.088668
339.216590
539.314747
834.371448
1011.176705
1015.733480
1015.733480
1015.733480
890.185833
592.972636
393.319726
197.977424
##END
