##TITLE=FDDW01
##FORMAT=SPECTACLE-ASCII V-1.2
##DATA TYPE=ULTRAVIOLET SPECTRUM
##SECOND TYPE=ULTRAVIOLET SPECTRUM
##DATE=03/22/18
##TIME=12:03:47
##SPECTROMETER/DATA SYSTEM=SPECTACLE
##XUNITS=NM EM
##YUNITS=ENERGY
##YFACTOR=1
##FIRSTX=220
##LASTX=410
##NPOINTS=96
##3DDATA=Equidistant
##ZUNITS=NM EX
##FIRSTZ=210
##LASTZ=400
##ZPOINTS=39
##XYDATA=(Y..Y)
##ZVALUE=210
18.676519
15.905499
13.628602
12.671947
10.113716
8.860826
9.060502
8.316636
6.444454
6.221533
4.514456
3.126860
3.234744
2.670884
2.095699
2.662539
2.462864
3.597736
3.389716
3.063679
3.750920
3.195405
4.408956
4.304647
5.019903
5.433559
7.645488
7.887483
11.531711
11.459589
14.393926
16.225576
16.851425
18.090606
18.721819
19.350648
19.457936
19.521713
19.568801
18.725991
18.205643
17.921925
17.934442
15.942454
14.426708
15.458465
15.960932
14.816523
13.697743
14.250875
12.846589
12.794733
12.717843
12.127757
12.005568
11.487603
11.081696
11.419654
10.269880
9.783506
9.955764
9.752512
9.687543
10.147691
9.345412
9.853840
10.794997
11.542439
12.226701
12.724996
14.912486
18.488765
19.514561
22.569895
23.952723
22.569895
23.606420
22.912621
21.700859
18.638968
17.707944
15.668869
14.094710
12.003779
10.953546
9.481907
8.696914
9.536743
9.863973
9.647608
11.700988
16.510487
20.019412
26.992559
28.598905
35.824776
##ZVALUE=215
49.453974
52.648783
36.991835
28.721690
22.951961
18.590689
15.584826
13.853908
15.187860
12.992620
10.881424
9.348989
7.062554
6.302595
3.914833
3.609657
3.871918
3.064871
3.055930
3.806949
3.938675
3.930926
4.642606
4.463792
6.291866
6.593466
7.968545
10.142922
11.031628
14.042854
16.524792
19.010901
18.982887
20.272732
22.798777
24.475455
23.153424
24.651885
22.357702
23.059845
21.652579
21.730661
20.313859
19.668937
18.026829
17.809868
16.738772
16.877651
16.445518
15.613437
14.172792
13.503432
13.816953
12.909770
12.440681
11.484623
11.913776
11.101961
10.767579
11.854768
11.431575
10.687709
10.343790
10.345578
9.824634
9.957552
10.569692
11.508465
11.897683
12.781620
14.899969
16.383529
16.250610
19.690990
19.237995
21.787882
21.007657
19.755960
22.769570
19.482970
16.964674
14.649630
14.285445
11.456609
10.431409
9.041429
9.157658
8.266568
7.564425
6.659627
6.529689
6.955862
7.478595
8.783937
12.398958
14.290810
##ZVALUE=220
111.432672
111.268759
108.669996
92.411637
77.686906
53.357482
40.113926
29.118657
24.202466
24.843812
22.610426
23.010969
20.444989
18.250942
14.049411
10.411739
7.176995
5.524755
3.977418
3.764629
4.272461
3.821850
3.882647
4.299879
5.521774
7.905960
9.089708
11.420846
15.248656
15.054941
18.932819
20.842552
24.757981
24.886727
27.294755
27.658939
26.617646
26.515722
25.739670
25.502443
26.111603
24.492741
23.239851
23.526549
21.124482
21.305680
21.193624
18.544793
18.131733
17.612576
17.703772
17.429590
15.003681
15.481710
13.598800
14.215708
13.781786
12.791753
12.068748
13.218522
12.676716
12.961626
12.563467
13.440847
12.612939
11.604428
11.932850
12.224913
12.926459
14.103651
15.500784
16.566515
18.435717
20.615458
21.443963
22.442937
22.233725
22.724867
22.103786
22.383928
18.807650
17.728806
15.467405
13.530850
11.066794
9.479523
8.954406
8.667707
8.281469
8.811951
7.025599
8.414984
8.114576
8.175969
7.994771
7.476807
##ZVALUE=225
143.278837
151.251554
171.234608
192.172527
185.811520
163.662434
136.080980
95.323920
73.286891
54.912567
41.105747
39.071441
39.034486
37.538409
37.115812
33.048987
26.139617
20.200610
14.732480
10.164976
7.583499
5.075932
4.556775
5.500913
5.802512
7.368922
8.245707
10.950565
12.023449
17.531514
18.074512
22.515655
23.120642
23.772717
24.098754
28.509498
26.028752
26.448965
27.288795
27.041435
24.829507
25.194883
24.820566
23.836493
23.010969
20.106435
20.324588
19.887686
18.689632
19.147992
18.090606
17.177463
16.972423
16.104579
16.599894
15.518665
15.483499
15.145540
15.363693
16.298890
15.162826
14.173985
15.120506
14.470816
14.060736
14.131665
13.396740
16.060472
14.003515
15.237927
16.050935
17.417669
19.744635
21.136999
20.079613
21.379590
21.581650
21.610856
21.266937
19.539595
18.304586
17.096996
14.726520
13.838410
13.137460
11.784434
10.249615
9.836555
9.274483
8.649826
9.956956
8.993745
8.524656
8.075833
8.457899
9.211898
##ZVALUE=230
103.148818
109.400749
172.920823
225.859880
268.399715
309.376717
315.714478
286.889672
239.094496
179.497004
127.022862
87.513924
62.868595
54.842830
53.304434
59.588552
58.067441
53.938627
49.611926
38.092732
30.526519
22.977591
13.405681
9.621978
8.090734
7.770658
7.341504
9.427667
10.875463
10.792613
12.405515
15.905499
16.628504
19.590855
19.312501
19.822717
21.277666
20.320415
21.306872
20.896792
21.305680
21.297932
21.455884
20.220876
18.979907
18.965602
18.500686
18.851757
18.641949
18.397570
17.700791
19.026995
17.441511
18.425584
15.859604
16.366839
16.288757
17.129779
15.611649
14.897585
14.401674
15.594959
15.822649
14.010668
16.282797
15.366673
13.907552
15.295744
15.131831
16.933680
17.513633
19.316673
21.719933
20.971894
22.823811
22.009611
21.623969
20.441413
21.088719
19.710660
18.263459
16.230941
14.048815
12.749434
11.751652
12.683868
11.356473
11.677742
11.028647
10.845661
9.803772
10.792613
9.116530
9.736419
10.065436
9.656549
##ZVALUE=235
29.480457
31.151772
61.030984
138.963461
212.284923
317.487717
400.964618
478.143692
492.414832
474.569798
395.980477
304.251909
203.755498
145.753622
101.787448
82.968473
77.988505
84.557533
88.053942
88.350773
81.617832
66.619515
54.709911
36.696792
27.018785
16.082525
12.046695
9.315610
8.924603
9.323955
10.288954
10.778904
11.433959
12.452602
14.329553
15.926957
15.990734
15.687943
17.713904
18.245578
17.773509
17.683506
18.180609
18.541813
18.103719
16.636848
17.342567
18.801689
17.081499
16.170740
15.725493
16.846657
16.266704
16.936660
16.093850
16.131997
16.576648
15.618801
15.368462
16.329885
16.069412
15.056729
16.187429
16.553998
15.645623
15.179515
14.609694
15.876889
16.839504
18.182993
18.940568
19.586682
21.142960
20.896792
21.699667
22.932887
20.581484
19.867420
19.077659
16.766787
18.117428
16.104579
14.636517
14.118552
14.075637
12.639761
12.599826
12.313724
12.076497
11.803508
11.217594
10.041595
11.328459
11.132956
11.334419
10.475516
##ZVALUE=240
2.653599
2.627969
10.134578
25.961995
69.613457
124.982595
237.873793
351.155996
502.125621
578.093529
632.562637
608.354807
552.316904
435.470939
321.838856
207.171440
146.251917
105.164647
91.042519
95.849633
105.999708
109.716654
104.216933
96.617937
76.090693
58.659911
40.997863
31.912923
18.794537
14.583468
11.268854
10.664463
10.552406
9.858608
11.995435
13.076663
12.480617
14.651418
13.990998
15.903711
15.561581
16.342998
16.409755
16.825795
16.503930
18.249750
16.244650
17.835498
16.232729
17.485619
15.209913
15.171766
15.623569
15.680790
15.196800
15.009642
15.411973
15.075803
14.603734
13.981462
14.356971
14.652610
13.177991
14.140606
14.697909
13.753772
14.856458
13.688803
15.065670
14.490485
16.629696
17.859936
18.439889
19.399524
19.826889
20.284653
19.583702
18.409491
17.757416
16.109943
15.675426
14.546514
14.298558
14.039874
13.588667
11.815429
12.621880
11.110902
10.494590
11.072755
10.404587
11.202693
9.942651
10.963678
10.845661
10.609627
##ZVALUE=245
1.854897
1.331568
1.701713
1.959801
5.114675
16.139746
52.340627
105.213523
229.551792
341.866016
514.365435
631.126761
707.222819
736.050606
690.203905
557.605624
439.763665
290.644765
202.744007
123.045444
97.142458
90.855956
102.460980
113.743544
121.003985
113.799572
104.154944
88.811517
68.058968
49.026608
37.866831
24.764538
17.902851
13.337731
13.579726
12.332797
13.978481
13.377666
15.386939
16.152859
16.699433
15.974641
16.724467
17.691851
17.909408
15.692711
16.458631
16.470551
16.878843
17.018914
16.204715
16.302466
14.828444
15.909672
15.188456
14.234781
13.402700
13.209581
12.453794
13.154745
11.118650
11.745691
12.124777
11.564493
11.720657
12.735724
11.200905
11.372566
12.636781
13.326406
13.067722
15.084743
16.105771
17.016530
16.085505
16.606450
16.135573
15.686750
13.466477
14.916658
13.470650
12.515783
11.507869
11.527538
11.187792
11.366606
10.754466
9.292960
9.827614
9.998679
9.157658
9.424686
10.621548
9.233952
8.973479
8.700490
##ZVALUE=250
1.062751
1.292825
1.554489
1.095533
1.469851
1.959801
3.009439
8.875728
37.765503
81.811547
197.861791
321.514606
465.376973
652.896762
761.451721
837.377906
813.334584
711.704493
589.818954
390.808582
274.965763
175.115466
103.203654
90.234876
93.840957
110.224485
125.091672
127.919912
119.650960
112.218857
96.269846
73.975921
58.357716
38.161874
27.607679
19.524693
17.809868
17.383695
16.869903
17.496943
18.263459
17.585754
17.876625
17.342567
17.233491
17.664433
17.610788
17.708540
16.198754
16.306639
16.418695
15.317798
14.847517
13.782978
13.450980
13.340712
13.343692
12.883544
11.580586
12.097955
11.545420
11.896491
10.903478
11.327863
11.409521
10.321736
11.118650
10.766983
10.105968
11.269450
11.793971
13.090968
13.577938
13.386607
14.344454
12.874603
12.914538
12.332797
12.346506
11.420846
11.144876
10.690689
10.160804
10.208488
9.712577
8.439422
8.660555
8.747578
8.021593
8.149743
9.002686
8.459687
9.226799
8.690953
7.898808
8.516908
##ZVALUE=255
1.331568
1.307726
1.475811
1.377463
1.311898
1.578927
1.565814
1.696944
2.360940
4.764795
26.022792
63.008666
128.111839
278.870463
422.759652
641.034842
793.390870
923.030972
932.107568
865.690708
729.274750
572.486520
354.260802
226.295590
124.711990
91.189742
83.068609
95.018744
114.302635
128.879547
137.178898
136.454701
125.390887
105.993748
85.644722
59.960485
46.910644
31.117797
26.077628
21.390915
19.860864
21.296740
19.901991
20.356774
20.623803
20.266771
19.402504
18.474460
17.999411
16.827583
16.646981
16.336441
14.775991
15.808940
14.079809
13.952851
13.318658
12.817979
12.120605
11.949539
11.905432
11.209846
11.487603
10.291934
10.691881
10.107756
10.027885
9.731650
10.796785
11.079907
11.257529
12.004972
12.066960
12.104511
12.023449
11.389852
11.817813
11.003613
9.958744
10.075569
10.119677
8.413792
8.432865
7.717609
8.234978
7.924438
7.588863
7.079840
7.386804
8.258820
7.106662
7.161498
7.394552
7.253885
8.028746
6.529689
##ZVALUE=260
1.323819
1.262426
1.303554
1.399517
1.342893
1.349449
1.388788
1.696944
1.829863
1.583695
1.817942
3.229976
9.568930
39.336681
89.939833
219.304562
356.643796
582.581758
760.165453
960.933566
1015.920639
1015.920639
892.766714
719.360709
476.566553
320.947766
187.819600
116.382837
81.595778
82.056522
101.007819
122.686625
140.429735
148.497820
146.633983
132.037997
114.785433
90.083480
72.281957
51.682591
39.933920
30.278563
26.171803
23.845434
22.436976
22.585988
20.918846
20.323992
20.047426
19.211769
18.100739
17.253757
17.184615
14.462471
15.462637
14.113784
14.098883
13.415813
12.808442
12.292862
12.282729
11.386871
11.124611
11.338592
10.036826
10.511875
10.512471
10.597706
10.234714
9.834766
10.644794
11.037588
10.917783
10.336637
10.887980
11.085868
10.256767
9.749532
10.023713
8.949637
8.196831
7.793903
7.764697
7.575750
7.494688
7.355809
7.335544
6.960630
6.673932
6.823540
6.782413
7.067919
6.986856
7.128716
7.778406
6.697774
##ZVALUE=265
1.210570
1.252890
1.184940
1.160502
1.225471
1.379848
1.452565
1.391768
1.527667
1.694560
1.836419
1.493692
1.798868
2.182722
5.494952
26.709437
67.066550
168.228745
293.461680
539.670587
752.746463
946.893692
1015.966535
1015.966535
1009.504795
862.627029
630.987883
444.571972
246.859789
152.746439
100.879669
76.592565
86.439848
112.875700
133.064985
149.634480
155.347586
151.049495
139.392614
115.602612
96.738935
69.260001
54.481626
39.270520
31.779408
25.012493
22.821426
22.469759
20.625591
20.373464
18.969774
17.821789
18.192530
16.904473
16.274452
14.562607
15.554428
14.524460
13.639927
12.215972
12.251735
11.914968
11.969805
11.954904
11.038780
11.005998
10.839701
10.502934
10.394454
10.096431
10.355711
10.177493
11.067986
10.642409
10.750890
10.932684
10.296702
9.272695
9.032488
8.050799
7.817745
7.473826
7.371902
6.571412
6.725788
6.737709
6.524920
6.388426
6.797910
6.835461
6.719828
6.774664
6.404519
6.617904
6.976724
6.852746
##ZVALUE=270
0.895858
1.108646
1.124740
1.163483
1.126528
1.110435
1.121759
1.147985
1.277924
1.153946
1.291633
1.266599
1.252890
1.901984
1.513958
1.712441
2.712607
13.261437
39.049983
124.313831
239.257812
404.027700
696.908832
923.720598
1015.861630
1015.861630
1015.861630
1015.861630
796.113014
597.004890
363.357663
231.597424
116.765499
81.505775
74.249506
88.118911
116.517544
136.046410
154.490471
161.522627
154.225826
141.798854
117.066503
96.687675
70.576668
53.043962
38.357973
30.733943
24.017692
21.844506
19.810796
19.509792
17.642975
17.188787
16.485453
16.442537
14.693737
14.675856
14.400482
13.468862
12.603998
12.121797
11.374950
11.343956
11.302829
11.641979
10.333657
10.098815
10.236502
10.136962
9.954572
10.447502
10.429621
10.229945
10.072589
9.851456
8.769631
8.983612
8.341670
8.149743
8.029938
7.172823
6.998777
7.203817
6.715655
6.282926
6.686449
6.581545
6.460547
6.684661
6.261468
6.589890
6.875992
6.446838
6.918907
6.999969
##ZVALUE=275
1.060963
0.761747
0.926852
1.046658
0.987649
1.140833
1.110435
1.198649
1.138449
1.286864
1.321435
1.377463
1.466870
1.390576
1.448989
1.677871
1.629591
1.977682
1.971722
5.724430
22.908449
67.138672
190.770626
357.497931
649.350882
872.896910
1015.861630
1015.861630
1015.861630
1015.861630
1009.356976
761.137009
534.484982
288.496614
172.410607
85.530877
64.108968
68.524480
86.123943
112.308860
132.027864
151.338577
156.547427
148.399472
136.675835
111.230612
92.310905
67.519546
51.478744
34.244657
26.214719
21.073818
18.681884
16.482472
15.908480
14.587641
13.929605
13.879538
14.080405
13.367534
13.555884
12.292862
12.165904
11.689663
11.298656
10.920763
10.296702
10.275841
10.301471
10.592937
10.184646
10.301471
10.340810
10.594726
10.087490
9.639859
9.655952
8.921623
8.557439
8.315444
7.923841
7.525682
7.318854
7.179976
6.643534
7.065535
6.822944
6.757975
6.305575
6.416440
6.387830
6.642938
6.580949
6.733537
7.071495
6.661415
##ZVALUE=280
0.923872
0.850558
1.044869
0.965595
1.086593
1.043677
1.121759
1.249909
0.960827
0.986457
0.987649
1.307726
1.049638
1.205802
1.101494
1.564622
1.528859
1.496673
1.629591
1.979470
1.996756
2.847910
17.044544
54.418445
160.524845
288.028717
534.839630
759.533644
1015.861630
1015.861630
1015.861630
1015.861630
1015.861630
873.782635
640.681982
357.738733
213.125944
100.730658
59.680939
47.163963
58.770776
83.386898
103.217959
128.367543
140.560865
144.714713
142.102838
124.892592
109.101534
83.138943
64.300895
42.635798
31.614900
22.417903
17.381907
14.164448
13.441443
12.999773
12.652874
11.911988
11.731982
11.962652
10.839701
10.736585
11.075735
10.308623
10.291934
10.013580
10.008812
9.945631
9.729862
10.236502
10.231733
9.727478
10.065436
9.643435
9.017587
8.985996
8.322597
7.893443
8.214712
7.540584
7.506609
6.766915
7.063746
6.559491
6.695986
6.826520
6.691813
6.398559
6.386638
6.899834
6.688833
6.803870
7.101893
7.124543
##ZVALUE=285
0.938773
0.934601
0.899434
0.831485
0.767708
0.801682
0.894666
0.921488
1.004934
1.018643
0.998974
1.098514
1.183748
1.062751
1.235604
1.168847
1.165867
1.408458
1.432896
1.455545
1.771450
1.845956
2.275705
2.234578
7.612705
28.308630
91.244578
186.462998
384.918451
605.199933
851.316452
1015.857458
1015.857458
1015.857458
1015.857458
1011.603475
808.875561
495.443940
307.136774
147.556663
78.469515
39.779544
37.561655
53.498745
71.770549
98.991990
115.402937
132.191777
137.118697
135.566592
121.902823
103.206635
83.714724
57.970881
43.731928
27.792454
20.804405
14.242530
12.285709
10.881424
11.069775
10.857582
10.166764
9.943843
9.493828
9.740591
9.363890
9.598732
8.955598
9.347796
9.585619
9.352565
9.536743
9.338856
9.220839
9.256601
8.410811
7.955432
8.057952
7.771850
7.583499
7.354617
7.086992
7.012486
7.017851
7.062554
6.544590
6.735921
6.467700
6.716847
6.687641
6.505847
6.977916
6.892681
7.159710
6.957650
##ZVALUE=290
0.775456
0.857711
0.614524
0.806451
0.750422
0.840425
0.809431
0.828505
0.919700
0.963807
0.865459
1.012683
0.793934
0.884533
1.057982
1.186728
1.124740
1.177788
1.300573
1.412630
1.486540
1.299977
1.766682
1.573563
1.856685
2.099872
3.058910
11.629462
51.784515
117.788911
221.523643
457.072854
703.404546
1015.861630
1015.861630
1015.861630
1015.861630
1015.861630
978.949666
648.923516
424.402952
209.390521
109.769702
43.850541
28.404593
34.867525
46.235919
67.062974
85.757971
109.174848
122.700930
129.903555
129.429698
118.298531
99.922419
74.868798
56.826472
37.812591
27.151704
17.016530
13.420582
10.359883
8.959770
8.779764
8.209944
8.378625
8.087754
8.026958
8.436441
8.644462
8.541942
8.867979
8.489490
8.517504
8.454919
8.585453
7.962584
7.054806
7.773638
7.371902
7.385612
6.847978
6.898642
6.566644
6.696582
6.800890
6.590486
6.803870
6.837845
6.766915
6.688833
6.675720
6.672740
6.654859
6.745458
6.599426
##ZVALUE=295
0.770688
0.856519
0.787973
0.871420
0.780821
0.752807
0.728965
0.884533
0.871420
0.818968
0.872612
0.826716
0.774860
0.959635
0.719428
0.868440
1.130700
1.075864
1.135468
1.161695
1.155734
1.294613
1.396537
1.529455
1.582503
1.685619
1.828671
1.976490
2.269745
4.166961
24.175644
67.321658
152.598619
360.589623
575.670004
919.983983
1015.861630
1015.861630
1015.861630
1015.861630
1015.861630
799.835920
543.420911
275.628567
151.728988
58.310628
28.680563
21.339655
27.528405
42.795539
58.897734
81.128478
98.153949
115.583539
122.556686
121.485591
110.670924
91.504455
74.741840
51.885843
38.357973
23.436546
16.563535
11.215806
9.067655
7.463694
7.382631
7.343888
7.193685
7.319450
7.518530
7.621646
7.539988
7.623434
7.768869
7.901788
7.496476
6.975532
7.016659
7.005930
6.708503
6.579757
6.752610
6.357431
6.762743
6.531477
6.305575
6.724596
6.680489
6.412864
6.574988
6.139874
6.337762
6.316900
6.449819
6.200671
##ZVALUE=300
0.574589
0.739694
0.699759
0.743866
0.919700
0.843406
0.762939
0.771880
0.654459
0.785589
0.846982
0.694990
0.902414
0.865459
0.866652
0.971556
0.829697
1.069903
0.959635
0.926852
1.029968
1.067519
1.025796
1.139641
1.135468
1.349449
1.453757
1.506805
1.714826
1.870990
2.071857
2.485514
7.081628
41.002631
101.897717
259.203911
442.341566
754.841566
988.970995
1015.861630
1015.861630
1015.861630
1015.861630
923.627019
670.623779
373.360515
220.857859
96.237659
45.163631
19.282699
17.308593
25.935769
35.830736
55.089593
71.853995
94.379783
107.698441
115.549564
116.158724
105.950832
92.849731
69.810748
54.234862
36.369562
24.840832
15.087724
11.115670
7.724762
7.221699
7.101893
6.799698
6.918907
6.811619
6.824732
6.765723
6.907582
6.889701
6.432533
6.431937
6.489754
6.203651
6.209612
6.092787
6.005764
6.268620
6.062984
6.490946
6.214976
6.029606
5.777478
6.417632
6.173849
6.134510
6.116629
5.953908
6.171465
##ZVALUE=305
0.841618
0.687838
0.903606
0.879765
0.808835
0.908971
0.740886
0.625849
0.846982
0.718832
0.746846
0.872612
0.722408
0.859499
0.822544
0.921488
0.825524
0.899434
0.891685
1.040697
1.018643
1.097918
1.005530
1.036525
1.328588
1.251698
1.289845
1.364946
1.619458
1.555681
1.645684
1.623631
1.681447
2.198815
3.849864
23.643970
66.628456
187.490582
338.525772
618.536472
857.718587
1015.864611
1015.864611
1015.864611
1015.864611
985.133648
774.605870
490.375757
305.036902
138.713717
67.361593
23.152828
13.913512
15.869737
22.395849
36.286712
51.531792
70.338845
86.040497
104.575753
110.191703
107.881427
101.131797
85.134506
69.529414
49.496889
35.911798
21.723509
14.652610
9.425879
7.566810
6.849766
6.457567
6.288886
6.260872
5.907416
5.787611
5.705953
5.617738
5.853772
5.541444
5.831718
5.782843
5.698800
6.084442
5.733967
5.637407
6.053448
5.785823
5.901456
5.754828
6.082654
5.640984
5.717874
5.724430
5.991459
##ZVALUE=310
0.672936
0.751615
0.651479
0.854731
0.789762
0.775456
0.608563
0.676513
0.753999
0.665784
0.847578
0.897646
0.798702
0.923872
0.833869
0.802875
0.744462
0.723600
0.819564
0.859499
0.843406
0.816584
0.924468
0.910759
0.893474
1.046658
1.013875
1.060963
1.226664
1.307726
1.461506
1.442432
1.717806
1.548529
1.963973
2.125502
2.297759
9.999871
33.836961
112.942457
224.892497
463.914871
699.716806
998.299718
1015.861630
1015.861630
1015.861630
1015.861630
962.175727
642.871857
426.117778
212.482810
112.859607
39.647818
17.590523
11.014938
13.440847
20.943880
30.242801
46.690702
62.209964
80.953836
92.670918
101.884604
103.820562
94.620585
84.080696
65.773726
50.678849
32.697916
23.146868
14.494658
10.767579
7.420778
6.675720
5.929470
5.708933
5.455613
5.093813
5.501509
5.450845
5.254745
5.266666
5.337596
5.343556
5.759597
5.422831
5.628467
5.691648
5.533695
5.404949
5.266666
5.355477
5.411506
5.469918
5.262494
##ZVALUE=315
0.767708
0.675917
0.636578
0.576973
0.646710
0.606775
0.657439
0.720620
0.561476
0.580549
0.710487
0.631809
0.731945
0.688434
0.742674
0.685453
0.853539
0.862479
0.669956
0.779629
0.783801
0.652671
0.833869
0.817776
0.793934
0.864863
0.994802
0.925660
1.204610
1.088977
1.295805
1.311898
1.297593
1.281500
1.407862
1.864433
1.470447
1.824498
2.203584
4.354715
17.557740
72.224736
159.840584
371.113420
594.021678
935.647488
1015.843749
1015.843749
1015.843749
1015.843749
1015.843749
779.369473
546.786785
290.053487
157.696605
58.097839
24.212003
10.462999
9.970665
13.049841
17.915964
29.404759
40.685534
57.902932
72.583556
89.291930
96.393824
96.690655
91.132522
76.474547
64.541698
46.581626
34.351945
21.348000
14.585853
8.955598
7.057786
5.678535
5.163550
4.875660
4.984736
4.680753
5.100965
4.758835
4.980564
5.232692
4.900694
5.091429
5.323887
5.058646
5.290508
5.131960
5.321503
5.416870
5.062819
5.059838
##ZVALUE=320
0.671744
0.764728
0.554919
0.531673
0.645518
0.649691
0.612736
0.542998
0.618696
0.671744
0.576973
0.599623
0.545979
0.721812
0.827909
0.777841
0.685453
0.670552
0.881553
0.744462
0.653863
0.562668
0.763535
0.871420
0.930429
0.938773
1.028776
0.934601
1.021624
1.178980
0.989437
1.020432
1.186728
1.248717
1.392961
1.402497
1.429915
1.553893
1.417994
1.858473
1.948476
2.543926
7.890463
42.154789
107.631683
280.566812
465.242863
769.652724
999.197960
1015.861630
1015.861630
1015.861630
1015.861630
923.370719
674.496889
374.763608
214.339495
90.307593
39.899945
13.227463
8.724928
9.035468
10.818839
17.038584
23.706555
37.406683
51.595569
68.704486
81.095695
89.940429
91.813803
86.170435
76.552629
58.470964
45.386553
30.569434
20.814538
12.755990
8.688569
6.264448
5.569458
4.851818
4.620552
4.767776
4.807711
4.750490
4.624724
4.812479
4.845858
4.878640
4.921556
4.890561
4.826784
4.886985
4.931688
4.903674
##ZVALUE=325
0.574589
0.786781
0.557899
0.626445
0.604987
0.615716
0.571609
0.702739
0.697970
0.735521
0.813603
0.755787
0.768900
0.676513
0.614524
0.707507
0.571609
0.651479
0.701547
0.864863
0.716448
1.273751
0.829697
0.845790
0.735521
0.710487
0.699759
0.866652
0.863671
0.887513
0.985861
0.962615
1.119971
0.950694
1.143813
1.183748
1.263618
1.225471
1.333952
1.404881
1.523495
1.778603
1.908541
2.267957
4.367828
26.703477
69.882870
190.507770
346.679688
654.729009
914.322734
1015.861630
1015.861630
1015.861630
1015.861630
998.323560
768.646002
464.549661
279.999971
124.318004
59.087873
18.170476
8.816719
7.548928
7.687807
10.308623
14.892817
24.244785
34.366846
50.782561
63.854456
77.245831
84.226727
85.829496
80.910921
67.357421
55.304766
40.613413
29.127598
17.987490
11.940598
7.579923
6.024837
4.866719
4.777908
4.577637
4.576445
4.410744
4.171729
4.542470
4.351735
4.431605
4.486442
4.565716
4.799962
4.649758
##ZVALUE=330
0.744462
0.702739
0.821948
0.710487
0.648499
0.660419
0.727773
0.648499
0.633597
0.662804
0.804663
0.789762
0.827909
0.773668
0.662804
0.821948
0.872612
0.784993
0.688434
0.844598
0.879765
0.818968
0.874996
0.977516
0.943542
0.846982
0.866652
0.896454
0.935793
1.061559
1.031756
1.051426
1.101494
1.009703
1.234412
1.274943
1.208782
1.151562
1.226664
1.233816
1.426935
1.473427
1.695752
1.809597
1.912713
2.150536
2.992749
8.645654
45.248866
112.777948
281.746984
473.895669
807.697773
1015.974879
1015.974879
1015.974879
1015.974879
1015.974879
872.557759
632.660985
349.326730
197.397470
81.005692
35.037994
10.713935
7.402897
6.621480
7.217526
10.106564
14.422536
23.905635
33.029914
47.470927
59.611797
72.750449
78.558922
81.379414
75.919628
63.436627
53.398609
37.443638
27.843714
17.782450
12.785792
8.291602
6.134510
5.104542
4.654527
4.414916
4.481673
4.471540
4.529953
4.523993
4.571676
4.493594
4.721880
##ZVALUE=335
0.801682
0.674725
0.593662
0.615716
0.600815
0.630617
0.614524
0.651479
0.748634
0.802875
0.781417
0.621676
0.867844
0.633597
0.773668
0.722408
0.724792
0.885725
0.779629
0.862479
0.749826
0.836849
0.991821
0.848770
0.861883
0.888705
0.969768
0.763535
1.041889
0.977516
0.930429
0.954866
0.947714
1.000762
1.161695
1.026988
1.036525
1.006722
1.176596
1.199841
1.342893
1.287460
1.353621
1.484752
1.671910
1.525879
1.706481
2.008677
2.259612
5.703568
20.012856
79.543591
169.742703
378.675461
610.482693
969.733000
1015.976667
1015.976667
1015.976667
1015.976667
1012.181640
699.905753
469.538569
242.975950
125.648975
42.896867
17.127991
7.611513
6.702542
6.502867
7.010698
9.362698
13.121963
21.818876
30.990839
46.162605
56.093931
68.019629
73.397756
74.856877
69.825649
58.749914
49.940944
36.971569
27.778745
18.108487
12.742877
8.109808
6.397963
5.092621
4.605651
4.570484
4.309416
4.273653
4.383922
4.353523
##ZVALUE=340
0.630617
0.480413
0.478625
0.432730
0.587702
0.559688
0.530481
0.522733
0.453591
0.581741
0.525713
0.441670
0.556707
0.525713
0.565648
0.544786
0.653863
0.416636
0.507832
0.763535
0.605583
0.702739
0.741482
0.787973
0.926852
0.674725
0.713468
0.652671
0.818968
0.699759
0.804663
0.684857
0.630617
0.796914
0.740886
0.746846
0.859499
0.873804
0.792742
0.995994
0.876784
1.001954
0.974536
1.142621
1.278520
1.238585
1.365542
1.505613
1.391768
1.873970
1.947880
2.758503
9.835958
49.565434
119.195580
296.168923
498.062968
815.714002
1015.843749
1015.843749
1015.843749
1015.843749
1015.843749
816.485882
569.729805
295.421481
162.597895
63.489676
25.145411
8.669496
6.573796
6.498694
6.293654
7.075667
8.570552
13.158917
19.249916
30.002594
40.203929
54.047704
62.291622
68.575740
69.655776
64.700842
58.581829
46.906471
37.171841
25.900602
18.972754
12.241602
8.612871
6.114841
4.935861
4.551411
4.213452
4.490614
##ZVALUE=345
0.504851
0.517964
0.466704
0.490546
0.644922
0.741482
0.489950
0.484586
0.515580
0.375509
0.660419
0.495911
0.490546
0.599623
0.667572
0.723600
0.457764
0.745654
0.612736
0.480413
0.606775
0.581741
0.619888
0.576973
0.628829
0.723600
0.752807
0.717640
0.585914
0.716448
0.770688
0.715852
0.832677
0.696778
0.797510
0.787973
0.770688
0.886917
1.011491
0.868440
0.942945
0.848770
1.069903
0.958443
0.987649
1.296997
1.256466
1.290441
1.339912
1.333952
1.727939
1.535416
1.746416
2.106428
4.486442
28.262734
77.809691
206.189752
364.568830
651.094913
884.000659
1015.861630
1015.861630
1015.861630
1015.861630
914.652944
672.355890
384.294987
218.988657
90.157986
39.636493
12.156963
7.117987
6.005764
5.612969
5.171895
5.962849
7.832646
10.891557
18.071532
25.796890
38.030744
47.231913
57.259798
62.084794
64.588785
61.690807
54.953694
46.240687
35.810471
27.267933
17.809868
13.055801
8.390546
6.574988
5.114675
##ZVALUE=350
0.617504
0.527501
0.646710
0.531673
0.645518
0.479817
0.537634
0.535846
0.627637
0.566840
0.483990
0.484586
0.520945
0.506639
0.565648
0.506639
0.692606
0.545979
0.551939
0.578761
0.690818
0.698566
0.681877
0.725985
0.484586
0.622869
0.805855
0.552535
0.800490
0.708699
0.703931
0.761747
0.863671
0.753999
0.761747
0.742674
0.861883
0.877976
0.806451
0.772476
0.839829
0.931621
0.932813
0.962615
0.938773
0.937581
0.965595
0.935793
1.102686
1.250505
1.040697
1.292825
1.291633
1.623631
1.710653
1.901984
2.546906
14.710426
45.592785
141.384602
267.392993
529.381633
755.532980
1012.054682
1015.861630
1015.861630
1015.861630
995.105505
772.093534
463.725924
284.446478
130.598545
59.200525
16.369820
7.925630
5.959868
5.278587
5.094409
4.962683
5.500913
6.980896
10.891557
15.362501
23.084879
31.206608
42.588711
50.090551
56.756735
58.875680
57.298541
52.953959
43.245554
35.526752
24.637580
18.499494
12.425780
##ZVALUE=355
0.454783
0.374913
0.569820
0.376701
0.540614
0.481606
0.508428
0.436902
0.335574
0.347495
0.327826
0.356436
0.450611
0.404716
0.411868
0.444651
0.416636
0.522733
0.643730
0.521541
0.480413
0.534654
0.399947
0.369549
0.418425
0.360608
0.460744
0.449419
0.252724
0.492930
0.491738
0.648499
0.512600
0.624657
0.623465
0.663996
0.653863
0.602603
0.604987
0.646710
0.632405
0.705719
0.503659
0.531673
0.722408
0.869632
0.654459
0.722408
0.787973
0.926852
0.871420
1.246929
1.217723
1.210570
1.345873
1.347661
1.459718
1.598597
2.017617
4.437566
26.547909
74.123740
201.648474
357.682705
650.087595
880.375504
1015.679836
1015.679836
1015.679836
1015.679836
803.535581
588.564873
331.786871
183.821917
71.262717
29.986501
9.269714
5.560517
4.919767
4.590750
4.391670
4.418492
4.885793
6.141663
9.109974
12.903810
20.381808
26.976466
37.219524
44.421554
51.501989
54.239631
53.339601
48.409700
40.368438
34.003854
##ZVALUE=360
0.531673
0.665784
0.621676
0.574589
0.619888
0.490546
0.369549
0.418425
0.520945
0.612736
0.537634
0.657439
0.651479
0.686646
0.491738
0.599623
0.594854
0.602603
0.566840
0.738502
0.614524
0.613928
0.722408
0.760555
0.685453
0.579953
0.680685
0.855923
0.732541
0.694990
0.760555
0.601411
0.812411
0.661612
0.708699
0.727773
0.862479
0.803471
0.765920
0.844598
0.797510
0.897646
1.017451
0.769496
0.772476
0.828505
1.132488
0.750422
0.990629
1.092553
1.201630
1.127720
1.105666
1.342893
0.980496
1.302958
1.379848
1.489520
1.772642
1.841784
2.040863
3.300905
9.931922
46.054721
114.646554
285.809636
479.082465
774.703622
996.095538
1015.861630
1015.861630
1015.861630
983.490944
678.990483
453.018546
221.073627
114.993453
41.140914
15.318990
6.088614
5.155802
5.036592
4.752874
4.414916
4.334450
4.410744
5.370975
7.549524
10.537505
16.520619
22.933483
32.068491
38.602948
46.297908
48.583746
49.525499
##ZVALUE=365
0.452995
0.578761
0.407696
0.471473
0.517964
0.397563
0.649691
0.596642
0.598431
0.538826
0.737906
0.552535
0.445843
0.535846
0.605583
0.534654
0.670552
0.648499
0.691414
0.750422
0.606775
0.485778
0.576973
0.524521
0.628829
0.654459
0.576973
0.659823
0.788569
0.634789
1.014471
0.676513
0.544786
0.629425
0.754595
0.733733
0.666976
0.874996
0.755787
0.944734
0.993609
0.731945
0.843406
0.838637
0.909567
0.930429
0.933409
0.950694
0.911951
0.941753
1.058578
1.020432
1.069903
1.090765
1.199841
1.078844
1.258850
1.304746
1.320839
1.395941
1.582503
1.786947
1.843572
2.292991
4.633665
25.181770
70.597529
189.640522
352.509618
646.649003
872.792006
1015.856862
1015.856862
1015.856862
1015.856862
779.852867
555.566549
305.624604
165.205002
58.838725
22.987723
6.881952
5.173683
4.694462
4.230738
4.152656
3.955960
3.852844
3.751516
4.773736
6.159544
9.589791
13.468862
20.641685
26.572943
34.575462
##ZVALUE=370
0.518560
0.603795
0.313520
0.494719
0.492930
0.468493
0.639558
0.525713
0.532866
0.534654
0.616908
0.564456
0.495911
0.645518
0.559688
0.590682
0.705719
0.552535
0.532866
0.689626
0.581741
0.584722
0.695586
0.595450
0.687838
0.593662
0.703931
0.733733
0.677705
0.714660
0.684857
0.672936
0.711679
0.579953
0.681877
0.632405
0.733733
0.721812
0.696778
0.833869
0.778437
0.762939
0.807643
0.731945
0.750422
0.819564
0.762939
0.863671
0.930429
0.832677
0.958443
0.843406
1.014471
0.886917
0.952482
1.002550
1.072884
1.142621
1.221895
1.278520
1.418591
1.316667
1.582503
1.504421
1.685619
1.886487
2.729893
13.018847
42.859912
139.918923
266.451836
505.196452
743.556023
1013.613939
1015.864611
1015.864611
1015.864611
893.219709
658.707023
369.575620
208.150744
81.651807
36.689639
11.806488
5.725622
4.687905
4.312992
4.170537
3.818870
3.675818
3.502965
3.935695
4.331470
5.874634
7.925630
12.373924
##ZVALUE=375
0.525713
0.604987
0.663996
0.497699
0.421405
0.651479
0.580549
0.656843
0.629425
0.611544
0.588894
0.675917
0.618696
0.650883
0.611544
0.583529
0.620484
0.784993
0.646710
0.631809
0.691414
0.733733
0.776649
0.656843
0.696778
0.748634
0.644922
0.670552
0.706911
0.767708
0.709891
0.713468
0.797510
0.856519
0.792742
0.779629
0.844598
0.746846
0.797510
0.861883
0.713468
0.789762
0.892878
0.936985
0.755787
0.909567
0.854731
0.844598
0.796914
0.775456
1.067519
0.925660
0.895858
0.777841
0.794530
1.000762
0.984669
1.041889
0.874996
0.929832
1.200438
1.100898
1.211762
1.335740
1.418591
1.329780
1.762509
2.022982
2.246499
6.533861
23.054481
81.512928
180.271864
402.376652
623.369813
929.258466
1015.948653
1015.948653
1015.948653
985.179543
770.890713
474.322438
301.460624
147.347450
72.734952
22.255778
8.593798
4.795790
4.183650
4.091859
3.955960
3.640652
3.656745
3.441572
3.877878
4.018545
##ZVALUE=380
0.551939
0.569820
0.539422
0.467896
0.370741
0.583529
0.572801
0.586510
0.600815
0.394583
0.474453
0.475645
0.524521
0.682473
0.355840
0.596642
0.436902
0.546575
0.611544
0.455976
0.609756
0.507832
0.642538
0.653863
0.718832
0.500679
0.551939
0.608563
0.746846
0.603795
0.716448
0.725985
0.698566
0.661612
0.798702
0.954866
0.937581
0.867844
0.723600
0.911951
0.828505
0.840425
0.982881
0.794530
0.705719
0.850558
0.755787
0.941753
0.725985
0.779629
0.737906
0.718832
0.813603
0.908971
1.025796
0.863671
0.734925
0.957847
0.928640
0.956655
0.937581
0.863671
1.057982
0.966787
1.100898
1.202822
1.224875
1.730919
1.874566
1.753569
2.010465
3.708601
13.139844
61.321855
140.608549
328.568816
525.906682
819.920897
1006.096601
1015.861630
1015.861630
1015.861630
881.911516
597.885847
400.486588
197.474957
104.185939
39.320588
14.719963
5.130768
4.302859
4.217625
3.732443
3.584623
3.497601
3.336668
##ZVALUE=385
0.515580
0.462532
0.425577
0.399947
0.357628
0.459552
0.423789
0.395775
0.500679
0.472665
0.554919
0.492930
0.374913
0.453591
0.475645
0.454783
0.478625
0.506639
0.480413
0.598431
0.583529
0.702739
0.510812
0.489950
0.638962
0.545979
0.673532
0.634789
0.774860
0.692606
0.845790
0.725985
0.916719
0.955462
0.902414
1.067519
1.130700
1.049638
0.998974
1.061559
0.948906
0.998974
0.910759
1.009703
0.934601
0.927448
0.885725
0.871420
0.963807
0.847578
0.778437
0.985861
0.862479
0.922680
0.809431
0.901818
0.797510
0.826716
0.917912
0.955462
1.050830
0.922680
0.980496
0.877976
0.946522
1.055598
1.046658
1.228452
1.178980
1.615882
1.569986
1.793504
2.008677
2.602935
5.866885
33.128858
86.356401
221.408606
391.137004
684.631467
909.558535
1015.861630
1015.861630
1015.861630
997.995734
743.554831
530.257821
289.358497
164.440870
66.790581
25.998950
6.883740
4.503727
3.811717
3.698468
3.655553
##ZVALUE=390
0.422597
0.489950
0.447631
0.506639
0.460744
0.433922
0.357628
0.481606
0.459552
0.431538
0.615716
0.456572
0.502467
0.567436
0.602603
0.595450
0.331998
0.466704
0.572801
0.552535
0.492930
0.620484
0.617504
0.379682
0.494719
0.601411
0.647902
0.767708
0.988841
0.977516
1.117587
1.229644
1.353621
1.308918
1.316667
1.386404
1.400709
1.384616
1.171827
1.328588
1.397729
1.351833
1.229644
1.487732
1.177788
1.218915
1.216531
1.097918
0.736713
0.891685
0.820756
1.026988
1.075864
0.927448
0.969768
0.865459
0.821948
0.929832
0.707507
0.852942
0.757575
0.819564
0.965595
0.927448
1.028776
1.027584
1.099706
1.266599
1.181960
1.388788
1.467466
1.613498
1.799464
1.757741
1.679659
2.056956
3.109574
17.511845
53.892732
162.700415
304.256678
570.720434
788.435936
1014.334559
1015.861630
1015.861630
1015.861630
869.039893
665.931702
407.207608
234.942436
96.932650
44.252872
13.135672
5.432963
3.860593
##ZVALUE=395
0.573993
0.558496
0.576973
0.376701
0.571609
0.483990
0.641942
0.482798
0.460744
0.367761
0.466704
0.507832
0.595450
0.387430
0.387430
0.336766
0.411868
0.411868
0.580549
0.421405
0.486970
0.417829
0.526905
0.489950
0.652671
0.512600
0.724792
0.789762
1.017451
1.060963
1.284480
1.413822
1.429915
1.654625
1.598597
1.484752
1.622438
1.536608
1.668930
1.636744
1.544952
1.485944
1.450777
1.315475
1.579523
1.221895
1.311898
1.187921
1.113415
1.084805
0.921488
1.106858
1.115799
0.782609
1.048446
0.963807
1.067519
0.990629
0.931621
0.823736
0.868440
0.972748
0.963807
0.991821
0.876784
0.980496
1.017451
1.078844
1.303554
1.331568
1.387596
1.588464
1.579523
1.394749
1.404881
1.449585
1.614690
1.718998
2.057552
9.637475
34.967661
122.315884
231.746435
439.962745
649.253726
940.063000
1015.861630
1015.861630
1015.861630
995.699763
792.814493
495.060682
307.065845
134.236813
63.894987
20.090938
##ZVALUE=400
0.700951
0.554919
0.401735
0.582933
0.462532
0.531673
0.534654
0.428557
0.296831
0.477433
0.507832
0.341535
0.403523
0.473857
0.424981
0.540614
0.534654
0.396967
0.475645
0.387430
0.497699
0.529885
0.510812
0.557899
0.669956
0.660419
0.677705
0.841618
0.952482
1.074672
1.259446
1.353621
1.426935
1.516938
1.745820
1.719594
1.670718
1.694560
1.595616
1.604557
1.725554
1.464486
1.296997
1.290441
1.348853
1.341701
1.438856
1.098514
1.078844
1.138449
1.066923
1.228452
0.947714
1.049638
1.123548
0.975728
1.059771
1.036525
0.935793
0.978708
0.946522
0.953674
1.006722
0.837445
0.946522
0.916719
1.032948
1.048446
1.208782
1.168847
1.303554
1.410842
1.423955
1.394749
1.263618
1.348853
1.562834
1.497865
1.537800
1.746416
1.880527
5.188584
18.341541
68.969727
149.721503
335.643888
528.588891
810.150504
993.999839
1015.861630
1015.861630
1011.893749
857.451558
569.867492
376.865864
190.270543
##END
