##TITLE=TAPWATER
##FORMAT=SPECTACLE-ASCII V-1.2
##DATA TYPE=ULTRAVIOLET SPECTRUM
##SECOND TYPE=ULTRAVIOLET SPECTRUM
##DATE=03/22/18
##TIME=13:47:22
##SPECTROMETER/DATA SYSTEM=SPECTACLE
##XUNITS=NM EM
##YUNITS=ENERGY
##YFACTOR=1
##FIRSTX=220
##LASTX=410
##NPOINTS=96
##3DDATA=Equidistant
##ZUNITS=NM EX
##FIRSTZ=210
##LASTZ=400
##ZPOINTS=39
##XYDATA=(Y..Y)
##ZVALUE=210
13.203621
11.841655
9.960532
8.566976
6.597638
7.235408
6.359816
6.434917
6.367564
5.470514
4.059672
3.582835
3.372431
3.532767
3.800988
3.375411
4.000664
4.246831
5.056858
5.944967
5.571842
5.306602
5.689859
6.558895
7.014871
7.377863
7.354617
8.514524
8.901954
8.918643
9.167790
9.181499
9.773970
11.058450
10.951757
10.338426
11.353493
11.415482
11.926889
12.629628
11.588931
11.340976
12.273788
11.588931
12.792945
13.458729
13.935566
14.357567
15.451908
13.413429
15.594959
15.293956
16.788840
15.798807
15.461445
16.557574
15.593767
15.689731
16.441941
16.882420
18.964410
18.037558
18.876791
19.009709
18.932819
22.920966
22.450686
24.491549
29.587746
33.224821
39.738417
47.914982
54.952502
62.453747
66.209435
71.685910
68.387985
68.943501
68.568587
62.050819
56.222677
47.808886
44.592619
38.324594
33.843517
27.025938
23.806691
22.387505
20.533800
22.807717
20.895600
22.753477
25.763512
28.438568
28.851628
32.478571
##ZVALUE=215
47.120452
46.147704
37.522912
29.340982
21.746755
16.461611
13.598800
12.109876
11.753440
12.940764
9.221435
8.932948
7.354617
6.371737
5.728602
4.404783
4.432797
4.149675
5.563498
5.197525
4.985929
6.691813
6.739497
6.764531
6.883740
7.816553
8.812547
8.690953
7.572770
8.607507
10.228753
9.681582
9.709597
11.789799
10.969639
12.194514
11.543632
11.593699
11.328459
12.464523
11.850595
14.115572
12.696981
14.105439
14.644861
15.301704
15.811920
16.678572
15.074611
16.570687
15.248656
17.701983
18.184781
18.076897
18.326640
17.843843
18.642545
18.367767
19.781590
19.060969
18.567443
18.871427
22.137761
19.792914
20.312667
21.250844
25.142431
26.331544
30.856729
34.720898
40.298700
45.953989
54.194927
59.701800
63.978434
65.870881
65.579414
62.663555
62.469840
58.804750
49.741864
45.460463
42.673945
34.430623
31.781793
26.807785
24.584532
23.386478
21.847486
20.239949
20.337701
19.315481
18.996596
20.050406
21.778941
23.993850
##ZVALUE=220
118.747950
117.228627
117.132664
108.770728
95.237494
68.443418
52.744746
37.045479
28.895736
24.369955
21.826625
22.631884
19.026995
17.007589
13.990998
11.639595
8.538961
6.645918
6.950498
5.881786
5.675554
6.896853
7.016659
7.101893
6.804466
8.724928
8.469820
9.558797
9.359717
10.016561
10.750890
11.376739
11.762977
10.942817
12.324452
11.205673
12.599826
14.214516
13.500452
13.783574
13.736486
12.624860
13.850927
15.035868
15.128851
14.189482
15.836954
16.922951
15.750527
16.721487
18.271804
19.443631
19.148588
21.275878
20.114779
20.708442
21.468997
20.232797
21.747947
20.345449
22.849441
21.527410
22.787452
22.848845
24.424791
24.534464
25.937557
27.268529
30.871630
33.690929
40.971637
45.207739
50.667524
60.266852
61.281919
65.144897
64.555407
60.449839
57.738423
56.605935
49.664974
47.764778
42.337775
37.256479
31.878948
29.423833
25.106668
24.096966
20.969510
21.874905
21.367669
19.419789
19.940734
19.465685
18.748641
20.358562
##ZVALUE=225
165.372491
168.064833
218.657851
248.454809
251.723528
240.849853
210.357904
151.870847
111.440420
69.904923
50.368905
37.260652
38.640499
34.392476
34.105778
31.724572
26.466846
20.886660
16.970634
11.793971
9.489655
8.188486
7.609725
9.084940
8.101463
9.021759
9.866953
10.793805
9.946823
10.974407
11.850595
10.872483
11.854768
13.002753
14.678836
14.983416
13.890862
15.859604
15.144944
15.815496
16.235709
15.662909
17.394423
16.587973
16.499758
17.438531
17.615557
18.972754
18.590689
18.843412
18.827915
20.858645
21.899939
22.666454
25.718808
23.901463
25.587678
25.449991
26.737452
26.035905
26.343465
25.132895
24.865866
25.754571
26.561618
29.240847
28.559566
29.900670
34.439564
36.190748
43.376684
50.513744
53.751469
57.687759
60.592890
58.682561
57.770610
57.438612
54.012537
50.146580
47.920942
41.093826
38.060546
35.380721
31.755567
28.956532
27.141571
25.284886
23.063421
21.840930
22.747517
23.638606
22.735000
22.344589
20.713806
20.442605
##ZVALUE=230
125.169754
132.525563
221.711993
297.438502
382.753015
463.476777
490.813851
470.160842
419.284701
322.499871
229.785442
139.318705
94.842911
64.248443
55.303574
57.930946
58.024526
53.898692
50.847530
39.350986
31.014681
23.068786
16.828775
13.232827
10.907650
11.362433
10.438561
11.620522
11.904836
12.286901
13.162494
13.905764
13.687611
14.095902
14.810562
14.780760
14.952421
16.756654
14.957786
15.662909
16.843677
15.952587
15.977621
17.278790
18.250942
19.231439
17.733574
19.198656
19.502640
20.317435
23.484826
23.128986
24.729967
24.732947
24.562478
25.955439
25.487542
28.230548
27.223825
28.672814
27.177930
28.881431
27.852654
29.946566
30.077696
28.665662
30.573606
33.356547
37.635565
43.278933
46.398640
51.236749
55.911541
59.793591
63.663721
59.560537
62.361956
56.362748
53.992867
49.751997
44.145584
42.502880
38.483739
36.942959
32.384992
28.223991
25.654435
28.052926
24.266839
24.848580
25.590658
24.574995
23.302436
24.105906
22.011995
23.863912
##ZVALUE=235
36.005974
45.068860
90.851784
203.494430
318.836570
488.635898
632.491708
796.795487
838.682652
838.021636
741.540790
611.546636
409.846902
282.911658
167.835951
120.653510
88.338852
86.605549
86.369514
86.413622
84.277987
70.148706
55.710673
40.855408
29.670596
20.746589
15.387535
13.700724
13.050437
13.598800
12.786984
14.128685
14.360547
15.053749
15.139580
15.919805
16.216636
15.842915
15.757680
16.626716
17.040968
17.880797
18.179417
18.861890
17.864704
19.130707
18.193722
20.367503
20.616651
22.657514
22.848845
24.471879
24.875998
25.732517
25.210977
26.541948
28.500557
27.797818
27.117729
27.191639
29.589534
30.449629
30.673742
29.076934
31.876564
31.972528
33.569932
34.794807
38.362741
42.881966
48.315525
53.543448
61.066747
62.290430
65.705776
66.064000
59.232712
60.691833
57.248473
53.952932
48.844814
43.644905
41.646957
37.262440
30.707717
30.962825
29.383898
29.830933
27.347803
26.530623
25.132895
27.976632
26.304722
25.356412
25.476813
24.535656
##ZVALUE=240
3.385544
3.702641
11.018515
48.361421
109.155774
238.802433
405.752659
677.952766
915.231705
1015.861630
1015.861630
1015.861630
1015.861630
989.944935
726.698637
502.587557
289.482474
181.670785
191.747546
109.084845
116.681457
121.834874
121.207833
107.143521
88.357925
67.821741
52.364469
36.585927
26.759505
20.349622
17.131567
15.979409
15.330911
16.194582
16.279817
16.206503
16.936660
17.553568
18.045902
17.249584
19.144416
19.687414
19.005537
20.213723
19.106865
20.024776
20.741820
22.676587
21.511912
22.546649
22.968650
22.505522
26.956797
24.927855
24.527907
26.508570
27.733445
27.580857
27.476549
29.245615
28.129816
28.081536
29.212832
31.196475
32.035708
30.822754
32.431483
35.444498
38.699508
43.303967
48.707724
58.668852
61.127543
63.560605
65.190792
64.863563
64.362884
61.232448
58.552623
52.709579
49.015880
43.570995
40.668845
38.995743
35.661459
31.318665
31.299591
30.484796
28.403997
29.917955
28.176904
27.181506
27.913451
29.174685
26.371479
26.206970
##ZVALUE=245
2.424717
2.037883
2.539754
2.478957
8.059740
27.340651
95.021725
198.822618
441.898704
680.729747
1015.861630
1015.861630
1015.861630
1015.861630
1015.861630
1015.861630
1015.861630
722.340941
489.140749
260.764956
161.812901
121.686459
117.196441
127.188563
130.100846
130.192637
111.736655
103.621483
80.825686
58.122873
44.224858
28.556585
21.684766
16.977787
16.035438
14.264584
16.948581
15.528798
16.434789
15.256405
17.211437
15.809536
16.807914
16.553998
16.723871
18.095970
17.324686
19.427538
19.172430
19.564629
20.752549
20.534992
21.946430
20.857453
20.775795
22.847652
22.051930
22.170544
21.891594
23.605824
25.320649
25.003552
25.202632
25.863647
26.120543
27.946830
27.680993
31.152964
32.914877
36.021471
42.131543
46.528578
50.157905
53.260922
56.099892
54.232478
53.188801
50.310493
49.443841
44.870973
42.339563
37.109852
34.035444
31.730533
28.937459
25.479794
26.377439
26.145577
25.308728
24.164915
24.692416
24.190545
24.237633
23.387671
24.169683
23.520589
##ZVALUE=250
2.104640
2.336502
2.270937
2.688766
2.678633
2.690554
4.229546
16.294718
76.258779
172.730684
345.275998
709.946752
992.893577
1015.861630
1015.861630
1015.861630
1015.861630
1015.861630
1015.861630
1015.861630
684.145689
409.817696
199.427605
128.557682
110.965967
120.391846
135.738850
141.069889
136.058927
125.143528
104.337931
81.406832
64.075589
41.532516
30.234456
21.009445
17.508864
15.284419
14.526844
14.818907
15.161633
16.710758
15.414953
16.317964
15.265942
15.940666
16.693473
15.859604
16.789436
15.979409
16.975999
17.341971
18.660426
17.278790
19.263625
20.511746
18.661618
19.714832
19.511580
20.450950
20.741820
20.489693
20.333529
21.243691
21.621585
22.837520
23.145676
25.927424
27.037859
28.995872
34.026504
38.571954
40.751696
43.775439
45.901537
43.605566
44.403672
41.744709
40.117502
36.921501
34.651756
30.039549
27.709603
26.299953
24.826527
24.289489
22.349954
21.501780
20.847917
21.425486
20.447969
20.204782
21.359921
19.640923
19.766688
21.020770
##ZVALUE=255
2.181530
1.954436
1.997948
2.108812
2.381802
2.065897
2.679825
2.835989
3.460646
8.318424
51.468611
131.428838
270.865560
598.663688
936.438441
1015.861630
1015.861630
1015.861630
1015.861630
1015.861630
1015.861630
1015.861630
960.716605
615.383983
298.587680
171.984434
111.172795
108.027458
126.611590
140.475631
145.720840
144.926906
132.313967
107.281804
86.554885
59.076548
42.305589
27.835965
21.059513
16.131997
14.067888
14.405847
14.536977
14.460683
13.649464
14.213920
14.436841
15.379786
14.935732
15.020967
16.671419
15.944839
17.255545
16.633868
17.307997
18.341541
18.380880
18.118620
19.198656
18.698573
17.820597
18.548965
17.896891
18.240809
18.986464
19.943714
18.698573
21.365881
22.629499
25.970936
28.197765
31.504631
35.102963
36.609769
35.886765
36.209822
36.084652
34.891963
31.469464
30.013919
27.278662
25.606751
21.835566
20.600557
20.404458
18.885732
19.370914
17.418861
18.035769
17.210841
18.034577
17.484426
15.698671
16.785860
17.656684
16.535521
##ZVALUE=260
1.710653
1.901984
1.664758
2.038479
1.800656
2.183914
2.205968
2.225637
2.423525
2.900958
3.282428
5.517602
19.041896
87.167621
199.033618
495.649576
829.733014
1015.861630
1015.861630
1015.861630
1015.861630
1015.861630
1015.861630
1015.861630
1015.861630
910.054445
494.629741
284.839869
134.488940
99.680424
102.886558
128.246546
144.861937
154.714584
148.086548
132.746696
112.886429
84.512830
66.235662
45.109987
32.018423
20.736456
16.427636
14.784932
13.259649
13.572574
13.879538
14.283657
14.505982
14.501810
14.165640
14.853477
15.752912
16.014576
15.739799
16.554594
15.682578
15.129447
16.276836
16.512871
16.768575
16.222596
17.809868
18.191934
16.599894
16.990900
17.661452
19.354820
20.859838
23.031831
25.023818
27.534962
28.313994
30.875802
31.969547
31.170845
30.304790
27.844906
25.108457
23.910999
21.846890
19.599795
18.438697
19.772649
17.419457
16.033649
16.317964
15.020967
15.120506
14.825463
15.098453
14.883876
14.944673
14.114976
14.215708
14.279485
##ZVALUE=265
1.725554
1.575947
1.830459
1.923442
2.008677
1.859665
2.134442
1.792908
2.320409
2.200603
2.558827
3.127456
3.298521
4.049540
10.056496
58.195591
151.994824
393.847823
706.951618
1015.851498
1015.851498
1015.851498
1015.851498
1015.851498
1015.851498
1015.851498
1015.851498
1015.851498
710.200071
412.122607
231.195688
105.097890
90.595484
113.713741
133.792758
150.453448
154.716969
148.648620
137.535930
111.932755
89.109540
61.392784
44.326782
29.154420
20.919442
15.515685
14.518499
14.042854
13.801455
14.574528
15.038848
14.851689
15.919805
15.763640
15.937686
16.473532
16.021729
15.798807
16.006827
15.773773
16.743541
15.719533
16.029477
16.890764
16.672611
16.844869
17.057657
18.002987
19.394755
21.086931
21.998882
25.273561
26.319623
28.085709
27.840734
26.452541
26.491880
24.577975
22.885799
20.388961
19.299984
18.279552
16.954541
16.063452
15.033484
14.997721
14.234781
13.647676
13.969541
14.051795
13.217926
12.810826
13.817549
12.409687
12.209415
12.378693
##ZVALUE=270
1.577735
1.500845
1.653433
1.863837
1.534820
1.663566
1.724958
1.934767
2.232790
2.331734
2.391934
2.462864
2.720952
3.105998
3.289580
3.800988
6.619692
23.118854
105.407834
251.439810
629.062653
1008.794904
1015.861630
1015.861630
1015.861630
1015.861630
1015.861630
1015.861630
1015.861630
1015.861630
1015.861630
595.337749
320.662856
129.295588
81.234574
87.908506
109.787583
136.534572
150.677562
159.904957
154.464841
134.770870
116.398931
86.035728
65.928698
42.116642
30.877590
21.812916
17.332435
15.210509
15.442967
14.788508
15.372634
15.723705
15.625954
15.708804
16.187429
15.788674
15.724897
16.340613
16.296506
15.647411
16.030669
15.531778
15.579462
16.167760
16.303658
16.794801
18.146634
20.671487
21.538734
22.888780
24.144650
26.430488
26.110411
24.933815
24.421811
22.535920
21.018982
18.600821
17.430782
15.752912
15.132427
14.571548
13.852715
13.237596
12.788773
12.754798
12.912750
12.084842
12.339950
11.760592
12.403727
11.615753
11.500716
11.162758
##ZVALUE=275
1.427531
1.745820
1.640916
1.617670
1.495481
1.693964
1.695752
1.711845
1.988411
2.029538
2.117753
2.234578
2.009869
2.546906
2.936721
3.163815
3.225803
3.524423
4.331470
12.107491
52.852631
159.131885
475.602746
901.305676
1015.861630
1015.861630
1015.861630
1015.861630
1015.861630
1015.861630
1015.861630
1015.861630
1015.861630
881.490707
494.718552
191.613436
94.277859
68.398714
83.406568
112.138987
131.404400
150.381923
154.971480
149.816871
137.760639
106.167793
91.205835
63.008666
48.066974
30.714869
24.312735
18.915534
16.847849
15.976429
16.006827
15.336871
15.840530
16.383529
16.400814
16.538501
16.286969
16.329885
15.784502
15.787482
15.608668
16.137958
16.456842
16.974807
17.693639
19.068718
20.190477
22.062659
23.592710
23.943782
24.608970
23.460984
23.290515
22.102594
21.026731
18.307567
16.926527
15.946627
14.636517
13.544559
13.098717
11.793971
12.164712
11.999607
11.890531
12.150407
11.720657
10.970831
11.238456
11.137724
11.293888
10.504723
##ZVALUE=280
1.459718
1.459718
1.537800
1.329780
1.531839
1.645684
1.610518
1.644492
1.563430
1.791716
1.869798
2.050996
2.058744
2.205968
2.286434
2.457500
2.625585
2.775788
3.344417
3.921986
4.278421
6.378889
39.945841
128.619671
403.695703
757.969618
1015.861630
1015.861630
1015.861630
1015.861630
1015.861630
1015.861630
1015.861630
1015.861630
1015.861630
1015.861630
695.438981
283.498764
130.140781
58.666468
61.867833
85.021853
106.873512
131.842494
146.468878
151.394606
147.185922
131.027699
113.355517
86.315870
66.132545
45.472980
33.780932
23.202896
18.924475
16.445518
15.831590
15.128851
15.290976
15.975833
15.866756
16.184449
15.965700
15.603900
15.311837
15.493631
15.490651
16.012788
17.110705
17.498732
19.398928
20.434856
20.595789
21.716952
22.373796
22.298694
20.573735
18.534660
18.264651
16.144514
15.877485
14.095902
13.192892
12.852550
12.450814
11.681914
11.721849
11.114478
10.812879
10.735989
10.728836
10.056496
9.982586
10.234714
10.239482
9.780526
##ZVALUE=285
1.480579
1.444817
1.512766
1.520514
1.514554
1.761913
1.631975
1.855493
1.594424
1.612902
1.981854
1.451969
2.128482
1.704693
2.006888
2.337694
2.513528
2.571940
2.919436
2.967715
3.208518
3.474951
4.297495
5.095005
15.625954
60.980916
222.818851
478.817821
994.606614
1015.861630
1015.861630
1015.861630
1015.861630
1015.861630
1015.861630
1015.861630
1015.861630
1015.861630
983.771682
478.269458
231.135488
76.992512
46.269894
60.291886
78.978539
106.171966
123.907924
143.279433
148.414969
142.943859
131.421685
112.086535
93.012452
66.100955
48.218966
32.696724
23.928881
18.193722
16.267896
14.910698
14.385581
14.357567
14.598966
14.266968
14.326572
13.712645
14.581680
15.078783
15.385747
16.767979
17.713904
18.192530
19.041896
20.134449
19.991994
18.933415
18.279552
16.438961
16.295910
15.191436
13.793707
13.067722
12.350678
11.919737
11.539459
10.819435
11.092424
10.249615
9.970665
10.096431
10.157824
9.409785
9.307861
8.817911
9.257793
9.267926
##ZVALUE=290
1.008511
1.162887
1.259446
1.304746
1.205802
1.222491
1.406670
1.472831
1.323819
1.600981
1.544952
1.861453
1.675487
1.872778
1.583695
1.718998
2.028942
2.059937
2.387762
2.351999
2.535582
2.836585
2.987981
3.312826
3.868937
4.457831
7.269979
24.482012
124.659538
309.301615
625.257492
1015.735865
1015.735865
1015.735865
1015.735865
1015.735865
1015.735865
1015.735865
1015.735865
1015.735865
1015.735865
706.759691
355.292559
121.811628
49.498677
41.778684
53.090453
75.385571
93.841553
120.301843
133.564472
144.468546
143.813491
128.097534
110.559464
83.817840
65.047741
44.313669
31.934977
21.907687
17.394423
14.638901
13.647676
13.113618
13.183951
12.846589
12.606978
13.603568
13.651848
14.888644
15.740991
16.139746
16.509891
16.826987
17.471910
16.018748
15.500784
14.131665
13.900995
12.508631
11.800528
11.216998
10.668635
9.904504
10.396838
9.364486
9.510517
9.360909
9.429455
8.728504
8.710623
8.879900
8.203983
8.459687
8.639693
8.186698
##ZVALUE=295
0.930429
1.071692
1.236796
1.270771
1.281500
1.326799
1.387596
1.403689
1.391768
1.399517
1.461506
1.623631
1.279712
1.522899
1.537800
1.695752
1.872778
2.038479
1.851916
2.120733
2.273917
2.541542
2.840757
2.942681
3.250837
3.629923
4.145503
4.270673
5.373955
10.703802
42.554736
198.372006
460.435748
1012.153029
1015.760899
1015.760899
1015.760899
1015.760899
1015.760899
1015.760899
1015.760899
1015.760899
1015.760899
963.782072
532.251000
181.952715
72.852969
32.764673
36.062002
52.374601
69.389939
93.758702
113.123655
129.524469
138.436556
135.862827
125.324726
103.814602
84.369779
61.437488
46.364665
29.503703
21.781921
15.923977
13.508797
11.807680
12.007952
12.068748
12.701750
13.160706
13.979673
15.074611
16.177893
15.596747
16.118884
14.679432
14.331937
12.901425
12.048483
10.988712
10.805726
9.876490
9.617805
9.629726
9.548664
8.934736
9.077787
9.089708
8.479953
8.459687
8.613467
7.900596
8.179545
7.867813
7.755756
8.029938
##ZVALUE=300
1.254678
1.127720
1.337528
1.135468
1.215935
1.164675
1.278520
1.183748
1.351833
1.485944
1.464486
1.433492
1.517534
1.532435
1.749992
1.960993
1.879930
1.658797
2.112985
2.095699
2.173781
2.378821
2.384782
2.392530
2.633929
3.009439
3.418922
3.190637
4.033446
4.507899
4.891753
5.993843
27.762651
104.227662
372.373462
744.783878
1015.861630
1015.861630
1015.861630
1015.861630
1015.861630
1015.861630
1015.861630
1015.861630
1015.861630
1015.861630
754.052401
392.920971
129.743814
47.384501
26.905537
33.297539
47.510862
62.901974
85.708499
104.210973
122.251511
131.493807
128.845572
120.639801
101.198554
84.915757
61.747432
45.156479
29.437542
21.143556
15.595555
13.058782
12.262464
13.239980
13.428926
14.066696
14.662743
14.860630
14.465451
14.301538
12.639761
12.370944
11.129975
10.559559
9.986758
9.436607
9.006858
9.055734
8.923411
8.743405
8.565784
8.453727
8.545518
8.305907
8.257627
7.940531
7.569790
7.621646
7.669926
7.346869
##ZVALUE=305
1.094937
1.225471
1.156926
1.193881
1.252890
1.251698
1.277924
1.313686
1.357794
1.247525
1.405478
1.430511
1.395941
1.508594
1.353621
1.509786
1.634955
1.644492
1.809597
1.880527
1.830459
1.845956
2.304912
2.274513
2.322793
2.507567
2.513528
3.043413
3.455877
3.390908
3.760457
3.897548
4.704595
5.699992
10.510683
71.449876
211.880803
619.933605
1015.861630
1015.861630
1015.861630
1015.861630
1015.861630
1015.861630
1015.861630
1015.861630
1015.861630
1015.861630
1015.861630
518.288612
241.082907
67.376494
28.558969
25.069714
31.692982
45.992732
61.129928
83.536506
99.501610
116.029978
123.531818
121.975541
114.602447
96.445680
79.327822
58.122873
42.896867
27.806759
20.848513
15.970469
14.765859
13.763905
14.152527
13.976693
13.681650
13.095737
12.451410
11.369586
10.586977
9.533763
9.527802
8.765459
8.998513
8.585453
8.377433
8.686781
8.539557
8.549690
8.142591
8.002520
7.728934
7.681847
7.435679
7.341504
7.654428
7.153749
##ZVALUE=310
1.283884
0.988841
1.060963
1.109838
1.062751
1.199841
1.153946
1.214743
1.157522
1.245737
1.412630
1.327991
1.429915
1.511574
1.467466
1.433492
1.511574
1.636744
1.702905
1.868606
1.625419
1.964569
2.032518
1.867414
2.133846
2.265573
2.434850
2.503991
2.994537
2.875924
3.112555
3.517866
3.839731
4.081726
4.609823
5.307794
6.490946
30.270815
110.579729
387.983918
789.759755
1015.861630
1015.861630
1015.861630
1015.861630
1015.861630
1015.861630
1015.861630
1015.861630
1015.861630
1015.861630
835.782886
432.632565
137.384534
46.700835
20.761490
22.569895
30.508637
38.875937
56.235790
71.989894
92.507601
104.966760
114.957690
115.916729
108.122826
94.240904
75.399876
59.890747
40.726662
31.233430
22.447705
18.181801
14.855862
13.923645
12.582541
11.726618
10.086894
9.872913
9.420514
8.847713
8.572936
8.321404
8.057952
7.856488
8.095503
8.249879
8.143783
7.612705
8.098483
7.775426
7.364750
7.068515
7.225871
7.057786
6.760955
##ZVALUE=315
1.392961
1.328588
1.145601
1.272559
1.385808
1.179576
1.241565
1.290441
1.408458
1.449585
1.608729
1.201630
1.467466
1.445413
1.590848
1.657605
1.524687
1.675487
1.830459
1.869798
1.723766
1.940727
1.953840
1.929998
2.094507
2.245903
2.565980
2.627969
2.465844
2.670884
2.937913
2.987981
3.587604
3.553629
3.867745
4.422665
4.745722
5.648732
6.444454
11.007786
71.159005
215.455890
650.345683
1016.020775
1016.020775
1016.020775
1016.020775
1016.020775
1016.020775
1016.020775
1016.020775
1016.020775
1016.020775
1016.020775
582.154989
258.726478
63.418746
24.903417
18.225908
20.660758
27.531981
36.028624
51.469803
65.792799
85.938573
99.418759
109.302998
109.576583
102.916956
90.003610
71.721673
58.185458
41.627884
31.057596
21.178722
16.717911
12.827516
11.360645
9.833574
9.198785
8.893609
8.286834
8.164644
8.096695
8.171797
8.108616
7.831454
8.017421
7.690787
7.690787
7.303953
7.312894
7.355809
7.130504
7.115602
6.855726
##ZVALUE=320
1.128912
1.202822
1.200438
1.161695
1.077652
1.151562
1.201630
1.385808
1.275539
1.278520
1.255870
1.183748
1.280904
1.430511
1.371503
1.533628
1.508594
1.331568
1.469851
1.410842
1.628995
1.565814
1.352429
1.993775
1.655817
1.984835
2.175570
2.174973
2.065897
2.116561
2.584457
2.602935
2.669692
2.899766
3.167987
3.306866
3.425479
3.922582
4.227757
5.138516
5.613565
7.522702
26.184916
155.037642
391.608477
964.241624
1015.900970
1015.900970
1015.900970
1015.900970
1015.900970
1015.900970
1015.900970
1015.900970
1015.900970
1015.900970
885.288715
339.742899
142.620802
35.828948
18.391609
17.117858
18.325448
24.202466
32.038689
47.639608
60.597658
78.667998
92.851520
104.156733
106.172562
99.910498
88.210702
69.977641
55.084825
38.593411
28.332472
18.456578
13.921857
10.266900
8.905530
8.499622
8.061528
7.882714
7.730722
7.343888
7.344484
7.429719
7.471442
7.109642
7.193685
7.192492
7.221699
6.715655
6.663799
6.701946
##ZVALUE=325
0.968575
1.111627
1.100898
1.020432
0.925660
0.972748
1.033545
1.114607
1.169443
1.181960
1.076460
1.241565
1.030564
1.202822
1.301765
1.199841
1.279712
1.479983
1.446605
1.493692
1.469851
1.758933
1.737475
1.634955
1.536608
1.800656
1.796484
1.961589
1.988411
1.968741
1.997948
2.308488
2.296567
2.469420
2.827644
2.752542
3.099442
3.612638
3.496408
3.851652
4.406571
4.968643
5.502701
6.702542
13.993979
95.617771
263.338685
730.818510
1015.861630
1015.861630
1015.861630
1015.861630
1015.861630
1015.861630
1015.861630
1015.861630
1015.861630
1015.861630
1015.861630
518.340468
230.572820
57.926774
21.549463
15.463829
15.320778
17.388463
22.145510
30.994415
43.296814
61.508417
74.582696
91.164708
97.829700
99.353790
93.237758
78.993440
65.356493
47.325492
35.530925
22.429824
16.556978
11.333823
9.570718
8.111000
7.814765
7.830858
7.335544
7.178783
7.398725
7.010698
6.947517
6.754994
6.368756
6.701946
6.667972
6.212592
##ZVALUE=330
1.024604
0.984669
1.115799
1.122952
1.215935
1.091957
1.071692
1.162887
0.988841
1.111627
1.164675
1.092553
1.327991
1.082420
1.388788
1.234412
1.230836
1.392961
1.442432
1.373887
1.386404
1.482964
1.479983
1.588464
1.495481
1.652837
1.527667
1.640916
1.991987
1.812577
1.877546
1.913905
2.166629
2.298951
2.313852
2.441406
2.453923
2.814531
3.073812
3.437996
3.518462
3.987551
4.116893
4.503727
5.394816
6.464720
8.101463
43.380857
146.830678
490.948558
948.889852
1015.861630
1015.861630
1015.861630
1015.861630
1015.861630
1015.861630
1015.861630
1015.861630
1015.861630
1015.861630
742.356777
361.147523
110.645890
35.563707
15.675426
14.184713
14.962554
17.062426
23.019910
30.235648
43.725967
56.225657
74.682832
83.968639
92.318654
92.398524
84.377527
74.448586
58.289766
45.382977
30.730963
22.682548
15.260577
11.654496
9.369850
8.077621
7.630587
7.372499
7.222891
6.784797
6.792545
6.535649
6.615520
6.428957
6.308556
##ZVALUE=335
0.998974
1.138449
0.881553
0.901818
1.151562
1.028776
1.139641
1.176596
1.071692
1.162887
1.210570
1.134872
1.196861
0.984669
1.288652
1.234412
1.321435
1.254678
1.286864
1.339912
1.357794
1.386404
1.390576
1.448989
1.378655
1.386404
1.664758
1.655817
1.632571
1.761913
1.844764
1.992583
1.782775
2.072453
2.172589
2.216697
2.347827
2.846718
2.680421
2.767444
3.021955
3.178716
3.212690
3.401637
4.187822
4.470944
4.924536
5.793571
6.529689
18.118620
72.989464
311.987400
679.711699
1015.903950
1015.903950
1015.903950
1015.903950
1015.903950
1015.903950
1015.903950
1015.903950
1015.903950
1015.903950
996.482968
553.661585
170.165896
57.660937
18.177629
14.928579
14.916658
15.215874
18.046498
22.208691
31.130910
39.502978
55.103898
66.082478
77.782869
83.126426
84.036589
78.001618
67.298412
56.216717
42.752624
32.954812
22.260547
16.704798
11.209846
9.530783
7.791519
7.194877
6.837845
6.794930
6.578565
6.163716
6.179810
##ZVALUE=340
0.921488
0.963807
1.051426
0.872612
0.881553
0.913739
1.172423
1.014471
0.964999
0.955462
1.076460
0.944734
1.023412
1.031756
1.064539
0.996590
1.034737
1.168847
1.123548
1.323819
1.380444
1.247525
1.247525
1.460910
1.448989
1.362562
1.320839
1.533628
1.658797
1.616478
1.509786
1.602769
1.831651
1.968741
1.864433
2.151728
2.155900
2.098680
2.355576
2.486706
2.705455
2.701879
2.754927
3.050566
3.187656
3.735423
4.000664
4.162788
4.680753
5.511642
6.266832
9.610653
34.360886
193.345547
488.842726
1015.861630
1015.861630
1015.861630
1015.861630
1015.861630
1015.861630
1015.861630
1015.861630
1015.861630
1015.861630
1015.861630
740.477443
278.151631
96.087456
22.614598
15.681982
15.103817
14.937520
15.314817
16.506910
20.697713
26.519895
37.581921
47.597885
62.279701
71.354508
78.300834
78.206658
73.340535
65.985918
53.079724
43.027997
30.960441
22.968650
15.806556
11.736751
8.537769
7.493496
6.804466
6.275773
6.013513
##ZVALUE=345
1.018643
0.928640
0.961423
0.963807
0.934601
0.871420
0.970960
0.998974
1.018643
1.178980
0.946522
1.073480
0.981688
1.047850
1.162887
1.154542
1.182556
1.160502
1.320839
1.210570
1.206994
1.260638
1.224875
1.319647
1.362562
1.325607
1.426935
1.437664
1.430511
1.483560
1.512766
1.508594
1.785755
1.735687
1.912713
1.838803
1.885891
2.177954
2.114773
2.189875
2.336502
2.438426
2.397895
2.777576
2.862811
3.265738
3.366470
3.545880
3.884435
4.176497
4.357696
5.250573
5.953908
7.305741
15.459657
108.169913
315.240622
866.573453
1015.876532
1015.876532
1015.876532
1015.876532
1015.876532
1015.876532
1015.876532
1015.876532
1015.876532
1015.876532
983.252525
397.125483
162.814856
41.540861
19.528866
15.901923
14.740825
13.436675
13.177991
13.847947
16.849637
24.402738
32.424927
45.246482
55.068731
65.395832
70.073605
72.918534
70.180893
61.620474
53.189993
41.274428
31.436682
21.215677
15.959740
11.061430
8.768439
7.203817
##ZVALUE=350
0.983477
0.934601
1.189709
1.055598
1.078844
1.111627
1.063943
1.226664
1.193881
1.045465
1.188517
1.074672
1.217723
1.194477
1.122952
1.131892
1.196861
1.285672
1.294613
1.357794
1.143813
1.320839
1.348853
1.416802
1.242757
1.334548
1.468658
1.291633
1.521707
1.434684
1.528859
1.634955
1.509786
1.556873
1.828671
1.753569
1.851916
1.943707
2.041459
2.001524
2.051592
2.138615
2.327561
2.394915
2.556443
2.821684
3.015995
3.081560
3.382564
3.734827
3.936887
4.353523
4.479885
5.321503
5.695820
6.609559
9.036660
53.142905
181.177855
593.706965
1015.861630
1015.861630
1015.861630
1015.861630
1015.861630
1015.861630
1015.861630
1015.861630
1015.861630
1015.861630
1015.861630
617.825985
266.104937
60.605407
22.427440
15.262961
13.535619
11.690855
11.317730
11.374950
12.493730
16.454458
21.643639
29.517412
37.950873
49.977899
57.545900
64.769983
66.419840
65.233707
58.815479
48.692822
40.198565
29.427409
22.890568
15.508533
##ZVALUE=355
1.167655
1.178980
1.105666
1.273751
1.079440
1.104474
1.158714
1.207590
1.259446
1.128912
1.283884
1.204610
1.346469
1.331568
1.344681
1.372695
1.445413
1.341701
1.168847
1.351833
1.105666
1.205802
1.336932
1.302958
1.451969
1.586676
1.393557
1.737475
1.460910
1.582503
1.675487
1.714826
1.693964
1.947880
1.908541
1.797676
1.840591
1.886487
2.097487
2.177954
2.133846
2.147555
2.255440
2.558827
2.580881
2.538562
2.751946
3.018975
3.021955
3.350973
3.411770
3.943443
3.866553
4.446507
4.640818
5.332828
5.908608
6.574988
7.660985
24.802685
98.296404
402.899981
844.493508
1015.868783
1015.868783
1015.868783
1015.868783
1015.868783
1015.868783
1015.868783
1015.868783
1015.868783
1015.868783
782.947540
358.786583
92.928410
30.088425
15.309453
13.448000
12.127757
11.587739
10.589957
10.562539
12.254715
14.167428
19.546747
25.344491
35.101771
42.318702
51.686764
57.931542
61.459541
60.009956
54.550767
47.357678
37.844777
##ZVALUE=360
1.321435
1.149774
1.309514
1.324415
1.210570
1.145601
1.238585
1.165867
1.307726
1.362562
1.357794
1.287460
1.182556
1.366735
1.295805
1.291633
1.340508
1.366735
1.474619
1.398921
1.581907
1.508594
1.582503
1.427531
1.683831
1.525879
1.580715
1.672506
1.615882
1.698732
1.725554
1.742840
1.948476
1.810789
1.964569
1.787543
2.055764
2.014637
2.300739
2.151728
2.066493
2.348423
2.289414
2.392530
2.409816
2.665520
2.652407
2.792478
2.938509
3.100634
3.383756
3.350973
3.764629
3.960729
4.174709
4.535913
4.799962
5.480647
6.109476
6.860495
7.808805
12.046695
41.731000
211.386681
531.973839
1015.861630
1015.861630
1015.861630
1015.861630
1015.861630
1015.861630
1015.861630
1015.861630
1015.861630
1015.861630
1004.944444
565.409660
186.555982
59.378743
17.064810
13.659000
12.199879
11.125803
10.528564
9.956956
9.577870
10.542870
12.904406
15.880466
21.682978
27.923584
37.841797
44.828653
51.962733
54.532886
54.449439
##ZVALUE=365
1.287460
1.257658
1.164675
1.287460
1.045465
1.218915
1.217723
1.232624
1.261830
1.266599
1.277924
1.162887
1.206994
1.471639
1.409650
1.395941
1.493692
1.409650
1.509786
1.507998
1.591444
1.495481
1.467466
1.578927
1.627803
1.552701
1.606941
1.685619
1.645684
1.724958
1.708865
1.802444
1.858473
1.863837
1.954436
1.898408
2.009869
2.031922
2.003908
2.069473
2.163649
2.263784
2.333522
2.403855
2.384782
2.724528
2.372861
2.593994
2.531409
2.717972
3.007650
3.144741
3.213882
3.478527
3.635883
3.788471
4.281998
4.435778
4.953742
5.374551
6.128550
6.872416
7.557869
8.979440
17.573833
110.941529
332.787037
932.457447
1015.861630
1015.861630
1015.861630
1015.861630
1015.861630
1015.861630
1015.861630
1015.861630
1015.861630
1015.861630
851.172805
296.504498
104.746819
21.981597
13.934970
11.894703
11.309981
10.061860
9.605885
8.901954
8.737445
9.412766
10.168552
13.518929
17.373562
24.309754
30.634999
38.914680
##ZVALUE=370
1.110435
1.235604
1.199841
1.218915
1.243949
1.340508
1.236796
1.322627
1.422763
1.357794
1.258850
1.143813
1.232624
1.334548
1.376867
1.293421
1.327991
1.388788
1.441836
1.292825
1.381636
1.400709
1.399517
1.361966
1.461506
1.391768
1.374483
1.492500
1.677871
1.495481
1.524687
1.534820
1.653433
1.595616
1.773834
1.761913
1.936555
1.895428
1.740456
1.767874
2.049804
1.842976
1.993775
1.969934
2.292991
2.100468
2.103448
2.265573
2.242923
2.396703
2.678633
2.785921
2.674460
2.861619
3.026724
3.285408
3.370643
3.497601
3.769994
3.833771
4.377961
4.725456
5.447865
6.045699
6.683469
7.601976
10.976791
59.829950
211.883783
715.415478
1015.861630
1015.861630
1015.861630
1015.861630
1015.861630
1015.861630
1015.861630
1015.861630
1015.861630
1015.861630
989.452004
405.724645
170.107484
44.914484
16.806722
11.609793
10.771751
9.816885
8.974671
8.552670
7.677674
7.833838
7.885695
9.393692
11.221766
15.531778
##ZVALUE=375
1.036525
1.243949
1.055598
1.215935
1.111627
1.104474
1.102686
1.069903
1.135468
1.090765
1.117587
1.171827
1.150966
1.200438
1.173615
1.206994
1.292825
1.356602
1.268983
1.407862
1.284480
1.313686
1.255870
1.224875
1.452565
1.329780
1.260638
1.540780
1.259446
1.299977
1.485944
1.488924
1.473427
1.590848
1.618862
1.513958
1.481771
1.502633
1.671910
1.601577
1.562834
1.726747
1.749992
1.773834
1.737475
1.951456
1.886487
2.051592
1.887679
2.135634
2.087951
2.223849
2.285838
2.249479
2.332926
2.563000
2.687573
3.017783
2.999902
3.155470
3.182888
3.599524
4.190803
4.370809
4.810691
5.139709
6.011724
7.188916
8.745790
29.210448
112.971663
438.327789
931.027532
1015.861630
1015.861630
1015.861630
1015.861630
1015.861630
1015.861630
1015.861630
1015.861630
1015.861630
1015.861630
728.078485
345.014930
93.610883
27.997494
11.877418
10.992885
9.543896
8.969903
8.144975
7.566810
6.990433
6.899834
6.803870
##ZVALUE=380
0.969768
1.094937
0.783801
0.939965
1.014471
0.884533
0.900626
0.869632
1.032948
1.011491
1.127720
1.033545
1.135468
1.201630
1.034737
1.199841
1.184940
1.141429
1.128912
1.038909
1.139641
1.140833
1.090765
0.978708
1.185536
0.971556
1.185536
1.033545
1.250505
1.360774
1.358986
1.244545
1.312494
1.210570
1.327991
1.411438
1.303554
1.479983
1.496673
1.358986
1.220703
1.364946
1.589656
1.469851
1.531839
1.695752
1.543760
1.859665
1.895428
1.874566
1.999736
2.007484
2.003908
2.075434
2.216697
2.278686
2.338886
2.507567
2.592802
2.672672
2.767444
3.046989
3.325939
3.560781
3.791451
4.247427
4.673600
5.359650
6.246567
7.508993
8.689761
15.257001
61.409473
313.489437
744.709969
1015.861630
1015.861630
1015.861630
1015.861630
1015.861630
1015.861630
1015.861630
1015.861630
1015.861630
1015.861630
1001.749635
548.663735
172.334909
57.136416
15.283823
11.141896
9.407997
8.756518
8.132458
7.331967
6.982684
##ZVALUE=385
0.932813
0.946522
0.722408
0.832677
0.827909
0.858903
0.872612
1.007915
0.859499
1.038909
0.869632
1.076460
0.859499
1.013875
0.968575
0.916719
0.911951
0.938773
1.135468
1.023412
0.978708
0.887513
1.092553
1.056790
1.228452
1.107454
1.054406
1.109838
1.284480
1.167655
1.331568
1.146793
1.211762
1.160502
1.173615
1.333952
1.296997
1.414418
1.500845
1.208782
1.557469
1.465678
1.425743
1.502633
1.660585
1.440644
1.516938
1.512766
1.567602
1.873970
1.742840
1.756549
1.754761
1.903772
2.132654
1.981854
2.186894
2.164841
2.218485
2.353787
2.436638
2.595782
2.906919
3.034472
3.273487
3.509521
3.915429
4.718900
5.076528
5.884767
6.696582
7.237792
7.804632
9.922981
27.868748
175.188780
475.042462
1015.855670
1015.855670
1015.855670
1015.855670
1015.855670
1015.855670
1015.855670
1015.855670
1015.855670
1015.855670
1015.855670
925.896764
358.828902
129.068494
24.338961
11.745691
9.912848
8.755922
7.917881
##ZVALUE=390
0.865459
0.877976
0.847578
0.755787
0.820756
0.899434
1.070499
1.035929
0.773668
0.817776
1.027584
0.981688
1.048446
0.878572
0.868440
0.790954
0.882745
0.945926
1.036525
0.934601
0.974536
0.985861
1.099706
1.021624
1.156926
0.980496
1.174808
1.014471
0.994802
1.051426
1.119971
1.244545
1.186728
1.116991
1.373887
1.121759
1.317859
1.285672
1.367927
1.234412
1.215935
1.365542
1.411438
1.328588
1.532435
1.392961
1.434684
1.526475
1.649857
1.614690
1.821518
1.662970
1.938939
1.953840
1.765490
1.938939
2.241731
2.114773
2.249479
2.359748
2.441406
2.624989
2.720952
2.782941
2.739429
3.292561
4.224777
4.145503
5.144477
5.416870
5.973577
6.137490
6.965995
6.887913
7.853508
8.445978
13.825893
99.275708
310.726762
922.334790
1015.852690
1015.852690
1015.852690
1015.852690
1015.852690
1015.852690
1015.852690
1015.852690
1015.852690
1015.852690
1015.852690
565.072894
239.337683
51.420927
15.624762
10.058880
##ZVALUE=395
0.858903
0.859499
0.941753
0.839829
0.975728
0.944734
0.827909
0.943542
0.838637
0.778437
0.704527
0.946522
0.889897
1.038909
0.967979
0.869632
1.001954
1.132488
0.938773
1.057982
0.825524
1.014471
1.010895
0.854731
0.942945
0.861883
0.947714
1.102686
1.161695
1.054406
1.068711
1.011491
1.291633
1.234412
1.076460
1.489520
1.183748
1.263618
1.295805
1.223683
1.318455
1.466870
1.377463
1.402497
1.507998
1.500845
1.468658
1.520514
1.551509
1.670718
1.679659
1.682639
1.721978
1.830459
1.756549
1.930594
1.899600
1.990795
2.138615
2.147555
2.376437
2.473593
2.488494
2.832413
2.956986
2.918839
3.375411
3.813505
4.245639
4.667640
5.459785
5.534887
5.685687
5.818605
5.841851
6.130934
6.670952
7.773638
9.920001
47.814846
187.480450
689.359903
1015.861630
1015.861630
1015.861630
1015.861630
1015.861630
1015.861630
1015.861630
1015.861630
1015.861630
1015.861630
1015.861630
889.748931
412.739515
114.533901
##ZVALUE=400
0.921488
0.939965
0.901818
0.923872
0.938773
0.852942
0.995994
1.006722
0.893474
1.037717
0.971556
0.980496
1.025796
1.085997
0.952482
0.823736
0.884533
1.086593
0.929832
0.901818
1.031756
0.949502
1.179576
0.966787
1.132488
1.030564
1.226664
1.034737
1.200438
1.116991
1.142621
1.154542
1.081824
1.342893
1.260638
1.269579
1.291633
1.287460
1.379848
1.316667
1.151562
1.451969
1.496673
1.517534
1.593828
1.556873
1.658797
1.619458
1.394749
1.623631
1.846552
1.799464
1.864433
1.856685
1.752973
2.015829
1.955628
2.056956
2.079606
2.273917
2.268553
2.431870
2.420545
2.510548
2.752542
3.320575
3.367662
3.795624
3.928542
4.726648
4.820824
5.176663
5.209446
5.109906
5.232692
5.475879
5.676746
5.951524
6.623864
7.537603
8.687973
25.983453
102.945566
404.436588
904.859900
1015.926600
1015.926600
1015.926600
1015.926600
1015.926600
1015.926600
1015.926600
1015.926600
1015.926600
1015.926600
1015.926600
##END
