##TITLE=FQP00602
##FORMAT=SPECTACLE-ASCII V-1.2
##DATA TYPE=ULTRAVIOLET SPECTRUM
##SECOND TYPE=ULTRAVIOLET SPECTRUM
##DATE=02/28/18
##TIME=18:27:53
##SPECTROMETER/DATA SYSTEM=SPECTACLE
##XUNITS=NM EM
##YUNITS=ENERGY
##YFACTOR=1
##FIRSTX=220
##LASTX=410
##NPOINTS=96
##3DDATA=Equidistant
##ZUNITS=NM EX
##FIRSTZ=210
##LASTZ=400
##ZPOINTS=39
##XYDATA=(Y..Y)
##ZVALUE=210
2.866983
2.332926
2.215505
2.662539
3.040433
3.418922
2.672672
3.105998
2.310872
2.835989
2.955794
3.062487
2.843738
3.229976
3.024936
2.846718
3.765821
3.756881
4.006624
4.226565
4.614592
4.839897
4.334450
4.538894
4.681945
5.598664
5.945563
6.599426
5.988479
7.753968
7.679462
7.508993
8.554459
7.589459
7.645488
7.926822
7.493496
8.335710
8.750558
8.700490
8.395910
9.015799
8.560419
8.322597
7.888675
7.876754
8.647442
8.525848
8.121729
7.969737
8.701682
8.988976
8.500814
8.286834
7.476807
7.939935
7.207990
8.467436
8.595586
7.987618
8.218884
8.618832
8.615851
8.250475
9.346604
8.251667
8.757710
10.008812
10.116696
12.069941
13.883710
15.650988
17.480850
19.876957
23.672581
25.240779
26.855469
27.594566
28.176904
25.124550
24.243593
22.180676
19.510984
16.677976
14.181733
13.139844
11.186600
9.222627
9.254813
7.868409
7.829666
7.677674
7.796884
8.206964
8.102655
8.056760
##ZVALUE=215
9.779930
8.264780
8.276701
7.064939
5.591512
5.914569
6.118417
6.046891
5.977750
5.379915
5.234480
5.631447
5.078912
4.441738
4.315972
4.110932
3.840923
3.167987
5.050898
4.462600
4.238486
5.140901
5.132556
5.040765
5.041957
6.406903
6.589890
7.664561
8.004904
8.103848
9.100437
10.916591
9.541512
10.279417
11.046529
12.377501
9.912848
10.331869
10.122657
10.247827
10.117888
13.030767
11.532903
10.121465
9.961724
10.093451
10.042787
10.010600
10.795593
9.800792
10.175705
10.558963
10.136962
10.382533
10.594726
10.858774
11.035800
9.769797
9.821653
9.536743
10.078549
9.575486
10.571480
10.400414
10.908842
11.164546
12.004972
12.177825
14.213920
14.213920
18.023849
18.056631
23.363829
25.196671
27.964711
32.256842
32.411814
34.924746
35.569668
34.054518
32.687783
31.935573
26.707649
24.361610
21.173954
18.276572
13.999939
11.738539
10.149479
9.435415
9.481907
9.875894
9.252429
9.731650
9.455681
9.383559
##ZVALUE=220
30.552745
29.081702
31.784773
34.409761
30.552745
23.462772
22.697449
15.649796
12.940764
11.263490
11.551976
12.599826
12.723804
10.822415
9.202957
7.601976
6.111860
4.817843
3.822446
4.455447
4.907846
4.878640
5.857944
5.696416
5.570650
6.188750
8.586645
7.676482
9.446740
10.164976
10.601878
12.660623
12.758970
14.607906
14.459491
14.617443
15.772581
14.054775
15.597939
15.603900
13.750792
15.607476
14.225841
14.135838
13.793707
14.059544
13.941526
12.595654
12.447834
10.921955
12.351871
12.880564
11.839867
11.511445
11.039972
11.295676
10.725856
10.320544
11.142492
9.989738
11.445880
9.748936
11.436939
11.299849
11.212826
11.926889
12.666583
13.304949
15.483499
15.848875
17.301440
19.873977
24.089813
25.776625
30.712485
31.842589
30.578971
34.978986
33.061504
36.971569
35.887957
32.447577
30.441880
25.218725
21.255612
17.002821
15.447736
13.264418
10.432601
10.190606
10.728836
9.887815
9.621978
10.315776
10.502934
9.459853
##ZVALUE=225
53.428411
51.399469
68.924427
86.025000
87.446570
83.899498
72.780848
59.244633
42.317510
30.401945
25.270581
24.461746
25.782585
26.084781
27.918816
26.364923
20.628572
18.103719
13.265610
9.930730
7.612705
5.314946
5.500913
5.140901
5.219579
6.848574
7.346869
9.203553
10.634661
12.403727
12.218952
13.047457
14.481544
16.382933
15.786886
17.139912
16.223788
17.198920
16.806722
17.631650
16.768575
15.688539
15.022755
15.685558
15.030503
14.243722
13.472438
13.514757
14.312863
15.120506
13.533831
12.885928
13.082623
13.013482
11.903644
12.769699
11.410713
10.892749
11.317730
10.382533
11.637807
11.766553
11.903644
11.795759
12.468696
11.495948
11.612773
13.728738
13.306737
14.905930
16.811490
18.484592
21.924973
22.890568
24.517775
24.919510
23.339987
26.194453
24.928451
23.913980
23.486614
22.815466
22.124648
19.605756
19.224882
15.134811
14.276505
13.988614
13.080835
13.550520
13.158917
12.961626
12.005568
13.988614
13.449788
12.476444
##ZVALUE=230
49.266815
51.460862
79.739690
138.547421
179.673433
228.204727
236.364007
237.177610
212.160945
171.420574
112.096667
81.080794
54.464936
47.510862
47.829747
49.139857
53.104758
51.388741
46.308637
37.713647
27.745962
18.720627
13.199449
9.311438
7.983446
7.341504
8.689761
9.262562
10.073781
10.929704
12.356639
13.826489
15.645623
14.400482
14.988780
16.320944
16.644597
16.969442
16.023517
16.614795
17.388463
17.093420
17.183423
15.765429
16.125441
16.035438
14.916658
14.556646
15.443563
12.764931
13.352633
12.896657
13.917685
12.851954
12.760758
12.931824
12.039542
11.990666
11.537671
12.801886
12.250543
13.459921
12.536645
12.653470
12.895465
12.769699
14.149547
13.664961
14.586449
15.797615
20.033717
20.045638
21.753907
21.895766
28.361678
26.260614
28.098822
29.205680
28.072596
26.091933
26.105642
22.460818
23.019910
20.805597
19.175410
18.492937
17.423630
16.823411
16.095638
15.904903
17.223954
16.323924
15.601516
16.031861
16.991496
17.515421
##ZVALUE=235
15.408993
18.804669
38.118958
80.835819
125.572681
196.132660
246.021748
304.289460
334.459543
312.112570
268.022418
212.413669
143.333673
110.847950
78.435540
66.462755
69.336891
75.843930
85.997581
85.989833
79.218745
63.979626
52.637458
35.941601
24.203658
15.352964
11.381507
8.859634
7.902980
8.550882
8.970499
9.783506
9.885430
10.759830
11.135936
10.879636
11.672974
12.448430
11.301637
12.922883
12.099743
12.039542
12.447834
11.705756
11.636615
11.155605
11.059642
11.418462
11.530519
11.337996
10.602474
11.090636
10.249615
11.300445
11.309981
10.729432
11.437535
10.609627
11.955500
12.007952
10.815859
12.040734
13.215542
12.534857
12.367964
13.274550
13.523698
16.256571
15.304685
19.020438
17.898679
19.238591
21.598935
23.815632
22.685528
25.679469
25.592446
26.962757
27.562976
25.645494
26.060939
25.165677
22.537708
23.352504
25.214553
23.055673
23.669600
23.855567
22.211671
22.672415
22.729635
22.064447
23.812652
23.446679
23.509860
22.428632
##ZVALUE=240
2.017617
2.858639
9.481907
19.395947
51.816702
92.578530
177.253485
255.785584
371.250510
424.179435
468.293428
454.604626
412.464738
318.266749
240.909457
159.095526
119.253993
93.914866
88.191628
104.864836
112.966895
120.467544
117.404461
109.119415
83.264709
72.231889
47.603846
33.927560
19.245744
14.440417
12.392998
10.072589
9.903908
9.194613
9.799600
9.203553
10.410547
9.891987
11.124611
11.438727
10.436773
11.744499
11.932850
11.963844
11.314750
12.037754
11.833906
11.878610
10.352731
11.525750
10.984540
10.851622
10.561943
10.334849
10.662675
10.651946
11.133552
11.507869
12.549758
11.828542
13.799667
13.176799
13.571978
15.714765
15.359521
16.460419
17.165542
16.315579
19.621849
19.937754
20.176768
23.238659
22.598505
24.063587
26.510954
28.700829
29.247999
30.323863
29.123425
31.346679
28.748512
29.367805
29.167533
27.941465
27.937889
29.816628
27.976632
29.395819
28.172731
31.400919
29.976964
29.365420
31.562448
29.474497
30.223727
28.599501
##ZVALUE=245
1.727939
1.221895
1.673698
1.782775
5.634427
16.380548
47.467947
88.183880
188.145638
283.345580
411.419868
488.511920
541.915894
543.996692
511.060953
408.630967
327.017903
225.322843
162.869692
113.386512
94.103813
99.218488
120.763779
130.831599
137.342811
131.600499
117.186904
101.577640
73.165894
56.704879
42.621493
26.082993
19.117594
14.006495
13.763905
11.631846
12.132525
11.878610
11.472702
12.152791
11.543632
12.936592
12.046695
12.204647
12.379885
12.453794
11.832714
11.729598
10.991693
11.482835
12.020469
11.724830
12.141466
11.900663
11.290908
10.824800
11.990666
11.977553
11.016726
11.919737
12.511611
13.966560
13.819933
12.904406
14.271736
15.662909
17.161965
16.301870
18.587708
20.086765
19.242764
20.052791
23.255944
25.448799
25.118589
26.625991
28.255582
27.988553
28.178692
27.716756
29.855967
29.013753
30.788779
31.029582
29.191971
30.078888
30.050874
31.335950
30.704737
32.784939
31.274557
30.727983
30.242801
30.504465
30.695796
29.824972
##ZVALUE=250
1.317859
1.910925
1.792908
1.783967
1.459718
2.015829
2.692938
13.691783
36.040545
84.833503
197.143555
314.869881
492.129922
595.014691
669.461489
689.944625
639.607906
556.854606
460.550785
309.009552
212.605596
129.844546
97.554922
94.731450
107.793808
130.251646
141.015649
144.357681
143.596530
126.078725
112.047791
82.467794
64.178705
41.121840
29.874444
21.428466
16.266704
14.907718
15.098453
14.584661
15.136600
14.323592
14.382601
15.209913
14.749765
14.183521
13.675690
13.351440
13.445616
12.931824
12.565851
12.113452
12.729764
11.366606
12.141466
12.307763
11.167526
11.959672
11.294484
12.793541
12.644529
12.258887
12.447834
13.519526
13.381839
13.708472
15.238523
15.542507
16.808510
17.680526
18.675923
20.082593
21.308661
22.321939
22.615790
22.721887
23.962855
26.391745
27.551651
27.239919
27.019978
26.496649
28.338432
26.611686
28.852820
28.030872
28.775930
29.947758
29.230714
28.640628
29.983521
28.981566
29.338598
29.107928
30.715466
30.150414
##ZVALUE=255
1.105666
1.186728
1.379848
1.422763
1.262426
1.469851
2.125502
1.817942
2.030730
6.167889
30.694604
68.632960
134.523511
261.309743
379.625559
540.843010
631.749034
704.762936
694.491863
617.666841
528.866649
410.261750
257.534981
172.094703
104.021430
88.470578
93.644857
110.682845
136.346817
148.288608
154.274702
153.669715
143.688917
117.023587
97.012520
68.760514
49.011707
32.096505
25.126934
20.474792
19.820929
19.397736
18.058419
18.053651
16.927719
17.809868
17.256737
16.737580
15.667677
15.320778
15.201569
15.015602
14.372468
13.582706
13.176799
13.288856
12.409687
12.186766
13.161898
12.194514
13.080835
12.784600
12.859702
14.007688
12.507439
12.916923
15.249848
14.467835
15.716553
16.213655
16.107559
16.548634
19.268990
18.647909
19.199848
20.685792
22.469759
22.165775
22.937655
23.494959
24.020672
25.366545
25.432706
25.264621
25.571585
26.311874
28.358698
26.495457
25.294423
26.397705
25.406480
26.595592
26.460886
28.052926
28.136969
28.021932
##ZVALUE=260
1.551509
1.346469
1.214743
1.087785
1.198649
1.253486
1.235604
1.293421
1.305938
1.628995
1.553893
2.651811
9.038448
35.032630
73.596835
166.959763
265.816450
426.797867
548.730493
673.792958
727.902651
713.452697
606.577992
494.004488
329.566002
226.060748
137.070417
95.638633
81.444979
92.561841
111.038685
140.183568
160.426497
168.408751
164.409876
149.470568
130.948424
99.798441
76.428652
53.065419
40.162802
31.313896
25.898814
22.178888
22.766590
20.038486
19.966960
18.774867
19.045472
17.733574
17.044544
16.468763
16.926527
15.091896
15.005469
14.813542
14.849901
13.600588
13.423562
13.109446
13.684630
13.159513
12.634993
12.619495
12.888908
13.966560
13.753772
14.086962
15.543699
15.473962
15.695691
17.065406
17.848611
18.328428
19.608736
19.989610
19.787550
20.814538
21.976829
21.923780
21.822453
24.491549
23.101568
24.245977
23.845434
24.323463
24.739504
25.182962
26.250482
26.347637
25.469661
26.518703
26.727915
25.847554
26.989579
27.394891
##ZVALUE=265
0.991821
1.042485
0.955462
1.099706
1.263618
1.405478
1.014471
1.335740
1.326799
1.459718
1.717806
1.459718
1.444817
1.880527
5.104542
23.494959
54.724813
132.941604
226.581693
400.009751
537.933707
664.301515
772.366524
770.450830
687.291622
580.807924
431.769490
304.445624
176.786780
116.275549
82.569718
81.675649
96.348524
128.656626
151.056647
171.938539
177.393556
169.287920
155.745745
127.089620
105.747581
75.523853
57.167411
41.765571
34.016967
26.862621
24.467707
22.180676
20.828843
20.705462
19.494891
18.220544
18.090606
16.884804
16.482472
15.549660
15.304685
13.941526
14.685988
13.891459
13.921857
13.418794
13.798475
12.665987
12.886524
13.638735
14.292598
13.908744
14.983416
14.547706
15.331507
16.420484
17.050505
17.351508
18.079877
19.165874
19.073486
19.465685
19.761920
19.811988
21.716952
21.803975
21.868944
22.778511
23.010969
23.052692
23.423433
24.287701
23.964643
24.961829
24.822950
24.161935
24.752617
24.599433
26.318431
24.493933
##ZVALUE=270
0.814795
1.060963
0.786781
0.838637
1.054406
0.936985
1.190901
1.189709
1.395941
1.176000
1.114607
1.385808
1.279712
1.371503
1.384616
1.347661
2.250671
10.703802
32.023787
92.313886
180.382729
302.428603
497.648716
642.032623
781.871676
810.402036
770.697594
689.615607
525.539517
399.654508
276.374817
154.522657
99.953413
71.195960
79.233646
106.096864
127.596855
161.124468
176.216960
180.629492
174.546838
153.909922
133.994818
102.411509
77.888966
53.357482
42.089820
31.745434
25.168657
21.879673
20.730495
18.397570
17.882586
16.701818
15.940666
15.600920
15.675426
14.000535
14.973879
13.919473
13.315678
13.708472
13.169646
12.938976
13.488531
13.211966
13.345480
12.679696
13.738871
15.771985
15.171766
16.640425
17.271638
17.598867
17.559528
18.808842
18.709898
18.257499
19.861460
20.719767
20.007491
21.054745
20.912886
22.244453
22.211671
22.608638
23.365617
23.145676
23.372769
23.740530
23.512840
24.065971
23.486614
24.242997
23.894906
23.866892
##ZVALUE=275
0.974536
1.079440
1.021624
1.043677
1.166463
1.097918
0.854731
1.135468
1.179576
1.228452
0.999570
1.062751
1.012683
1.220703
1.372695
1.404881
1.324415
1.711845
1.803637
5.134940
18.595457
51.603913
142.771602
258.485675
448.134542
590.251684
742.377639
813.836455
822.255611
761.148930
659.023523
483.618975
345.413685
191.556811
121.186972
71.642995
61.740875
77.507496
98.051429
128.489733
150.525570
169.473886
172.653794
167.911649
151.964426
122.498870
101.530552
73.212981
54.259896
36.428571
27.400851
21.735430
18.071532
16.804934
15.877485
15.121698
14.421940
14.649630
13.490915
13.982654
13.484955
12.781620
13.278723
13.144612
13.273954
13.635755
14.197826
14.315844
14.536977
14.528632
15.274882
16.433001
16.714931
16.969442
17.229915
18.299818
18.587708
19.122958
19.783974
20.101666
20.668507
20.553470
20.707846
21.589994
21.784902
22.775531
22.074580
22.282600
22.655725
22.275448
23.193955
22.026896
22.496581
22.674799
23.125410
22.755861
##ZVALUE=280
0.754595
0.932813
0.693798
0.722408
0.781417
0.909567
0.878572
0.836849
0.747442
0.975728
0.917912
1.037717
1.057982
0.908971
1.096725
1.127720
1.192689
1.272559
1.154542
1.465678
1.726747
2.288818
11.952519
38.258433
111.284852
201.583505
359.319448
501.367450
684.491992
785.266757
831.525922
803.412795
712.036490
536.898971
397.391915
226.686597
141.209960
70.458651
50.418973
50.827861
66.383481
93.599558
115.696788
144.822598
158.265829
163.623691
156.351924
140.175819
121.406913
89.366436
69.111586
45.354962
33.879876
21.849871
16.449690
13.418794
13.243556
12.097955
12.641549
12.286901
13.120770
12.773871
12.754798
12.907982
13.209581
12.739897
13.088584
13.637543
14.400482
15.125871
16.041994
16.308427
16.411543
16.869903
17.980933
18.357635
18.492937
18.578768
18.874407
19.698739
19.839406
20.266771
20.623803
21.177530
21.572709
21.758676
20.859838
21.317601
21.887422
21.992922
21.745563
21.996498
21.530986
21.415949
22.234917
21.611452
##ZVALUE=285
0.680685
0.767708
0.785589
0.700951
0.913739
0.715852
0.721812
0.774860
0.805855
0.839829
0.846982
0.825524
0.749826
0.893474
0.941753
1.061559
1.260638
0.949502
1.146793
1.095533
1.365542
1.286864
1.610518
1.402497
5.949736
19.871593
64.218640
128.593445
265.978575
401.825905
543.494821
714.271665
809.860826
819.729567
759.337544
609.477758
473.733544
292.216539
185.281634
90.726614
52.588582
33.899546
39.743781
58.650970
79.429746
109.238625
130.104423
146.222711
153.225660
149.957538
138.010979
110.352635
90.267658
64.193606
45.108795
27.940869
20.576715
14.200807
12.586713
11.496544
11.674762
11.218786
11.502504
12.382865
12.859702
12.959838
13.316870
13.806820
13.940930
14.683604
15.702844
16.890764
16.728640
17.276406
17.754436
18.063784
18.508434
18.657446
19.884706
20.038486
20.154715
20.515919
20.757914
20.361543
21.833777
21.019578
21.122694
21.118522
21.726489
21.383762
21.410584
21.517873
21.228790
21.747947
22.454858
21.938682
##ZVALUE=290
0.729561
0.558496
0.695586
0.953674
0.759959
0.559688
0.717640
0.688434
0.795722
0.880957
0.824928
0.796914
0.709891
0.701547
0.740886
0.908971
1.010895
0.712872
0.975728
1.101494
1.205802
1.202822
1.258850
1.125932
1.440644
1.432896
2.548695
8.017421
35.890937
84.763765
160.870552
318.555832
468.396544
664.874911
770.989656
836.102962
802.716017
682.618618
551.057458
361.974835
236.151814
119.836926
63.860416
30.903816
26.060939
36.712885
50.972700
74.260831
94.915628
122.692585
139.354467
147.744417
144.322515
131.191611
112.078786
83.708763
62.581897
41.088462
28.302670
18.283725
15.097857
12.009740
11.682510
11.340976
11.820793
12.608767
13.272762
13.437867
14.349818
15.223622
15.305877
16.262531
17.042756
17.481446
18.200874
18.499494
18.971562
19.153953
19.603968
19.891858
20.748973
21.022558
21.316409
20.762682
21.199584
21.556616
21.818876
21.333694
21.868944
22.058487
22.174716
21.421909
20.909905
21.009445
21.030903
21.246672
##ZVALUE=295
0.695586
0.608563
0.565648
0.751615
0.673532
0.738502
0.774860
0.609756
0.573993
0.687838
0.685453
0.719428
0.704527
0.709891
0.778437
0.902414
0.734925
1.052618
0.634789
1.036525
0.990629
0.889897
1.276731
1.148582
1.088977
1.311898
1.263618
1.476407
1.727939
3.372431
13.077855
54.047704
117.236972
251.475573
390.421748
586.305857
704.533458
807.200670
813.112855
729.486942
612.365603
432.779789
297.277570
159.933567
87.170601
34.985542
21.644831
22.216439
29.734969
48.192739
66.792965
95.081925
112.780929
132.763982
139.220953
136.634707
124.449730
102.602839
82.873702
58.760643
43.178797
27.214885
20.468831
14.892817
13.474822
12.622476
12.968779
12.950897
13.913512
14.812946
15.536547
16.726851
16.677976
17.232895
17.757416
18.473864
19.494891
19.318461
20.246506
20.108819
20.754933
21.242499
20.814538
21.800995
21.584630
21.382570
21.445751
22.339821
21.555424
21.458864
22.018552
22.005439
20.963550
21.061897
21.761656
21.394491
##ZVALUE=300
0.659823
0.684857
0.571609
0.539422
0.708699
0.585914
0.630617
0.693798
0.706911
0.696778
0.701547
0.580549
0.760555
0.784993
0.638962
0.855923
0.852942
0.964999
0.840425
0.744462
0.795722
0.812411
0.936985
0.943542
1.039505
0.978708
1.016855
1.146793
1.214743
1.277924
1.433492
1.730919
8.370876
28.534532
89.152455
168.280602
323.296785
468.283892
643.371940
741.899610
799.787641
776.597857
657.520890
533.156991
350.669622
226.882696
113.865733
59.869885
24.351478
15.804768
18.574595
26.257634
43.084621
58.775544
84.853768
103.889704
124.119520
131.427646
130.560994
121.761560
101.086497
85.177422
60.212612
44.964552
29.622912
22.370815
16.612411
14.406443
14.306903
14.461875
15.746951
16.156435
16.670823
17.704964
17.820597
18.403530
19.499660
19.808412
21.068454
20.756721
21.136999
21.284819
21.383762
21.954775
22.406578
22.020936
22.483468
22.448897
21.899939
21.480918
21.057725
22.192597
21.709800
21.943450
21.713972
22.336841
##ZVALUE=305
0.533462
0.351667
0.380874
0.545979
0.674725
0.607967
0.631809
0.576973
0.693798
0.565648
0.631809
0.744462
0.706911
0.694990
0.630617
0.684857
0.606775
0.731945
0.747442
0.899434
0.864863
0.748634
0.730753
0.652671
0.843406
0.868440
0.964999
0.941753
1.037717
1.068711
1.216531
1.218915
1.510978
1.689792
4.154444
15.542507
59.039593
123.158693
258.903503
391.932726
537.370443
706.094503
782.989860
785.607696
721.410513
555.515885
427.224636
265.048742
160.313845
88.947415
35.788417
18.555522
13.338923
16.122460
26.758909
39.347410
60.161948
78.718662
103.561878
116.804838
126.976967
127.067566
116.052628
100.583434
78.237653
62.869787
43.819547
31.878948
22.671819
18.433928
16.692877
16.662478
17.125607
17.618537
18.622875
18.691421
19.169450
19.636750
19.972920
20.882487
21.678805
21.756887
22.592545
22.566915
22.583604
23.368597
23.300648
22.530556
22.730827
22.112727
21.909475
22.342801
22.518635
21.988750
21.405816
21.543503
##ZVALUE=310
0.477433
0.590682
0.663996
0.591874
0.590682
0.632405
0.667572
0.549555
0.620484
0.469685
0.646710
0.688434
0.563860
0.685453
0.735521
0.672936
0.760555
0.729561
0.657439
0.629425
0.695586
0.654459
0.706911
1.041889
0.768900
0.784993
0.685453
0.852942
0.915527
1.121759
1.036525
1.056790
1.088977
1.209974
1.213551
1.463890
1.870990
8.111000
26.582479
83.593726
157.778859
310.427547
444.628596
624.640584
728.574991
788.475871
756.731033
640.857816
518.598557
341.053605
224.931836
111.736655
59.825778
23.315549
12.770891
11.747479
15.380979
24.269819
35.109520
55.396557
71.344972
94.255805
107.969642
118.556619
120.952725
110.620856
100.912452
79.940557
63.455701
44.965744
33.850670
25.136471
21.529794
18.899441
18.872619
19.240975
19.076467
20.178556
20.529628
21.234751
21.535754
22.161603
23.054481
23.233891
23.654699
23.340583
23.163557
23.565888
23.092628
23.328662
23.232698
22.940636
22.537708
22.572875
21.729469
22.196770
##ZVALUE=315
0.509620
0.376701
0.615716
0.705719
0.627637
0.559688
0.563860
0.442863
0.410676
0.416636
0.535846
0.552535
0.672936
0.451803
0.663996
0.393987
0.508428
0.773668
0.627637
0.521541
0.536442
0.512600
0.682473
0.806451
0.835657
0.709891
0.679493
0.855923
0.850558
0.924468
0.693798
0.936985
0.843406
0.957847
0.952482
1.176596
1.280904
1.313686
1.547933
2.856851
16.225576
45.706630
125.710964
220.168829
394.688845
532.100797
686.118007
756.801963
767.809749
704.302788
556.313992
426.262617
258.697867
162.367821
75.102448
36.583543
14.084578
10.319948
11.286736
14.030933
22.936463
32.555461
50.953627
67.913532
90.055466
103.398561
113.438964
116.435885
108.536482
95.231533
75.773597
61.594844
45.931935
36.086440
26.617646
22.980571
21.341443
21.281838
21.246672
21.496415
22.559762
22.219419
23.306608
23.404956
23.806691
23.677945
23.471713
23.676753
23.771524
23.865700
23.259521
22.822618
22.957921
23.584962
22.483468
22.033453
##ZVALUE=320
0.485778
0.477433
0.611544
0.614524
0.365973
0.401735
0.538826
0.553727
0.641942
0.479817
0.535846
0.531673
0.582933
0.537634
0.566840
0.511408
0.557899
0.686646
0.567436
0.626445
0.617504
0.625849
0.718832
0.683665
0.597835
0.434518
0.744462
0.692606
0.651479
0.575781
0.788569
0.743866
0.787973
0.989437
0.870824
0.974536
1.054406
1.100898
1.019835
1.258850
1.295805
1.882911
5.886555
29.482841
73.565841
183.349848
291.211605
460.181832
583.943725
717.515945
753.976703
722.246766
638.735890
476.018786
344.231725
187.374949
107.541680
46.465993
22.671819
11.058450
9.493828
11.301637
14.525652
21.597743
30.921698
48.672557
64.000487
84.121823
98.405480
109.523535
112.775564
105.054975
95.075965
76.595545
62.108636
45.874715
37.124753
28.553605
25.243759
22.747517
22.615790
22.355914
22.558570
23.033619
23.666620
23.748875
23.310781
23.607612
24.058819
24.027824
23.571849
23.433566
23.373961
23.151636
23.066998
23.141503
##ZVALUE=325
0.474453
0.546575
0.457764
0.596642
0.299811
0.463724
0.522733
0.562668
0.499487
0.698566
0.511408
0.564456
0.630617
0.581741
0.489950
0.607967
0.578761
0.643730
0.614524
0.659823
0.586510
0.656843
0.771880
0.700951
0.547767
0.652671
0.695586
0.488758
0.605583
0.777841
0.693798
0.712872
0.777841
0.827909
0.891685
0.972748
1.004934
1.061559
0.901818
0.949502
1.081824
1.046658
1.212955
1.465678
3.063679
19.579530
50.044656
126.871467
220.570564
389.490724
519.817472
667.455792
731.385946
729.014874
664.059520
510.423779
381.683707
229.072571
136.980414
62.177777
31.447411
13.370514
9.915829
10.200739
11.208653
15.215874
21.364689
33.308864
45.970678
65.564513
80.246925
96.095800
104.781985
107.422471
100.481510
87.650418
74.969530
58.562756
47.310591
35.584569
29.739738
25.595427
23.739934
23.278594
23.350716
23.550987
23.501515
23.011565
23.621917
23.761988
23.527741
23.322701
23.448467
22.989511
22.996664
22.724867
##ZVALUE=330
0.524521
0.544786
0.567436
0.431538
0.430942
0.392795
0.457764
0.634789
0.431538
0.494719
0.576973
0.438690
0.676513
0.573993
0.449419
0.578761
0.671744
0.494719
0.426769
0.496507
0.660419
0.448823
0.559688
0.699759
0.586510
0.606775
0.724792
0.652671
0.496507
0.603795
0.591874
0.671744
0.730753
0.809431
0.726581
0.784993
0.675917
0.884533
0.874996
0.890493
1.000762
0.891685
0.835657
0.970960
1.107454
1.444817
1.703501
8.341670
26.859641
86.802840
161.089897
307.684541
433.783531
593.650937
682.808757
719.829798
678.660870
559.086800
438.397527
278.353691
178.704858
83.875656
44.026971
18.591881
11.567473
10.048747
10.369420
12.105703
15.398860
22.611618
30.871630
46.200752
59.486628
79.856515
91.615915
100.587606
102.452636
95.558763
86.260438
69.927573
58.032870
44.074655
36.358833
30.048490
27.128458
24.158955
23.895502
23.035407
22.800565
23.349524
22.687912
22.809505
22.818446
22.813678
22.173524
22.842884
##ZVALUE=335
0.611544
0.496507
0.482798
0.365973
0.460744
0.434518
0.348687
0.515580
0.485778
0.459552
0.639558
0.542998
0.573993
0.494719
0.490546
0.511408
0.661612
0.413656
0.658631
0.546575
0.433922
0.569820
0.567436
0.544786
0.532866
0.744462
0.625849
0.414848
0.582933
0.528693
0.580549
0.751615
0.793934
0.717640
0.589490
0.734925
0.771880
0.715852
0.847578
0.682473
0.883937
0.796914
0.972748
0.847578
1.003742
0.987649
1.066923
1.312494
1.103878
3.620982
13.300776
53.300858
110.580921
234.854817
360.482931
532.070994
632.808805
698.439479
689.844489
594.561696
487.317443
327.137709
219.416618
113.236904
60.402751
24.181604
13.518929
10.085702
10.439754
11.309981
12.979507
16.920567
21.748543
32.346845
43.821931
61.678886
74.232817
88.368654
94.493628
96.058846
91.728568
79.966784
70.593953
57.577491
47.349930
37.134886
31.392574
25.839806
24.478436
23.182631
22.946000
22.573471
22.498965
21.790862
21.943450
22.070408
##ZVALUE=340
0.497699
0.530481
0.460744
0.479817
0.422597
0.562668
0.470877
0.748634
0.553727
0.613928
0.483990
0.457764
0.625849
0.623465
0.490546
0.615716
0.602603
0.609756
0.549555
0.508428
0.655651
0.542998
0.631809
0.495911
0.750422
0.575781
0.759959
0.541806
0.442863
0.738502
0.604987
0.523925
0.760555
0.769496
0.619888
0.809431
0.763535
0.855923
0.792742
0.792742
0.756979
0.951886
0.923872
0.817776
0.979900
0.967979
0.979900
1.101494
1.079440
1.092553
1.198649
1.976490
6.566644
32.807589
79.718828
188.323855
299.248695
462.757945
571.690798
666.511655
681.163669
615.371466
523.742437
379.658937
267.371535
144.025683
80.600977
32.837987
16.873479
10.997653
10.363460
11.277795
11.771917
14.147758
16.778708
23.962855
31.243563
44.265985
56.952834
73.767900
83.383918
91.531873
92.566609
87.620616
80.316663
67.376494
57.014823
45.139790
37.325621
29.623508
25.985837
23.487806
21.921992
21.309853
21.171570
20.990968
##ZVALUE=345
0.466704
0.575781
0.529885
0.425577
0.480413
0.309944
0.383854
0.491738
0.440478
0.506639
0.582933
0.369549
0.743866
0.514984
0.389814
0.526905
0.474453
0.453591
0.649691
0.520945
0.491738
0.553727
0.656843
0.505447
0.694990
0.514984
0.583529
0.495911
0.653863
0.703931
0.659823
0.550747
0.569820
0.641942
0.709891
0.713468
0.615716
0.675917
0.745654
0.651479
0.706911
0.692606
0.790954
0.808835
0.872612
0.814795
0.881553
0.849962
0.896454
0.918508
1.030564
1.054406
1.152754
1.405478
2.900958
18.335581
51.570535
131.115913
223.785639
375.275016
492.495894
608.000755
651.696920
634.642839
561.070442
420.295000
309.937000
179.852843
101.711750
42.981505
21.905899
12.001991
10.701418
11.150837
11.150837
12.383461
13.789535
16.954541
21.375418
30.980706
40.273666
55.815578
65.123439
76.609850
83.871484
86.687803
82.981586
75.485706
66.813827
54.481626
44.515729
34.697652
28.855801
23.927689
22.046566
21.119714
##ZVALUE=350
0.373721
0.429749
0.281930
0.388622
0.397563
0.435710
0.349879
0.519753
0.414848
0.550747
0.536442
0.556707
0.450611
0.515580
0.398755
0.224710
0.409484
0.495911
0.427961
0.448823
0.430942
0.286698
0.606775
0.422597
0.501871
0.509620
0.476837
0.622869
0.497699
0.380874
0.469685
0.752807
0.407696
0.453591
0.442863
0.668764
0.632405
0.619888
0.645518
0.549555
0.616908
0.670552
0.483990
0.710487
0.604987
0.608563
0.630617
0.699759
0.705719
0.751615
0.770688
0.819564
0.915527
1.157522
1.045465
1.320839
1.677871
9.364486
30.375719
91.081858
165.597796
307.304859
423.893929
554.164648
619.288683
637.096763
587.903857
462.769866
348.746777
210.855007
127.057433
58.085918
29.999614
13.131499
10.779500
10.251999
10.859966
11.167526
11.789799
13.429523
15.997887
21.583438
27.065873
37.941933
47.286749
59.813857
69.712996
76.371431
79.345703
76.682568
71.713924
60.592890
52.386522
41.776896
34.505725
27.999878
##ZVALUE=355
0.489950
0.369549
0.466704
0.375509
0.398755
0.361800
0.399947
0.420809
0.381470
0.290871
0.523925
0.529885
0.435710
0.418425
0.676513
0.548959
0.395775
0.581741
0.587702
0.384450
0.440478
0.463724
0.400543
0.406504
0.499487
0.409484
0.432730
0.341535
0.445843
0.528693
0.583529
0.702739
0.491738
0.601411
0.519753
0.520945
0.691414
0.603795
0.670552
0.591874
0.478625
0.507832
0.600815
0.735521
0.745654
0.609756
0.596642
0.611544
0.800490
0.709891
0.831485
0.839829
0.897646
0.844598
0.961423
0.926852
0.972748
1.108646
1.368523
4.170537
15.962720
59.779882
118.710995
235.632658
349.918604
501.260757
581.700802
624.538660
601.070523
492.006540
389.193892
251.308680
158.102512
71.022511
36.819577
15.339851
10.505915
9.655952
9.915829
10.533929
11.156797
12.013912
13.119578
15.410781
18.940568
25.479794
31.871796
43.097734
52.002668
61.843991
68.248510
72.136521
70.705414
65.589547
58.622956
48.815608
##ZVALUE=360
0.448823
0.396967
0.522733
0.555515
0.324845
0.459552
0.493526
0.512600
0.476837
0.569820
0.339746
0.305772
0.454783
0.533462
0.562668
0.502467
0.401735
0.610948
0.351667
0.538826
0.314713
0.538826
0.383854
0.433922
0.468493
0.504851
0.621676
0.574589
0.424981
0.523925
0.564456
0.735521
0.646710
0.637770
0.556707
0.486970
0.624657
0.446439
0.398755
0.670552
0.647902
0.518560
0.718832
0.603795
0.515580
0.633597
0.698566
0.470877
0.636578
0.775456
0.733733
0.716448
0.759959
0.912547
0.800490
0.973940
0.786781
0.855923
1.044869
0.995994
1.100898
1.942515
6.920695
32.194853
77.041984
178.330541
279.011726
421.344638
521.864891
603.549480
603.544712
536.494851
442.582965
295.066833
192.586780
95.178485
51.200986
22.432804
12.653470
9.210706
9.401441
9.811521
9.989738
10.001659
10.882616
12.000799
13.230443
16.427636
20.159483
27.196407
34.684539
45.694709
52.896738
60.998797
64.403415
64.207911
##ZVALUE=365
0.437498
0.373721
0.417829
0.475645
0.348687
0.335574
0.358820
0.469685
0.414848
0.465512
0.395775
0.481606
0.480413
0.487566
0.552535
0.591874
0.431538
0.443459
0.523925
0.385642
0.478625
0.393987
0.451803
0.452995
0.591874
0.619888
0.628829
0.513792
0.546575
0.541806
0.547767
0.694990
0.525713
0.658631
0.360608
0.466704
0.518560
0.487566
0.525713
0.636578
0.409484
0.400543
0.510812
0.520945
0.647902
0.576973
0.463724
0.749826
0.684857
0.621676
0.725985
0.656843
0.535846
0.661612
0.801682
0.696778
0.778437
0.780821
0.844598
0.934601
0.957847
1.109838
1.227856
1.424551
3.085732
17.687678
47.875643
122.004747
211.217999
360.986590
457.078815
551.262498
579.046011
543.272495
466.884971
337.114930
238.648653
134.716630
74.884892
30.213594
15.180707
9.160638
8.605719
8.650422
9.261966
9.078979
9.556413
9.883642
10.461807
11.941791
13.836622
18.147826
23.112893
31.375885
38.243532
47.695637
##ZVALUE=370
0.443459
0.305772
0.328422
0.397563
0.375509
0.398755
0.596642
0.207424
0.693798
0.497699
0.568628
0.555515
0.398755
0.439882
0.341535
0.392795
0.428557
0.573993
0.484586
0.495911
0.509620
0.541806
0.533462
0.460744
0.371933
0.561476
0.453591
0.538826
0.573993
0.519753
0.551939
0.466704
0.570416
0.502467
0.518560
0.692606
0.535846
0.522733
0.652671
0.564456
0.561476
0.519753
0.504851
0.581741
0.808835
0.624657
0.484586
0.570416
0.617504
0.667572
0.596642
0.524521
0.606775
0.708699
0.641942
0.764728
0.727773
0.761747
0.773668
0.804663
0.906587
0.811815
0.850558
0.960827
0.995994
1.321435
1.632571
8.903742
29.930472
93.496442
166.985989
294.188857
403.336883
518.790483
564.572811
553.843975
495.567918
386.140943
288.042426
165.448785
97.180605
41.757822
21.182895
9.950995
7.978678
8.173585
8.048415
8.468628
8.690953
8.998513
9.222627
9.922981
10.818839
13.153553
15.565753
21.232963
##ZVALUE=375
0.509620
0.358820
0.415444
0.404716
0.343919
0.481606
0.387430
0.405908
0.443459
0.412464
0.512600
0.393987
0.321865
0.330806
0.350475
0.487566
0.321865
0.451803
0.446439
0.489950
0.470877
0.386834
0.397563
0.592470
0.505447
0.301600
0.381470
0.354648
0.468493
0.428557
0.513792
0.421405
0.465512
0.624657
0.425577
0.398755
0.429749
0.449419
0.418425
0.395775
0.515580
0.381470
0.438690
0.517964
0.381470
0.431538
0.461936
0.402927
0.469685
0.478625
0.538826
0.472665
0.583529
0.527501
0.515580
0.667572
0.575781
0.696778
0.683665
0.616908
0.739694
0.703931
0.733733
0.674725
0.771880
0.904799
0.968575
1.249909
1.326799
4.498959
15.874505
57.985783
118.506551
240.625739
347.737670
475.351810
537.906885
560.715795
529.035926
431.241989
336.292982
210.508704
133.779645
65.950751
34.467578
13.255477
8.301735
7.640719
7.386804
7.641912
7.448792
7.976890
8.203983
8.330941
8.851886
9.765625
##ZVALUE=380
0.374913
0.305772
0.418425
0.447631
0.364780
0.256896
0.305772
0.341535
0.308752
0.377893
0.507832
0.439882
0.440478
0.366569
0.589490
0.439882
0.368953
0.210404
0.334978
0.379682
0.476837
0.380874
0.451803
0.314713
0.277758
0.521541
0.332594
0.477433
0.458956
0.291467
0.454783
0.492930
0.588894
0.401735
0.447631
0.417829
0.412464
0.492930
0.591874
0.454783
0.436902
0.414848
0.399947
0.417829
0.448823
0.420809
0.598431
0.422597
0.461936
0.588894
0.480413
0.682473
0.555515
0.540614
0.395775
0.545979
0.567436
0.509620
0.514984
0.421405
0.485778
0.647902
0.658631
0.594854
0.619888
0.726581
0.672936
0.885725
1.041889
1.186728
1.209974
2.214909
8.620620
40.371418
92.284679
198.771954
301.523805
430.799723
509.262681
556.908846
543.945432
459.892750
378.491879
268.396735
184.566975
96.557736
51.999688
19.699931
10.028481
7.247925
6.873608
6.866455
7.184744
7.417798
7.499456
7.502437
##ZVALUE=385
0.380874
0.370741
0.347495
0.347495
0.345707
0.507832
0.390410
0.242591
0.359416
0.297427
0.360608
0.355840
0.442863
0.330806
0.410676
0.356436
0.510812
0.367761
0.489950
0.389814
0.313520
0.449419
0.281930
0.374913
0.315905
0.333786
0.250936
0.355840
0.392795
0.422597
0.422597
0.341535
0.448823
0.481606
0.466704
0.404716
0.435710
0.400543
0.376701
0.478625
0.413656
0.437498
0.383854
0.435710
0.398755
0.448823
0.437498
0.424981
0.510812
0.409484
0.329614
0.498891
0.476837
0.436902
0.428557
0.422597
0.653863
0.527501
0.527501
0.649691
0.568628
0.568628
0.472665
0.653863
0.613928
0.640750
0.605583
0.866652
0.711679
0.840425
0.954866
1.076460
1.179576
1.372695
4.135966
23.547411
59.647560
141.416788
232.771635
369.056463
461.097956
535.139441
542.300940
495.746732
429.118872
316.807628
229.643583
131.354928
78.495741
33.916831
15.345812
7.041693
6.241798
5.986691
6.112456
6.479621
##ZVALUE=390
0.355840
0.350475
0.306964
0.237823
0.387430
0.319481
0.294447
0.326633
0.446439
0.338554
0.463724
0.325441
0.367761
0.275970
0.398755
0.412464
0.476837
0.451803
0.429749
0.379682
0.259876
0.383854
0.366569
0.409484
0.463724
0.371933
0.273585
0.313520
0.445843
0.284910
0.565648
0.519753
0.340939
0.434518
0.310540
0.309944
0.389814
0.594854
0.387430
0.408888
0.474453
0.484586
0.488758
0.446439
0.539422
0.342727
0.455976
0.365973
0.374913
0.470877
0.554919
0.610948
0.545979
0.554919
0.603795
0.403523
0.412464
0.306964
0.416636
0.463724
0.551939
0.390410
0.531673
0.740886
0.676513
0.639558
0.627637
0.645518
0.834465
0.729561
0.872612
0.925660
0.916719
0.983477
1.050830
1.308918
2.130866
11.995435
37.525892
110.293627
194.217563
331.451893
423.219800
509.383678
545.368791
531.535745
478.004813
374.235511
286.786556
181.111693
110.312700
48.800707
23.273826
8.341670
6.008744
5.723834
##ZVALUE=395
0.346899
0.344515
0.279546
0.374913
0.426769
0.426769
0.323653
0.399947
0.482798
0.340939
0.369549
0.301600
0.440478
0.230670
0.351667
0.247955
0.297427
0.363588
0.284910
0.352859
0.367761
0.396967
0.452995
0.385642
0.329614
0.369549
0.642538
0.325441
0.523925
0.441670
0.438690
0.450611
0.349879
0.555515
0.555515
0.447631
0.533462
0.450611
0.508428
0.432730
0.316501
0.499487
0.527501
0.547767
0.413656
0.388622
0.486970
0.604987
0.488758
0.462532
0.372529
0.486970
0.419617
0.552535
0.356436
0.517964
0.489950
0.417829
0.554919
0.556707
0.563860
0.541806
0.575781
0.708699
0.496507
0.595450
0.791550
0.657439
0.537634
0.751615
0.734925
0.948906
0.789762
0.861883
0.971556
0.870824
0.849962
0.974536
1.263618
6.774664
25.152564
82.454681
147.850513
260.720849
362.869501
483.892560
541.978478
558.878779
525.384545
431.346893
339.484811
214.547515
139.057636
65.834522
33.834577
12.313724
##ZVALUE=400
0.259876
0.201464
0.437498
0.456572
0.433922
0.400543
0.399947
0.330806
0.366569
0.391603
0.342727
0.346899
0.424981
0.443459
0.294447
0.431538
0.363588
0.455976
0.382662
0.375509
0.417829
0.405908
0.527501
0.480413
0.326633
0.429749
0.445843
0.447631
0.475645
0.355840
0.495911
0.442863
0.460744
0.540614
0.405908
0.517964
0.468493
0.560880
0.525713
0.512600
0.529885
0.570416
0.387430
0.468493
0.386834
0.570416
0.494719
0.505447
0.544786
0.390410
0.374913
0.598431
0.567436
0.474453
0.404716
0.490546
0.507832
0.583529
0.490546
0.489950
0.458956
0.481606
0.590682
0.549555
0.532866
0.470877
0.655651
0.728965
0.805855
0.879765
0.811815
0.537634
0.807643
0.691414
0.757575
0.791550
0.855923
0.913739
0.990629
0.972748
1.194477
3.179908
12.898445
50.065517
103.300810
210.894942
314.589739
445.985794
523.955822
567.959547
553.455949
466.480851
378.145576
261.179805
177.305937
96.520782
##END
