##TITLE=FQP00601
##FORMAT=SPECTACLE-ASCII V-1.2
##DATA TYPE=ULTRAVIOLET SPECTRUM
##SECOND TYPE=ULTRAVIOLET SPECTRUM
##DATE=02/28/18
##TIME=18:24:14
##SPECTROMETER/DATA SYSTEM=SPECTACLE
##XUNITS=NM EM
##YUNITS=ENERGY
##YFACTOR=1
##FIRSTX=220
##LASTX=410
##NPOINTS=96
##3DDATA=Equidistant
##ZUNITS=NM EX
##FIRSTZ=210
##LASTZ=400
##ZPOINTS=39
##XYDATA=(Y..Y)
##ZVALUE=210
2.952814
3.801584
2.554655
3.279448
3.112555
3.892779
3.488660
4.006624
3.433824
3.933907
4.223585
3.684759
4.603863
4.198551
5.413890
5.480647
5.815625
6.211996
6.445646
6.385446
7.464886
8.149743
8.483529
8.282661
10.143518
10.437965
9.674430
10.459423
11.259913
11.940598
11.249781
13.267994
13.667941
13.424754
14.424920
13.375878
14.054775
14.344454
15.381575
14.369488
16.866922
17.328858
16.236901
15.752912
17.698407
16.774535
17.599463
17.438531
16.811490
19.422770
18.698573
18.253922
18.632412
20.763874
20.330548
20.826459
20.814538
21.351576
22.119880
20.354986
21.704435
21.652579
22.760630
21.473765
21.143556
24.227500
24.143457
28.672814
33.554435
39.377809
43.546557
54.660439
64.627528
76.492429
88.458657
97.329617
105.326772
115.366578
119.974613
122.145414
117.996931
109.547973
101.309419
84.512830
70.585608
51.099658
39.256811
30.530691
26.827455
22.113919
23.033619
20.438433
22.380948
22.049546
23.131967
22.766590
##ZVALUE=215
10.746717
10.748506
11.535883
9.729862
8.294582
7.323623
5.654693
6.007552
6.776452
6.459951
6.869435
6.646514
5.769730
5.551577
5.393624
6.271601
5.991459
5.799532
6.768703
6.704926
8.053780
7.005930
8.885860
8.512735
10.302663
10.079741
10.998845
11.774898
12.727976
11.969805
11.739731
13.846755
13.204813
14.281869
13.834834
14.441609
14.228821
14.778972
14.072657
15.113950
14.178753
15.296936
15.259981
15.951991
16.225576
16.188622
15.806556
15.510917
15.071630
17.758608
17.022491
17.434955
16.887784
17.767549
16.914606
17.768741
16.477704
18.245578
16.889572
16.955733
16.380548
16.592741
19.089580
18.389821
17.186999
17.979741
19.404888
21.011829
22.897720
27.603507
31.030774
35.125613
42.940974
50.480962
56.582689
66.018701
64.310431
66.674948
68.059564
64.584613
65.387487
60.469508
52.832961
45.988560
37.783980
31.772852
25.609732
18.538833
18.407702
15.708804
15.243888
14.712811
13.249516
14.237761
13.671517
13.152957
##ZVALUE=220
32.050610
32.335520
35.183430
35.543442
34.948587
27.437806
22.766590
15.068650
13.951659
13.286471
12.244582
14.058948
12.624860
11.722445
11.704564
9.345412
7.632971
5.736947
5.519986
5.562901
4.623532
5.801916
5.703568
5.748868
6.659627
6.386638
7.479787
7.622838
8.158684
8.325577
7.774830
8.390546
8.624792
8.251667
8.682609
8.977652
9.030700
9.963512
9.367466
10.063648
8.012652
9.449720
9.491444
8.665919
9.577870
8.889437
10.540485
9.462833
10.036826
9.839535
9.554625
9.139776
9.716749
9.661913
9.606481
11.045933
9.681582
9.742975
9.730458
10.001659
9.863973
9.620786
9.740591
9.584427
11.277795
9.498596
9.469986
10.005832
11.499524
12.061596
13.032556
16.267896
16.321540
18.851757
21.765828
23.722649
23.368001
22.661686
22.020936
22.328496
20.980835
18.900633
17.956495
16.079545
14.849901
13.270974
13.379455
11.943579
11.375546
9.433627
9.478927
8.649826
8.998513
9.211898
9.326935
8.614659
##ZVALUE=225
30.830503
32.560825
46.180487
53.323507
58.133602
62.064528
57.535768
50.361753
41.547418
34.408569
28.549433
25.522709
24.900436
26.025772
26.821494
23.708940
21.203756
17.970800
11.756420
8.939505
7.138848
5.067587
4.538894
4.687905
4.740953
5.060434
5.386472
5.306602
6.442666
6.198883
7.301569
6.823540
7.371902
8.568764
7.953644
8.870959
7.978678
9.946823
9.642839
8.985996
10.121465
9.017587
8.445978
9.385943
8.537769
8.240938
8.613467
8.790493
8.416772
7.967949
7.782578
8.777976
8.737445
9.629726
9.543896
8.566976
8.705854
9.856820
8.469820
8.553863
9.657741
10.279417
10.730624
10.432601
9.739995
9.303689
10.713935
11.274815
11.302829
13.828874
13.368726
15.211701
16.847849
19.352436
20.635724
20.725727
21.061897
21.048784
23.098588
20.569563
19.817948
17.280579
17.098784
15.448928
15.125871
14.047623
14.301538
13.581514
12.721419
13.969541
12.356639
12.344718
13.342500
11.339784
11.565685
11.003613
##ZVALUE=230
27.165413
31.839609
57.332516
106.401443
149.637461
210.833549
246.691704
270.228982
245.383978
208.292007
145.033002
93.889832
59.536695
50.519705
46.047568
49.412847
51.825643
50.719976
44.214725
37.647486
29.174685
19.617677
12.893677
8.434653
6.601810
5.750656
6.126761
6.663799
7.131696
8.351803
7.626414
7.411838
8.083582
8.552670
10.413527
9.369850
9.499788
9.175539
9.540915
8.934736
9.056926
9.776950
9.102821
10.220408
9.749532
9.211898
8.699894
8.764863
8.686781
9.143949
9.507537
9.954572
9.343624
9.213686
10.348558
8.959770
10.533929
10.007620
9.884834
10.833740
10.411739
11.767745
10.444522
10.680556
12.197495
13.776422
12.894869
13.742447
13.333559
15.802979
16.932487
18.024445
19.397736
21.348000
21.998882
23.939610
22.507906
22.595525
24.082661
23.276806
20.861626
21.664500
20.082593
19.703507
18.598437
18.933415
17.630458
17.459989
16.374588
17.518997
16.020536
17.743707
16.848445
15.750527
16.326904
17.095804
##ZVALUE=235
8.120537
10.747910
26.506782
48.506856
90.557933
133.664608
197.915435
255.592465
289.802551
300.348997
251.367688
203.391910
161.569715
108.037591
81.056952
69.630742
67.232847
78.496933
79.145432
78.026652
74.283481
67.958832
48.573613
36.369562
23.615956
16.550422
10.116696
7.983446
6.118417
6.608963
5.779862
7.343888
6.508827
7.303953
7.968545
7.117987
7.675886
6.228685
7.515550
8.544922
8.027554
7.235408
7.219911
7.866621
8.388758
8.967519
7.565618
6.117821
6.426573
6.314516
8.096695
6.788969
7.384419
7.142425
6.589890
7.411838
8.976460
8.082986
8.339882
9.619594
10.317564
8.809566
10.758638
11.207461
12.043715
12.134910
11.017919
12.787580
13.829470
14.145970
15.620589
16.055703
17.009974
17.783642
18.831491
19.108653
20.367503
18.964410
20.328760
20.000935
21.566749
20.906925
23.091435
21.580458
21.901727
22.166967
23.010969
22.946596
22.335649
22.269487
22.056699
20.932555
22.450686
20.658970
21.638870
22.659898
##ZVALUE=240
1.850724
2.075434
5.207658
12.337565
34.513474
62.526464
123.861432
190.748572
283.666849
338.401794
385.961533
382.517576
354.560018
294.746757
226.571560
152.584910
116.323829
96.011758
94.999671
100.589991
114.895701
119.680762
117.039680
102.652907
83.494782
66.594481
46.714544
33.717752
20.655990
14.683604
8.903742
7.618666
7.184744
7.569790
7.564425
7.167459
7.224679
7.003546
6.745458
7.762909
6.830692
7.682443
6.679893
8.560419
6.819963
8.290410
7.675886
7.343888
7.228851
7.639527
7.210970
8.184910
7.593632
7.288456
7.757545
8.017421
7.974505
8.681417
9.456873
9.102821
10.513663
11.281967
11.328459
12.179613
12.539625
13.866425
14.730692
15.476942
17.052889
17.065406
17.303824
19.073486
21.573901
22.583604
22.133589
26.609898
26.093721
26.405454
26.733875
25.526881
28.351545
29.103756
28.491616
29.398799
27.452707
28.647780
27.639866
30.079484
29.059649
28.747916
29.134750
28.192997
28.319955
27.976632
29.150844
29.019713
##ZVALUE=245
1.182556
1.762509
1.551509
2.136827
3.215671
9.375811
24.138689
67.600608
121.466517
186.303854
298.711658
375.760794
453.677773
464.900732
442.050695
382.607579
286.564827
207.590461
159.301758
111.001730
95.496774
104.281902
117.257833
132.629871
131.681561
124.981999
115.767717
94.977617
74.015856
52.301884
34.907460
21.419525
15.094876
9.617805
8.236766
7.914901
7.396936
7.501841
7.299781
7.073879
6.959438
6.899834
6.804466
6.777644
6.465912
7.594824
7.174611
7.035732
7.265806
6.594658
6.286502
6.002784
7.276535
6.817579
6.939769
7.266998
7.369518
8.059740
7.511973
8.586645
8.719563
8.883476
9.566545
9.852648
11.079907
11.601448
12.263656
13.958812
16.230941
17.065406
16.098619
18.445849
20.689964
21.719933
23.086667
22.630692
24.147630
24.224520
24.218559
27.289987
27.291775
27.569532
27.834773
27.753711
26.865602
28.382540
28.571486
28.826594
29.766560
29.688478
27.736425
28.642416
28.147697
31.185746
28.417706
27.987957
##ZVALUE=250
1.944900
1.572967
1.573563
1.287460
1.330972
1.584888
1.689792
5.624890
22.701621
50.812960
114.316940
195.800662
283.841491
404.700637
471.674800
519.432425
520.433784
461.650491
390.675664
275.421739
195.399523
135.705471
96.935630
95.080733
110.074878
125.223994
140.490532
145.873427
139.364004
125.902891
106.110573
81.894994
61.394572
36.154985
23.541451
14.062524
11.248589
7.567406
7.409453
6.420612
6.836653
7.182956
7.768869
7.646680
7.419586
7.094741
6.939769
6.814599
7.441640
6.868839
7.285476
7.072687
6.367564
7.230639
6.442666
6.458759
7.371902
7.504821
7.663965
8.063912
7.688999
8.622408
8.838773
9.563565
9.974837
10.764599
12.069941
12.940764
13.359785
15.189648
16.110539
16.917586
17.803907
19.130707
19.577742
22.563934
22.205710
22.661686
22.591949
23.795962
24.517775
25.998950
25.596619
25.036931
26.744604
26.442409
26.501417
26.598573
26.549697
27.200580
27.823448
27.149916
26.309490
29.948950
27.102828
28.007627
##ZVALUE=255
1.767874
1.361966
1.316667
1.330972
1.318455
1.713634
1.221895
1.373887
2.009869
2.269745
12.462735
34.842491
92.867613
158.596635
273.290873
377.859473
498.974919
567.235947
596.240759
550.632477
483.592749
353.616476
255.642533
155.584812
106.159449
84.465742
90.038776
109.400749
130.371451
146.327615
153.722763
145.963430
135.117769
105.827451
82.658529
56.433678
38.922429
22.352934
13.810992
9.430647
8.368492
7.280707
8.594990
7.032752
7.117987
7.409453
7.322431
6.775856
6.986856
7.265806
7.195473
6.622672
6.779432
6.857514
6.920695
6.647706
6.596446
7.049441
7.401705
7.338524
7.323623
7.381439
7.818937
9.018779
8.919835
9.903908
10.149479
11.065602
12.898445
13.258457
13.740659
15.626550
15.912652
16.981959
17.879605
19.100904
19.749999
21.589994
20.281672
21.138787
20.844936
22.192597
24.201870
22.976995
25.211573
24.287701
25.387406
24.714470
26.426911
26.618838
24.571419
26.320815
26.613474
27.222633
27.132630
25.626421
##ZVALUE=260
1.091957
1.237988
1.250505
1.275539
1.152754
1.088977
1.338720
1.413822
1.132488
1.418591
1.397729
2.452731
6.674528
26.393533
56.976676
134.975910
218.830705
353.258848
460.207462
587.565899
641.926527
642.046928
564.781427
461.135507
310.994983
217.894912
129.005909
89.698434
76.173544
85.195899
109.516978
132.456422
147.143602
156.678557
151.335597
134.460926
114.988685
84.340572
62.717795
39.860606
25.929809
15.093684
11.108518
9.165406
8.642673
7.972717
8.046627
7.788539
7.544756
8.019805
7.540584
7.283688
6.978512
7.034540
7.571578
7.101893
6.856918
7.558465
6.995797
6.884933
7.923841
8.466840
7.978678
8.044839
9.094477
9.989738
9.618998
10.088682
11.659861
11.487603
12.544990
13.629794
14.745593
16.183853
16.759634
17.640591
17.996430
18.045902
20.183921
19.151568
20.573735
21.491647
21.139979
22.802949
21.684766
22.950768
23.470521
24.086833
24.266839
24.087429
24.941564
26.146770
24.794936
24.894476
24.627447
25.425553
##ZVALUE=265
1.082420
0.819564
0.943542
0.951886
1.170635
1.189709
1.214743
0.929832
1.188517
1.394749
1.366735
1.327991
1.439452
1.749992
2.950430
16.525984
40.842891
104.025602
180.740952
326.327682
447.170734
566.007495
673.943758
688.865781
617.628694
532.989502
393.659472
285.694599
166.405439
105.147958
75.130463
68.334937
80.737472
112.809539
137.205720
155.607462
160.977840
154.239535
139.801502
109.681487
89.077950
58.601499
41.822791
24.565458
16.873479
10.462999
9.126663
8.193851
8.019805
7.925630
7.996559
7.571578
7.552505
7.766485
7.689595
7.356405
7.360578
7.684827
7.441640
7.877946
7.881522
7.985830
8.228421
8.065701
8.611679
9.789467
10.214448
10.724664
11.191964
11.987686
12.068748
14.321804
13.874769
15.699863
15.498996
17.066598
17.181635
18.585920
17.527938
18.923879
19.055605
20.069480
21.119714
20.859838
21.055937
22.577643
21.666884
22.509694
22.927523
23.049712
22.100806
23.735762
23.262501
24.320483
23.606420
24.328828
##ZVALUE=270
1.049638
0.648499
0.824928
0.853539
0.853539
1.054406
0.996590
0.944734
1.048446
1.137853
1.073480
1.093745
1.158714
1.125932
1.181960
1.394749
1.680851
7.603765
23.170710
73.868632
143.556595
246.915817
418.637991
545.435548
677.946806
722.870827
695.194006
630.489588
495.695472
370.512009
254.945755
135.450959
83.674788
57.386756
62.047839
89.243650
111.321807
140.274763
155.398846
163.686872
156.301856
140.655637
117.082000
87.278485
62.696934
38.196445
26.284456
16.468763
12.115836
9.364486
9.457469
8.421540
7.928610
7.763505
7.983446
8.047819
8.111596
8.388758
8.303523
8.545518
8.757710
8.302927
8.751750
8.409619
8.815527
9.483695
10.330677
10.717511
11.324883
11.445880
12.779832
14.538765
14.220476
15.208721
15.674829
16.636848
16.967654
16.873479
18.170476
18.567443
18.779635
18.824935
19.467473
21.179914
21.018982
21.786690
21.566749
21.207929
22.449493
21.920800
21.911860
22.296906
22.297502
22.097826
22.801757
22.977591
##ZVALUE=275
1.092553
0.939965
0.996590
1.210570
1.182556
1.141429
1.119971
1.157522
1.129508
1.217723
1.051426
1.283884
1.163483
1.188517
1.218915
1.277924
1.335740
1.582503
1.592636
3.826618
13.122559
39.439797
111.523867
203.751922
373.502970
495.885015
633.969903
713.006854
737.146735
699.405670
609.142780
451.431870
320.295691
174.416900
104.201436
57.204962
48.785806
63.759685
82.609653
113.922954
135.416985
154.700875
160.171986
154.970884
137.204528
111.365914
89.903474
61.526895
43.165684
25.356412
18.032789
11.528730
9.703636
8.798838
8.101463
8.199811
8.965731
8.596778
8.827448
8.985996
8.861423
9.024739
9.665489
10.108948
10.056496
10.179877
10.541677
11.471510
11.330843
12.612939
12.946725
13.707876
14.469624
15.821457
15.682578
15.974641
17.519593
17.210841
18.332601
18.366575
18.568635
19.902587
19.725561
19.766688
20.334721
20.219684
20.857453
21.130443
21.209717
20.881891
20.619631
21.239519
21.814704
21.268725
21.134615
21.207929
##ZVALUE=280
0.803471
0.909567
1.006722
0.776649
0.874996
0.714660
0.790954
0.773668
0.818968
0.823736
0.945926
0.898838
0.876784
0.844598
0.979900
0.912547
0.898838
1.088977
1.257658
1.301765
1.382828
1.662970
8.549690
28.236508
86.805820
160.345435
290.461779
415.150523
578.325987
682.698488
747.509599
739.485621
667.070746
511.421561
383.059978
213.493705
132.360458
63.073635
41.920543
42.939782
58.050752
85.846782
106.788874
136.174560
148.858428
155.734420
149.001479
134.648681
114.545822
83.545446
62.721968
39.349794
26.777983
15.961528
11.356473
8.877516
8.431673
8.337498
8.691549
8.623600
9.043813
9.281635
9.556413
9.698868
10.171533
10.651946
10.716915
11.771917
12.069941
13.051629
13.706684
13.959408
14.493465
15.245676
15.399456
16.309619
16.974807
17.420650
18.119812
18.246770
19.087791
18.684864
19.469857
19.609928
19.932985
19.835830
20.251870
20.246506
20.062923
20.079613
20.271540
20.820498
20.859838
21.298528
21.080971
21.130443
##ZVALUE=285
0.541806
0.600815
0.682473
0.628829
0.705719
0.722408
0.882745
0.733733
0.696778
0.855923
0.803471
0.605583
0.912547
0.963807
0.930429
1.111627
1.181960
1.151562
0.779629
1.083612
1.108646
1.214743
1.290441
1.562834
4.301667
14.600754
50.564408
101.816654
211.855769
330.711603
456.201434
618.467927
711.933970
757.619739
717.115998
587.425828
463.007689
292.196870
186.043978
89.174509
49.510598
31.105876
36.342740
55.789948
77.053905
107.521415
127.550960
146.289468
150.721669
146.545768
134.550929
107.953548
87.487698
61.684847
42.526722
25.591850
16.671419
11.874437
9.794831
8.940697
9.042621
8.911490
9.687543
10.216832
9.753704
10.744929
11.218786
12.185574
12.970567
13.027787
13.460517
14.871955
14.888644
15.240908
15.944839
16.809702
17.035604
17.634630
18.224716
18.669963
18.506646
19.179583
18.702745
19.641519
19.702911
20.016432
20.328760
20.732880
20.684600
19.945502
20.459890
20.339489
20.385981
19.806623
20.526648
20.310879
##ZVALUE=290
0.540614
0.733733
0.503659
0.777841
0.728965
0.760555
0.598431
0.800490
0.555515
0.761747
0.668764
0.875592
0.688434
0.742674
0.871420
0.858903
0.729561
0.935793
0.893474
1.069903
1.097918
1.149774
1.154542
1.193881
1.337528
1.156926
1.734495
6.001592
29.004812
65.642595
84.650517
254.392624
384.921432
564.420819
669.910908
749.279857
740.391016
645.653009
533.472896
360.689759
242.826939
121.967793
63.825846
28.826594
24.166703
35.278797
49.241781
74.090958
95.724463
118.977427
136.250854
145.690441
144.019723
129.811764
110.826492
81.132650
61.751604
39.694905
27.913451
17.708540
12.559891
10.123849
10.269880
10.156631
10.150671
10.733604
11.454821
12.408495
12.200475
13.729930
14.263988
15.015602
15.572906
15.972853
17.356873
16.485453
17.502904
18.002987
18.222928
18.444657
18.824935
19.878745
20.063519
19.935966
19.355416
19.819736
20.157695
20.522475
20.007491
20.453930
20.275712
20.364523
19.871593
20.231605
20.408630
20.190477
##ZVALUE=295
0.698566
0.633597
0.490546
0.510812
0.603795
0.526905
0.696778
0.653863
0.770688
0.766516
0.675917
0.535846
0.709891
0.673532
0.718832
0.792742
0.780821
0.993609
0.892878
0.950694
0.808835
0.765920
1.021624
0.984669
1.170635
1.122952
1.160502
1.349449
1.492500
2.777576
9.490848
40.555596
89.057684
203.833580
321.378708
496.694446
612.269640
721.513033
748.050809
691.985488
595.143437
428.386927
299.692750
161.576867
89.511871
35.404563
20.643473
21.184683
29.441714
49.352646
66.716671
92.629790
113.094449
131.588578
138.985515
135.383606
124.671459
103.426576
83.451867
59.608817
41.993856
26.940703
19.527674
13.566613
12.095571
11.707544
11.302829
12.178421
12.623668
12.884736
14.190674
14.613867
15.809536
16.580820
16.478896
17.278790
17.540455
17.844439
18.356442
18.936992
19.179583
19.603968
20.594001
20.121932
20.266771
20.139813
20.184517
20.644665
20.711422
20.504594
20.200610
20.065904
20.228624
19.992590
20.199418
20.164847
##ZVALUE=300
0.598431
0.682473
0.582933
0.520945
0.620484
0.573993
0.600815
0.675917
0.601411
0.606775
0.590682
0.596642
0.653863
0.670552
0.768900
0.716448
0.580549
0.644922
0.834465
0.748634
0.799894
0.774860
0.775456
0.727773
0.907779
1.044869
1.137853
1.160502
1.163483
1.006722
1.177788
1.558661
4.095435
23.559928
57.858825
145.550966
241.314769
403.626561
528.685451
664.864779
724.250674
718.388557
642.773509
494.943857
371.101499
210.523009
127.362609
55.496693
27.557611
14.983416
17.168522
27.597547
40.023923
62.108636
82.232952
108.114481
121.116638
132.510662
131.548643
118.857622
104.434490
79.016685
62.411427
42.439699
30.724406
20.076632
16.272664
13.344884
13.374686
13.523698
14.443994
14.481544
15.051961
16.311407
16.752481
17.601848
18.062592
18.607974
19.093752
18.761754
20.103455
20.224452
20.703673
20.594001
20.726919
20.373464
20.397902
20.692945
20.859838
21.221638
20.522475
20.977855
20.342469
20.536780
20.158887
19.886494
##ZVALUE=305
0.405908
0.208616
0.392795
0.339746
0.260472
0.310540
0.330806
0.256896
0.421405
0.306964
0.338554
0.445843
0.312924
0.421405
0.436902
0.588894
0.520945
0.493526
0.591874
0.495911
0.410676
0.483990
0.333786
0.459552
0.617504
0.606775
0.590682
0.689626
0.702739
0.907779
0.925660
0.998974
1.019835
1.239777
2.167821
13.635755
37.163496
103.748441
185.323954
334.371924
461.066961
611.970425
684.836507
715.293884
661.701560
520.162582
402.136445
254.942775
159.415603
72.933435
37.085414
16.027689
12.113452
16.497970
24.448633
41.661859
58.651567
82.059503
100.033879
117.945671
124.857426
124.612451
116.632581
97.080469
80.803633
57.808757
43.142438
29.967427
22.338629
16.773939
15.630722
15.425682
15.491843
16.106963
16.638637
17.596483
17.892718
18.119812
19.121766
19.649863
19.905567
20.933747
20.694733
21.092892
20.925999
21.486878
20.621419
21.070838
21.157861
21.210909
20.961761
20.744801
20.398498
20.313859
20.253658
19.975901
##ZVALUE=310
0.320673
0.317693
0.332594
0.192523
0.292659
0.475645
0.339746
0.372529
0.465512
0.494719
0.537634
0.481606
0.451803
0.472665
0.346899
0.436902
0.626445
0.556707
0.483990
0.651479
0.494719
0.496507
0.652671
0.572801
0.568628
0.565648
0.651479
0.702739
0.798702
0.674725
0.743866
0.844598
0.740886
0.943542
0.964999
1.283884
1.328588
5.808473
19.448996
65.249801
125.145912
252.871513
374.176502
542.723536
649.064779
718.503594
709.807873
618.187785
506.498814
338.646770
223.521590
110.711455
59.139729
23.160577
12.341738
11.315942
15.002489
24.215579
34.745932
54.772496
72.156787
94.999671
108.604431
120.071769
121.727586
112.809539
99.908710
79.593658
63.117743
44.189692
33.779740
24.617910
20.278692
17.884970
17.663836
17.893910
18.097758
18.450618
19.422770
19.595623
20.413995
20.728707
20.836592
21.364689
21.678805
22.065639
21.894574
21.955967
21.533966
22.006631
21.672845
21.072626
21.388531
21.041632
20.828843
20.811558
##ZVALUE=315
0.407696
0.471473
0.482798
0.505447
0.382662
0.384450
0.290871
0.360608
0.484586
0.418425
0.548959
0.492930
0.621676
0.518560
0.472665
0.638962
0.598431
0.451803
0.570416
0.490546
0.702739
0.652671
0.534654
0.437498
0.637770
0.601411
0.563860
0.667572
0.604987
0.640750
0.628829
0.879765
0.641942
0.871420
0.882745
0.875592
0.928640
1.196861
1.237988
2.560616
9.441972
40.798783
89.427829
195.620656
304.026008
471.827984
581.089854
679.543614
706.400871
647.664666
557.993650
397.994518
277.724862
147.804618
79.912543
31.232834
15.363693
9.768605
10.537505
14.872551
21.516681
35.008788
49.031973
69.976449
87.007880
106.097460
114.478469
115.858912
108.661652
93.802810
78.669786
60.895681
46.977997
33.051968
26.814938
21.511912
19.852519
19.541979
19.657612
20.164847
20.879507
20.734668
21.219850
21.824837
21.951795
22.131801
22.852421
22.138953
22.056699
22.336841
22.555590
22.153854
21.964908
21.936893
21.856427
21.874905
##ZVALUE=320
0.631809
0.591874
0.392795
0.382662
0.537634
0.567436
0.523925
0.491738
0.516772
0.435710
0.467896
0.546575
0.599623
0.566840
0.495911
0.476837
0.546575
0.609756
0.637770
0.511408
0.576973
0.532866
0.647902
0.714660
0.695586
0.593662
0.599623
0.767708
0.645518
0.589490
0.468493
0.779629
0.682473
0.839829
0.860691
0.958443
0.901818
0.887513
0.998974
1.140833
1.148582
1.291633
4.293919
23.630857
57.704449
141.866803
231.095552
375.619531
491.881967
618.245006
674.703717
663.771629
598.821640
460.619926
335.824490
188.438892
106.876493
44.273734
21.986961
10.885596
9.631515
11.224747
13.685822
21.013618
30.336976
48.191547
63.906908
83.181858
98.101497
108.828545
110.766888
105.626583
95.028877
75.247884
60.968995
44.970512
36.267638
27.102828
24.146438
21.639466
21.069646
20.941496
21.323562
21.890998
22.123456
21.975636
22.267699
22.274852
22.412539
22.150874
22.129416
22.363663
22.546649
22.420883
21.889806
21.181703
##ZVALUE=325
0.528693
0.347495
0.410676
0.522733
0.359416
0.326633
0.425577
0.517964
0.567436
0.475645
0.573993
0.521541
0.402927
0.475645
0.456572
0.496507
0.400543
0.490546
0.576973
0.480413
0.488758
0.504851
0.619888
0.553727
0.596642
0.528693
0.690818
0.705719
0.579953
0.584722
0.707507
0.674725
0.707507
0.781417
0.758767
0.756979
0.768900
0.859499
0.822544
1.099706
0.949502
0.921488
1.153946
1.300573
2.412796
14.888644
37.543774
97.289681
172.115564
311.790705
423.439741
559.728742
630.202889
657.852888
607.442856
481.624007
367.990732
225.027800
137.964487
62.320828
31.585693
13.141632
9.794831
10.041595
11.052489
15.666485
20.823479
32.746792
45.083761
65.660477
80.553889
95.884800
103.887916
106.365681
101.259947
86.710453
74.614882
57.861805
46.257973
34.300685
28.312802
24.490952
23.398995
21.536946
22.623539
21.921992
22.542477
22.199750
22.058487
22.766590
22.440553
21.598935
22.318959
21.771789
21.682978
21.651983
##ZVALUE=330
0.243783
0.294447
0.327826
0.346899
0.328422
0.288486
0.354648
0.443459
0.238419
0.432730
0.262856
0.255704
0.221729
0.270605
0.521541
0.325441
0.284910
0.344515
0.452995
0.391603
0.522733
0.498891
0.517964
0.385642
0.428557
0.378489
0.322461
0.472665
0.574589
0.327826
0.512600
0.641942
0.431538
0.426769
0.516772
0.370741
0.482798
0.546575
0.761747
0.669956
0.678897
0.750422
0.765920
0.843406
0.889897
0.991821
1.442432
4.516840
23.687482
57.951808
136.440992
223.836899
367.454886
472.431779
585.361719
628.025532
598.861575
529.416800
400.440693
294.127464
165.661573
95.752478
40.968657
20.895600
10.486841
9.601712
10.117888
11.064410
15.623569
21.620989
33.293962
44.663548
61.251521
76.418519
92.707872
100.188851
101.301670
96.603632
84.606409
72.173476
55.080652
45.159459
35.396814
29.808879
24.880767
23.385882
22.262931
22.039413
21.791458
21.357536
21.065474
21.294951
21.121502
20.977855
21.466613
21.387935
##ZVALUE=335
0.478625
0.313520
0.376701
0.385642
0.314713
0.391603
0.460744
0.613928
0.476837
0.392795
0.317693
0.590682
0.359416
0.294447
0.462532
0.491738
0.548959
0.369549
0.540614
0.387430
0.569820
0.449419
0.375509
0.468493
0.474453
0.416636
0.495911
0.488758
0.557899
0.480413
0.646710
0.579953
0.464916
0.667572
0.691414
0.587702
0.744462
0.520945
0.698566
0.678897
0.592470
0.664592
0.841618
0.751615
0.959635
0.813603
1.169443
1.138449
1.148582
2.846718
9.912848
41.316748
84.895492
181.442499
283.046961
428.003669
523.377657
594.532490
603.290796
539.417863
450.237989
311.599970
214.200020
114.765763
62.449574
24.784803
13.395548
10.025501
9.772778
10.931492
12.463927
16.054511
21.110773
32.319427
43.591857
60.946941
73.646903
88.569522
94.556808
95.504522
91.602802
80.184937
69.011450
56.009889
45.793653
35.520792
29.815435
25.365949
23.339987
21.672845
21.059513
20.670891
21.087527
21.060705
20.793676
20.552874
##ZVALUE=340
0.303984
0.365973
0.403523
0.511408
0.407696
0.281930
0.606775
0.388622
0.435710
0.342727
0.424981
0.504851
0.392795
0.395775
0.368953
0.464916
0.293851
0.429749
0.462532
0.413656
0.598431
0.550747
0.556707
0.549555
0.521541
0.465512
0.457764
0.516772
0.412464
0.504851
0.527501
0.580549
0.649691
0.642538
0.511408
0.749826
0.652671
0.624657
0.623465
0.741482
0.608563
0.721812
0.602603
0.740886
0.762939
0.740886
0.769496
0.917912
1.055598
0.988841
0.956655
1.518726
4.934669
24.615526
59.145689
140.905976
230.190754
366.576910
465.637445
559.296608
587.366819
548.501015
477.792621
353.211761
248.950720
133.787990
77.322721
34.210682
17.276406
10.697842
10.323524
10.787845
11.397600
13.261437
16.192794
23.040771
30.693412
43.366551
56.076646
73.068738
83.678961
90.987682
91.449618
86.088777
79.973936
67.194700
55.985451
43.830872
36.109686
29.219985
24.444461
21.951795
20.745993
20.487905
20.339489
20.170808
##ZVALUE=345
0.416636
0.298619
0.412464
0.517964
0.282526
0.400543
0.366569
0.371933
0.441670
0.345707
0.356436
0.379682
0.462532
0.492930
0.342727
0.420809
0.472665
0.431538
0.539422
0.438690
0.368953
0.528693
0.455976
0.491738
0.551939
0.524521
0.496507
0.488758
0.570416
0.620484
0.645518
0.655651
0.471473
0.496507
0.630617
0.478625
0.433922
0.575781
0.415444
0.501871
0.666976
0.522733
0.619888
0.699759
0.640750
0.661612
0.735521
0.770688
0.668764
0.891685
0.763535
0.906587
1.027584
0.994802
2.242923
13.894439
38.433671
97.043514
168.927908
294.458866
391.299725
508.347750
557.757616
558.275580
505.051017
389.894843
289.237499
166.399479
96.749663
44.018626
22.301674
11.997819
10.390878
10.403991
10.817647
11.788607
12.993813
16.153455
20.859838
30.191541
39.808750
54.350495
65.533519
77.244639
83.588958
85.309744
82.957745
74.093938
65.868497
52.897930
43.628812
33.304691
28.162599
23.058653
20.679832
19.371510
##ZVALUE=350
0.284910
0.364780
0.330806
0.444651
0.248551
0.373721
0.376701
0.475645
0.390410
0.440478
0.477433
0.378489
0.320673
0.409484
0.401735
0.521541
0.415444
0.507832
0.474453
0.566840
0.591874
0.295639
0.281930
0.532866
0.319481
0.478625
0.398755
0.332594
0.573993
0.368953
0.507832
0.522733
0.435710
0.420809
0.476837
0.506639
0.444651
0.465512
0.517964
0.543594
0.641942
0.705719
0.612736
0.562668
0.692606
0.597835
0.603795
0.536442
0.725985
0.566840
0.719428
0.805855
0.802875
0.968575
0.936985
1.191497
1.396537
7.126927
22.016764
66.382885
120.967627
235.345960
332.732797
453.122854
521.449447
548.578501
516.498685
421.187878
322.796702
191.738605
119.414926
56.971908
29.361844
13.003945
10.169744
10.088682
10.312796
11.112690
11.626482
13.136864
15.799999
21.258593
27.101636
37.011504
46.086907
58.577657
67.940950
75.693727
77.847838
75.753927
70.539713
60.315728
51.204562
39.940476
32.980442
26.534796
##ZVALUE=355
0.296831
0.435710
0.463724
0.306964
0.351667
0.427961
0.273585
0.399947
0.347495
0.417829
0.340939
0.483990
0.417829
0.289679
0.362992
0.413656
0.399947
0.316501
0.455976
0.387430
0.472665
0.561476
0.429749
0.405908
0.587702
0.442863
0.404716
0.360608
0.497699
0.430942
0.580549
0.480413
0.529885
0.555515
0.505447
0.428557
0.305772
0.510812
0.516772
0.559688
0.610948
0.504851
0.562668
0.526905
0.583529
0.590682
0.637770
0.603795
0.693798
0.748634
0.669956
0.677705
0.784993
0.636578
0.651479
0.866652
0.884533
1.062751
1.172423
3.206730
11.802912
44.063926
87.980628
176.858902
271.117687
404.205918
483.629704
533.627868
529.143810
438.808799
351.379514
230.515599
145.245790
66.604614
35.130978
14.958978
10.225773
9.631515
9.635687
9.878874
10.569692
11.241436
12.707710
14.840961
18.088818
24.559498
31.898618
42.372942
50.958991
61.011910
67.604780
71.172714
69.931746
64.058900
57.032704
47.404766
##ZVALUE=360
0.391603
0.318885
0.183582
0.293851
0.391603
0.427961
0.357628
0.436902
0.281930
0.493526
0.325441
0.393987
0.454783
0.479817
0.486970
0.230670
0.302792
0.444651
0.543594
0.530481
0.510812
0.409484
0.304580
0.429749
0.486970
0.418425
0.543594
0.535846
0.381470
0.521541
0.561476
0.445843
0.471473
0.508428
0.456572
0.667572
0.573993
0.526905
0.545979
0.607967
0.516772
0.555515
0.640750
0.573993
0.695586
0.561476
0.558496
0.673532
0.601411
0.663996
0.631809
0.704527
0.702739
0.722408
0.779629
0.591874
0.709891
0.782609
0.816584
0.974536
1.069903
1.697540
5.160570
23.135543
55.344701
132.990479
215.549469
340.722799
436.352491
520.191789
529.897809
470.582843
387.921929
259.078741
175.181627
91.864467
50.005913
19.962788
11.746883
9.043813
8.930564
9.296536
9.737611
10.196567
10.493994
10.998845
12.442470
15.806556
19.477606
26.304722
33.782721
44.725537
52.783489
60.916543
63.715577
63.865781
##ZVALUE=365
0.305772
0.309944
0.495911
0.432730
0.332594
0.442863
0.320673
0.318885
0.280738
0.423789
0.418425
0.345707
0.234842
0.349879
0.429749
0.379682
0.474453
0.502467
0.319481
0.380874
0.546575
0.266433
0.286698
0.264645
0.411868
0.446439
0.543594
0.428557
0.475645
0.454783
0.457764
0.333786
0.505447
0.526905
0.429749
0.420809
0.415444
0.408888
0.473857
0.445843
0.531673
0.426769
0.521541
0.481606
0.485778
0.561476
0.463724
0.485778
0.525713
0.583529
0.669956
0.600815
0.565648
0.621676
0.620484
0.579953
0.664592
0.475645
0.639558
0.806451
0.609756
0.751615
1.028776
1.083612
2.552867
9.438992
36.847591
78.627467
173.067451
264.662504
385.812521
453.089476
494.964719
482.063890
404.555798
322.119594
206.250548
127.209425
58.284998
29.859543
12.365580
8.747578
8.171797
8.153915
8.426905
8.773804
9.333491
9.407997
9.969473
11.174679
13.569593
16.831756
22.947788
28.801560
39.151907
45.629740
##ZVALUE=370
0.401735
0.273585
0.299811
0.383854
0.387430
0.424981
0.417829
0.458956
0.376701
0.401735
0.337958
0.197887
0.371933
0.205636
0.320673
0.228882
0.356436
0.320673
0.320673
0.390410
0.385642
0.476837
0.561476
0.537634
0.488758
0.361800
0.581741
0.446439
0.248551
0.320673
0.394583
0.476837
0.462532
0.343919
0.558496
0.459552
0.402927
0.475645
0.484586
0.409484
0.346899
0.625849
0.604987
0.419617
0.565648
0.468493
0.387430
0.651479
0.558496
0.513792
0.734925
0.490546
0.636578
0.553727
0.403523
0.745654
0.577569
0.586510
0.748634
0.618696
0.703931
0.820756
0.874996
1.038909
0.815988
0.942945
1.654625
6.218553
21.012425
66.332817
123.072863
223.598480
320.843458
436.392426
489.415526
488.107800
438.557863
338.091850
245.171785
136.892796
77.409744
32.939911
17.428994
9.576678
7.484555
7.782578
7.710457
7.716417
8.241534
8.486509
8.516908
9.328723
10.012984
12.549758
15.087724
20.447969
##ZVALUE=375
0.427961
0.463724
0.320673
0.559688
0.344515
0.259876
0.392795
0.377893
0.304580
0.500679
0.348687
0.363588
0.473857
0.350475
0.392795
0.405908
0.318885
0.377893
0.317693
0.428557
0.377893
0.573993
0.374913
0.468493
0.379682
0.475645
0.438690
0.394583
0.398755
0.255704
0.313520
0.228882
0.371933
0.309944
0.291467
0.454783
0.478625
0.512600
0.511408
0.407696
0.536442
0.420809
0.386834
0.496507
0.363588
0.584722
0.426769
0.462532
0.395775
0.630617
0.498891
0.555515
0.467896
0.488758
0.454783
0.535846
0.502467
0.470877
0.648499
0.488758
0.593662
0.721812
0.756979
0.653863
0.763535
0.790954
0.666976
0.922680
1.100898
3.084540
11.048913
41.502714
86.420774
179.268718
264.745951
371.489525
439.734459
477.793813
460.281968
373.717546
287.257433
175.739527
110.022426
56.097507
29.903650
12.180805
7.950664
7.033944
7.057786
7.138848
7.364750
7.438660
7.826686
7.916689
8.427501
9.429455
##ZVALUE=380
0.310540
0.264645
0.332594
0.292659
0.385642
0.297427
0.272989
0.378489
0.282526
0.310540
0.353456
0.392795
0.304580
0.409484
0.312924
0.415444
0.493526
0.255704
0.286698
0.398755
0.335574
0.216961
0.389814
0.461936
0.429749
0.294447
0.455976
0.461936
0.380874
0.410676
0.563860
0.352859
0.450611
0.438690
0.351667
0.486970
0.398755
0.462532
0.344515
0.349879
0.318885
0.448823
0.393987
0.334978
0.591874
0.491738
0.506639
0.537634
0.489950
0.483990
0.514984
0.375509
0.480413
0.485778
0.445843
0.452995
0.481606
0.551939
0.723600
0.567436
0.467896
0.585914
0.499487
0.558496
0.507832
0.559688
0.726581
0.544786
0.836849
0.990629
1.161695
1.695752
5.830526
27.291775
61.995983
137.116909
213.840604
321.002007
396.605730
459.012985
458.786488
397.429466
325.122476
228.111744
153.663754
75.473785
39.544702
15.971661
9.023547
6.446838
6.487966
6.314516
6.756783
6.856918
6.995797
7.309914
##ZVALUE=385
0.455976
0.394583
0.380874
0.339746
0.367761
0.316501
0.422597
0.397563
0.341535
0.418425
0.459552
0.406504
0.441670
0.383854
0.456572
0.483990
0.432730
0.581741
0.293851
0.464916
0.289679
0.313520
0.508428
0.319481
0.392795
0.293851
0.379682
0.479817
0.344515
0.499487
0.342727
0.346899
0.337958
0.459552
0.380874
0.387430
0.525713
0.464916
0.516772
0.357628
0.410676
0.432730
0.406504
0.330806
0.450611
0.487566
0.582933
0.536442
0.616908
0.425577
0.447631
0.437498
0.618696
0.336766
0.474453
0.437498
0.491738
0.456572
0.519753
0.529885
0.591874
0.550747
0.444651
0.560880
0.561476
0.536442
0.602603
0.623465
0.828505
0.857711
0.884533
0.910759
1.104474
1.118779
2.844930
15.615821
39.350986
95.146894
163.400769
274.670720
356.238484
433.628559
451.710820
427.351594
375.185609
276.508927
196.429491
107.701421
62.096715
26.686788
12.881756
6.611943
5.803704
5.794764
6.064773
6.133914
##ZVALUE=390
0.325441
0.240803
0.317693
0.262856
0.333786
0.323653
0.426769
0.370741
0.358820
0.305772
0.234842
0.261664
0.311732
0.425577
0.147820
0.497699
0.362992
0.255704
0.503659
0.448823
0.325441
0.505447
0.315905
0.469685
0.351667
0.327826
0.211596
0.535846
0.507832
0.441670
0.399947
0.386834
0.516772
0.286698
0.175834
0.307560
0.343919
0.288486
0.550747
0.332594
0.385642
0.484586
0.384450
0.364780
0.335574
0.412464
0.486970
0.331998
0.375509
0.510812
0.344515
0.453591
0.424981
0.315905
0.364780
0.499487
0.469685
0.447631
0.479817
0.457764
0.343919
0.541806
0.540614
0.316501
0.502467
0.644922
0.413656
0.493526
0.509620
0.551939
0.704527
0.844598
0.782609
0.734925
0.765920
1.064539
1.387000
8.058548
24.842620
72.580576
130.915642
235.258937
312.204957
395.892859
441.130996
453.735590
417.808890
331.100821
254.619718
155.094862
90.305805
37.302971
18.895864
8.366704
5.642772
5.573630
##ZVALUE=395
0.398755
0.472665
0.426769
0.361800
0.449419
0.414848
0.523925
0.452995
0.558496
0.352859
0.227690
0.346899
0.340939
0.328422
0.395775
0.276566
0.397563
0.513792
0.418425
0.346899
0.423789
0.343919
0.467896
0.375509
0.307560
0.488758
0.331998
0.350475
0.348687
0.329614
0.586510
0.416636
0.450611
0.353456
0.404716
0.430942
0.324845
0.425577
0.384450
0.340939
0.292659
0.378489
0.483990
0.414848
0.483990
0.478625
0.427961
0.339746
0.394583
0.458956
0.476837
0.410676
0.467896
0.372529
0.496507
0.559688
0.370741
0.564456
0.421405
0.518560
0.639558
0.615716
0.467896
0.550747
0.625849
0.481606
0.532866
0.685453
0.651479
0.649691
0.604987
0.795722
0.724792
0.617504
0.842810
0.605583
0.808835
0.897646
1.151562
4.454851
16.119480
54.006577
97.722411
178.190470
254.618526
359.232426
420.817733
462.029576
452.827811
387.370586
310.218930
194.605589
122.070909
53.618550
26.057959
10.399818
##ZVALUE=400
0.362992
0.397563
0.284910
0.473857
0.389814
0.276566
0.303984
0.358820
0.308752
0.292659
0.390410
0.418425
0.246763
0.357628
0.385642
0.480413
0.360608
0.434518
0.412464
0.322461
0.302792
0.339746
0.336766
0.162721
0.429749
0.268817
0.369549
0.395775
0.290871
0.318885
0.511408
0.560880
0.456572
0.460744
0.706911
0.349879
0.502467
0.536442
0.420809
0.310540
0.461936
0.457764
0.498891
0.553727
0.436902
0.496507
0.459552
0.324845
0.387430
0.377893
0.394583
0.626445
0.304580
0.484586
0.471473
0.419617
0.570416
0.456572
0.590682
0.460744
0.443459
0.462532
0.612736
0.456572
0.513792
0.472665
0.528693
0.599623
0.546575
0.693798
0.679493
0.744462
0.663996
0.665784
0.651479
0.750422
0.750422
0.690818
0.653863
0.843406
0.982881
2.454519
8.516908
30.957460
64.534545
137.682557
214.652419
320.452452
389.542580
443.620682
454.885960
406.526923
339.354873
231.599808
155.379772
81.008673
##END
