##TITLE=QP00652
##FORMAT=SPECTACLE-ASCII V-1.2
##DATA TYPE=ULTRAVIOLET SPECTRUM
##SECOND TYPE=ULTRAVIOLET SPECTRUM
##DATE=02/28/18
##TIME=18:06:16
##SPECTROMETER/DATA SYSTEM=SPECTACLE
##XUNITS=NM EM
##YUNITS=ENERGY
##YFACTOR=1
##FIRSTX=220
##LASTX=410
##NPOINTS=96
##3DDATA=Equidistant
##ZUNITS=NM EX
##FIRSTZ=210
##LASTZ=400
##ZPOINTS=39
##XYDATA=(Y..Y)
##ZVALUE=210
3.412962
3.538728
3.066659
3.262758
2.810955
3.747940
3.242493
4.209876
4.554987
4.539490
4.469752
4.499555
6.360412
5.918741
5.849600
6.931424
8.450747
8.587837
8.882880
8.645654
9.974837
10.553598
10.640621
10.709763
11.672974
13.594627
14.153719
14.271736
13.710856
14.887452
15.468597
17.012954
15.302896
16.664863
15.631914
17.130971
17.982721
17.463565
17.808676
18.207431
18.981695
19.554496
19.658804
20.201802
18.774867
23.134947
21.029711
22.886992
22.506714
23.433566
24.113655
23.300648
23.495555
24.007559
23.287535
25.750995
25.213957
24.749637
27.277470
26.891828
27.404428
27.710795
27.877688
29.406548
27.231574
30.726790
32.088757
37.495494
43.149590
48.814416
56.600571
70.139766
78.211427
96.534491
106.215477
114.104748
115.320683
115.790963
111.402869
112.543702
103.730559
91.386437
83.274841
70.858598
58.896542
49.511790
39.852858
33.559799
31.299591
28.957725
27.269721
25.716424
27.137995
27.769804
26.618838
27.453899
##ZVALUE=215
21.730661
22.196770
18.424988
15.029907
10.725856
7.700920
7.005930
7.102489
8.026958
8.494854
8.347631
7.315874
7.097721
8.229613
7.231832
8.050799
7.454753
9.115934
8.991957
8.456707
9.139776
11.329651
10.917783
13.113618
11.924505
13.839602
13.775826
14.229417
14.279485
15.754700
15.592575
16.169548
16.393661
18.515587
16.859770
17.168522
17.404556
17.884970
17.928481
19.594431
20.435452
19.466877
20.673871
19.262433
19.450784
20.376444
20.858645
21.779537
21.625757
22.572875
24.504662
23.404956
24.170876
23.626685
24.182796
25.180578
24.243593
25.041699
24.759769
26.086569
24.395585
26.989579
24.792552
23.435950
25.597811
27.697682
29.088855
31.910539
36.557913
41.657686
53.487420
63.975453
72.299838
84.731579
94.033480
106.156468
105.047822
112.125874
109.084845
108.251572
102.649927
88.631511
80.061555
68.208575
54.669976
44.268966
37.977695
30.425787
26.947856
23.938417
24.654865
25.648475
24.727583
22.946000
25.932789
24.050474
##ZVALUE=220
48.973560
54.376721
55.262446
56.691766
48.021674
38.502812
29.963851
19.997954
15.101433
13.427734
14.010668
14.428496
14.337897
13.209581
11.363626
11.465549
9.464622
7.893443
8.653998
7.951856
7.357597
8.942485
9.953976
10.812879
11.205673
11.767745
10.358691
12.989640
12.895465
12.773871
12.019873
13.229847
12.944937
13.711452
14.134645
13.960600
14.509559
14.143586
16.277432
14.931560
15.602708
15.436411
16.930699
16.309619
16.739964
16.217828
16.710758
16.052723
17.215610
17.989874
16.923547
18.478632
18.818974
18.670559
20.046830
19.490719
17.684698
18.696785
19.512773
19.415617
19.088984
18.923879
19.852519
20.000935
20.292997
21.539927
22.065639
24.025440
26.516914
30.905604
35.881996
41.177869
50.267577
56.786537
64.471960
67.383647
73.862672
78.689456
79.516768
78.696609
76.869726
68.407655
59.442520
49.519539
41.440725
33.609867
24.580956
21.756887
22.309422
20.461679
18.018484
17.686486
19.878745
17.585754
16.759634
17.694831
##ZVALUE=225
75.206757
78.248978
102.813840
129.261613
136.194825
138.164759
123.114586
101.238489
74.390769
56.509972
34.007430
27.163625
26.783943
27.016997
25.715828
28.036833
24.098754
19.058585
15.585423
10.922551
8.715987
8.303523
7.325411
8.722544
8.454919
9.311438
8.909702
9.472966
9.064674
10.550618
9.993911
10.932684
11.065602
12.003779
11.646748
12.047887
11.882782
13.493896
12.585521
12.481809
14.518499
14.858842
11.934638
13.675690
14.568567
13.539791
14.342666
14.645457
16.456842
14.006495
16.393661
15.227795
15.269518
16.126633
15.235543
15.168786
17.183423
15.395880
16.514659
16.600490
16.949773
16.582608
17.794967
18.709898
18.687844
19.317865
19.205809
21.880865
21.923780
28.180480
31.360984
37.260652
41.808486
49.075484
51.087737
52.587986
52.154660
53.051710
52.319765
46.988726
44.457912
35.646558
36.692619
30.624866
28.621554
23.723841
21.391511
20.634532
19.130707
18.699765
19.806623
18.464923
18.518567
17.266870
17.654896
17.590523
##ZVALUE=230
72.830915
76.654553
132.871866
185.259581
260.204673
296.007991
326.526761
310.966969
262.121558
214.894414
134.653449
96.799731
67.035556
47.973990
46.318769
53.541660
53.409934
52.051544
46.951771
37.847757
29.922724
24.153590
16.760826
12.208819
10.235906
8.908510
9.377599
9.859800
10.606647
10.991693
11.412501
11.318922
10.293722
12.490749
11.864901
11.525750
11.611581
11.900663
11.622906
12.465715
13.177991
10.827780
12.585521
11.384487
12.951493
13.522506
13.311505
12.663603
13.942719
13.393760
13.496876
14.563799
14.798641
14.209747
14.289618
15.125871
15.168786
14.339685
16.123652
14.663935
17.342567
17.435551
17.085671
18.027425
15.235543
17.755628
18.962622
19.251704
22.092462
25.688410
29.983521
33.955574
38.553476
44.729710
47.948956
52.130818
49.908757
51.443577
47.992468
48.071742
46.172738
39.371848
35.833716
30.946732
28.310418
24.690628
22.697449
22.306442
19.101501
20.884871
19.462705
20.228624
20.654798
18.888712
18.782616
17.625690
##ZVALUE=235
23.635626
26.835799
72.002411
144.180655
270.060897
387.272835
545.083880
645.861030
708.871484
682.560802
582.509637
454.896688
331.651568
196.109414
132.684708
87.827444
79.104900
83.203912
84.295869
88.317990
79.325438
70.570707
53.779483
42.476654
29.554963
20.665526
15.496612
11.685491
11.384487
11.333823
10.419488
11.703968
12.610555
11.671782
10.590553
12.523532
11.735559
12.281537
12.178421
12.905598
12.445450
11.977553
12.743473
13.410449
13.475418
14.467835
13.934970
13.363957
15.604496
14.872551
14.684796
14.877915
14.575720
14.621615
15.799999
15.776753
15.055537
15.755892
15.616417
14.294982
16.202927
16.502738
17.106533
16.274452
17.963648
18.348694
18.696785
22.267699
24.036765
27.255416
29.981732
34.095645
38.485527
41.407943
44.846535
43.508410
46.464801
47.546625
41.829944
39.447546
36.750436
32.124519
31.074882
29.147863
27.394891
24.635792
22.505522
20.356774
21.438599
20.351410
18.939972
20.141602
19.134879
19.235611
20.066500
18.603802
##ZVALUE=240
2.881885
3.852844
9.542704
38.203597
82.720518
173.381567
282.824636
459.228754
602.329969
734.232664
800.295472
796.111822
700.193644
587.329865
433.418751
304.541588
181.775689
133.204460
106.121898
104.180574
121.728778
126.748681
121.136904
107.773542
84.724426
69.885850
52.743554
35.858750
27.205944
19.116998
14.688969
12.962818
13.081431
12.316704
12.402534
12.455583
12.380481
13.464689
12.307763
12.963414
13.845563
12.493730
12.929440
12.918711
11.912584
13.216734
11.267662
13.789535
14.218688
12.415648
14.169812
14.112592
13.639927
14.139414
15.464425
14.817715
15.219450
14.158487
15.459657
14.742613
16.867518
16.125441
16.793609
17.959476
16.951561
17.750859
19.310713
20.952821
22.517443
25.395751
29.891729
32.929778
35.075545
39.427876
42.417645
42.153001
40.704608
41.097999
40.148497
39.124489
35.326481
32.404661
30.132532
29.278994
27.216673
23.889542
23.612976
23.148656
22.588968
24.901628
22.706985
22.596717
22.058487
22.657514
22.721887
20.970702
##ZVALUE=245
1.907945
2.537966
2.098680
2.402663
5.850792
18.832684
64.468980
145.834684
339.007974
527.549982
742.605925
1005.086899
1015.710831
1015.710831
1015.710831
902.075768
629.869699
440.459847
248.491764
165.223479
117.247701
111.288428
124.427676
132.938623
139.291883
131.874681
123.475790
97.494721
80.987811
57.059526
40.099621
25.038719
19.341707
13.598800
11.204481
11.893511
11.792779
11.527538
12.017488
11.199713
9.750724
11.225939
12.275577
10.993481
10.823607
11.417866
10.585785
10.721684
10.382533
11.110902
11.400580
11.382699
10.864735
11.567473
11.840463
12.229681
12.692809
12.457967
11.202693
12.541413
12.044907
12.573600
13.687611
13.402700
13.390779
14.360547
15.559793
16.396642
17.370582
21.460652
21.878481
26.917458
27.952790
29.112697
30.752420
30.836463
29.151440
30.095577
29.023886
27.147532
26.927590
25.681853
23.742914
21.257997
21.722913
20.414591
19.943714
20.414591
20.458698
18.976927
18.752813
18.586516
18.049479
19.287467
20.030737
19.513965
##ZVALUE=250
1.850724
1.845956
1.300573
1.517534
1.938939
1.710653
2.701879
10.803938
48.034787
97.308755
235.362649
379.110575
542.264581
773.005486
913.707614
1014.818549
1009.640694
900.760889
778.578520
557.686687
379.525423
249.577761
143.840909
110.522509
116.099715
125.452876
140.625834
147.588849
140.050650
128.797889
110.302567
83.483458
58.880448
39.133430
27.002692
15.468597
11.922717
10.105968
9.456873
9.814501
8.350611
8.739829
7.757545
8.690953
8.613467
9.232759
9.102821
7.996559
8.315444
8.812547
8.287430
9.367466
8.359551
8.856654
8.980632
8.574724
9.659529
10.251999
10.013580
9.145737
9.308457
10.068417
10.996461
11.389852
12.047887
12.482405
13.587475
14.947653
14.848709
18.768907
19.872785
22.424459
24.526715
26.131868
25.959611
27.841926
26.512742
25.673509
24.608970
25.229454
24.939775
21.761656
20.626783
19.996762
19.466877
19.399524
19.323826
18.177629
18.347502
18.903613
17.380714
18.980503
18.993616
18.556714
17.461777
18.225908
##ZVALUE=255
1.538992
1.343489
1.411438
1.522899
1.723766
1.894832
1.762509
2.175570
2.599955
5.350709
30.550957
71.980953
145.452619
307.792425
475.053787
722.962618
892.695785
1015.710831
1015.710831
1015.710831
944.265723
766.015649
500.040650
327.720642
174.467564
120.332837
100.984573
110.508800
133.009553
144.170523
151.393414
148.038864
136.461854
108.193755
84.833503
57.056546
40.306449
23.732781
16.352534
10.688901
9.170771
8.193851
8.738637
9.179711
7.744431
8.845925
8.161664
7.750988
7.681847
8.235574
8.800626
8.119941
8.285642
7.568598
8.381605
8.794665
8.537769
8.375645
8.085966
8.656979
8.729696
8.806586
9.552836
10.004640
10.163784
10.491610
10.108948
11.749864
12.614727
14.497638
16.167760
18.056631
19.049644
20.551682
21.642447
21.342635
22.015572
21.026731
20.899773
19.699931
19.912720
17.617941
18.746853
16.889572
17.411709
15.458465
17.006993
16.255975
16.762614
17.619729
15.864968
16.742945
16.274452
17.227530
16.910434
16.826987
##ZVALUE=260
1.128912
1.189709
1.052618
1.340508
1.476407
1.316667
1.156926
1.799464
1.580715
1.664758
1.896620
3.250837
9.672642
43.882728
104.643703
247.984529
417.806506
688.861012
909.556746
1015.560031
1015.560031
1015.560031
1015.560031
991.920829
686.561465
472.127795
265.272856
164.071918
97.469687
90.107918
106.024742
132.411718
145.957470
157.176852
152.807832
136.407614
114.381909
82.662702
60.900450
38.600564
24.498701
15.003681
10.251999
8.313656
8.042455
7.936954
7.757545
7.071495
7.311702
7.290840
7.565618
7.919669
7.692575
7.201433
7.250905
6.883740
7.390976
7.867813
8.445978
8.435845
7.752776
7.889867
8.770823
8.991957
9.457469
9.108782
9.717941
11.367798
11.104941
13.218522
13.928413
15.227795
16.487837
18.158555
19.682646
19.828677
18.756986
19.162893
19.399524
17.508864
17.476678
16.347766
16.448498
15.319586
15.145540
15.373826
14.685988
14.858842
15.657544
15.840530
14.816523
15.407801
15.212893
15.565753
15.771985
15.453696
##ZVALUE=265
1.320839
1.133680
1.347661
1.341701
1.382828
1.501441
1.329780
1.443624
1.406670
1.524687
1.633763
2.075434
2.196431
2.552867
7.158518
28.277636
101.167560
199.693441
345.464945
644.707680
924.240947
1015.710831
1015.710831
1015.710831
1015.710831
1015.710831
895.186663
563.336015
367.264748
184.544921
110.152960
78.782439
86.433887
116.668940
136.949420
154.476762
161.052942
152.511001
138.674974
109.886527
85.636973
56.849718
39.234757
23.547411
15.646815
9.629726
8.674860
7.622838
7.477999
7.542968
7.325411
7.129908
7.207990
7.225871
7.435679
7.294416
7.706881
6.733537
7.422566
7.568598
7.944703
7.667542
7.426739
8.325577
8.412600
7.981658
8.644462
9.541512
10.373592
11.970997
12.163520
13.592839
15.337467
15.595555
15.862584
17.628670
17.734766
16.684532
15.571713
15.552640
15.598536
15.046597
14.747977
13.822913
13.776422
14.056563
13.616681
13.754964
13.947487
14.399886
14.215708
13.424754
13.600588
14.618635
14.662743
14.189482
##ZVALUE=270
1.114607
1.496673
1.143813
1.085997
1.054406
1.003742
1.234412
1.037717
1.395941
1.439452
1.583695
1.468658
1.777411
1.942515
1.906753
2.294779
3.490448
16.846657
52.422881
160.404444
311.369896
530.422926
939.740539
1015.710831
1015.710831
1015.710831
1015.710831
1015.710831
1015.710831
859.291553
562.346578
288.234949
152.188540
75.500607
68.364739
88.816881
110.876560
138.132572
154.608488
162.339807
156.744719
137.927532
115.581751
83.083510
60.196519
36.427975
24.611950
14.577508
10.698438
7.807612
7.462502
8.032918
7.396936
6.816983
6.727576
7.401705
7.876754
7.153749
6.977916
7.061958
7.176995
7.521510
7.484555
7.334948
7.878542
7.892847
8.365512
8.169413
9.806752
10.921955
11.465549
12.306571
14.318824
14.912486
14.815927
15.330911
15.677810
14.921427
14.763474
14.329553
13.371706
13.117790
12.422800
11.994839
11.542439
12.047887
12.280941
12.839437
12.577772
12.970567
12.884736
12.670755
12.711883
12.914538
12.494922
12.727976
##ZVALUE=275
1.145601
1.182556
1.099706
1.362562
1.128912
1.378655
1.294613
1.187921
1.279712
1.003742
1.428723
1.553893
1.438856
1.638532
1.600981
1.849532
1.937747
2.094507
2.621412
9.025931
35.626888
97.503662
253.462791
454.111695
825.971961
1015.707850
1015.707850
1015.707850
1015.707850
1015.707850
1015.707850
1015.707850
785.436630
401.114821
222.215652
94.831586
58.531761
64.089894
82.669854
112.955570
133.958459
151.840448
160.548687
150.917768
136.013627
110.199451
85.086823
60.766935
42.717457
24.305582
15.959740
10.655522
8.518696
7.232428
6.831884
7.445812
6.989837
7.064939
7.630587
7.309914
7.544756
7.117987
7.311702
7.288456
7.908940
8.059740
8.129478
8.299947
9.555817
10.406971
11.112690
12.340546
13.388991
14.066696
14.052987
14.581680
13.839602
13.937950
13.754964
13.034940
12.774467
12.244582
11.413693
11.500716
11.829734
11.302829
11.244416
11.723638
11.974573
12.036562
11.853576
11.793971
11.741519
11.381507
11.832714
12.105703
##ZVALUE=280
0.894666
0.862479
1.044869
0.986457
0.953674
1.049638
0.962615
0.963807
1.210570
1.257658
1.290441
1.280904
1.537800
1.532435
1.388788
1.371503
1.667738
1.887679
2.112985
2.288818
2.254844
3.321767
21.041632
65.055490
187.059641
340.735912
657.793880
967.851877
1015.710831
1015.710831
1015.710831
1015.710831
1015.710831
1015.710831
914.705992
496.083498
285.561681
119.631886
62.533617
46.646595
59.733987
85.164905
108.943582
135.623813
148.799419
155.643821
148.589611
130.059719
112.304688
81.075430
61.371922
37.593842
25.566816
15.082955
10.647774
7.755756
7.436872
6.883740
7.082820
6.705523
6.575584
7.151961
7.397532
7.294416
7.598996
7.738471
7.893443
8.089542
8.783937
9.253621
10.376573
10.794997
11.423826
12.990832
13.062954
13.359785
12.989640
12.614727
11.757612
12.044907
10.990500
11.099577
11.194944
10.731816
10.718703
11.023879
10.805726
10.433793
11.208653
10.953546
10.942817
10.777712
10.938644
11.128783
11.061430
10.879636
##ZVALUE=285
0.909567
0.896454
0.739694
0.970960
0.927448
0.923872
0.994802
1.080632
0.969768
1.135468
1.065731
0.930429
1.159906
1.190901
1.358986
1.263618
1.661777
1.508594
1.583695
1.749992
1.961589
1.914501
2.313852
2.754927
9.260774
31.629801
104.057789
207.737684
451.077819
729.772449
1010.390520
1015.717983
1015.717983
1015.717983
1015.717983
1015.717983
1015.717983
649.317503
389.331579
175.749660
87.092519
41.071773
37.970543
57.029724
77.537894
106.942654
126.154423
144.286752
150.489807
146.944523
134.982467
109.182596
88.359714
60.849786
41.660666
24.255514
16.168952
10.354519
8.262992
7.394552
6.853938
6.635785
7.323623
7.117987
7.350445
7.406473
7.739663
8.160472
8.806586
9.124875
10.115504
10.936856
11.332631
12.143850
12.140870
12.550950
11.788607
11.751652
12.046695
11.418462
11.432767
11.201501
11.198521
10.815859
10.775924
10.159612
10.547638
10.650754
10.296702
10.632873
10.568500
10.373592
10.596514
10.181665
10.363460
10.417700
##ZVALUE=290
0.746846
0.787973
0.899434
0.873804
0.727773
0.755787
0.701547
1.049638
0.973940
1.047850
1.154542
1.128912
1.109838
1.107454
1.210570
1.242757
1.110435
1.314878
1.329780
1.531839
1.458526
1.666546
1.655817
2.009869
2.130866
2.756715
3.173947
14.141798
44.529438
141.927600
283.334851
611.386895
954.589844
1015.710831
1015.710831
1015.710831
1015.710831
1015.710831
1015.710831
827.282667
521.119833
244.530439
121.100545
45.488477
30.112863
36.777854
51.177740
75.718760
95.713735
121.500492
138.408542
145.538449
143.155456
128.027797
108.188987
80.985427
60.358644
37.709475
26.479959
15.844703
11.231899
8.618832
7.694960
7.295609
7.674694
7.251501
7.895827
7.963777
8.462667
9.164810
9.951591
10.552406
11.112690
11.457801
11.771917
11.910796
11.810660
11.152625
11.173487
10.621548
10.662675
11.050701
10.686517
10.441542
10.439754
10.372996
10.171533
10.251999
10.533929
10.336637
10.823607
10.098815
10.559559
9.966493
9.912848
10.197759
##ZVALUE=295
0.909567
0.812411
0.891685
0.802875
0.919700
0.764728
1.008511
0.830889
0.849962
0.835657
0.974536
1.015663
1.141429
0.986457
1.108646
1.211762
1.290441
1.297593
1.245737
1.411438
1.497865
1.445413
1.601577
1.629591
1.624823
1.835823
2.042651
2.297759
2.730489
4.931688
17.569661
77.019930
186.906457
486.646891
814.510584
1015.752554
1015.752554
1015.752554
1015.752554
1015.752554
1015.752554
985.433459
682.104826
334.120989
173.716545
60.002804
29.941797
24.011731
30.936599
50.256848
68.895817
93.218684
113.087893
132.442713
139.775872
134.924650
123.944879
101.972818
82.355738
56.421757
40.883422
24.497509
16.646981
11.358857
9.091496
8.296967
8.054972
8.141994
8.485913
9.233952
9.633899
10.522604
11.278987
11.366606
11.005998
11.575818
11.311769
11.210442
11.010766
10.796785
10.691881
10.485649
10.838509
10.291934
10.184646
10.646582
10.231733
10.266900
10.230541
10.556579
10.589957
10.265708
10.202527
10.154843
9.964705
10.123849
##ZVALUE=300
0.722408
0.757575
0.700951
0.859499
0.717640
0.654459
0.750422
0.900626
0.876784
0.826716
0.880957
0.937581
0.911951
0.879765
0.969768
1.166463
1.003742
1.094937
1.027584
1.233816
1.167655
1.036525
1.316667
1.503825
1.421571
1.499653
1.776814
1.917481
2.305508
2.321601
2.692938
3.185868
12.370944
44.370890
157.011747
325.280428
703.494549
1015.710831
1015.710831
1015.710831
1015.710831
1015.710831
1015.710831
1015.710831
804.826617
497.677922
231.006742
117.955804
42.054653
21.367669
20.901561
28.292537
43.593645
61.279535
85.198879
104.615688
125.380754
130.998492
130.319595
120.981932
99.655986
80.978870
57.865977
41.972995
26.011467
17.978549
12.077689
10.199547
8.985996
9.333491
9.461641
10.276437
10.445714
10.684729
11.108518
10.792613
10.937452
10.566711
10.762811
10.757446
10.660887
10.538697
10.567904
10.668635
10.512471
10.376573
10.529757
10.238886
10.664463
10.014772
9.939671
10.141730
9.666681
10.334849
9.880662
10.102987
##ZVALUE=305
0.587702
0.914931
0.948906
0.824928
0.903606
0.847578
0.861883
0.859499
0.876784
0.905991
0.889897
0.993609
0.960827
0.841618
0.950694
0.946522
1.043677
0.987649
0.944734
1.004934
0.973940
1.114607
1.187921
1.278520
1.440644
1.273751
1.434684
1.523495
1.482964
1.877546
1.863837
2.174973
2.258420
2.829432
4.977584
31.135678
89.659691
272.535682
509.764552
957.233906
1015.726924
1015.726924
1015.726924
1015.726924
1015.726924
1015.726924
1011.046767
629.820824
374.953747
161.336660
75.179935
25.846958
16.142726
19.077659
26.985407
43.181777
60.228705
83.227754
100.877881
118.783712
124.499798
123.979449
115.287900
95.931888
78.470707
55.634975
40.353537
26.387572
18.708706
13.239980
11.546612
11.119843
10.936856
10.562539
11.164546
10.662675
10.965466
10.659695
11.013746
10.794997
10.742545
10.812879
10.369420
11.129975
10.469556
10.705590
10.716915
10.326505
10.429621
10.074973
10.622740
10.060668
10.253787
10.212660
10.004640
10.138750
##ZVALUE=310
0.802875
0.664592
0.777841
0.667572
0.653863
0.651479
0.754595
0.741482
0.870824
0.929832
0.838637
0.880957
0.930429
0.896454
1.036525
0.888705
1.013875
0.989437
0.819564
0.885725
1.136661
0.948906
0.944734
1.158714
1.275539
1.304746
1.350641
1.270771
1.504421
1.486540
1.387596
1.807809
1.798868
2.225637
2.305508
2.631545
3.160834
14.066696
48.126578
169.707537
342.828631
740.512609
1015.710831
1015.710831
1015.710831
1015.710831
1015.710831
1015.710831
1015.710831
869.668722
554.880500
265.255570
137.494802
49.297810
20.631552
14.128685
16.880631
25.198460
36.066771
55.015683
71.167946
93.912482
108.538866
119.849443
118.896961
108.775496
96.888542
76.141953
59.171915
39.876699
29.166937
19.862652
16.168952
12.849569
12.177825
11.362433
10.965466
10.826588
10.732412
10.444522
10.450482
10.501742
10.644794
10.485649
10.926723
10.648966
10.896921
10.138750
10.595918
10.726452
10.472536
10.185838
9.993911
10.098815
10.045767
9.785891
##ZVALUE=315
0.621676
0.730753
0.553727
0.643730
0.623465
0.706911
0.732541
0.806451
0.638962
0.794530
0.729561
0.759959
0.758767
0.805855
0.907779
0.858903
0.783801
0.991821
0.907779
0.845790
0.911951
1.085997
1.062751
1.075864
1.044869
1.224875
0.892878
1.154542
1.234412
1.306534
1.394749
1.358986
1.678467
1.597404
1.836419
1.822710
2.240539
2.585649
2.914667
5.225539
33.906698
100.272894
302.612782
558.188558
1002.017856
1015.710831
1015.710831
1015.710831
1015.710831
1015.710831
1015.710831
1015.710831
675.784945
410.399437
189.930797
90.367794
26.393533
13.268590
12.864470
15.565753
22.694468
32.826662
50.110817
66.708922
88.723898
102.140903
112.157464
112.676620
103.616714
91.412663
70.979595
57.055950
40.378571
29.077530
19.793510
15.534759
12.502670
10.953546
10.715723
10.736585
10.359883
10.431409
10.620952
10.635853
10.431409
10.678768
10.898709
10.309815
10.646582
10.644794
10.294914
10.237694
10.193586
10.068417
9.849668
10.199547
##ZVALUE=320
0.639558
0.678897
0.520945
0.636578
0.685453
0.634789
0.656843
0.695586
0.619888
0.528693
0.806451
0.749826
0.763535
0.852942
0.746846
0.892878
0.771880
0.832677
0.764728
0.929832
0.890493
0.794530
0.810623
0.952482
0.805855
0.984669
1.018643
1.169443
1.112819
1.181960
1.367927
1.423955
1.415610
1.235604
1.531839
1.494884
1.647472
1.963973
2.159476
2.233982
2.685785
3.728867
12.352467
70.541501
187.757611
500.077605
828.303695
1015.710831
1015.710831
1015.710831
1015.710831
1015.710831
1015.710831
1015.710831
955.771804
512.836576
282.816887
118.828416
53.690672
16.529560
11.163950
11.411905
14.447570
21.082759
30.377507
46.541691
61.272979
82.170963
95.568895
106.556416
107.643604
100.277662
89.494586
70.508718
54.929852
38.002729
27.864575
18.905997
15.042424
11.856556
11.130571
10.906458
10.608435
10.749698
10.593534
10.686517
10.428429
10.404587
10.709763
10.135770
10.256767
10.103583
10.193586
10.093451
10.083914
9.815693
##ZVALUE=325
0.405908
0.475645
0.559688
0.477433
0.412464
0.482798
0.561476
0.526905
0.530481
0.440478
0.454783
0.630617
0.494719
0.541806
0.572801
0.685453
0.575781
0.638962
0.546575
0.671744
0.595450
0.705719
0.664592
0.461936
0.692606
0.757575
0.755787
0.722408
0.871420
0.831485
0.992417
0.938773
1.303554
1.116991
1.057982
1.290441
1.186728
1.423955
1.400709
1.747608
1.783967
2.060533
2.301931
2.759695
6.453991
44.131875
117.947459
315.853953
581.036806
1015.512943
1015.512943
1015.512943
1015.512943
1015.512943
1015.512943
1015.512943
1015.512943
642.440915
380.875468
166.632533
77.838898
22.967458
11.673570
10.232925
10.790825
14.168620
19.584894
30.676723
43.283701
63.309669
77.875853
92.415810
100.102425
102.164745
95.861554
79.421997
67.104697
49.157739
37.107468
24.374723
18.178821
13.457537
12.126565
10.989904
10.500550
10.340810
10.079741
10.206699
10.155439
10.480881
9.964705
9.755492
9.928942
9.683967
9.684563
9.593964
##ZVALUE=330
0.687838
0.746846
0.529885
0.595450
0.540614
0.699759
0.645518
0.783801
0.668764
0.618696
0.639558
0.641942
0.677705
0.733733
0.742674
0.756979
0.766516
0.862479
0.826716
0.770688
0.776649
0.943542
0.801682
0.786781
0.822544
0.918508
0.782609
0.852942
0.944734
1.057982
1.140833
1.030564
1.257658
1.212955
1.317859
1.225471
1.385808
1.364946
1.494884
1.536608
1.379848
1.899600
1.919866
2.161860
2.420545
2.879500
3.900528
20.428896
65.668821
214.816928
423.632860
863.811970
1015.712023
1015.712023
1015.712023
1015.712023
1015.712023
1015.712023
1015.712023
838.425756
524.118543
239.172578
120.711923
40.610433
16.294718
10.037422
10.200739
10.969639
13.936758
20.761490
28.913617
43.269992
56.718588
75.403452
86.382627
94.169974
95.484853
88.008642
77.321529
60.224533
47.833920
32.766461
25.228858
18.576980
15.010834
11.914968
10.995865
10.331869
10.233521
10.128617
10.055900
9.569526
9.808540
9.859800
9.744763
9.602904
##ZVALUE=335
0.552535
0.583529
0.649691
0.671744
0.653863
0.740886
0.489950
0.645518
0.709891
0.747442
0.525713
0.683665
0.603795
0.627637
0.683665
0.652671
0.651479
0.790954
0.945926
0.777841
0.810623
0.776649
0.730753
0.668764
0.938773
0.828505
0.924468
0.994802
1.040697
1.031756
0.862479
0.912547
1.014471
1.146793
1.069903
1.228452
1.195669
1.009703
1.237988
1.298785
1.394749
1.579523
1.620650
1.716614
1.938939
1.993775
2.365708
2.597570
3.194809
9.232759
35.486817
139.447451
295.837522
664.972663
1007.920504
1015.710831
1015.710831
1015.710831
1015.710831
1015.710831
1015.710831
1014.705896
724.113584
374.727845
193.294883
61.240792
23.609996
11.331439
10.421872
10.755658
11.605620
14.873743
19.110441
29.670596
40.166974
56.556463
68.689585
81.432462
87.689757
89.046955
84.735751
70.843697
60.170889
45.592785
35.476685
24.244785
18.985868
14.469624
12.061596
10.671616
9.988546
9.712577
9.619594
9.642839
9.369850
9.091496
##ZVALUE=340
0.472665
0.684857
0.768900
0.580549
0.657439
0.630617
0.707507
0.493526
0.669956
0.685453
0.549555
0.716448
0.584722
0.557899
0.385642
0.681877
0.488758
0.648499
0.752807
0.847578
0.816584
0.690818
0.762939
0.803471
0.744462
0.746846
0.813603
0.786781
0.764728
0.932813
1.007915
0.933409
0.972748
0.910759
0.945926
1.044869
1.077652
1.173615
1.158714
1.227856
1.253486
1.381636
1.503825
1.597404
1.621842
1.805425
1.791716
2.053976
2.417564
2.564788
2.717972
5.172491
18.368959
94.356537
225.328803
564.461946
952.509642
1015.712023
1015.712023
1015.712023
1015.712023
1015.712023
1015.712023
1015.712023
941.209793
476.884842
257.905722
96.868873
36.449432
12.973547
10.711551
10.678768
10.974407
11.922717
14.357567
20.100474
26.836991
39.285421
51.529408
67.436695
76.446533
83.836913
83.603859
79.027414
71.305633
57.460666
46.706796
33.486485
25.909543
18.556714
14.392734
11.363626
10.253787
9.547472
9.359717
9.243488
##ZVALUE=345
0.514984
0.656843
0.583529
0.575781
0.518560
0.618696
0.711679
0.549555
0.518560
0.559688
0.579953
0.546575
0.670552
0.673532
0.640750
0.701547
0.741482
0.703931
0.706911
0.703931
0.785589
0.785589
0.576973
0.722408
0.731945
0.772476
0.874996
0.897646
0.729561
0.756979
0.851750
0.825524
0.760555
0.801682
0.972748
0.949502
0.902414
1.097918
1.023412
1.073480
1.229644
1.081824
1.391768
1.388788
1.408458
1.443624
1.588464
1.640916
1.728535
1.846552
2.127886
2.587438
2.657771
3.264546
7.793903
51.711798
145.469904
387.023687
697.345734
1015.716791
1015.716791
1015.716791
1015.716791
1015.716791
1015.716791
1015.716791
1015.716791
689.218640
384.320617
145.293474
61.087608
19.114614
11.948943
10.588765
10.274649
10.592937
10.984540
13.209581
16.920567
25.194883
34.462810
48.993826
58.343410
69.321990
75.371861
77.120662
73.995590
65.832734
56.502819
43.730736
34.505725
24.293661
18.635988
14.329553
11.467934
9.957552
##ZVALUE=350
0.591874
0.758767
0.655651
0.708699
0.642538
0.604987
0.669956
0.752807
0.753999
0.707507
0.541806
0.708699
0.611544
0.738502
0.721812
0.684857
0.927448
0.768900
0.525713
0.643730
0.791550
0.785589
0.547767
0.819564
0.757575
0.774860
0.803471
0.834465
0.879765
0.828505
0.752807
0.726581
0.826716
0.949502
0.910759
1.080632
1.031756
1.029968
0.999570
1.058578
1.129508
1.103878
1.188517
1.220703
1.142621
1.280904
1.489520
1.533628
1.722574
1.604557
1.872778
2.066493
2.175570
2.619624
2.724528
2.976656
4.587770
27.748942
93.282461
294.770002
563.934445
1015.716791
1015.716791
1015.716791
1015.716791
1015.716791
1015.716791
1015.716791
1015.716791
950.312614
571.439862
240.265727
100.871921
25.992990
12.804866
10.497570
10.059476
9.279847
9.276867
10.182858
11.588931
16.488433
22.328496
32.443404
40.753484
53.698421
61.920881
69.104433
71.125627
69.250464
63.012838
52.112937
42.786002
32.705665
24.992824
18.232465
##ZVALUE=355
0.704527
0.654459
0.740886
0.766516
0.824928
0.782609
0.717640
0.819564
0.912547
0.812411
0.605583
0.734925
0.537634
0.749826
0.628829
0.864863
0.740886
0.683665
0.791550
0.810623
0.693798
0.742674
0.797510
0.759959
0.814795
0.798702
0.821948
0.885725
0.905991
1.070499
0.919700
1.003742
1.053810
0.955462
1.090765
1.237988
0.951886
1.111627
1.132488
1.081824
1.201630
1.268983
1.201630
1.260638
1.568794
1.365542
1.410842
1.447797
1.622438
1.736879
1.638532
1.886487
2.084970
2.006888
2.239943
2.510548
2.736449
3.215671
3.665686
13.476610
51.403642
203.186274
416.053534
905.305743
1015.708447
1015.708447
1015.708447
1015.708447
1015.708447
1015.708447
1015.708447
1015.709043
819.644928
335.967541
145.276785
38.395524
16.041994
10.572672
9.712577
9.131432
9.119511
9.287596
9.730458
11.300445
13.849735
20.044446
26.600957
36.785603
45.312643
55.605769
61.181784
65.009594
63.736439
56.998730
49.956441
39.958954
##ZVALUE=360
0.676513
0.646710
0.742674
0.699759
0.624657
0.766516
0.789762
0.890493
0.826716
0.762939
0.680685
0.688434
0.749826
0.842810
0.964999
0.915527
0.825524
0.977516
0.910759
0.851750
0.923872
0.919700
0.809431
0.713468
0.825524
0.847578
1.052618
0.983477
0.995994
0.890493
1.065731
0.915527
1.115799
1.031756
1.014471
1.069903
1.098514
0.938773
1.130700
1.075864
1.256466
1.188517
1.185536
1.152754
1.362562
1.416802
1.478791
1.257658
1.231432
1.526475
1.573563
1.795888
1.837611
1.869798
2.097487
2.184510
2.426505
2.514720
2.712607
3.111959
3.651977
5.023479
27.197599
90.620518
300.416350
582.173467
1015.744805
1015.744805
1015.744805
1015.744805
1015.744805
1015.744805
1015.744805
1015.744805
855.849981
485.830903
187.117457
74.090958
20.112991
10.690689
9.443760
8.872747
8.485913
8.347631
8.606911
8.816719
9.955764
11.847615
17.149448
22.094846
31.234622
39.087534
48.308969
53.995848
58.214664
58.849454
##ZVALUE=365
0.606775
0.600815
0.645518
0.735521
0.760555
0.762939
0.614524
0.672936
0.690818
0.777841
0.792742
0.520945
0.554919
0.644922
0.671744
0.740886
0.754595
0.849962
0.560880
0.956655
0.742674
0.783801
0.801682
0.755787
0.686646
0.740886
0.990629
1.047850
0.960827
0.900626
0.927448
0.925660
1.048446
1.086593
1.000762
1.088977
0.912547
0.988841
1.005530
1.092553
1.060963
1.039505
1.156926
1.383424
1.261830
1.181960
1.093745
1.227856
1.371503
1.239777
1.332760
1.490712
1.366735
1.794696
1.654625
1.792908
1.959801
1.969934
2.325773
2.313852
2.556443
3.157854
3.407598
4.113913
9.205937
57.155490
156.471729
415.459871
770.385861
1015.710831
1015.710831
1015.710831
1015.710831
1015.710831
1015.710831
1015.710831
1015.710831
611.591935
317.824483
106.823444
40.245652
12.400746
9.205937
8.242726
8.003712
7.868409
7.424951
7.237792
7.640719
8.479953
10.040998
14.004707
18.286705
26.475787
33.864975
41.942596
##ZVALUE=370
0.882745
0.777841
0.820756
0.724792
0.628829
0.709891
0.911951
0.935793
0.804663
0.786781
0.862479
0.819564
0.874996
0.842810
0.938773
0.809431
0.943542
0.952482
0.845790
0.884533
0.860691
0.819564
0.892878
0.948906
0.796914
0.892878
0.939965
0.955462
0.946522
0.917912
1.074672
1.031756
0.981688
0.912547
0.928640
1.143813
1.150966
1.062751
0.998974
1.250505
1.099706
1.045465
1.067519
1.346469
1.266599
1.402497
1.389980
1.243949
1.416802
1.376867
1.351833
1.261830
1.477599
1.522899
1.628995
1.805425
1.718998
1.845956
1.907945
1.980662
2.283454
2.589822
2.485514
2.750754
3.161430
3.603697
5.108714
26.806593
92.814565
307.090878
573.256612
1014.549732
1015.871763
1015.871763
1015.871763
1015.871763
1015.871763
1015.871763
1015.871763
744.360685
399.204493
145.471692
61.370730
19.811988
10.121465
8.097887
7.534623
7.508993
6.893873
6.755590
6.970763
7.038713
7.602572
9.090900
11.742711
16.531944
##ZVALUE=375
0.649691
0.449419
0.531673
0.550747
0.590682
0.726581
0.536442
0.556707
0.513792
0.567436
0.743866
0.607967
0.557899
0.780821
0.770688
0.561476
0.656843
0.563860
0.615716
0.708699
0.556707
0.755787
0.714660
0.709891
0.744462
0.795722
0.688434
0.772476
0.820756
0.733733
0.687838
0.795722
0.791550
0.672936
0.653863
0.720620
0.925660
0.803471
0.798702
0.755787
0.893474
0.917912
0.875592
0.903606
0.944734
1.004934
0.908971
1.106858
0.987649
1.130700
1.079440
1.191497
1.157522
1.185536
1.192689
1.225471
1.278520
1.287460
1.485944
1.634955
1.653433
1.645684
1.997948
1.990795
2.148747
2.534986
2.776980
3.352761
3.848672
13.652444
50.613880
187.841654
399.384499
876.649618
1015.712619
1015.712619
1015.712619
1015.712619
1015.712619
1015.712619
1015.712619
984.560847
623.518825
284.169912
131.029487
34.669638
13.076663
7.861853
7.199645
6.724596
6.272793
6.373525
6.232858
5.991459
6.172657
7.007718
##ZVALUE=380
0.400543
0.500679
0.499487
0.344515
0.460744
0.382662
0.549555
0.574589
0.508428
0.349879
0.429749
0.482798
0.268817
0.389814
0.445843
0.509620
0.426769
0.458956
0.575781
0.450611
0.562668
0.442863
0.495911
0.466704
0.414848
0.458956
0.590682
0.577569
0.608563
0.686646
0.577569
0.713468
0.597835
0.411868
0.507832
0.617504
0.630617
0.662804
0.603795
0.702739
0.759959
0.930429
0.788569
0.644922
0.742674
0.753999
0.761747
0.722408
0.621676
0.856519
0.962615
0.857711
1.032948
0.980496
0.919700
1.236796
1.146793
1.046658
1.123548
1.268983
1.318455
1.472831
1.640916
1.608729
1.720786
2.050996
2.168417
2.545714
2.775788
3.542900
3.986955
7.176995
29.142499
152.670741
362.900496
828.414559
1015.582681
1015.582681
1015.582681
1015.582681
1015.582681
1015.582681
1015.582681
1015.582681
957.599878
463.281870
224.478841
67.740679
22.929907
8.541942
7.121563
6.489754
6.209612
6.005764
5.816817
5.703568
##ZVALUE=385
0.323653
0.364780
0.477433
0.450611
0.335574
0.369549
0.463724
0.375509
0.359416
0.221729
0.335574
0.387430
0.311732
0.254512
0.399947
0.475645
0.524521
0.345707
0.362992
0.404716
0.439882
0.409484
0.186563
0.490546
0.512600
0.440478
0.458956
0.429749
0.331998
0.389814
0.485778
0.464916
0.557899
0.569820
0.517964
0.462532
0.537634
0.669956
0.521541
0.477433
0.653863
0.449419
0.672936
0.641942
0.527501
0.726581
0.554919
0.687838
0.651479
0.836849
0.820756
0.744462
0.901818
0.767708
0.954866
0.915527
0.967979
0.890493
0.956655
1.063943
1.193881
1.221895
1.217723
1.222491
1.628995
1.507998
1.988411
1.929998
2.332926
2.478957
2.919436
3.358722
3.556609
3.910661
15.999675
62.599778
248.205662
539.384484
1015.556455
1015.556455
1015.556455
1015.556455
1015.556455
1015.556455
1015.556455
1015.556455
970.351696
625.864863
272.580981
128.226876
37.964582
12.645721
6.676912
5.843639
5.435944
5.501509
##ZVALUE=390
0.349879
0.415444
0.333786
0.339746
0.367761
0.464916
0.389814
0.517964
0.502467
0.545979
0.447631
0.282526
0.377893
0.421405
0.514984
0.369549
0.360608
0.476837
0.423789
0.401735
0.537634
0.423789
0.491738
0.677705
0.493526
0.578761
0.460744
0.667572
0.503659
0.283718
0.505447
0.520945
0.475645
0.572801
0.500679
0.490546
0.520945
0.716448
0.651479
0.595450
0.698566
0.611544
0.699759
0.678897
0.709891
0.770688
0.746846
0.717640
0.574589
0.678897
0.811815
0.787973
0.710487
0.823736
0.805855
1.006722
0.803471
0.974536
0.947714
1.034737
1.204610
1.213551
1.204610
1.341701
1.177788
1.250505
1.457930
1.686811
2.160668
2.373457
2.478957
2.498627
2.568960
2.739429
2.944469
3.341436
5.846620
36.942959
122.551918
399.037600
753.477812
1015.646458
1015.646458
1015.646458
1015.646458
1015.646458
1015.646458
1015.646458
1015.646458
783.888698
437.215567
171.333551
74.130893
18.138885
7.725954
5.915761
##ZVALUE=395
0.409484
0.459552
0.558496
0.386834
0.435710
0.417829
0.545979
0.522733
0.550747
0.383854
0.391603
0.601411
0.548959
0.499487
0.499487
0.373721
0.430942
0.636578
0.504851
0.565648
0.521541
0.548959
0.477433
0.427961
0.415444
0.351667
0.531673
0.450611
0.602603
0.542998
0.560880
0.643730
0.600815
0.666976
0.522733
0.515580
0.543594
0.716448
0.773668
0.731945
0.695586
0.729561
0.653863
0.592470
0.622869
0.710487
0.841618
0.755787
0.898838
0.774860
0.908971
0.661612
0.835657
0.795722
0.807643
0.811815
0.903606
0.965595
1.083612
1.072884
1.212955
1.103878
1.144409
1.123548
1.113415
1.225471
1.587868
1.748800
1.839995
2.053976
2.247691
2.190471
2.336502
2.416968
2.455711
2.439618
2.695918
3.064871
4.395843
16.177893
97.603798
240.839720
570.070744
943.894982
1015.698910
1015.698910
1015.698910
1015.698910
1015.698910
1015.698910
1015.698910
964.643955
497.316718
256.503820
91.629624
37.539601
##ZVALUE=400
0.452995
0.509620
0.464916
0.504851
0.379682
0.518560
0.448823
0.420809
0.574589
0.474453
0.472665
0.574589
0.494719
0.514984
0.415444
0.526905
0.485778
0.555515
0.489950
0.499487
0.454783
0.594854
0.572801
0.580549
0.485778
0.485778
0.581741
0.598431
0.455976
0.643730
0.653863
0.629425
0.556707
0.575781
0.475645
0.745654
0.637770
0.639558
0.520945
0.629425
0.643730
0.677705
0.585914
0.601411
0.644922
0.687838
0.697970
0.830889
0.829697
0.829697
0.854731
0.893474
0.892878
0.730753
0.775456
0.805855
0.813603
0.762939
0.847578
1.064539
0.910759
1.177788
1.142621
1.096725
1.037717
1.281500
1.468658
1.506805
1.668930
1.781583
2.129674
1.908541
1.943707
1.854897
1.982450
2.169609
2.140999
2.251863
2.578497
2.693534
3.269911
9.295940
36.924481
153.186917
340.286493
753.215551
1015.710831
1015.710831
1015.710831
1015.710831
1015.710831
1015.710831
1015.710831
1007.148623
695.336461
343.583822
##END
