##TITLE=QP00601
##FORMAT=SPECTACLE-ASCII V-1.2
##DATA TYPE=ULTRAVIOLET SPECTRUM
##SECOND TYPE=ULTRAVIOLET SPECTRUM
##DATE=02/28/18
##TIME=18:17:46
##SPECTROMETER/DATA SYSTEM=SPECTACLE
##XUNITS=NM EM
##YUNITS=ENERGY
##YFACTOR=1
##FIRSTX=220
##LASTX=410
##NPOINTS=96
##3DDATA=Equidistant
##ZUNITS=NM EX
##FIRSTZ=210
##LASTZ=400
##ZPOINTS=39
##XYDATA=(Y..Y)
##ZVALUE=210
2.340674
1.897812
2.125502
2.556443
2.870560
3.097653
2.492666
2.679825
2.274513
2.577901
3.076792
2.162457
2.652407
2.675653
2.296567
2.347827
2.551675
2.269745
3.199577
3.149509
3.058910
3.700852
3.731847
3.510714
3.776550
3.571510
4.537702
4.074574
4.080534
4.118681
3.363490
4.213452
4.356503
4.897714
4.689693
5.262494
5.076528
5.208850
5.043745
5.093813
4.894733
5.695820
5.292892
5.355477
5.078912
4.949570
4.714727
5.212426
6.611943
5.946755
6.478429
5.887747
6.567836
7.001758
6.848574
6.822944
6.883740
6.757975
5.844831
6.680489
7.291436
6.240606
6.538630
6.902814
7.446408
6.994605
7.464886
8.993745
9.859800
10.668635
13.490915
13.776422
17.332435
17.971992
19.465685
19.560456
20.778775
19.412637
20.348430
18.707514
15.285611
14.346838
13.979673
11.514425
10.664463
9.882450
7.978678
7.516742
6.981492
6.746650
6.281734
6.094575
7.497668
7.706881
7.622838
7.521510
##ZVALUE=215
5.345941
5.565882
6.091595
5.021691
4.407763
4.248619
4.186630
4.503727
5.004406
5.526543
4.951954
4.795790
3.675818
3.513694
2.973676
3.228784
2.887845
2.780557
3.101826
3.664494
2.980828
3.629923
3.495812
4.240870
3.767610
4.060864
3.872514
4.573464
4.335642
4.021525
4.077554
4.478693
4.626513
4.340410
4.394650
4.935861
5.434752
5.305409
5.311966
5.419850
5.999804
5.832911
5.537868
6.186962
5.510449
6.510615
5.703568
6.073713
5.985498
6.197691
6.662607
6.593466
4.977584
7.219911
6.036758
6.534457
6.255507
6.619692
7.436872
5.534887
7.031560
6.851554
6.146431
6.202459
7.261634
7.051826
6.948709
8.123517
9.566545
10.555983
11.714697
14.610887
17.248988
18.169880
18.798709
19.655824
17.805696
18.805861
17.492771
17.600656
15.236735
15.172958
10.566711
12.487769
9.963512
9.177923
8.816719
7.039905
7.456541
8.136630
7.861853
6.891489
7.766485
6.455779
6.919503
6.722808
##ZVALUE=220
19.269586
18.677711
19.403696
21.529794
18.095970
17.870665
14.231801
12.151599
11.332631
10.880828
12.184978
12.663603
11.901855
10.229945
10.240674
7.774830
5.308986
4.672408
4.082918
3.762841
3.019571
4.048944
3.365874
3.916621
3.974438
4.894733
4.973412
5.006790
5.198717
4.708767
4.615784
4.789829
5.585551
4.831553
5.007982
6.656647
5.831718
5.392432
5.013943
5.787611
5.368590
6.078482
5.498528
6.840825
6.487966
6.487966
6.201863
7.183552
6.035566
6.879568
6.174445
6.463528
6.408691
6.539822
7.263422
7.081628
7.162690
7.915497
7.213950
7.588863
7.500648
7.353425
6.775856
9.567738
7.964969
7.859468
8.203983
9.245872
11.410713
12.214780
12.461543
15.030503
18.066764
19.398928
19.649863
22.182465
21.018982
21.151900
18.822551
17.575622
16.490817
15.956759
14.618635
13.342500
11.509657
10.918975
10.265708
9.375811
9.145737
8.187890
8.537769
8.221865
8.596778
8.413792
8.211732
9.070635
##ZVALUE=225
31.432509
33.196807
43.189526
56.944489
59.871674
62.681437
58.216453
46.754479
37.498474
31.486750
23.699999
24.322867
26.355982
27.997494
25.120974
23.317933
18.164515
17.095804
13.826489
9.305477
6.784797
4.846454
4.597902
4.780889
4.682541
4.410744
5.372763
5.261898
6.220937
4.735589
5.569458
5.686879
5.481839
5.827546
6.087422
5.551577
6.575584
6.039739
6.327629
7.080436
6.829500
7.106662
7.443428
6.255507
7.343888
6.825924
6.864667
7.860661
6.802678
6.406903
7.604957
7.450581
7.434487
6.744862
8.806586
8.568764
7.604957
8.178949
8.959770
9.612441
8.882880
7.932782
7.669926
8.647442
9.874701
10.140538
10.484457
10.909438
12.908578
12.405515
15.413761
16.164780
18.208623
17.854571
20.324588
22.548437
19.895434
19.302964
17.858744
17.166734
19.258857
17.165542
17.000437
14.487505
13.486743
13.461709
12.298822
12.521744
12.636781
13.316870
10.707974
11.648536
12.360811
11.457801
10.272861
9.844899
##ZVALUE=230
27.713776
30.341744
47.674775
86.478591
108.954906
139.442682
157.658458
158.474445
146.806836
121.179819
86.238980
65.434575
47.665834
45.003891
47.606826
51.342845
52.162409
50.729513
44.225454
37.060976
26.710629
17.531514
12.387633
6.769896
5.529523
6.089807
5.216599
5.135536
4.961491
6.245971
5.303621
6.240606
7.345676
6.208420
6.369948
6.713867
6.389618
6.443858
7.644892
6.983876
8.120537
6.933808
7.346869
6.650686
8.035898
6.310940
8.016825
7.595420
6.713867
8.096695
8.660555
7.563829
7.817745
8.134842
9.043813
9.331703
9.787679
10.038614
9.938478
10.532737
10.547638
10.791421
11.702776
11.005998
11.976957
12.531877
13.360977
12.091994
13.941526
15.920997
17.794967
19.850731
21.001697
22.651553
24.116635
24.355650
25.362968
24.101734
24.515986
22.672415
23.457408
21.897554
20.852685
19.347668
18.788576
18.554926
17.391443
17.799735
17.510653
18.093586
17.814636
16.861558
17.069578
16.614795
17.296672
16.791821
##ZVALUE=235
9.722710
24.209619
26.286840
57.317615
152.056813
160.763860
269.261003
279.689431
315.985680
306.308866
223.127604
222.356915
132.075548
110.259652
68.967938
69.487691
69.633722
80.778003
83.843470
80.324411
77.199936
61.004758
52.841902
33.576488
23.985505
14.592409
9.656549
7.929802
6.050467
6.488562
6.055832
5.993843
6.772876
6.347895
6.312728
6.629825
6.197691
7.475615
6.349683
6.751418
6.587505
7.041693
7.186532
7.386804
7.937551
7.629991
7.125735
7.322431
7.645488
7.668734
6.786585
8.659959
8.343458
8.743405
9.165406
9.023547
10.068417
9.627938
11.348724
10.905862
10.631680
11.867881
13.359785
12.392998
13.104677
14.067888
15.031695
15.949607
17.193556
18.110871
20.903945
22.737980
24.176836
26.020408
26.313663
27.894974
26.650429
28.096437
27.322769
27.876496
26.617646
24.860501
24.962425
24.921894
23.881793
25.577545
23.741722
21.979809
24.012923
24.632812
23.846626
24.584532
24.206638
22.885799
23.150444
22.227764
##ZVALUE=240
2.411604
2.828836
4.673600
17.522573
38.070679
86.631775
144.871473
249.079466
335.998535
420.259833
500.852466
496.587753
454.027653
384.858847
295.356512
208.820701
135.923624
109.031796
98.553896
104.917884
115.126967
121.254921
120.746493
107.837915
88.323951
65.789819
49.532652
31.361580
21.118522
14.245510
11.119843
9.161830
7.348657
7.682443
8.312464
7.893443
8.328557
7.218719
7.556677
7.342696
7.611513
7.734895
7.434487
7.185936
7.277727
8.165836
8.442998
8.901954
8.413792
8.612871
8.150935
9.083748
8.505583
9.715557
9.353757
9.849668
9.338856
10.682940
11.347532
13.087988
12.216568
12.352467
13.625622
14.787912
15.771985
17.041564
15.806556
19.671917
19.654632
22.268891
24.255514
24.598837
28.533936
30.266643
31.467676
32.188892
32.735467
31.589866
31.793714
32.859445
30.411482
31.607747
30.772686
29.851794
30.935407
30.052662
30.668974
31.557679
30.303597
31.506419
31.136870
30.985475
29.816628
30.196905
29.476881
29.769540
##ZVALUE=245
1.892447
1.924634
1.801848
1.326799
3.970861
11.437535
35.652518
77.286959
167.584419
261.686444
411.565900
523.877740
601.289868
640.412569
612.993836
518.433452
420.567393
283.041000
203.114748
134.820938
106.586814
103.561878
118.828416
131.114721
140.860677
132.191777
115.439892
99.947453
75.244904
57.091713
40.098429
24.151802
16.871691
10.390878
8.956790
8.284450
8.000731
7.344484
7.530451
7.197857
7.904768
7.592440
7.351637
6.686449
6.986856
8.133650
7.348657
7.737875
7.759929
8.231997
7.027984
7.426739
8.025765
7.727742
7.834435
8.965731
9.024739
9.140968
10.347962
9.582639
10.332465
11.691451
12.460947
12.972951
13.289452
15.598536
15.582442
18.101931
18.275976
19.933581
23.145676
24.271607
26.081800
28.072000
30.611753
29.999614
31.178594
33.041835
32.266974
29.643774
29.888749
31.122565
31.109452
30.334592
31.142831
31.518936
30.477643
31.411648
31.691790
30.151606
29.582977
30.626655
29.722452
29.747486
30.355453
30.758977
##ZVALUE=250
1.512766
1.483560
1.454949
1.546741
1.749992
2.125502
2.257824
7.444620
29.847622
65.185428
154.966712
254.045725
380.728841
546.319485
665.533543
735.958815
740.811825
659.389496
553.207994
395.091772
270.707607
181.835890
114.511847
99.145770
110.713840
126.222968
142.949820
144.877434
137.470961
130.374432
105.639696
80.235004
60.246587
36.937594
25.445819
14.296770
10.744929
8.044839
7.083416
6.542802
6.905794
6.196499
7.302761
6.927848
6.370544
6.850958
6.450415
7.174611
6.932616
6.561875
7.173419
6.948709
6.912947
7.772446
7.217526
7.836819
7.450581
8.037686
8.222461
8.686781
10.423660
10.338426
9.793639
11.174679
11.853576
11.580586
14.311671
13.906956
15.953779
18.143654
19.316673
20.618439
22.766590
24.301410
26.790500
27.668476
27.267933
27.204752
27.778745
29.730797
28.804541
28.843880
28.379560
27.311444
28.822422
26.593804
28.441548
28.236508
28.887987
29.147863
28.230548
27.832985
27.406812
28.546453
29.268861
27.484894
##ZVALUE=255
1.354814
1.327991
1.367927
1.466870
1.195669
1.431704
1.736879
1.753569
1.904964
3.808737
20.069480
51.057935
101.911426
227.026939
353.560448
545.375943
682.838559
818.193555
853.354931
798.165798
693.029761
547.510982
347.232819
230.624676
130.936503
99.877715
96.127987
107.267499
130.691528
144.410729
154.277682
147.709846
133.980513
108.038783
84.594488
54.636002
37.499666
21.283627
14.864802
9.271502
7.079840
6.800890
6.935596
6.355643
6.194711
5.750656
7.153749
5.981922
7.288456
6.376505
6.446838
5.641580
7.387996
6.467700
6.960630
7.749796
7.189512
7.805824
7.824898
8.362532
8.135438
9.422898
8.385777
10.245442
10.117888
11.943579
12.396574
14.145970
14.160872
15.738606
16.487837
18.455982
20.139813
22.073984
23.587942
23.457408
24.192929
24.858713
24.960637
25.075674
26.351810
26.073456
26.221871
26.238561
25.353432
26.770830
27.103424
25.787950
25.741458
25.627613
25.606751
26.582479
26.199818
26.448965
27.753711
26.698709
##ZVALUE=260
1.090765
0.832677
1.017451
1.365542
1.389980
1.476407
1.448989
1.545548
1.544952
1.843572
1.618862
2.749562
7.587671
32.159686
74.617863
186.257958
306.616426
506.999493
671.826005
879.492760
968.052745
977.753997
858.399868
699.871778
462.105870
315.234661
183.183551
114.274621
84.257722
87.445974
110.668540
131.127834
148.662925
158.147812
152.618885
135.080814
114.346743
82.311630
60.514808
36.569834
25.023818
14.179945
9.943843
7.037520
6.615520
6.632805
6.178617
6.252527
6.119609
6.985664
6.628633
6.911755
6.295443
6.436706
7.622838
6.900430
7.003546
7.354617
7.634759
8.055568
8.189678
8.493662
8.736849
9.677410
9.980798
10.943413
10.827780
12.321472
13.157725
13.901591
15.525818
17.696619
18.295646
19.759536
21.348596
21.443963
22.004843
21.746755
22.529960
22.567511
22.990704
23.700595
22.777915
24.149418
23.184419
22.984743
23.633838
24.517775
24.156570
24.524927
25.082827
24.696589
24.489760
25.033951
25.711656
25.682449
##ZVALUE=265
1.191497
1.288652
1.404881
1.062751
1.151562
1.321435
1.274943
0.920892
1.202822
1.339912
1.381636
1.424551
1.941919
1.935959
4.342794
23.065805
55.915713
142.356753
256.278515
482.821465
686.782598
878.961682
1015.710831
1015.710831
1001.095772
867.283940
636.726618
447.693467
251.764655
154.910684
98.593831
74.426532
84.070563
115.692616
135.873556
154.974461
160.462856
152.924657
136.449933
108.551979
85.425973
55.286884
38.337708
22.548437
14.782548
8.562803
7.508993
6.929636
6.985664
6.791949
6.629825
6.892681
6.647706
6.814599
7.077456
6.733537
7.490516
7.378459
7.092953
7.982850
8.431673
7.867813
8.529425
9.486675
9.178519
10.427833
10.808706
11.845827
12.742877
14.159679
15.759468
16.169548
17.136931
18.236637
19.374490
19.946694
20.172596
20.286441
20.597577
21.406412
21.926761
21.804571
22.479892
21.768808
21.963716
22.372603
22.608638
23.776889
22.423863
23.133755
23.551583
23.118854
23.992658
23.747683
24.296641
24.049878
##ZVALUE=270
0.957847
0.941753
0.996590
1.080632
0.993609
1.176596
1.193881
1.137853
1.441836
1.168847
1.319647
1.279712
1.512766
1.755953
1.564622
1.782775
2.318621
10.238886
31.099916
103.732944
205.867887
365.782976
641.466975
862.193704
1015.710831
1015.710831
1015.710831
1011.512876
797.068477
596.551895
407.873988
214.594007
123.930573
68.587661
65.353513
87.090731
110.947490
139.366984
153.182745
162.113905
154.978633
135.967731
113.062859
82.674623
59.523582
35.154819
24.397969
15.621781
10.245442
7.456541
7.019639
7.552505
7.011890
6.588697
7.309914
7.529855
7.491708
7.434487
7.749796
7.464886
8.509755
8.193851
8.369684
9.206533
9.373426
10.012984
10.005832
11.552572
12.041926
12.313724
13.943911
14.671683
15.662909
17.060637
18.119812
18.154979
18.853545
19.142628
19.635558
20.418763
19.749999
20.477772
20.145774
20.993948
20.848513
21.745563
20.668507
21.303892
21.468997
21.473765
21.933913
22.028685
21.741986
21.726489
22.103786
22.299886
##ZVALUE=275
0.997782
0.914931
0.982881
0.977516
1.077652
0.977516
1.074672
1.255870
1.083612
0.999570
1.463890
1.180768
1.410842
1.504421
1.271963
1.422763
1.400709
1.915693
1.975894
4.496574
16.945601
68.543553
151.918530
349.231958
559.996963
866.255760
1015.710831
1015.710831
1015.710831
1015.710831
997.912884
720.031857
499.603748
272.545815
156.337619
75.232983
54.787993
63.936710
81.960559
113.170743
133.308768
153.734684
158.749819
150.970817
137.183666
108.585954
86.132884
56.276917
40.860772
24.652481
16.818643
10.855794
8.893609
7.547736
7.230639
7.723570
7.467866
7.684827
8.057952
7.959604
8.795857
9.007454
9.703636
9.671450
9.805560
10.280609
10.949969
11.433959
12.390614
13.424754
14.186502
15.678406
16.437769
16.794801
17.390847
18.563867
18.820763
19.106865
19.379854
18.955469
19.589663
20.020604
19.971728
19.696951
20.179749
21.092892
20.937920
20.802617
20.396709
20.716786
20.591617
20.948648
20.477772
21.204948
20.742416
21.559000
##ZVALUE=280
0.959635
0.850558
0.971556
0.979900
0.912547
1.012683
0.920892
0.997782
1.112819
1.032948
0.984669
1.095533
1.233816
1.233816
1.385808
1.391768
1.318455
1.651645
1.692772
1.778603
1.925826
2.492666
12.791753
42.163730
132.862926
249.465704
476.557016
704.900622
993.852019
1015.710831
1015.710831
1015.710831
1015.710831
889.299512
645.377636
359.318852
215.620995
97.067952
54.631829
45.092702
57.608485
84.662437
106.927752
134.080648
148.014426
154.476762
149.564743
132.277608
111.267567
81.686974
61.237812
39.403439
24.965405
15.695691
11.076927
8.035898
8.256435
8.090734
8.330941
8.295774
8.857846
8.919835
9.623766
9.836555
10.664463
10.316968
11.053681
11.712909
12.407899
13.199449
14.004707
15.372634
16.042590
17.102957
17.309785
17.721653
17.795563
18.077493
19.254684
18.145442
19.025803
19.383430
19.049644
18.963814
19.440651
20.272732
20.065904
20.258427
20.421743
20.349622
19.732714
20.236969
20.252466
20.650625
20.385981
20.481944
##ZVALUE=285
0.809431
0.982881
0.933409
0.945926
0.745654
0.898838
0.940561
0.928640
0.935793
1.024604
1.021624
0.946522
1.095533
1.040697
1.270771
1.202822
1.102686
1.152754
1.422763
1.447797
1.446605
1.664758
1.819730
1.819730
6.046891
22.217631
76.813698
167.940855
366.995931
575.756431
832.144618
1015.712023
1015.712023
1015.712023
1015.712023
1015.712023
844.596624
517.505407
316.926837
144.502521
74.250698
37.204623
36.964417
56.780577
76.726675
107.508898
126.094818
145.612955
151.102543
145.595670
134.956837
109.002590
88.393688
60.203671
41.568875
25.584698
17.153621
11.257529
9.518862
8.575916
8.566976
9.396672
9.571910
9.897947
10.200739
10.765791
11.605620
12.655854
13.048649
13.918877
14.801621
15.821457
15.762448
16.803741
17.451644
17.491579
17.938614
18.072724
18.831491
19.222498
18.848777
19.391775
19.079447
19.370914
19.695759
19.601583
19.864440
19.406676
19.876957
19.331574
19.583702
19.542575
20.239949
20.122528
19.701719
20.423532
##ZVALUE=290
0.821948
0.851750
0.799894
0.645518
0.833869
0.644922
0.727773
0.958443
1.002550
0.940561
0.923872
1.146793
0.932813
1.139641
1.213551
1.200438
1.051426
1.100898
1.270771
1.306534
1.300573
1.563430
1.526475
1.686811
1.871586
1.973510
2.788901
8.816719
43.505430
105.024576
207.772851
449.503660
705.121756
1015.717983
1015.717983
1015.717983
1015.717983
1015.717983
987.683535
656.511784
425.004959
213.588476
112.002492
44.658780
28.514862
36.738515
51.719546
73.377490
96.023679
122.099519
137.801766
146.694779
145.043731
127.496719
110.877752
80.325603
61.240792
40.012002
28.108954
17.328858
12.768507
10.980964
10.351539
10.301471
10.617971
10.797977
11.825562
12.662411
12.711883
14.463663
14.665723
15.730858
16.575456
18.103719
17.678738
17.925501
17.775893
18.183589
18.414855
18.499494
18.804669
19.118786
19.213557
19.516945
19.993782
19.354820
19.672513
19.811988
19.670725
20.069480
19.910932
19.662976
19.648671
19.761920
19.243956
19.389987
##ZVALUE=295
0.772476
0.780821
0.740886
0.929832
0.860691
0.907779
0.750422
0.761747
0.960827
0.801682
0.801682
0.884533
0.917912
0.779629
0.797510
0.892878
0.936985
1.054406
1.003742
0.957847
1.140833
1.319647
1.289845
1.269579
1.477599
1.514554
1.908541
1.815557
2.064705
4.175901
14.676452
66.940784
156.561732
377.631783
615.991950
978.117585
1015.712023
1015.712023
1015.712023
1015.712023
1015.712023
835.151672
570.305586
297.662616
158.131719
55.504441
28.517842
22.995472
30.996799
48.652887
66.144466
93.916655
114.317536
134.222507
140.640736
136.296749
125.469565
104.563832
83.377957
58.353543
43.129921
26.852489
19.955635
14.863610
12.593865
11.758804
11.815429
12.714863
13.312697
14.382601
15.080571
15.838742
16.377568
17.248988
17.787814
17.899871
18.424988
18.732548
18.803477
19.146800
18.856525
19.731522
19.785762
19.650459
20.354986
20.501614
20.304918
19.880533
20.177960
19.876957
19.486547
19.303560
19.431710
20.119548
19.804835
20.057559
##ZVALUE=300
0.817776
0.666976
0.803471
0.876784
0.843406
0.714660
0.774860
0.698566
0.895858
0.835657
0.845790
0.903606
0.884533
0.882745
0.880957
0.930429
0.974536
0.945926
1.046658
1.010895
1.100898
0.997782
1.204610
1.277924
1.299977
1.424551
1.428723
1.278520
1.854897
1.993775
2.000928
2.340674
8.772612
32.647848
119.069815
244.174600
509.751439
782.805681
1015.712023
1015.712023
1015.712023
1015.712023
1015.712023
1015.711427
691.633821
441.331863
215.396881
111.042857
38.440824
20.048618
20.796657
27.596951
45.142770
60.469508
86.368918
106.794834
124.715567
133.379698
132.045746
122.690797
102.971792
84.384680
59.359670
44.743419
30.112863
22.050738
16.532540
14.315844
14.136434
14.745593
15.443563
15.712976
16.509891
17.245412
18.141866
18.488765
18.773675
18.886924
19.664764
19.518733
19.983649
20.117760
19.964576
20.425916
20.285845
20.676851
19.825697
20.554662
20.678639
20.642877
19.996762
20.228624
19.972920
19.686818
19.466877
19.604564
##ZVALUE=305
0.682473
0.713468
0.625849
0.718832
0.791550
0.828505
0.665784
0.838637
0.551939
0.754595
0.802875
0.757575
0.721812
0.720620
0.745654
0.972748
0.889897
0.970960
1.036525
0.951886
1.030564
1.065731
0.974536
1.023412
1.024604
1.051426
1.314878
1.199841
1.468658
1.589656
1.807809
1.853704
1.875758
2.215505
4.181862
22.375584
65.552592
194.362998
364.379883
695.356727
979.552865
1015.710831
1015.710831
1015.710831
1015.710831
1015.710831
912.321806
558.012724
339.526534
151.684880
70.641637
25.194883
15.219450
18.860698
26.812553
43.503642
60.148835
86.271763
101.983547
119.612813
126.237869
125.552416
117.741823
100.238919
81.596971
58.933496
44.752955
30.499697
23.658872
18.487573
16.635656
17.303824
17.437935
17.823577
18.726587
18.149614
18.705726
19.207597
19.246936
19.557476
20.086765
20.479560
20.773411
21.473765
21.289587
20.722747
21.365881
20.994544
20.773411
20.961761
20.445585
20.557642
20.032525
19.768476
19.871593
20.098686
##ZVALUE=310
0.663996
0.667572
0.743866
0.590682
0.565648
0.564456
0.744462
0.673532
0.610948
0.856519
0.816584
0.716448
0.717640
0.793934
0.792742
0.812411
0.819564
0.891685
0.787973
0.928640
0.859499
1.048446
1.138449
1.141429
1.074672
1.051426
1.176596
1.127720
1.263618
1.297593
1.418591
1.463890
1.497865
1.727939
1.801848
2.054572
2.566576
10.191798
33.572912
116.638541
238.664746
504.004955
782.988667
1015.710831
1015.710831
1015.710831
1015.710831
1015.710831
1015.710831
813.200474
528.263450
252.621770
129.354596
43.676496
18.879771
13.518929
16.940832
25.863647
36.661625
56.184530
73.274970
96.218586
109.700561
121.045709
123.166442
113.800764
99.996924
80.909729
63.664913
45.284629
34.829974
25.875568
21.981001
19.723773
19.028783
19.186735
19.164681
19.140840
19.950867
20.377636
20.674467
20.285845
21.253824
21.171570
21.515489
21.825433
21.841526
21.236539
21.381974
21.301508
21.317601
21.119714
21.146536
21.288991
20.407438
20.415783
##ZVALUE=315
0.743866
0.546575
0.594854
0.608563
0.698566
0.641942
0.451803
0.815988
0.764728
0.650883
0.757575
0.672936
0.671744
0.700951
0.807643
0.751615
0.806451
0.786781
0.877976
0.729561
0.942945
0.932813
0.843406
0.877976
1.005530
1.100898
1.155734
1.052618
1.164675
1.081824
0.980496
1.305938
1.254678
1.355410
1.555681
1.624823
1.981854
2.227426
2.392530
5.035996
17.298460
75.290799
171.680450
404.571891
677.201748
1015.715599
1015.715599
1015.715599
1015.715599
1015.715599
1015.715599
981.661677
693.252683
358.352661
186.342001
64.235926
26.232004
12.865663
13.054609
16.866922
22.869706
37.393570
50.556660
70.775747
88.170767
106.076002
115.100741
116.432905
109.747648
94.788671
79.876781
60.625672
47.833920
34.322739
27.805567
22.393465
20.611882
20.089746
19.575953
19.897819
20.003915
21.143556
21.201968
21.478534
21.960735
22.048950
22.046566
21.875501
21.460652
21.539927
21.832585
21.753907
21.370649
20.472407
20.640492
21.020770
##ZVALUE=320
0.573993
0.771880
0.595450
0.584722
0.610948
0.583529
0.580549
0.650883
0.754595
0.789762
0.572801
0.697970
0.606775
0.588894
0.677705
0.740886
0.712872
0.769496
0.767708
0.730753
0.788569
0.687838
0.865459
0.859499
0.863671
0.756979
0.919700
0.855923
1.015663
1.155734
1.038909
0.964999
1.119971
1.135468
1.224875
1.342893
1.529455
1.507998
1.567602
1.897812
2.201796
2.780557
8.285642
43.937564
113.798380
306.432843
512.242913
861.032605
1015.715003
1015.715003
1015.715003
1015.715003
1015.715003
1015.715003
802.450776
435.298681
247.990489
101.112723
43.442845
14.922619
11.015534
12.376904
14.944673
22.101998
31.465888
49.148798
64.161420
85.381866
99.026561
111.644864
112.792850
106.332898
94.820857
76.880455
61.664581
45.604706
35.884976
28.268695
23.926497
21.423697
21.214485
20.702481
21.375418
21.342635
21.673441
22.133589
21.764636
21.950603
21.664500
21.559000
21.112561
21.189451
21.215677
21.341443
20.511746
20.882487
##ZVALUE=325
0.660419
0.638962
0.517964
0.446439
0.672936
0.667572
0.660419
0.541806
0.558496
0.732541
0.639558
0.733733
0.620484
0.516772
0.689626
0.637770
0.620484
0.696778
0.749826
0.658631
0.850558
0.907779
0.697970
0.840425
0.742674
0.913739
0.768900
0.851750
1.020432
0.940561
1.064539
1.101494
1.104474
1.219511
1.172423
1.284480
1.237988
1.313686
1.480579
1.471639
1.743436
1.811981
2.019405
2.270937
4.732609
28.724670
78.547001
217.598677
390.237570
723.613501
994.841456
1015.710831
1015.710831
1015.710831
1015.710831
1015.710831
990.359783
622.186661
392.603874
182.297826
85.304976
25.310516
12.802482
11.733770
12.793541
16.256571
22.056699
33.403635
46.456456
66.327453
81.637502
97.698569
105.494857
107.070804
102.451444
88.392496
74.808002
58.184862
45.763850
34.301877
28.106570
24.273992
22.562742
21.543503
22.152662
21.820664
21.804571
21.477938
22.243857
21.787882
21.647811
21.922588
21.506548
21.410584
20.868778
20.680428
##ZVALUE=330
0.583529
0.456572
0.466704
0.549555
0.416636
0.613928
0.559688
0.528693
0.643730
0.558496
0.634789
0.565648
0.656843
0.720620
0.673532
0.565648
0.681877
0.508428
0.562668
0.681877
0.830889
0.796914
0.815988
0.872612
0.683665
0.854731
0.947714
0.791550
0.968575
0.815988
0.813603
0.920892
0.911951
1.033545
0.987649
1.007915
1.111627
0.891685
1.200438
1.181960
1.240969
1.438856
1.500845
1.626611
1.958609
2.240539
3.073812
13.062954
43.096542
143.961906
282.245874
569.138527
844.095945
1015.712023
1015.712023
1015.712023
1015.712023
1015.712023
1015.712023
771.877766
501.532555
237.993598
119.226575
39.690733
16.642809
11.280775
11.643767
12.637973
15.979409
23.767948
31.842589
46.810508
60.706735
80.491900
92.296004
101.564527
102.235675
95.974803
85.119605
69.914460
56.703687
42.561889
35.391450
28.200746
25.095940
22.787452
21.818876
21.059513
21.015406
20.676851
20.734668
21.040440
20.677447
20.610690
20.070672
20.318627
##ZVALUE=335
0.493526
0.515580
0.492930
0.494719
0.407696
0.709891
0.422597
0.639558
0.569820
0.520945
0.389814
0.737906
0.577569
0.672936
0.593662
0.644922
0.647902
0.643730
0.590682
0.509620
0.693798
0.678897
0.676513
0.561476
0.785589
0.833869
0.735521
0.770688
0.806451
0.821948
0.771880
0.950694
0.971556
0.892878
0.938773
0.873804
1.132488
0.956655
1.018643
1.202822
1.108646
1.240969
1.302958
1.361966
1.652837
1.785755
1.987815
2.075434
2.452731
6.012917
22.921562
92.102885
197.837949
446.469784
717.521906
1015.710831
1015.710831
1015.710831
1015.710831
1015.710831
1015.710831
858.638883
578.914881
295.942426
156.840682
57.000518
23.292899
12.283921
11.501908
12.423992
13.764501
17.717481
22.512674
33.490658
43.608546
60.906410
73.980689
88.093877
94.074607
97.169876
91.817975
80.316663
70.298910
55.495501
45.483708
35.443902
29.619932
24.951696
22.737980
21.171570
20.668507
20.378828
19.811988
20.234585
20.361543
20.069480
##ZVALUE=340
0.609756
0.498891
0.543594
0.544786
0.675917
0.584722
0.595450
0.652671
0.590682
0.574589
0.604987
0.417829
0.643730
0.647902
0.421405
0.492930
0.560880
0.715852
0.561476
0.726581
0.696778
0.699759
0.649691
0.798702
0.713468
0.609756
0.677705
0.809431
0.653863
0.711679
0.693798
0.864863
0.834465
0.812411
0.760555
0.829697
0.977516
0.907779
0.972748
1.019835
1.148582
1.128912
1.259446
1.380444
1.436472
1.431704
1.498461
1.809597
1.916885
1.937747
2.192855
3.328919
11.618733
58.999658
145.855546
363.414884
619.883537
999.640822
1015.710831
1015.710831
1015.710831
1015.710831
1015.710831
1015.710831
804.706812
429.740548
243.347883
96.851587
39.695501
14.715791
12.388825
12.443662
13.186932
14.901757
17.455816
23.516417
31.407475
44.245720
56.234002
72.964430
83.714724
90.401769
91.307759
86.562634
79.371929
66.885948
56.328773
42.919517
35.626888
28.855801
24.326444
21.449924
20.504594
19.824505
19.713640
19.173622
##ZVALUE=345
0.538826
0.556707
0.518560
0.584722
0.429749
0.478625
0.581741
0.565648
0.471473
0.722408
0.664592
0.409484
0.571609
0.508428
0.616908
0.681877
0.776649
0.540614
0.757575
0.637770
0.655651
0.607967
0.574589
0.681877
0.614524
0.664592
0.734925
0.700951
0.693798
0.623465
0.639558
0.638962
0.707507
0.875592
0.828505
0.817776
0.856519
0.848770
0.848770
1.128912
1.061559
0.975728
0.921488
1.258850
1.311898
1.075864
1.182556
1.233816
1.412630
1.525879
1.606941
1.612902
1.942515
2.578497
5.056858
32.997727
94.503760
245.038867
443.219543
801.369548
1015.710831
1015.710831
1015.710831
1015.710831
1015.710831
1015.710831
920.084715
536.458492
297.055840
112.572908
50.802827
17.989874
12.824535
12.496710
12.353659
13.303757
14.175773
17.260909
21.706820
30.707717
40.945411
54.935813
66.044927
77.067614
82.928538
85.443854
82.572699
74.483752
65.411925
53.256750
42.982697
32.822490
27.581453
22.778511
20.447969
19.477606
##ZVALUE=350
0.467896
0.473857
0.485778
0.597835
0.454783
0.577569
0.521541
0.511408
0.610948
0.549555
0.635982
0.567436
0.555515
0.611544
0.474453
0.692606
0.607967
0.485778
0.617504
0.620484
0.633597
0.787973
0.600815
0.551939
0.664592
0.723600
0.673532
0.580549
0.559688
0.842810
0.623465
0.745654
0.723600
0.687838
0.726581
0.869632
0.842810
0.859499
0.828505
0.820756
1.001954
0.944734
0.851750
0.856519
1.056790
1.085997
1.099706
1.099706
1.348853
1.304746
1.382828
1.510978
1.640916
1.701713
1.898408
2.200603
2.871752
16.305447
53.865910
173.692703
331.862569
663.414001
955.869555
1015.710831
1015.710831
1015.710831
1015.710831
1015.710831
972.875953
578.094721
348.324776
154.363513
69.917440
21.649599
13.003945
11.667609
11.831522
12.154579
12.188554
14.017820
16.334653
21.537542
27.642846
36.535859
45.448542
59.164762
67.638755
75.728893
77.935457
76.309443
70.853829
59.419870
51.087737
39.401650
32.692552
25.911927
##ZVALUE=355
0.471473
0.494719
0.366569
0.534654
0.538826
0.573993
0.542998
0.666976
0.522733
0.534654
0.524521
0.690818
0.366569
0.683665
0.626445
0.594854
0.653863
0.512600
0.744462
0.665784
0.687838
0.662804
0.710487
0.879765
0.537634
0.620484
0.785589
0.517964
0.659823
0.799894
0.747442
0.696778
0.863671
0.626445
0.873804
0.740886
0.841618
0.889897
0.821948
0.872612
0.812411
0.881553
0.803471
0.901818
0.947714
1.043677
1.155734
1.165867
1.227856
1.277924
1.257658
1.373887
1.408458
1.467466
1.677871
1.879930
1.969934
2.065897
2.363920
8.151531
30.489564
122.382641
253.134966
527.964830
817.092657
1015.710831
1015.710831
1015.710831
1015.710831
1015.710831
1015.710831
710.301995
438.601971
190.533996
89.917779
28.238893
14.178753
11.366606
11.360645
11.129975
11.663437
12.432933
13.346672
15.739799
18.734932
24.723411
32.113791
43.015480
51.130652
61.325431
67.521930
70.650578
70.393682
64.674616
57.935715
48.328638
##ZVALUE=360
0.550747
0.506639
0.467896
0.406504
0.597835
0.627637
0.513792
0.576973
0.556707
0.576973
0.598431
0.562668
0.626445
0.573993
0.646710
0.606775
0.498891
0.571609
0.671744
0.648499
0.619888
0.728965
0.750422
0.697970
0.747442
0.549555
0.741482
0.756979
0.693798
0.839829
0.558496
0.997782
0.751615
0.780821
0.805855
0.862479
0.951886
0.873804
0.798702
0.921488
0.830889
1.008511
0.871420
1.118779
0.943542
1.080632
1.134872
1.029968
1.002550
1.118779
1.329780
1.267791
1.166463
1.281500
1.476407
1.577735
1.641512
1.831651
1.902580
2.171993
2.561808
3.963709
13.570786
63.993931
155.399442
388.881564
642.169714
996.877551
1015.695930
1015.695930
1015.695930
1015.695930
1015.695930
843.513608
547.456741
259.552598
131.628513
47.705770
19.684434
10.788441
10.664463
10.495782
11.125803
10.928512
11.167526
11.942983
13.435483
16.250610
20.186901
27.183890
34.648776
45.226812
52.966475
61.192513
64.168572
64.732432
##ZVALUE=365
0.535846
0.590682
0.663996
0.476837
0.501871
0.535846
0.691414
0.620484
0.558496
0.560880
0.631809
0.615716
0.479817
0.472665
0.501871
0.671744
0.641942
0.593662
0.564456
0.655651
0.609756
0.553727
0.547767
0.633597
0.618696
0.766516
0.589490
0.742674
0.607967
0.557899
0.475645
0.667572
0.719428
0.752807
0.812411
0.740886
0.804663
0.858903
0.908971
0.962615
0.878572
0.808835
0.866652
0.947714
0.957847
0.992417
0.744462
1.020432
0.957847
0.965595
1.121759
1.106858
1.158714
1.237988
1.213551
1.282692
1.323819
1.516938
1.590848
1.765490
1.959801
2.207756
2.273917
2.929568
5.739927
35.387874
96.554756
255.705714
472.077727
868.212581
1015.696526
1015.696526
1015.696526
1015.696526
1015.696526
1015.696526
761.097670
411.798954
219.186544
73.716640
28.591752
11.336803
9.928942
10.081530
9.907484
9.921789
10.012984
10.428429
10.596514
11.906624
13.736486
17.844439
22.527575
29.905438
39.367676
47.286749
##ZVALUE=370
0.650883
0.661612
0.660419
0.713468
0.665784
0.583529
0.561476
0.527501
0.757575
0.864863
0.657439
0.700951
0.699759
0.600815
0.616908
0.664592
0.588894
0.661612
0.680685
0.670552
0.650883
0.742674
0.724792
0.611544
0.960827
0.867844
0.849962
0.735521
0.768900
0.824928
0.848770
0.773668
0.565648
0.689626
0.806451
0.851750
0.813603
0.648499
0.870824
0.878572
0.831485
0.873804
0.945926
0.960827
0.895858
1.004934
1.026988
1.053810
0.870824
1.192689
0.952482
1.144409
1.163483
1.221895
1.169443
1.244545
1.262426
1.301765
1.474619
1.404881
1.464486
1.878738
1.763701
1.795888
2.143979
2.486706
3.597736
16.859770
58.226585
193.294883
363.107920
684.532523
979.472995
1015.798450
1015.798450
1015.798450
1015.798450
1015.798450
926.300883
511.769652
276.975632
101.583600
44.558644
16.159415
10.339618
9.044409
9.236932
9.226799
9.386539
9.504557
9.673834
9.993911
10.642409
12.770891
15.716553
20.823479
##ZVALUE=375
0.516772
0.430942
0.630617
0.604987
0.587702
0.660419
0.537634
0.333786
0.470877
0.553727
0.517964
0.529885
0.581741
0.510812
0.638962
0.445843
0.476837
0.591874
0.637770
0.577569
0.644922
0.624657
0.484586
0.472665
0.673532
0.514984
0.622869
0.664592
0.737906
0.612736
0.604987
0.541806
0.749826
0.663996
0.611544
0.666976
0.767708
0.696778
0.621676
0.806451
0.736713
0.677705
0.711679
0.718832
0.795722
0.689626
0.737906
0.908971
0.850558
0.931621
0.913739
0.905991
0.913739
0.851750
1.008511
0.924468
1.017451
0.957847
1.026988
1.321435
1.143813
1.309514
1.419783
1.690984
1.706481
1.846552
1.938939
2.152920
2.542734
8.283854
30.153990
114.333630
251.910686
584.594011
915.333629
1015.710831
1015.710831
1015.710831
1015.710831
1015.710831
1010.807753
629.089475
395.463705
189.414620
91.527700
28.490424
12.600422
8.681417
8.396506
8.080602
8.342862
8.429885
8.321404
8.991957
8.890629
9.779930
##ZVALUE=380
0.486970
0.551939
0.460744
0.614524
0.558496
0.469685
0.262856
0.515580
0.588894
0.464916
0.503659
0.458956
0.470877
0.398755
0.494719
0.700951
0.643730
0.484586
0.548959
0.488758
0.476837
0.574589
0.479817
0.560880
0.667572
0.569820
0.699759
0.543594
0.557899
0.417829
0.751615
0.817776
0.396967
0.707507
0.664592
0.570416
0.595450
0.677705
0.569820
0.647902
0.710487
0.726581
0.769496
0.863671
0.628829
0.763535
0.786781
0.731945
0.717640
0.833869
0.870824
0.852942
0.747442
0.892878
0.804663
0.837445
0.851750
0.891685
0.864863
0.963807
1.012683
1.081824
1.173615
1.335740
1.332760
1.337528
1.591444
1.770854
2.095699
2.360940
2.661943
4.564524
16.636848
84.978938
202.458501
476.025939
770.452023
1015.710831
1015.710831
1015.710831
1015.710831
1015.710831
1015.710831
853.400826
564.974546
273.288488
140.019655
48.190951
19.461513
8.782744
8.147955
7.795691
7.779598
7.733703
7.774830
8.030534
##ZVALUE=385
0.510812
0.508428
0.452995
0.558496
0.419617
0.491738
0.326633
0.536442
0.434518
0.443459
0.422597
0.509620
0.399947
0.536442
0.552535
0.375509
0.632405
0.547767
0.505447
0.502467
0.671744
0.599623
0.527501
0.450611
0.558496
0.520945
0.426769
0.613928
0.425577
0.434518
0.470877
0.556707
0.599623
0.452995
0.686646
0.636578
0.580549
0.640750
0.639558
0.617504
0.753999
0.613928
0.625849
0.751615
0.722408
0.699759
0.696778
0.633597
0.786781
0.757575
0.847578
0.764728
0.672936
0.725985
0.806451
0.903606
0.886917
0.928640
1.026988
1.007915
1.058578
1.029968
1.039505
1.154542
1.236796
1.180768
1.249909
1.621842
1.683831
1.897812
2.198815
2.596974
2.592802
3.205538
8.220673
51.423907
139.416456
364.652872
651.763678
1015.708447
1015.708447
1015.708447
1015.708447
1015.708447
1015.708447
1015.708447
790.975094
426.392555
238.283873
96.179843
37.576556
10.257959
7.689595
7.148981
6.913543
6.905794
##ZVALUE=390
0.399947
0.600815
0.444651
0.459552
0.396967
0.426769
0.394583
0.521541
0.497699
0.444651
0.450611
0.487566
0.471473
0.470877
0.437498
0.480413
0.494719
0.521541
0.474453
0.583529
0.460744
0.522733
0.426769
0.387430
0.480413
0.595450
0.566840
0.497699
0.451803
0.540614
0.661612
0.640750
0.601411
0.467896
0.456572
0.632405
0.594854
0.613928
0.773668
0.581741
0.615716
0.502467
0.687838
0.544786
0.713468
0.567436
0.708699
0.740886
0.676513
0.764728
0.881553
0.835657
0.687838
0.831485
0.805855
0.970960
0.894666
0.786781
0.878572
0.969768
0.826716
1.084805
0.856519
0.949502
1.013875
1.200438
1.226664
1.430511
1.574755
1.649857
1.892447
2.028942
2.118945
2.191663
2.292991
2.570748
4.297495
26.204586
86.382627
271.762609
507.231951
925.884843
1015.716791
1015.716791
1015.716791
1015.716791
1015.716791
1015.716791
1013.155580
649.144650
376.936793
149.172544
66.467524
18.872619
8.261800
7.054806
##ZVALUE=395
0.432730
0.424981
0.412464
0.327826
0.529885
0.494719
0.554919
0.348687
0.305772
0.451803
0.430942
0.512600
0.545979
0.480413
0.504851
0.453591
0.522733
0.542998
0.390410
0.491738
0.381470
0.519753
0.542998
0.636578
0.352859
0.315905
0.564456
0.668764
0.640750
0.604987
0.562668
0.459552
0.620484
0.627637
0.551939
0.519753
0.660419
0.423789
0.634789
0.668764
0.684857
0.677705
0.505447
0.728965
0.639558
0.692606
0.608563
0.679493
0.539422
0.676513
0.717640
0.650883
0.658631
0.680685
0.652671
0.746846
0.723600
0.823736
0.752807
0.870824
0.741482
0.913739
0.965595
1.026988
1.014471
1.080632
1.096725
1.385808
1.451969
1.592636
1.713634
1.741648
1.740456
1.803637
1.786947
1.816750
2.052784
2.421737
2.908707
12.659431
48.965812
175.136924
346.681476
687.337518
986.605883
1015.710831
1015.710831
1015.710831
1015.710831
1015.710831
1015.710831
827.811956
519.585013
242.329836
111.841559
33.112764
##ZVALUE=400
0.553727
0.609756
0.421405
0.530481
0.564456
0.509620
0.517964
0.365973
0.547767
0.473857
0.340939
0.586510
0.439882
0.343919
0.504851
0.524521
0.508428
0.599623
0.596642
0.502467
0.531673
0.657439
0.390410
0.423789
0.534654
0.623465
0.376701
0.550747
0.648499
0.616908
0.665784
0.608563
0.631809
0.642538
0.687838
0.688434
0.504851
0.408888
0.511408
0.593662
0.559688
0.678897
0.580549
0.743866
0.812411
0.677705
0.663996
0.737906
0.700951
0.619888
0.673532
0.856519
0.803471
0.714660
0.833869
0.882745
0.739694
0.979900
0.925660
0.838637
0.762939
0.988841
0.781417
1.006722
1.063943
1.207590
1.238585
1.332760
1.424551
1.534820
1.735687
1.690984
1.706481
1.904964
1.877546
1.854897
1.750588
1.895428
2.154708
2.311468
2.747774
7.458925
27.978420
109.843612
246.064663
560.869575
890.787840
1015.732884
1015.732884
1015.732884
1015.732884
1015.732884
1015.732884
965.373516
647.749901
325.866938
##END
