##TITLE=QP00651
##FORMAT=SPECTACLE-ASCII V-1.2
##DATA TYPE=ULTRAVIOLET SPECTRUM
##SECOND TYPE=ULTRAVIOLET SPECTRUM
##DATE=02/28/18
##TIME=18:03:21
##SPECTROMETER/DATA SYSTEM=SPECTACLE
##XUNITS=NM EM
##YUNITS=ENERGY
##YFACTOR=1
##FIRSTX=220
##LASTX=410
##NPOINTS=96
##3DDATA=Equidistant
##ZUNITS=NM EX
##FIRSTZ=210
##LASTZ=400
##ZPOINTS=39
##XYDATA=(Y..Y)
##ZVALUE=210
2.357960
2.563596
2.368689
3.076792
3.125668
2.849698
2.904534
3.042817
3.362894
2.642870
2.542734
2.686977
2.620816
2.542734
3.101826
2.889633
2.869964
3.183484
3.087521
3.613830
3.352761
3.509521
3.948808
3.727674
4.123449
4.062653
4.811883
4.373789
4.228950
4.438758
5.038977
4.569888
4.910827
5.092621
5.334616
4.959702
4.767776
5.454421
6.469488
5.375743
5.374551
5.869865
5.655885
6.008744
5.862713
6.424785
6.201863
6.762743
6.342530
6.204844
6.724000
6.716847
7.170439
7.281899
7.781982
7.028580
6.962419
6.285906
6.700754
6.682873
7.282495
7.521510
7.426739
7.551908
7.935762
8.171797
8.693933
8.996725
10.169744
12.057424
14.328957
17.858744
19.325614
22.774935
22.946000
24.704933
27.978420
24.003983
24.696589
22.186637
21.770000
19.223690
15.961528
15.089512
12.388825
10.391474
8.972883
7.583499
7.575750
7.491708
7.521510
7.331967
7.997751
7.127523
8.202791
7.870793
##ZVALUE=215
7.175803
7.012486
5.198717
5.936623
4.839897
4.646778
4.553795
5.986691
5.743504
5.416870
5.544424
4.369617
4.508495
4.180670
3.085732
3.776550
3.438592
2.894998
3.405809
3.334880
3.513694
4.666448
3.733635
4.024506
3.883839
4.147887
4.511476
4.640818
4.947782
4.674792
4.997849
4.508495
4.877448
6.021857
5.613565
5.328655
5.011559
6.273985
5.634427
5.019903
5.885959
6.210804
5.309582
5.766749
6.034970
6.544590
7.510781
6.082654
6.497502
7.198453
7.091761
7.863641
7.678866
7.749796
7.083416
6.466508
8.009672
7.788539
7.434487
7.472634
7.056594
6.719828
8.087754
7.763505
7.777810
7.626414
8.033514
9.648800
9.319782
12.471676
13.213754
16.733408
19.068718
21.922588
24.203658
24.766922
25.007725
25.539994
23.916960
22.406578
20.729899
18.684864
17.064810
13.948679
13.149977
11.044741
8.877516
8.058548
8.894801
8.456707
7.979870
7.086992
8.026958
6.688833
6.669760
7.403493
##ZVALUE=220
21.490455
22.107959
23.137927
24.411678
19.335747
18.160939
12.647510
11.318922
10.754466
10.905862
12.084842
11.349916
12.695789
10.858774
9.918809
8.388758
6.367564
4.271865
3.587604
3.430843
3.527999
3.762841
4.140735
4.423857
4.215837
4.532933
4.282594
4.770756
5.300641
5.526543
5.391836
6.101727
5.592704
6.567836
6.069541
6.020665
6.307960
5.918741
6.505847
6.292462
6.314516
5.722642
5.670786
6.700754
6.402731
7.286668
6.504655
7.389784
6.530881
5.379915
7.688999
8.682609
6.102920
7.965565
8.028746
7.229447
7.877946
7.461905
7.112622
7.691979
7.254481
7.734895
7.738471
7.890463
8.176565
8.072853
8.874536
8.811951
11.241436
11.900663
12.944937
16.099811
17.931461
19.921660
21.651983
24.110675
22.852421
22.635460
23.267865
21.564960
20.641685
18.492937
16.064644
15.124679
12.877584
10.433793
8.971691
7.816553
7.878542
7.550716
7.686615
7.521510
7.603765
7.646680
7.558465
7.682443
##ZVALUE=225
38.466454
39.885640
56.847930
68.046451
72.615743
70.776939
59.268475
53.115487
38.504601
30.884743
23.369789
21.664500
22.712946
25.923848
26.012659
25.372505
21.756887
17.186999
14.815927
9.192824
7.183552
6.061792
5.389452
4.734993
5.777478
5.415678
5.884767
5.637407
6.087422
6.536841
6.335974
6.718636
5.306602
7.042885
6.540418
8.086562
7.280707
7.871985
7.347465
7.139444
6.903410
7.317662
8.212924
7.553697
7.561445
7.867813
7.885695
7.181764
7.419586
7.716417
7.823706
7.827878
8.382797
7.674694
8.116961
9.208918
7.550716
8.471608
8.734465
8.645654
8.545518
7.964969
9.769797
9.454489
9.748936
8.877516
9.098649
10.288954
11.742711
13.657808
14.547706
17.622709
17.963648
22.453666
20.530820
22.569895
22.879839
23.022890
20.590425
20.701885
18.804669
16.102791
15.479922
15.000701
12.579560
10.529757
10.471940
9.499788
9.626746
9.494424
9.284616
9.631515
8.452535
9.587407
9.540915
9.348989
##ZVALUE=230
36.350489
41.590929
66.528916
104.365945
133.261681
166.216493
177.915692
175.671577
161.898732
136.598945
95.648766
68.364739
48.844814
43.233633
44.559836
47.775507
51.342845
46.832561
44.534802
37.954450
27.420521
18.277764
13.291836
8.631945
6.893873
5.634427
5.813837
6.142855
6.212592
6.694794
7.080436
7.204413
7.264614
7.995963
7.876754
8.269548
8.145571
8.548498
7.935762
8.253455
8.184910
7.832646
8.686781
8.562803
8.596778
8.695722
7.771850
9.021759
8.067489
8.755922
8.405447
8.739829
8.316636
9.048581
8.325577
8.247495
9.199977
8.976460
9.261966
8.791685
8.977652
10.406971
9.258986
8.680820
9.680986
9.973645
11.571646
11.551976
13.664961
14.060736
15.599728
18.121600
19.113421
21.667480
23.538470
25.301576
24.432540
23.047924
23.778677
20.476580
20.929575
17.489791
17.486811
14.684796
12.808442
12.799501
13.928413
11.969805
12.730956
11.944771
11.690855
12.854934
11.586547
10.820627
11.906624
11.982918
##ZVALUE=235
13.114810
14.192462
38.195848
67.395568
129.650831
184.890628
263.086557
324.305892
367.035866
354.166627
307.556987
252.113938
194.430947
127.829909
95.655918
73.409677
73.004961
77.467561
81.910491
84.810853
78.065991
67.078471
53.402781
38.565993
24.791956
15.453696
12.022853
7.945895
8.675456
7.441640
7.969737
7.742643
7.544756
8.088946
8.284450
8.062720
8.676648
9.484887
8.577704
8.262992
8.505583
8.746982
8.330941
9.246469
8.753538
8.367896
9.189844
8.018613
9.503961
8.714795
9.991527
8.643866
9.711981
10.033846
10.828972
9.914637
10.743737
10.356903
10.440946
10.723472
11.070967
11.172891
11.440516
11.899471
11.195540
12.157559
13.528466
14.372468
15.113950
16.530752
19.717813
19.378662
22.065639
24.544001
26.769638
27.388930
26.966929
25.979877
26.164651
24.724603
23.961663
21.420717
20.574927
19.369721
16.421676
16.130805
15.946627
14.531612
14.358759
16.284585
15.431643
16.269684
15.362501
14.648438
13.855696
14.438629
##ZVALUE=240
2.409816
2.652407
7.669926
19.438863
56.047440
96.950531
195.304751
298.488736
434.862971
520.426631
584.015846
583.346486
539.138913
431.496501
327.439904
207.203627
147.774816
111.354589
98.225474
102.927685
115.829706
119.837523
115.003586
106.534958
84.211826
67.888498
48.734546
35.346746
22.505522
16.071796
11.886954
10.207891
9.471774
9.619594
9.765625
8.811951
9.200573
9.879470
9.847879
10.240674
8.689761
9.425879
8.545518
8.568764
8.770823
8.706450
9.191632
9.456873
9.767413
9.082556
9.972453
10.326505
9.532571
10.449886
10.542870
9.738803
10.692477
11.545420
11.494756
11.629462
11.017919
10.841489
12.524724
13.002753
11.956692
12.827516
13.498664
16.202927
16.390681
20.311475
21.085739
24.238825
24.803877
29.697418
29.485822
31.877756
30.142665
30.214787
30.516982
27.399659
26.719570
24.703741
23.879409
23.069978
21.942854
20.282865
20.532608
18.452406
18.304586
18.798709
18.293858
19.359589
20.032525
17.471910
17.906427
18.585920
##ZVALUE=245
1.679659
1.764894
1.984835
1.811981
4.930496
13.938546
45.419931
97.374916
219.346881
334.521532
519.851446
639.999509
732.851624
766.713023
716.531873
592.135787
474.737883
317.047834
222.679973
138.136744
106.984973
104.564428
121.931434
132.323503
138.121843
134.732723
117.854476
103.492737
77.378750
55.695772
40.453672
24.134517
17.344952
11.369586
10.833740
9.249449
9.732842
8.533597
9.519458
8.237958
8.511543
7.088780
9.241700
7.823706
8.141994
9.517670
7.871985
8.811951
8.792877
9.580851
8.742809
8.824468
8.447766
8.752942
9.896755
8.222461
8.108616
8.669496
10.208488
9.522438
9.741783
9.843707
10.288954
11.790991
11.240840
11.419654
14.148951
13.855696
15.046000
16.153455
19.170642
21.299720
23.309588
25.263429
25.420785
27.705431
27.105808
26.579499
25.665760
24.712682
22.210479
21.233559
21.388531
20.331740
19.943714
19.459724
18.853545
18.332601
18.456578
18.071532
18.057823
17.609000
16.150475
18.517971
16.930699
18.413663
##ZVALUE=250
1.473427
1.627803
1.582503
1.727939
2.200603
1.946688
3.416538
10.287762
41.259527
88.538527
206.800699
332.631469
476.766825
667.339563
794.104934
868.020654
853.434801
742.575526
628.736615
432.156920
288.600922
194.519758
120.513439
101.264715
109.234452
126.411915
146.515965
146.547556
136.876702
125.346780
105.226636
83.591938
60.985684
38.111806
25.419593
14.629960
11.411905
8.763671
8.387566
7.738471
7.546544
7.718801
7.754564
8.148551
8.355975
7.866621
7.857680
8.355975
7.537603
7.894635
8.205771
7.486939
7.159710
8.015633
8.697510
8.232594
7.458925
8.378625
8.300543
8.841753
8.718967
9.975433
8.558631
9.178519
9.904504
10.308623
9.843707
11.108518
13.494492
14.431477
16.490817
18.398762
19.419789
22.011995
22.389889
22.429824
21.459460
22.817850
21.590590
21.340847
20.597577
19.804835
19.597411
18.281937
16.797781
17.253757
16.886592
17.189980
15.665889
17.729998
17.384887
16.671419
16.590953
16.329885
16.674995
18.082857
##ZVALUE=255
1.511574
1.343489
1.232624
1.614690
1.711845
1.997948
1.891851
2.048612
2.439618
5.416870
29.120445
71.344972
147.490501
303.415656
455.460548
690.549016
851.237774
984.179974
1015.710831
958.132744
814.782977
646.384954
406.917930
264.890790
144.187808
104.111433
94.888806
110.237002
133.932829
146.599412
153.570771
147.781968
135.659575
111.105442
87.659955
57.041645
40.018559
23.474693
14.402866
9.620786
8.150935
7.131696
6.934404
7.364750
7.279515
7.876754
7.645488
6.554723
6.946921
7.235408
7.687807
7.582903
6.658435
7.407665
6.916523
7.687807
7.816553
7.062554
7.805824
8.021593
6.887913
7.715821
8.029938
7.945895
8.329749
8.841753
9.941459
10.639429
11.917949
13.127923
13.426542
15.913844
17.021894
18.214583
18.741488
18.603802
19.102693
17.752647
18.693805
18.235445
18.295646
16.833544
16.065836
17.024875
15.652776
15.917420
16.085505
15.832782
16.196966
15.507936
14.664531
14.753938
15.917420
15.349984
15.291572
15.554428
##ZVALUE=260
1.128912
1.242757
1.309514
1.096725
1.217723
1.718998
1.552701
1.918674
1.735687
1.898408
1.885891
3.676414
12.559891
54.262877
112.136602
259.336829
418.561697
672.397614
878.811479
1015.710831
1015.710831
1015.710831
1010.344625
836.712718
552.341938
386.129618
217.831731
134.778619
88.723898
88.162422
110.636950
132.758617
148.114562
157.800913
152.120590
135.217905
115.852952
84.212422
62.857866
39.773583
25.051832
14.666915
9.628534
7.918477
6.797910
6.519556
6.861687
6.663799
7.407665
6.740689
6.568432
6.763935
7.010698
6.438494
6.293654
6.817579
6.578565
7.075667
6.630421
7.033944
6.869435
7.437468
7.749796
7.601976
8.146763
8.938909
9.190440
9.674430
9.988546
11.682510
11.945963
13.705492
14.490485
14.990568
16.122460
15.953779
16.937852
16.291738
17.087460
15.273690
16.474724
14.277697
14.497638
13.492703
13.479590
14.428496
13.720989
14.658570
14.700890
14.731884
14.682412
14.285445
14.986992
13.918877
14.352798
14.638901
##ZVALUE=265
1.292825
1.338720
1.455545
1.393557
1.866817
1.568794
1.585484
1.741648
1.582503
2.242923
2.036691
2.226830
2.199411
3.246665
6.836653
33.666492
86.295605
213.306546
370.911956
659.204721
887.529850
1015.926003
1015.926003
1015.926003
1015.926003
995.216370
737.534761
511.266589
288.142562
175.305605
98.056793
78.761578
89.785457
113.670826
139.077902
154.884458
159.845948
155.794621
136.604905
113.814473
83.608627
59.946775
37.182570
24.036765
13.092756
9.805560
8.024573
7.508993
6.766915
7.225871
6.936789
7.206798
6.437898
6.736517
6.625652
6.208420
6.860495
6.991625
6.993413
6.494522
6.659627
6.964803
7.174611
7.595420
7.659793
7.169843
8.057952
8.504987
9.518862
10.410547
11.611581
12.065768
12.789965
14.137626
14.292598
15.042424
13.945699
14.720559
14.065504
13.691783
13.562441
13.079643
13.040900
13.193488
13.448000
13.066530
13.825893
13.274550
12.915730
13.177991
13.052821
13.476610
12.699962
13.293624
13.294816
13.532639
##ZVALUE=270
1.038909
1.104474
1.302958
1.080632
1.154542
1.261830
1.158714
1.211762
1.446605
1.483560
1.566410
1.599789
1.538992
2.100468
1.849532
2.193451
3.394485
14.500618
43.557882
151.773691
297.724009
517.373681
901.404023
1015.710831
1015.710831
1015.710831
1015.710831
1015.710831
951.489806
700.153708
483.862758
249.255896
143.491626
71.989894
66.013932
89.865923
112.331510
140.290856
154.519677
161.132812
153.061748
135.926604
113.976002
83.712935
60.359836
36.161542
24.884939
15.084743
10.067821
7.800460
7.015467
6.694794
7.120967
6.953478
6.612539
6.893873
6.711483
6.969571
6.481409
7.065535
6.557703
6.978512
7.090569
6.902814
7.393956
7.879734
8.121729
8.486509
9.195805
9.602904
10.120869
11.941791
12.648702
12.906790
13.815761
13.204813
13.576746
13.666749
13.107657
12.288690
12.753606
12.956858
11.510849
11.667609
11.495948
11.513829
11.635423
12.175441
11.992455
12.270808
12.069941
12.559891
11.843443
12.835860
12.335777
13.175607
##ZVALUE=275
1.176596
0.958443
1.003742
1.044869
1.181960
1.151562
1.213551
1.343489
1.350641
1.265407
1.151562
1.276731
1.598597
1.485944
1.439452
1.865625
2.007484
2.057552
2.106428
6.483793
24.561882
74.592829
228.053927
432.536602
802.340508
1015.710831
1015.710831
1015.710831
1015.710831
1015.710831
1015.710831
904.522538
634.837747
327.166915
188.045502
85.018873
57.169795
62.583685
83.077550
113.068819
132.962465
153.550506
157.964826
150.474906
136.402845
108.850002
85.423589
58.099627
41.814446
24.444461
15.865564
9.355545
7.714629
6.499887
6.692410
6.263852
6.579757
6.716847
6.341934
6.835461
7.150769
6.729960
6.906986
6.925464
7.207990
7.801652
7.816553
8.332729
8.544922
9.106994
10.956526
11.565685
11.423826
12.710690
12.845993
13.139844
12.645721
12.806654
12.685657
11.826754
11.609793
11.631846
11.931658
10.601878
10.943413
11.498928
11.375546
11.334419
10.861754
11.051893
10.927916
11.621714
11.029840
11.088848
11.335611
10.979772
##ZVALUE=280
1.090765
0.953674
0.847578
0.851750
0.839829
1.114607
1.035929
0.996590
1.293421
1.037717
1.134872
1.262426
1.205802
1.454949
1.250505
1.658797
1.585484
1.599789
2.005696
1.964569
2.390742
3.062487
16.386509
53.247809
176.157951
330.144763
632.644892
940.119624
1015.710831
1015.710831
1015.710831
1015.710831
1015.710831
1015.710831
788.566470
429.986715
250.803828
110.237598
60.915947
44.836998
58.239698
84.235668
106.640458
134.897828
147.538781
155.093670
149.734616
131.517649
111.301541
81.807971
60.301423
38.023591
25.549531
14.930964
10.298491
7.836819
6.792545
6.619692
6.296635
6.856918
7.053614
6.932616
6.541610
7.234812
7.824898
7.106662
8.048415
7.982850
8.556843
9.230971
9.852648
10.809898
11.561513
11.712909
11.920929
12.671947
12.000799
12.562871
11.831522
11.249781
10.743737
10.829568
10.809898
10.816455
10.007620
11.022687
10.769963
11.497736
10.877848
10.605454
10.927916
11.217594
10.697842
11.071563
10.997653
10.867715
##ZVALUE=285
0.918508
0.879765
1.043677
0.948906
1.104474
0.944734
0.900626
0.997782
0.975728
0.944734
1.227856
1.236796
1.073480
1.173615
1.272559
1.234412
1.561642
1.463890
1.506805
1.657605
1.830459
1.752973
2.047420
2.506971
9.331703
30.854940
97.368956
202.716589
450.227857
732.963681
1010.916829
1015.710831
1015.710831
1015.710831
1015.710831
1015.710831
981.920958
589.975715
356.807709
165.463686
84.303617
39.662719
37.940741
55.177808
77.002645
106.777549
127.230883
145.287514
150.070786
146.635771
133.743882
106.936693
87.652802
60.032606
41.713715
23.686886
16.123652
10.224581
8.125901
7.103682
7.221699
7.133484
6.790757
7.418990
7.135868
7.521510
7.928610
8.238554
9.038448
9.096861
9.884834
10.609627
11.051893
11.707544
11.532903
11.748672
11.194944
11.450648
11.104941
10.419488
10.928512
10.175705
10.758638
10.653734
10.515451
10.822415
10.633469
10.532737
10.414720
10.845661
10.685921
10.738969
10.274649
10.452867
10.556579
10.042787
##ZVALUE=290
0.971556
0.907779
0.902414
0.936985
0.926852
0.843406
0.741482
0.973940
0.857711
0.848770
0.986457
1.048446
1.213551
1.177788
1.210570
1.184940
1.325607
1.433492
1.463890
1.365542
1.587868
1.855493
1.622438
1.915693
2.391934
2.436638
4.081726
13.099909
57.988763
131.278634
254.657865
551.314950
875.592828
1015.710831
1015.710831
1015.710831
1015.710831
1015.710831
1015.710831
829.424858
524.659753
252.099633
128.248930
48.868656
29.720664
36.901832
50.880909
74.523687
97.095966
123.118758
138.071775
146.290660
142.909884
128.148794
109.481812
82.070827
60.230494
39.150715
26.234984
16.347766
11.866689
8.522868
7.675886
7.760525
7.100701
7.547736
7.988811
8.365512
8.559823
8.905530
9.629726
10.728836
10.940433
11.427999
11.726618
11.706948
11.038780
11.063814
10.991693
10.514855
10.411739
10.157824
10.445714
10.746717
10.453463
11.097789
10.883808
10.858774
10.759830
10.287762
10.559559
10.467768
10.145903
10.155439
10.007620
10.310411
##ZVALUE=295
0.769496
0.734925
0.740886
0.841618
0.832677
0.936985
0.943542
1.089573
0.843406
0.916719
1.145601
0.873804
1.071692
1.098514
1.029968
1.093745
1.141429
1.301765
1.396537
1.317859
1.146793
1.249909
1.460910
1.729727
1.842976
1.988411
2.158880
2.389550
2.687573
5.130768
20.853877
83.130002
181.409717
422.615409
698.332787
1015.721560
1015.721560
1015.721560
1015.721560
1015.721560
1015.721560
990.561843
697.700977
361.603498
191.277862
69.595575
33.479929
24.227500
32.131672
51.055551
67.885518
94.681978
112.268925
131.888986
139.310956
132.970810
122.666955
102.196932
81.424713
56.960583
40.709972
24.510622
17.153621
11.485815
9.181499
8.224845
8.185506
8.593798
8.379817
9.179711
9.833574
10.273457
10.727644
11.176467
11.445880
11.088848
11.070967
11.099577
10.710955
11.063814
10.655522
10.941625
10.275841
10.616779
10.477901
10.475516
10.848641
10.845661
10.532737
10.394454
10.040998
10.341406
10.288954
10.274649
9.918809
10.398626
##ZVALUE=300
0.782609
0.785589
0.865459
0.911951
0.752807
0.816584
0.818968
0.806451
0.700951
0.755787
0.984669
0.925660
0.951886
0.988841
1.051426
1.044869
1.083612
1.095533
1.100898
0.998974
1.237988
1.022816
1.337528
1.459718
1.399517
1.515746
1.509786
1.692772
2.034903
2.111793
2.366900
2.864599
12.627840
44.555664
144.222975
273.907781
575.552583
892.719030
1015.710831
1015.710831
1015.710831
1015.710831
1015.710831
1015.710831
906.871557
578.096509
280.814767
146.184564
53.160787
24.357438
20.610690
27.948618
44.186711
61.594844
87.063909
105.214715
125.345588
133.403540
129.951835
120.401978
100.417733
83.263516
57.881474
42.161942
26.746988
18.209815
12.355447
10.197759
9.147525
9.403825
9.824634
10.436773
10.479689
11.152625
11.373758
11.155605
10.679960
10.633469
11.134744
10.739565
10.730624
10.656714
10.770559
10.862947
10.471940
10.614991
10.669827
10.675788
10.530949
10.547638
10.388494
10.216832
10.238886
10.234714
10.318756
9.995699
##ZVALUE=305
0.775456
0.641942
0.690818
0.635982
0.659823
0.761747
0.722408
0.790954
0.846982
0.915527
0.829697
0.816584
0.930429
0.848770
1.075864
0.821948
1.025796
0.935793
1.016855
1.227856
1.006722
1.196861
1.152754
1.238585
1.111627
1.466870
1.431704
1.684427
1.634955
1.729727
1.876950
2.014637
2.226830
2.763867
4.996657
30.299425
84.686875
237.324834
421.556830
784.756541
1015.710831
1015.710831
1015.710831
1015.710831
1015.710831
1015.710831
1015.710831
746.271014
459.661484
206.160545
95.015764
29.839873
16.425848
19.548535
26.828647
43.149590
58.706999
83.694458
99.784732
117.203593
124.874711
123.806596
115.208626
95.660686
80.111623
56.582689
40.475726
26.103854
18.877983
13.252497
11.979938
10.526776
10.906458
10.833740
10.913610
11.041760
10.636449
10.791421
10.498762
10.612607
11.222959
10.686517
10.780692
10.979772
10.922551
10.873675
11.231899
10.840893
11.213422
10.700822
10.708570
10.217428
10.384917
10.077953
10.163784
10.095835
##ZVALUE=310
0.722408
0.697970
0.611544
0.762939
0.752807
0.922680
0.879765
0.892878
0.885725
0.842810
0.957847
0.967979
0.790954
0.862479
0.839829
0.843406
0.679493
0.897646
1.043677
0.762939
1.025796
1.044869
0.944734
1.047850
1.161695
1.226664
1.236796
1.226664
1.417994
1.561642
1.690984
1.672506
1.784563
1.902580
2.212524
2.462864
3.003478
14.463663
47.555566
151.056647
286.349654
581.660867
889.770985
1015.727520
1015.727520
1015.727520
1015.727520
1015.727520
1015.727520
977.719426
655.058026
314.795971
159.145594
51.646829
20.698905
13.946891
16.698837
25.630593
35.891533
55.440664
72.072744
95.083714
107.826591
118.008852
119.132996
108.950734
98.070502
76.781511
59.605837
39.905906
29.139519
19.647479
15.009642
12.539625
11.475682
10.977983
10.864735
11.130571
10.844469
10.599494
10.745525
10.951757
10.846853
11.074543
11.335611
10.963678
11.046529
11.000633
10.815859
10.633469
10.771751
10.547638
10.536909
10.538697
10.374784
10.079741
##ZVALUE=315
0.828505
0.785589
0.779629
0.852942
0.715852
0.675917
1.140833
0.878572
0.911951
0.872612
0.811815
0.760555
1.031756
0.952482
0.905991
0.920892
0.903606
0.859499
0.886917
0.979900
1.087785
0.963807
1.232624
1.090765
1.193881
1.317859
1.434684
1.266599
1.285672
1.444817
1.557469
1.512766
1.568794
1.757741
1.682639
1.997948
2.224445
2.314448
2.752542
5.941987
24.877787
102.980733
220.053792
474.661589
756.579638
1015.836596
1015.836596
1015.836596
1015.836596
1015.836596
1015.836596
1015.836596
866.863728
444.599390
229.991674
75.326562
29.470921
12.652874
12.382865
16.189814
22.541881
35.726428
48.389435
68.315864
85.587502
104.316473
111.136436
113.118887
106.724501
90.162754
76.045990
56.188703
42.285919
27.619600
20.559430
14.920831
12.779832
11.038780
10.981560
10.696650
10.547638
11.189580
10.798573
11.359453
10.801554
10.722876
10.713935
10.990500
10.992885
10.728836
10.807514
10.719895
10.302663
10.630488
10.497570
10.346770
##ZVALUE=320
0.674725
0.737906
0.555515
0.615716
0.682473
0.583529
0.704527
0.798702
0.720620
0.801682
0.814795
0.734925
0.882745
0.800490
0.847578
0.685453
0.790954
0.857711
0.751615
0.800490
0.870824
0.716448
0.991821
0.999570
0.949502
1.074672
1.132488
1.083612
0.908971
1.046658
1.141429
1.212955
1.246929
1.242757
1.366735
1.233816
1.701713
1.648664
1.923442
2.130866
2.212524
3.109574
10.719895
61.323643
148.255825
356.744528
581.777692
955.771804
1015.701890
1015.701890
1015.701890
1015.701890
1015.701890
1015.701890
980.455875
562.264919
312.587619
123.695731
52.980781
16.825795
10.780692
11.683702
14.208555
20.747781
29.947758
46.252608
60.779452
81.540942
95.019937
104.814768
107.023716
100.926757
89.943409
69.779754
55.476427
38.521886
28.430820
18.923879
15.217662
11.951923
11.302829
10.748506
10.681748
10.506511
10.814667
10.616779
11.090636
10.456443
10.843873
10.666847
10.654926
10.550618
10.395646
10.297894
9.986758
10.430813
##ZVALUE=325
0.513792
0.615716
0.488758
0.456572
0.564456
0.615716
0.416636
0.404716
0.489950
0.488758
0.559688
0.610948
0.573993
0.608563
0.607967
0.505447
0.561476
0.590682
0.711679
0.700951
0.770688
0.592470
0.705719
0.696778
0.563860
0.834465
0.937581
0.759959
0.827909
0.943542
0.928640
0.831485
1.114607
0.824928
1.043677
1.032948
1.181960
1.236796
1.524687
1.554489
1.736879
1.857877
2.259612
2.558827
5.607605
40.008426
103.232861
267.573595
467.217565
841.326714
1015.583873
1015.583873
1015.583873
1015.583873
1015.583873
1015.583873
1001.933813
632.741451
382.435918
164.210796
78.135729
24.143457
11.848807
9.619594
10.869503
14.464855
19.978881
29.949546
42.745471
63.504577
77.165961
93.446970
100.653768
101.675987
95.471740
80.904961
66.465735
49.325824
36.808848
25.080442
18.634796
14.247894
12.402534
11.120439
10.365844
10.764599
10.324717
10.419488
10.696650
10.303855
10.173917
10.181665
10.085702
10.345578
9.782910
10.198951
##ZVALUE=330
0.547767
0.612736
0.608563
0.530481
0.513792
0.500679
0.480413
0.455976
0.724792
0.661612
0.501871
0.672936
0.779629
0.652671
0.719428
0.813603
0.723600
0.690818
0.657439
0.608563
0.714660
0.781417
0.876784
0.649691
0.744462
0.818968
0.723600
0.921488
0.809431
0.936985
0.950694
1.079440
1.048446
0.944734
0.898838
1.116991
1.077652
1.130700
1.225471
1.322627
1.187921
1.528859
1.699924
1.660585
1.923442
2.227426
3.079772
19.213557
61.460733
187.171698
345.302820
663.194656
948.056579
1015.710831
1015.710831
1015.710831
1015.710831
1015.710831
1004.402637
678.914785
429.370999
198.088884
101.236701
35.944581
15.398860
9.201765
9.345412
10.532737
13.099909
20.598769
28.047562
43.520927
56.491494
75.466633
86.860657
96.043944
96.609592
87.076426
77.908635
60.386658
47.939420
33.807755
25.036931
18.138885
14.584661
11.872649
11.058450
10.510683
10.473728
10.101795
9.884834
9.897947
10.125637
9.670854
9.679794
9.730458
##ZVALUE=335
0.588894
0.524521
0.395775
0.605583
0.439882
0.486970
0.464916
0.698566
0.610948
0.554919
0.718832
0.624657
0.570416
0.532866
0.576973
0.691414
0.756979
0.483990
0.559688
0.737906
0.743866
0.639558
0.730753
0.669956
0.693798
0.778437
0.741482
0.774860
0.605583
0.793934
0.804663
0.820756
0.932813
0.885725
0.950694
0.963807
1.066923
1.004934
1.119971
1.150966
1.046658
1.266599
1.362562
1.264811
1.624823
1.658797
1.910925
2.149940
2.297759
6.151795
41.138530
108.259916
281.528831
479.832888
834.860802
1015.712023
1015.712023
1015.712023
1015.712023
1015.712023
1015.712023
817.223787
470.140576
279.597640
117.214918
52.699447
17.423630
10.157824
9.056926
9.425879
11.220574
13.183951
19.314885
26.424527
40.455461
52.792430
69.921613
81.116557
88.455677
90.012550
82.566738
73.862672
59.345961
48.284531
34.675598
26.569963
18.782616
14.650822
11.850595
10.364652
9.968877
9.802580
9.694695
9.728670
9.493828
9.504557
##ZVALUE=340
0.494719
0.709891
0.555515
0.601411
0.639558
0.601411
0.395775
0.550747
0.597835
0.620484
0.437498
0.711679
0.577569
0.494719
0.581741
0.683665
0.543594
0.749826
0.612736
0.574589
0.746846
0.538826
0.618696
0.723600
0.514984
0.685453
0.773668
0.841618
0.572801
0.736713
0.703931
0.758767
0.870824
0.853539
0.858903
0.880957
0.932813
1.008511
0.842810
1.056790
0.986457
1.076460
1.051426
1.240969
1.338720
1.399517
1.437664
1.817942
1.950860
2.066493
2.373457
3.518462
12.514591
68.561435
169.475675
416.792035
682.571530
1015.710831
1015.710831
1015.710831
1015.710831
1015.710831
1015.710831
968.046784
684.753656
361.419916
188.294649
68.276525
27.614832
11.677742
9.594560
9.385943
9.940863
11.076927
13.189912
19.287467
25.931597
38.270950
49.878955
65.954924
75.869560
83.736777
84.009767
77.601671
70.277452
56.601763
46.240687
33.628941
25.790930
18.543601
14.173985
11.150837
10.644794
9.753704
9.678602
9.349585
##ZVALUE=345
0.533462
0.592470
0.601411
0.474453
0.523925
0.613928
0.468493
0.632405
0.413656
0.635982
0.569820
0.546575
0.626445
0.507832
0.663996
0.492930
0.470877
0.676513
0.591874
0.646710
0.604987
0.626445
0.520945
0.557899
0.519753
0.661612
0.499487
0.749826
0.588894
0.764728
0.739694
0.837445
0.816584
0.867844
0.881553
0.909567
0.787973
0.879765
0.925660
0.865459
0.793934
0.911951
1.107454
1.133680
1.241565
1.199841
1.134872
1.366735
1.437664
1.597404
1.745820
1.766682
2.124906
2.177954
7.071495
30.739903
126.548409
258.520842
535.640717
801.881552
1015.712023
1015.712023
1015.712023
1015.712023
1015.712023
1015.712023
707.029700
462.791920
209.463835
101.354718
34.428835
15.993714
9.521842
9.228587
9.000897
9.225607
9.755492
11.885762
16.891956
23.846626
35.861731
46.683550
59.709549
68.631768
74.969530
77.477694
73.794723
67.473650
54.951906
45.001507
33.291578
25.262833
17.796755
14.071465
11.431575
10.176897
##ZVALUE=350
0.452995
0.411868
0.695586
0.541806
0.444651
0.616908
0.564456
0.563860
0.466704
0.511408
0.590682
0.656843
0.455976
0.568628
0.567436
0.628829
0.561476
0.635982
0.480413
0.582933
0.482798
0.507832
0.737906
0.501871
0.671744
0.777841
0.657439
0.731945
0.727773
0.756979
0.779629
0.907779
0.749826
0.828505
0.838637
0.708699
0.600815
0.868440
0.893474
0.714660
0.903606
0.941753
0.838637
0.828505
1.249909
1.173615
1.147985
1.160502
1.186728
1.093745
1.413822
1.458526
1.447797
1.730919
2.126694
2.051592
3.201962
18.273592
61.237812
190.967917
359.405875
701.806545
985.425711
1015.710831
1015.710831
1015.710831
1015.710831
1015.710831
895.027518
536.709428
333.223939
155.402422
73.884726
21.615624
10.630488
8.907914
8.441806
8.182526
8.328557
9.090900
11.139512
15.829802
21.817684
32.065511
40.437579
53.121448
60.692430
68.632960
70.408583
68.516731
62.318444
50.898790
43.179989
31.935573
24.742484
17.722845
##ZVALUE=355
0.505447
0.550747
0.486970
0.531673
0.632405
0.691414
0.501871
0.637770
0.616908
0.615716
0.567436
0.562668
0.611544
0.555515
0.592470
0.533462
0.730753
0.547767
0.559688
0.564456
0.630617
0.512600
0.773668
0.672936
0.740886
0.825524
0.841618
0.817776
0.764728
0.774860
0.600815
0.561476
0.646710
0.734925
0.740886
0.795722
0.734925
0.857711
0.907779
0.846982
0.771880
1.051426
0.859499
0.817776
0.890493
0.921488
1.023412
0.988841
0.974536
1.156926
1.221895
1.247525
1.458526
1.461506
1.666546
1.706481
2.041459
2.166629
2.513528
8.496642
33.000708
127.545595
258.843899
544.024706
849.612951
1015.710831
1015.710831
1015.710831
1015.710831
1015.710831
1015.710831
684.703588
424.578786
183.725953
88.293552
27.222633
11.957884
8.492470
7.991791
7.808805
7.790923
7.950664
8.467436
10.498762
13.103485
19.600987
25.886893
36.344528
45.064688
55.270791
60.828924
64.143538
63.061714
56.439638
50.387979
39.247870
##ZVALUE=360
0.617504
0.582933
0.627637
0.526905
0.540614
0.634789
0.613928
0.783801
0.561476
0.552535
0.681877
0.526905
0.399947
0.615716
0.606775
0.637770
0.654459
0.640750
0.683665
0.521541
0.689626
0.648499
0.585914
0.538826
0.833869
0.686646
0.708699
0.780821
0.739694
0.805855
0.741482
0.748634
0.750422
0.739694
0.754595
0.840425
0.741482
0.730753
0.762939
0.812411
0.954866
0.812411
0.939965
0.898838
0.970960
1.160502
0.987649
1.113415
0.934601
1.122952
1.157522
1.104474
1.382828
1.557469
1.517534
1.556873
1.466870
1.729727
1.938939
2.221465
2.250671
4.099607
15.255809
71.637630
169.358850
405.690670
655.371547
1002.620459
1015.710831
1015.710831
1015.710831
1015.710831
1015.710831
782.727599
504.207611
238.703489
119.117498
42.290688
16.735792
8.742809
7.814765
7.404685
7.476807
7.525682
7.424951
7.920861
8.809566
11.865497
15.110970
22.246838
28.966665
39.015412
46.539903
55.323839
58.440566
57.471991
##ZVALUE=365
0.467896
0.361800
0.531673
0.677705
0.537634
0.435710
0.595450
0.527501
0.541806
0.584722
0.520945
0.494719
0.567436
0.547767
0.530481
0.552535
0.598431
0.577569
0.545979
0.552535
0.548959
0.667572
0.568628
0.761747
0.848770
0.575781
0.694990
0.687838
0.769496
0.777841
0.805855
0.755787
0.757575
0.805855
0.728965
0.740886
0.716448
0.826716
0.723600
0.751615
0.811815
0.838637
0.898838
0.918508
0.885725
0.759959
0.963807
1.149774
0.890493
1.018643
1.063943
0.957847
1.146793
1.229644
1.226664
1.275539
1.163483
1.392961
1.500845
1.744628
1.871586
2.206564
2.463460
2.932549
6.232858
40.531754
111.704469
304.617882
533.208847
922.147036
1015.710831
1015.710831
1015.710831
1015.710831
1015.710831
916.334391
628.767014
334.268808
175.811648
62.333941
24.518967
9.019971
7.824898
7.225871
6.946921
6.882548
6.640553
6.616712
6.799698
7.763505
9.445548
13.344884
17.934442
25.072694
32.465458
40.458441
##ZVALUE=370
0.476837
0.676513
0.542998
0.484586
0.761747
0.580549
0.546575
0.495911
0.524521
0.552535
0.535846
0.538826
0.638962
0.609756
0.641942
0.669956
0.582933
0.730753
0.615716
0.577569
0.614524
0.513792
0.695586
0.648499
0.644922
0.605583
0.631809
0.744462
0.625849
0.712872
0.710487
0.746846
0.554919
0.539422
0.731945
0.660419
0.638962
0.708699
0.642538
0.673532
0.767708
0.712872
0.790954
0.902414
0.820756
0.959635
0.794530
0.936985
1.088977
0.788569
1.075864
0.992417
0.951886
1.166463
1.048446
1.176596
1.299977
1.162887
1.345873
1.539588
1.387596
1.732707
1.654625
1.922846
2.299547
2.303720
3.729463
21.850467
73.286891
228.730440
435.647368
832.349658
1015.710831
1015.710831
1015.710831
1015.710831
1015.710831
1015.710831
819.844604
431.901813
229.543447
81.920624
35.184622
12.757778
7.744431
6.943941
6.435513
6.405711
6.334782
6.207824
6.007552
6.314516
6.923676
8.903742
11.084676
16.781688
##ZVALUE=375
0.539422
0.514984
0.496507
0.554919
0.481606
0.534654
0.483990
0.562668
0.552535
0.551939
0.494719
0.657439
0.532866
0.441670
0.532866
0.709891
0.484586
0.627637
0.535846
0.564456
0.499487
0.559688
0.628829
0.478625
0.563860
0.573993
0.660419
0.625849
0.582933
0.609756
0.662804
0.547767
0.549555
0.695586
0.617504
0.592470
0.716448
0.683665
0.753999
0.794530
0.769496
0.727773
0.752807
0.890493
0.723600
0.743866
0.725985
0.923872
0.832677
0.770688
0.953674
0.926852
0.878572
0.895858
0.974536
0.939965
1.090765
1.062751
1.157522
1.253486
1.151562
1.324415
1.335740
1.444817
1.402497
1.789927
1.898408
2.341866
2.581477
10.203719
40.211678
145.378709
298.935771
628.764629
943.968892
1015.710831
1015.710831
1015.710831
1015.710831
1015.710831
935.690999
548.753738
332.864523
153.368711
73.242784
22.323728
9.720922
6.701946
6.229877
6.244779
5.803704
5.650520
5.734563
5.458593
5.584955
6.387830
##ZVALUE=380
0.413656
0.435710
0.402927
0.515580
0.597835
0.421405
0.479817
0.509620
0.516772
0.608563
0.530481
0.536442
0.408888
0.385642
0.662804
0.426769
0.488758
0.506639
0.607967
0.619888
0.508428
0.568628
0.604987
0.599623
0.435710
0.458956
0.552535
0.548959
0.457764
0.516772
0.571609
0.541806
0.799894
0.612736
0.600815
0.566840
0.494719
0.540614
0.526905
0.616908
0.524521
0.772476
0.666976
0.727773
0.728965
0.665784
0.736713
0.721812
0.761747
0.793934
0.978708
0.783801
0.829697
0.947714
0.948906
1.034737
0.864863
0.906587
0.950694
0.912547
0.908971
1.046658
1.138449
1.333952
1.323819
1.397729
1.433492
1.842976
1.896620
2.481937
2.809763
5.687475
23.790598
112.364888
242.545605
518.052578
816.598535
1015.710831
1015.710831
1015.710831
1015.710831
1015.710831
1015.710831
753.268003
490.674973
225.884914
109.790564
35.179853
14.042854
6.609559
6.000996
5.855560
5.272627
5.413890
5.244613
5.266666
##ZVALUE=385
0.479817
0.350475
0.366569
0.409484
0.418425
0.365973
0.337958
0.490546
0.358820
0.471473
0.529885
0.579953
0.440478
0.367761
0.511408
0.541806
0.545979
0.433922
0.548959
0.430942
0.503659
0.471473
0.485778
0.537634
0.519753
0.458956
0.404716
0.719428
0.419617
0.473857
0.497699
0.429749
0.484586
0.559688
0.476837
0.658631
0.604987
0.584722
0.733733
0.590682
0.495911
0.577569
0.498891
0.594854
0.609756
0.577569
0.508428
0.682473
0.685453
0.795722
0.805855
0.693798
0.690818
0.880957
0.824928
0.762939
0.792742
0.744462
0.939965
1.007915
0.956655
1.056790
1.062751
1.076460
1.130700
1.350641
1.268983
1.454949
1.566410
1.719594
2.140999
2.171993
2.203584
2.964735
9.231567
58.940649
153.988004
372.420549
629.277825
1012.055874
1015.710831
1015.710831
1015.710831
1015.710831
1015.710831
888.403654
612.454414
317.682624
172.422528
66.385865
26.069880
7.971525
5.719662
5.379915
5.334616
4.908442
##ZVALUE=390
0.478625
0.535846
0.683665
0.527501
0.393987
0.423789
0.468493
0.348687
0.402927
0.530481
0.515580
0.391603
0.437498
0.513792
0.531673
0.470877
0.403523
0.474453
0.422597
0.590682
0.494719
0.524521
0.469685
0.642538
0.384450
0.581741
0.452995
0.501871
0.619888
0.414848
0.593662
0.578761
0.483990
0.478625
0.485778
0.718832
0.585914
0.535846
0.620484
0.585914
0.716448
0.679493
0.647902
0.710487
0.718832
0.532866
0.543594
0.723600
0.696778
0.677705
0.683665
0.788569
0.785589
0.677705
0.876784
0.806451
0.806451
0.926852
0.924468
0.695586
0.926852
1.196861
0.942945
1.040697
1.114607
1.240969
1.258850
1.477599
1.613498
1.697540
1.788735
1.866817
2.006888
2.127886
2.203584
2.463460
4.666448
32.363534
102.646947
300.827622
540.884733
962.374806
1015.713811
1015.713811
1015.713811
1015.713811
1015.713811
1015.713811
848.077536
503.567457
285.043716
111.295581
49.586892
14.159679
6.497502
5.365610
##ZVALUE=395
0.529885
0.423789
0.484586
0.435710
0.445843
0.700951
0.416636
0.587702
0.387430
0.506639
0.530481
0.425577
0.406504
0.419617
0.413656
0.375509
0.470877
0.416636
0.424981
0.601411
0.643730
0.495911
0.522733
0.699759
0.611544
0.587702
0.612736
0.546575
0.520945
0.560880
0.576973
0.496507
0.469685
0.556707
0.540614
0.492930
0.505447
0.658631
0.649691
0.609756
0.584722
0.666976
0.528693
0.631809
0.690818
0.644922
0.630617
0.570416
0.746846
0.660419
0.564456
0.791550
0.691414
0.629425
0.864863
0.874996
0.699759
0.837445
0.901818
0.938773
0.903606
1.014471
0.993609
1.035929
1.071692
1.202822
1.295805
1.330972
1.656413
1.650453
1.614690
1.914501
1.854897
1.869798
1.879930
2.068877
2.086759
2.271533
3.222823
18.556714
71.911812
242.945552
446.856618
803.281665
1015.712023
1015.712023
1015.712023
1015.712023
1015.712023
1015.712023
1010.187864
636.224747
387.251973
167.227983
79.205632
23.782849
##ZVALUE=400
0.332594
0.370741
0.459552
0.452995
0.382662
0.373721
0.371933
0.340939
0.490546
0.400543
0.529885
0.443459
0.426769
0.507832
0.492930
0.431538
0.434518
0.356436
0.405908
0.489950
0.406504
0.583529
0.416636
0.583529
0.515580
0.526905
0.327826
0.511408
0.444651
0.457764
0.421405
0.551939
0.412464
0.528693
0.543594
0.527501
0.439882
0.577569
0.488758
0.648499
0.574589
0.428557
0.601411
0.544786
0.644922
0.696778
0.731945
0.609756
0.775456
0.800490
0.697970
0.557899
0.583529
0.732541
0.587702
0.725985
0.662804
0.698566
0.654459
0.757575
0.970960
0.956655
0.940561
0.903606
0.906587
1.100898
1.186728
1.340508
1.482964
1.625419
1.637936
1.668930
1.705885
1.755953
1.699924
1.777411
1.803637
1.909733
2.146959
2.366900
2.871752
9.021759
38.329959
158.734918
330.814719
701.470971
1010.273695
1015.654802
1015.654802
1015.654802
1015.654802
1015.654802
1015.654802
837.358832
535.635948
259.414911
##END
