##TITLE=QP00602
##FORMAT=SPECTACLE-ASCII V-1.2
##DATA TYPE=ULTRAVIOLET SPECTRUM
##SECOND TYPE=ULTRAVIOLET SPECTRUM
##DATE=02/28/18
##TIME=18:20:53
##SPECTROMETER/DATA SYSTEM=SPECTACLE
##XUNITS=NM EM
##YUNITS=ENERGY
##YFACTOR=1
##FIRSTX=220
##LASTX=410
##NPOINTS=96
##3DDATA=Equidistant
##ZUNITS=NM EX
##FIRSTZ=210
##LASTZ=400
##ZPOINTS=39
##XYDATA=(Y..Y)
##ZVALUE=210
2.920628
3.008842
2.671480
3.023744
2.888441
3.050566
2.971888
3.091693
3.162622
3.543496
3.536940
3.020763
3.001690
3.831983
3.387928
3.454685
3.920794
4.844666
4.139543
5.073547
5.244613
5.191565
5.537868
5.899668
6.333590
7.065535
7.306933
7.754564
7.267594
8.033514
8.221865
7.295609
8.014441
9.360909
8.776784
8.347631
8.846521
8.982420
9.029508
10.011792
10.371804
10.322928
9.764433
12.416840
10.745525
10.470748
11.882782
12.041926
11.461973
12.846589
12.619495
12.318492
12.351871
13.384819
14.959574
13.938546
13.765693
14.684796
14.412999
15.450716
14.832616
15.378594
15.203953
15.099645
15.046000
16.731620
17.944574
17.879605
22.084713
24.765730
27.595758
36.057830
41.228533
46.365857
52.274466
59.252977
60.424805
63.248873
63.367486
63.512921
61.507821
53.884983
47.184825
40.534735
35.886765
25.504827
23.387671
19.451976
17.845631
16.778708
15.354753
14.087558
14.565587
14.626980
15.044808
15.421510
##ZVALUE=215
11.850595
12.393594
9.810925
7.361770
6.271601
5.902648
6.244779
5.570650
6.141663
6.517768
5.453825
5.111694
5.040765
4.865527
4.415512
4.222989
4.283786
4.396439
4.954934
4.323721
5.968809
5.977750
4.919767
5.640984
6.352663
5.936623
6.831884
7.156730
7.887483
7.635951
8.581877
8.431673
8.791685
8.364916
8.262992
8.573532
9.152889
9.731650
10.107756
9.681582
9.708405
10.373592
9.530783
11.945963
11.919737
12.461543
12.227893
11.343956
12.491941
12.899637
12.536645
11.955500
13.543963
11.719465
13.369918
14.083982
14.840961
14.479756
14.538765
14.352798
13.289452
15.759468
14.616847
15.058517
16.008615
16.655922
17.617941
19.753575
22.453666
26.146770
32.407641
38.078427
41.854978
46.159625
50.550699
52.056909
52.968860
55.747628
54.085851
50.632954
48.067570
41.861534
39.228797
33.517480
29.131770
25.171638
21.653771
19.003749
17.117858
15.126467
15.167594
14.831424
15.183687
14.134645
14.186502
12.979507
##ZVALUE=220
28.824806
29.830933
34.528971
35.178661
33.290982
24.852753
20.290613
16.648769
12.902617
12.290478
11.886954
12.846589
12.701750
12.264848
10.213852
7.566810
5.862713
5.331635
4.887581
4.161596
4.223585
5.495548
5.042553
6.163716
5.292892
5.943775
5.151629
6.657839
6.965995
7.082820
7.671714
7.189512
7.474422
7.749796
8.292794
7.958412
7.848740
9.610653
8.324981
8.517504
9.076595
10.240674
9.284616
9.838939
9.224415
9.794831
10.314584
10.241866
10.056496
10.954738
12.002587
11.485815
11.683702
13.067722
10.829568
10.877848
11.082888
12.044907
12.272596
11.606812
13.644695
12.049675
13.425946
12.221932
12.953877
13.775826
15.562773
16.599894
18.838644
20.730495
22.334456
28.567910
30.354857
35.361648
36.613941
40.413737
39.802790
38.662553
39.472580
35.625696
33.416748
28.495789
27.568936
22.563934
21.226406
18.549562
16.995668
15.109777
14.466643
12.974739
13.594627
12.055635
13.111830
11.633635
12.535453
11.982918
##ZVALUE=225
35.394430
36.964417
53.726435
64.244866
73.755980
76.042414
74.602962
55.877566
46.443939
33.204556
25.397539
23.340583
24.840832
25.685430
25.999546
24.534464
22.968650
18.289685
11.489987
9.262562
6.932616
6.294847
5.122423
5.039573
4.727840
5.012751
5.295873
6.180406
6.395578
6.430745
6.384850
6.540418
6.387830
6.851554
7.685423
7.959604
8.160472
7.394552
7.704496
8.384585
8.185506
9.116530
8.899570
9.325743
8.809566
8.226633
10.420680
10.523796
10.707974
11.287928
10.483861
10.242462
10.512471
10.833740
10.894537
11.129975
10.974407
10.456443
12.619495
12.452602
12.281537
12.444854
12.892485
13.580918
11.968613
13.612509
13.913512
13.823509
16.946793
18.010736
20.523667
23.350716
28.373599
33.424497
32.609701
33.392906
33.871531
32.517910
32.243729
31.939745
27.193427
25.919676
23.981929
21.333694
19.331574
18.120408
16.732812
16.798973
15.001893
15.837550
15.079975
14.982820
14.083982
15.463829
14.665723
15.070438
##ZVALUE=230
36.681890
39.747953
73.319674
106.971860
138.464570
180.431604
198.373795
195.803642
184.603930
141.629577
108.567476
76.406598
55.894852
44.937730
47.001839
50.172806
53.919554
49.677491
47.275424
37.013888
26.175976
21.358728
13.279915
9.897947
7.850528
6.508827
6.286502
7.613897
7.196665
8.405447
7.770658
8.549690
9.443760
8.368492
9.080768
8.084774
8.700490
10.768771
9.513497
9.724498
10.566711
10.338426
9.323955
10.138750
11.699796
11.751652
11.020899
11.980534
10.963678
11.455417
14.138818
13.362765
13.214946
15.203953
14.800429
15.145540
14.928579
15.253425
16.469955
14.729500
15.445948
16.604662
16.848445
17.030835
18.079877
17.463565
20.399690
20.030737
23.623705
25.040507
30.261874
33.141971
38.367510
39.926767
43.060780
45.519471
44.104457
41.555762
44.016838
40.288568
36.441684
35.139918
31.670928
30.995607
27.450919
26.053786
23.519993
22.840500
23.010969
22.431612
21.364689
22.573471
20.040870
20.109415
21.975636
19.562840
##ZVALUE=235
11.315942
14.254451
30.145645
69.201589
116.691589
192.132592
246.381760
337.466002
373.988748
385.845900
349.299908
283.799767
202.390552
151.254535
100.715756
79.815984
73.812604
80.786943
78.870654
83.491802
75.855851
63.501000
53.201914
36.778450
25.925636
16.448498
11.491776
8.174777
8.208752
8.477569
7.839799
8.694530
8.437634
8.664727
8.947849
8.657575
8.984804
9.642839
8.894801
9.820461
9.783506
10.491610
8.592606
9.260774
10.883808
10.019541
10.292530
11.036992
9.957552
11.636615
10.832548
11.591911
10.735989
11.363626
12.793541
13.417602
12.426972
12.950897
12.285709
13.011694
15.112758
16.335845
15.155673
16.301870
17.241836
18.127561
20.622611
19.465685
21.952987
24.455786
26.588440
31.730533
32.151937
34.948587
35.810471
35.923719
37.122965
35.649538
35.956502
36.148429
33.635497
31.289458
33.650994
29.971600
29.293895
28.151870
28.292537
27.460456
27.440786
27.105808
27.233958
24.408698
25.082827
25.214553
27.367473
26.409626
##ZVALUE=240
2.385974
2.336502
6.318688
17.533898
40.544868
99.864602
170.146823
310.300589
411.658883
545.766950
615.443587
624.558926
582.929850
471.027493
372.433662
241.615772
166.555643
128.973722
102.519989
102.392435
119.392872
122.702718
117.812753
109.588504
86.624622
71.208477
49.368739
35.111904
22.523999
15.920997
11.247993
9.610653
10.053515
9.994507
10.382533
8.496642
9.563565
9.642839
10.141730
9.613633
9.731650
10.133982
9.260774
9.561777
10.803938
10.930896
10.737777
11.287928
9.672642
10.848641
10.849833
10.943413
12.593865
10.853410
12.044907
12.263656
12.428761
13.793707
14.836788
15.119910
15.029907
16.135573
17.167926
17.386675
19.039512
18.815994
20.674467
24.301410
25.130510
27.429461
29.538870
34.399629
36.469698
37.801862
38.423538
42.196512
44.305921
41.192770
44.657588
40.450692
41.994452
39.321780
38.575530
36.859512
36.585927
36.372542
34.438968
35.016537
35.603642
32.329559
33.479929
32.757521
32.852888
34.242868
32.329559
34.721494
##ZVALUE=245
1.626611
1.701713
2.036691
2.563000
4.051924
14.594793
37.521720
100.297928
183.945894
291.732550
466.066003
616.372824
737.417936
772.197843
735.728741
654.130578
484.474897
360.094905
297.046900
163.686872
122.817755
108.288527
119.996667
134.407878
137.499571
133.379698
119.639635
98.173618
79.389811
54.826736
39.919615
23.309588
17.033815
13.327599
10.736585
9.935498
9.833574
9.656549
8.940697
9.167790
8.756518
9.431839
8.878708
8.844733
9.689927
8.792877
8.258820
9.090900
9.012818
8.979440
9.452701
9.666681
10.021925
10.442734
10.617971
9.992719
10.076761
11.274815
12.079477
12.628436
13.934970
14.362931
14.630556
16.383529
15.428662
17.221570
17.699599
19.053817
20.927787
23.815632
26.528835
29.262900
30.628443
33.784509
34.535527
37.296414
38.629770
37.586689
37.464499
37.242770
35.414696
34.416914
34.744740
36.199689
33.515692
33.087730
33.337474
32.004714
33.522844
32.354593
33.563972
31.214952
30.819774
31.885505
34.661889
33.919811
##ZVALUE=250
1.165867
1.528859
1.527667
1.667738
2.058744
2.075434
3.092885
7.566810
32.084584
73.878765
184.717774
305.750966
458.221436
670.114756
803.918839
894.897580
892.395973
788.595676
667.952895
459.173918
316.691995
204.918981
127.283931
106.188655
113.740563
126.910806
139.414668
144.219995
140.457749
130.999684
108.874440
81.548691
61.974525
37.487745
26.183724
14.621615
12.355447
9.126663
9.226799
8.151531
8.196831
8.448958
8.951426
8.308887
8.272529
8.273721
8.779764
8.753538
8.696914
7.931590
8.395910
8.416772
9.141564
8.937716
8.803606
8.991957
9.798408
9.504557
10.225773
11.221766
11.626482
11.854768
13.593435
12.789965
14.844537
15.051961
17.046928
17.791986
21.013618
22.213459
24.821758
26.695728
28.672814
31.501651
32.012463
33.333898
34.053922
33.675432
31.615496
32.704473
33.312440
31.643510
31.692982
32.253861
32.551885
30.842423
29.405951
30.601621
31.304955
32.453537
31.624436
31.236410
31.311512
32.118559
31.314492
30.911565
##ZVALUE=255
1.530647
1.609921
1.527667
1.454949
1.494884
1.697540
1.588464
1.929998
2.086759
5.031824
21.960735
60.431957
126.929879
286.449790
447.618961
709.409714
880.881548
1015.710831
1015.710831
1008.461714
871.406794
688.183904
425.491929
270.581841
147.658587
107.335448
99.190474
108.051896
132.510662
146.041512
153.502822
148.783922
136.002898
108.372569
88.900924
58.716536
39.854646
24.676919
16.121864
10.523796
7.947683
7.934570
8.495450
8.106828
7.374883
8.659959
8.341670
8.172989
8.397698
8.234978
8.280873
8.303523
7.685423
8.540750
8.888841
9.022951
9.176731
8.965731
8.906722
9.475946
10.290742
10.937452
10.584593
12.085438
12.402534
13.148785
14.212728
16.197562
17.026663
18.582940
20.234585
23.148656
24.517775
27.055740
27.267933
29.462576
29.560924
30.101538
29.100776
29.269457
29.132962
29.572845
28.236508
27.453899
28.077960
27.712584
29.493570
29.060841
28.268695
28.279424
30.069947
29.655695
28.665662
28.161407
28.947592
29.759407
##ZVALUE=260
1.366735
1.538992
1.315475
1.523495
1.645684
1.492500
1.447797
1.778603
1.836419
2.128482
2.170801
3.023744
9.754896
41.364431
92.557669
230.677724
394.847393
666.625500
899.546742
1015.710831
1015.710831
1015.710831
1015.710831
916.966796
600.802898
407.338738
223.732591
138.281584
91.854930
90.573430
107.397437
133.684874
151.564479
157.900453
152.274966
135.546923
115.195513
83.132982
61.585903
40.056705
25.507808
15.143752
10.755658
9.267926
8.230805
7.714629
8.298755
8.281469
8.359551
8.682609
8.868575
8.600950
8.573532
8.271933
8.961558
8.347631
9.281635
9.206533
9.991527
9.684563
9.902716
9.670854
10.523796
11.666417
11.949539
12.599826
13.639927
15.234947
15.908480
16.960502
19.618869
20.165443
22.701621
24.822950
25.545955
26.697516
26.590824
26.439428
25.713444
26.445985
25.982857
25.820732
26.527643
25.118589
26.623607
25.801659
26.711822
26.342869
27.706623
27.278662
26.614666
26.605725
27.959943
26.959777
27.536750
27.468801
##ZVALUE=265
1.345873
1.340508
1.337528
1.281500
1.216531
1.258850
1.857877
1.544952
1.476407
1.798868
1.529455
1.896620
1.900792
2.462864
5.336404
31.427741
75.977445
190.025568
346.339941
642.807484
913.589597
1015.710831
1015.710831
1015.710831
1015.710831
1015.710831
857.132077
602.606535
325.475931
195.874572
102.097988
76.731443
87.170601
115.094781
137.819648
155.385733
161.640644
153.820515
138.737559
109.566450
87.895989
58.888793
40.471554
24.345517
17.624497
11.578798
9.432435
9.744763
8.866787
9.557605
9.337664
9.445548
9.259582
9.647608
9.548664
9.722710
10.053515
10.609627
10.255575
11.024475
10.686517
11.008978
10.873675
12.110472
12.352467
13.278723
13.266802
14.973879
15.035868
16.903877
18.841624
19.829869
22.261739
21.794438
23.376942
24.752617
24.410486
25.370717
25.031567
24.460554
23.200512
23.465753
24.713874
24.329424
24.627447
25.393963
24.024844
24.316907
24.209619
25.704503
24.597645
25.417805
25.212765
26.416779
26.283860
26.719570
##ZVALUE=270
1.170635
1.111627
1.252890
1.097918
1.128912
1.126528
1.143813
1.362562
1.402497
1.601577
1.480579
1.686811
1.873970
1.916885
2.186894
2.121925
2.905726
12.700558
40.100813
136.153698
272.862911
483.269691
864.070654
1015.702486
1015.702486
1015.702486
1015.702486
1015.702486
1015.702486
856.743455
591.253638
303.769708
168.908834
79.694986
70.645809
91.066957
113.315582
141.042471
157.735944
161.901712
156.717896
139.020681
116.900802
86.777806
63.509941
40.653944
27.794838
17.253757
13.740659
10.518432
10.349751
10.484457
10.365844
10.796785
10.297894
10.953546
10.715723
11.011958
10.920763
12.073517
11.623502
12.335777
12.548566
12.872815
12.992620
13.680458
14.617443
15.062690
15.729666
16.413927
18.454790
20.133853
21.168590
22.367835
23.547411
22.767782
23.054481
23.870468
23.386478
24.278760
23.296475
23.555756
23.352504
23.170710
23.920536
23.246408
23.713708
24.057627
22.746921
24.427772
25.074482
24.872422
24.691820
24.335980
23.936629
25.234818
##ZVALUE=275
0.924468
1.145601
1.274943
1.092553
1.199841
1.137853
1.220703
1.194477
1.314878
1.121759
1.582503
1.446605
1.498461
1.461506
1.592636
1.687407
1.867414
2.097487
2.330542
5.701780
22.511482
67.601800
219.128728
415.198803
789.253712
1015.712023
1015.712023
1015.712023
1015.712023
1015.712023
1015.712023
998.132825
737.711787
403.205752
234.845877
107.206702
67.306757
65.625906
86.227655
115.045905
134.885907
155.511498
162.304640
155.354738
141.629577
113.420486
90.595484
63.294768
44.767857
28.287768
20.710826
14.580488
12.371540
11.291504
11.843443
12.059808
11.999607
12.779832
12.777448
12.397766
12.612939
13.171434
12.692809
13.679862
13.416409
14.648438
15.148520
16.043782
15.855432
18.048882
17.922521
20.060539
20.707846
21.762848
22.487640
22.039413
23.416877
22.832751
23.043752
22.152662
22.904873
22.896528
22.398829
23.072958
22.447705
22.263527
23.348927
23.473501
23.280978
23.233891
22.662878
22.407770
23.005605
22.668839
23.026466
23.189783
##ZVALUE=280
0.863671
1.008511
0.857711
1.092553
1.000762
0.936985
1.133680
1.153946
1.204610
1.277924
1.341701
1.287460
1.428723
1.478791
1.358986
1.550913
1.570582
1.846552
1.876950
1.690984
2.280474
3.066659
14.213920
49.064755
160.103440
309.894681
605.593920
908.614993
1015.710831
1015.710831
1015.710831
1015.710831
1015.710831
1015.710831
824.676752
454.376936
266.418457
115.890503
64.111948
49.394965
60.496926
87.516904
110.476613
138.398409
152.248740
160.060525
155.395865
136.942863
115.135908
85.999966
65.009594
42.235851
29.588938
19.774437
15.400648
13.378859
12.850761
11.794567
13.159513
13.016462
13.518929
13.794899
14.147758
14.409423
14.292598
15.324950
15.457869
15.816689
17.076731
18.167496
18.520951
19.448996
20.798445
21.730661
22.602677
22.921562
22.350550
21.936893
22.877455
22.736788
22.691488
21.808743
21.904707
21.941662
22.559762
22.605658
22.705793
22.775531
22.005439
22.376776
22.326708
22.138953
22.192597
23.329854
21.819472
22.231936
##ZVALUE=285
1.105666
0.937581
0.893474
1.169443
0.917912
0.873804
0.918508
0.947714
1.041889
1.127720
1.330972
1.226664
1.165867
1.178980
1.195669
1.337528
1.417994
1.495481
1.490712
1.707673
1.765490
1.672506
2.354980
2.507567
8.591413
31.237602
80.389977
221.471786
396.573544
742.401481
1015.710831
1015.710831
1015.710831
1015.710831
1015.710831
1015.710831
1015.710831
681.423545
416.095853
190.498829
94.299912
43.133497
39.731860
57.193637
78.125596
110.353827
129.416585
145.627856
151.564479
147.682428
133.542418
109.958649
89.976788
63.325763
45.186877
27.588606
19.819736
13.692975
11.618733
11.371970
11.656880
11.504889
11.734962
12.517571
12.882948
13.076663
14.041662
14.621615
15.369654
16.055703
17.496943
18.250942
19.363761
19.796491
20.157695
20.272732
20.931959
20.884871
20.771623
21.333694
20.943880
21.180511
21.294951
21.414757
21.846890
21.398664
21.712780
22.302866
21.719933
21.762848
21.172762
21.890998
21.372437
20.780563
21.228790
21.565557
##ZVALUE=290
0.906587
1.154542
0.710487
1.051426
0.912547
0.948906
0.999570
0.859499
0.925660
0.978708
1.080632
0.944734
1.137853
1.106858
1.104474
1.179576
1.216531
1.289845
1.184940
1.402497
1.444817
1.684427
1.998544
2.137423
2.269745
2.620816
4.467964
18.155575
83.348751
182.890892
337.374806
669.781566
977.988839
1015.710831
1015.710831
1015.710831
1015.710831
1015.710831
1015.710831
833.093524
529.248714
258.165002
130.164623
50.181746
30.768514
38.251877
52.485466
76.443553
97.710490
123.160481
139.543414
148.598552
145.795941
130.189657
111.089945
84.325671
62.184930
41.916966
29.493570
19.169450
15.094876
11.603832
11.722445
11.496544
12.401938
12.801886
13.459921
14.351606
15.315413
16.171932
17.056465
18.042922
18.914938
19.405484
20.307899
20.689964
21.406412
20.634532
21.038651
20.511746
20.675659
20.947456
20.307899
21.223426
20.946860
21.449924
21.971464
21.680593
21.889806
21.795630
21.329522
21.628737
21.506548
21.168590
21.233559
20.999908
##ZVALUE=295
0.623465
0.800490
0.889897
0.820756
0.819564
0.915527
1.034737
1.014471
0.959635
0.993609
0.922680
1.051426
1.030564
1.110435
0.958443
1.103878
1.218915
1.224875
1.309514
1.312494
1.287460
1.279712
1.618862
1.636744
1.651645
1.866817
2.218485
2.212524
3.017783
6.000400
22.870898
109.216571
247.009993
555.913448
871.690512
1015.710831
1015.710831
1015.710831
1015.710831
1015.710831
1015.710831
975.469947
670.311451
343.516469
183.430910
65.490603
32.379627
24.847984
31.738877
49.529672
68.168640
95.015764
114.265680
133.530498
139.994621
136.646628
126.984715
104.609728
85.899830
59.121847
44.649839
28.098822
21.110773
16.177893
13.371706
12.984872
13.199449
13.730526
14.926791
15.753508
16.509891
17.385483
18.728971
19.461513
19.555688
20.115972
20.127892
20.146966
20.483732
21.055937
21.187663
20.981431
20.776987
21.554828
21.711588
21.504760
21.673441
21.572709
21.467805
21.507740
20.763874
20.632744
21.570921
21.315813
20.818710
20.899773
##ZVALUE=300
0.686646
0.810623
0.814795
0.851750
0.822544
0.704527
0.915527
0.668764
0.759959
0.964999
0.929832
0.847578
0.906587
1.059771
0.920892
0.936985
1.070499
1.029968
0.968575
1.062751
1.233816
1.130700
1.290441
1.438856
1.590848
1.382828
1.618862
1.861453
2.054572
2.166629
2.545714
3.143549
8.535981
53.789616
139.734745
369.604826
634.549856
1015.710831
1015.710831
1015.710831
1015.710831
1015.710831
1015.710831
1015.710831
892.635584
487.358570
281.348825
119.479895
55.209994
21.974444
20.429492
30.700564
42.360425
64.372420
83.480477
109.063983
124.756694
134.952664
132.873654
120.420456
106.400847
81.743598
64.547658
44.237971
31.799674
21.905899
17.549992
15.794635
15.213490
15.474558
16.555786
18.070936
18.739700
19.451976
20.237565
20.460486
20.333529
20.956993
20.284653
21.230578
21.102428
21.311641
22.045970
21.824837
21.372437
21.465421
22.224784
21.929741
21.927953
21.461844
21.757483
21.589994
20.766854
21.262765
21.215677
21.300912
##ZVALUE=305
0.746846
0.662804
0.797510
0.868440
0.846982
0.712872
1.002550
0.878572
0.665784
0.908971
0.672936
0.825524
1.160502
0.769496
0.837445
1.063943
0.966787
1.014471
1.153946
1.055598
1.108646
1.166463
1.189709
1.150966
1.368523
1.520514
1.426935
1.472831
1.604557
1.669526
1.919866
2.176762
2.206564
2.659559
4.846454
33.044815
97.473860
281.016827
510.728955
944.513679
1015.712619
1015.712619
1015.712619
1015.712619
1015.712619
1015.712619
1015.712619
689.793825
418.986678
182.714462
85.901618
28.502941
16.644597
19.554496
27.626753
44.324994
61.027408
83.960891
102.508664
121.233463
128.878951
127.893686
118.276477
99.774599
82.016587
60.096979
45.406818
31.640530
25.006533
19.330978
18.459558
17.994642
18.683672
19.472837
20.260811
19.508600
20.491481
21.141768
20.368695
21.272898
21.859407
21.846890
22.226572
22.482872
22.168756
22.521615
22.508502
22.243857
22.603869
22.200942
22.185445
21.929741
21.672845
22.232533
22.076964
21.196604
##ZVALUE=310
0.750422
0.702739
0.913739
1.086593
0.676513
0.735521
0.716448
0.826716
0.783801
0.757575
0.831485
0.854731
0.825524
0.854731
0.943542
0.939965
0.865459
0.932813
0.923872
0.953674
0.988841
1.278520
0.964999
1.138449
1.158714
1.283884
1.363754
1.305938
1.284480
1.454949
1.676679
1.625419
1.687407
2.032518
2.365708
2.667904
3.365874
13.332963
48.437715
173.325539
352.762938
741.652846
1015.709639
1015.709639
1015.709639
1015.709639
1015.709639
1015.709639
1015.709639
964.988470
638.819933
312.454700
163.096786
54.598451
21.854639
14.630556
17.755628
25.802851
37.680864
57.095885
74.890852
96.843839
110.932589
123.280883
123.092532
112.966895
100.803971
81.455708
65.229535
46.064854
36.510825
27.302504
23.481846
20.603538
20.504594
20.198822
20.795465
21.172762
21.642447
21.574497
21.937490
22.164583
22.552609
22.483468
22.720695
22.738576
23.484826
23.404956
22.696853
22.954941
22.288561
22.106767
22.055507
21.776557
21.530986
21.907687
##ZVALUE=315
0.821948
0.637770
0.805855
0.761747
0.784993
0.923872
0.788569
0.595450
0.772476
0.799894
0.788569
0.850558
0.707507
1.088977
0.839829
0.884533
0.881553
0.898838
0.875592
0.961423
0.931621
1.139641
0.891685
1.211762
0.928640
1.117587
1.256466
1.262426
1.450777
1.290441
1.382828
1.406670
1.528859
1.609921
1.852512
2.223849
2.270937
2.500415
2.736449
6.451607
25.259852
108.547807
248.802900
584.358573
950.200558
1015.710831
1015.710831
1015.710831
1015.710831
1015.710831
1015.710831
1015.710831
850.930810
443.108678
236.786008
83.981752
33.152699
13.988614
13.776422
18.078685
24.178624
37.752986
50.873756
72.414875
88.863969
106.123686
115.828514
117.608905
112.400651
96.174479
81.892610
62.077641
49.414635
35.386682
28.922558
24.232864
22.318959
22.197962
22.124648
21.406412
22.290945
22.211671
22.468567
22.828579
22.946000
22.703409
23.185611
23.444891
23.425817
22.901893
22.468567
23.281574
23.468733
22.963881
22.758842
22.515655
##ZVALUE=320
0.818968
0.666976
0.716448
0.757575
0.701547
0.808835
0.667572
0.686646
0.703931
0.814795
0.882745
0.855923
0.905991
0.840425
0.721812
0.776649
0.875592
0.864863
0.812411
0.873804
0.978708
0.994802
0.980496
0.899434
1.061559
1.081824
1.208782
1.135468
1.200438
1.229644
1.271963
1.523495
1.371503
1.243949
1.460910
1.839995
1.743436
1.947880
2.119541
2.331734
2.917647
3.572702
10.979772
62.029958
163.035393
443.792939
751.323700
1015.716791
1015.716791
1015.716791
1015.716791
1015.716791
1015.716791
1015.716791
1004.177928
570.516586
318.318605
128.777623
54.395795
18.074512
12.842417
13.649464
16.354918
23.477674
33.107996
50.427914
65.262914
85.777640
99.382997
112.236738
113.589764
106.995702
97.049475
79.044700
63.915849
47.615767
37.352443
29.642582
25.637746
23.591518
22.673607
22.533536
22.681952
22.556782
23.404956
23.600459
23.095608
23.293495
23.496747
23.771524
23.658872
23.414493
23.589730
22.677779
23.091435
22.557974
##ZVALUE=325
0.443459
0.638962
0.502467
0.421405
0.538826
0.595450
0.577569
0.663996
0.601411
0.475645
0.617504
0.644922
0.602603
0.695586
0.782609
0.586510
0.765920
0.579953
0.700951
0.701547
0.648499
0.643730
0.849962
0.747442
0.634789
0.904799
0.800490
0.877976
1.084805
0.965595
1.027584
1.096725
0.997782
1.192689
1.369715
1.334548
1.540780
1.670718
1.669526
1.858473
1.898408
2.295971
2.511740
2.771616
6.132722
40.021539
107.334852
302.636623
571.304560
1015.554667
1015.554667
1015.554667
1015.554667
1015.554667
1015.554667
1015.554667
1015.554667
837.071538
488.479733
202.665925
88.532567
25.953650
14.006495
13.083816
13.810992
17.613769
22.915602
34.532547
47.445893
67.818761
83.439946
99.357963
107.563734
108.576417
104.228854
89.562535
76.633692
59.971809
48.088431
35.547614
29.849410
25.227666
23.972988
23.227930
23.490787
23.097992
23.034811
22.839904
22.952557
22.824407
22.920966
22.674799
22.739768
22.450686
22.364855
22.140741
##ZVALUE=330
0.741482
0.639558
0.612736
0.583529
0.774860
0.646710
0.855923
0.747442
0.683665
0.892878
0.725985
0.863671
0.742674
0.775456
0.667572
0.699759
0.907779
0.661612
0.828505
0.761747
0.836849
0.817776
0.829697
1.008511
0.823736
1.037717
1.024604
0.904799
0.877976
0.917912
1.163483
1.116991
1.071692
1.195669
1.362562
1.338720
1.528859
1.257658
1.539588
1.520514
1.552701
1.860857
1.977682
2.371669
2.556443
2.888441
3.702641
17.881989
58.597922
196.902752
398.668647
836.249590
1015.710831
1015.710831
1015.710831
1015.710831
1015.710831
1015.710831
1015.710831
1015.710831
693.506598
298.205614
139.677525
45.246482
18.772483
13.050437
13.028979
14.615655
17.878413
24.367571
33.474565
49.185753
62.632561
81.768632
94.470978
103.216767
102.924705
96.974969
87.293983
72.050691
58.904886
45.209527
37.291646
29.973984
27.071834
24.210811
23.126602
22.697449
22.911429
22.662878
22.365451
21.915436
22.316575
22.138953
22.464991
21.956563
##ZVALUE=335
0.582933
0.605583
0.606775
0.519753
0.727773
0.659823
0.624657
0.587702
0.560880
0.817776
0.736713
0.591874
0.762939
0.709891
0.719428
0.807643
0.709891
0.579953
0.674725
0.670552
0.749826
0.788569
0.711679
0.989437
0.834465
0.796914
0.979900
0.986457
0.866652
0.935793
0.873804
0.860691
0.917912
0.923872
0.968575
0.917912
1.126528
1.330972
1.331568
1.288652
1.440644
1.613498
1.633763
1.890659
1.917481
1.909733
2.210736
2.437830
3.021955
8.047819
29.545426
117.239952
250.724554
572.475791
938.900709
1015.710831
1015.710831
1015.710831
1015.710831
1015.710831
1015.710831
1015.710831
811.917782
407.119989
206.497908
65.939426
25.844574
13.278723
13.045669
14.082789
15.402436
19.185543
23.787618
35.093427
46.196580
62.939525
76.189637
90.166926
96.582770
98.855495
93.179941
82.305670
70.907474
57.118535
46.670437
37.025809
30.840635
25.982857
24.048686
22.465587
22.172928
21.735430
21.758676
21.855831
21.515489
21.496415
##ZVALUE=340
0.622869
0.573993
0.546575
0.688434
0.643730
0.767708
0.682473
0.535846
0.583529
0.518560
0.581741
0.550747
0.596642
0.639558
0.592470
0.687838
0.572801
0.689626
0.661612
0.690818
0.718832
0.696778
0.663996
0.771880
0.777841
0.682473
0.825524
0.727773
0.926852
0.926852
0.887513
0.819564
1.014471
0.904799
0.982881
0.886917
1.021624
1.026988
1.148582
1.233816
1.069903
1.391768
1.512766
1.440644
1.414418
1.752973
1.653433
1.772642
2.192855
2.451539
2.834797
3.748536
19.824505
65.012574
205.630660
407.566428
835.504532
1015.710831
1015.710831
1015.710831
1015.710831
1015.710831
1015.710831
1015.710831
866.004825
534.669757
243.245959
112.953782
31.170845
15.526414
13.618469
13.776422
14.297962
16.103983
19.023418
23.606420
33.272505
44.346452
60.002804
72.903633
85.984468
92.206597
93.135834
89.175701
79.047680
70.306659
55.307746
46.106577
35.754442
29.871464
24.714470
22.735000
21.364689
20.715594
20.496845
20.736456
##ZVALUE=345
0.558496
0.545979
0.658631
0.508428
0.531673
0.561476
0.630617
0.686646
0.672936
0.676513
0.533462
0.690818
0.450611
0.587702
0.563860
0.643730
0.758767
0.651479
0.754595
0.677705
0.781417
0.577569
0.778437
0.677705
0.852942
0.881553
0.742674
0.824928
0.678897
0.813603
0.931621
0.968575
0.936985
0.824928
0.917912
0.976920
1.025796
0.974536
0.887513
1.098514
1.157522
1.253486
1.307726
1.320839
1.411438
1.488924
1.606941
1.696944
1.665950
1.987815
1.991987
2.296567
2.455711
3.026724
6.556511
43.997765
122.354627
337.315798
610.179901
1015.712023
1015.712023
1015.712023
1015.712023
1015.712023
1015.712023
1015.712023
1015.712023
694.015622
378.754735
142.434835
61.304569
21.145940
14.432669
14.371872
14.234781
14.627576
15.377998
18.674731
22.711754
31.936765
41.928887
56.884885
66.456795
77.906847
83.864927
86.396933
84.372759
75.229406
66.287518
53.572655
44.319630
34.741759
29.383898
24.279952
22.305846
20.499825
##ZVALUE=350
0.571609
0.729561
0.738502
0.452995
0.608563
0.670552
0.697970
0.693798
0.773668
0.854731
0.775456
0.808835
0.638962
0.856519
0.826716
0.580549
0.839829
0.747442
0.610948
0.534654
0.887513
0.674725
0.740886
0.843406
0.845790
0.975728
0.883937
0.894666
0.880957
0.866652
1.144409
0.954866
0.780821
0.987649
0.953674
1.015663
1.031756
0.988841
1.119971
1.082420
1.203418
1.131892
1.152754
1.315475
1.451969
1.389980
1.605749
1.582503
1.644492
1.697540
1.987815
1.982450
1.964569
2.315640
2.563596
2.909899
3.947616
21.459460
71.475506
230.662823
440.231562
901.289582
1015.805006
1015.805006
1015.805006
1015.805006
1015.805006
1015.805006
1015.805006
814.175606
485.739708
214.559436
94.337463
26.802421
15.174747
13.512969
13.467669
12.977719
13.376474
14.913678
17.382503
22.737980
29.127598
38.703680
47.545433
60.404539
69.576502
77.467561
79.424977
77.357888
71.491599
60.501695
52.340627
40.710568
33.480525
27.142763
##ZVALUE=355
0.543594
0.681877
0.686646
0.529885
0.644922
0.746846
0.631809
0.542998
0.672936
0.701547
0.787973
0.692606
0.664592
0.640750
0.644922
0.725985
0.755787
0.752807
0.626445
0.689626
0.818968
0.777841
0.753999
0.661612
0.874996
0.759959
0.854731
0.781417
0.831485
0.762939
0.826716
0.736713
0.826716
0.883937
0.725985
0.821948
0.988841
1.024604
1.041889
1.051426
0.996590
1.165867
1.151562
1.221895
1.191497
1.212955
1.269579
1.395941
1.345873
1.406670
1.681447
1.604557
1.722574
1.960993
1.920462
2.167821
2.450943
2.905726
3.166795
10.067821
40.240884
156.341791
320.041776
671.194792
995.652676
1015.710831
1015.710831
1015.710831
1015.710831
1015.710831
1015.710831
957.154632
603.457689
259.580612
119.072795
35.456419
16.067624
12.579560
12.267828
12.276769
12.779832
13.404489
14.252663
16.792417
19.664764
26.233792
32.900572
42.613745
51.687956
63.469410
69.115758
72.862506
70.835948
66.044927
59.668422
49.103498
##ZVALUE=360
0.699759
0.607967
0.721812
0.676513
0.692606
0.595450
0.636578
0.786781
0.788569
0.765920
0.667572
0.826716
0.754595
0.792742
0.655651
0.705719
0.788569
0.745654
0.703931
0.661612
0.679493
0.642538
0.675917
0.765920
0.874996
0.797510
0.874996
0.847578
0.789762
0.941753
1.010895
0.750422
0.778437
0.892878
0.829697
0.752807
1.060963
0.870824
1.001954
1.162887
0.923872
0.925660
1.019835
1.075864
1.346469
1.268983
1.315475
1.348853
1.337528
1.601577
1.553893
1.509786
1.610518
1.670718
1.845956
1.845956
2.101660
2.213717
2.388954
2.617836
3.151894
4.912615
17.874837
83.269477
201.931596
501.123667
834.159851
1015.712023
1015.712023
1015.712023
1015.712023
1015.712023
1015.712023
1015.712023
784.767866
375.095606
190.642476
65.004826
24.766922
12.375712
11.725426
11.771917
11.854768
12.152791
12.194514
13.018847
14.312863
17.237663
21.009445
27.802587
35.736561
46.302676
54.261684
61.824918
65.425634
64.888000
##ZVALUE=365
0.605583
0.542998
0.601411
0.620484
0.651479
0.750422
0.659823
0.595450
0.755787
0.656843
0.777841
0.632405
0.601411
0.758767
0.698566
0.578761
0.781417
0.728965
0.669956
0.701547
0.774860
0.633597
0.676513
0.726581
0.659823
0.882745
0.676513
0.727773
0.847578
0.830889
0.862479
0.924468
0.910759
0.942945
0.949502
0.834465
0.990629
0.984669
1.035929
1.039505
0.947714
1.104474
1.010895
1.022816
1.004934
1.180768
1.052618
1.065731
1.183748
1.416802
1.357794
1.537800
1.467466
1.681447
1.503825
1.603961
1.602769
1.696944
1.959801
2.096891
2.446771
2.832413
3.103614
3.682971
7.963777
48.425794
141.238570
396.247506
705.662966
1015.710831
1015.710831
1015.710831
1015.710831
1015.710831
1015.710831
1015.710831
951.216817
514.656901
275.736451
97.691417
38.157701
13.394952
11.159778
10.864735
10.591745
10.525584
11.265874
11.174679
11.430979
12.816787
14.756918
18.681884
23.176670
31.124949
37.930608
47.315955
##ZVALUE=370
0.651479
0.470877
0.684857
0.749826
0.784993
0.686646
0.658631
0.771880
0.628829
0.643730
0.766516
0.747442
0.803471
0.574589
0.611544
0.599623
0.628829
0.615716
0.591874
0.658631
0.624657
0.736713
0.745654
0.804663
0.724792
0.839829
0.754595
0.804663
0.773668
0.815988
0.753999
0.774860
0.890493
0.864863
0.823736
0.810623
0.781417
1.007915
1.033545
0.819564
0.867844
0.925660
1.048446
0.836849
1.100898
1.089573
1.059771
0.932813
1.157522
1.146793
1.429915
1.220703
1.243949
1.383424
1.485944
1.456738
1.409650
1.487732
1.758933
1.873970
1.934767
2.170801
2.269745
2.497435
2.793670
3.284812
4.859567
27.546883
91.631413
295.385718
544.342995
985.395908
1015.710831
1015.710831
1015.710831
1015.710831
1015.710831
1015.710831
1015.710831
631.420016
348.376632
133.297443
58.423877
19.552708
10.994673
9.922981
9.862781
9.892583
10.261536
10.141730
10.305643
10.378957
11.088848
13.516545
16.103983
21.225810
##ZVALUE=375
0.494719
0.514984
0.535846
0.582933
0.539422
0.526905
0.531673
0.468493
0.634789
0.533462
0.573993
0.794530
0.604987
0.590682
0.670552
0.585914
0.600815
0.779629
0.655651
0.654459
0.698566
0.741482
0.681877
0.775456
0.636578
0.610948
0.810623
0.704527
0.696778
0.809431
0.834465
0.817776
0.746846
0.648499
0.784993
0.779629
0.721812
0.719428
0.774860
0.732541
0.855923
0.687838
0.900626
0.943542
1.037717
0.959635
1.023412
0.986457
1.051426
0.984669
0.946522
1.144409
1.117587
1.207590
1.176000
1.136661
1.250505
1.259446
1.345873
1.253486
1.522899
1.701713
1.905560
1.923442
2.035499
2.373457
2.603531
2.851486
3.555417
13.392568
52.048564
191.012025
398.352742
853.372812
1015.710831
1015.710831
1015.710831
1015.710831
1015.710831
1015.710831
1015.710831
879.221559
529.989004
233.624578
110.808611
32.207966
13.600588
9.438992
9.228587
9.107590
9.079576
9.022951
9.080768
9.219646
9.334683
10.048747
##ZVALUE=380
0.654459
0.533462
0.586510
0.468493
0.666976
0.579953
0.552535
0.553727
0.591874
0.555515
0.670552
0.507832
0.475645
0.724792
0.735521
0.837445
0.582933
0.562668
0.448823
0.628829
0.611544
0.705719
0.577569
0.637770
0.465512
0.510812
0.662804
0.623465
0.620484
0.607967
0.652671
0.655651
0.691414
0.797510
0.702739
0.562668
0.680685
0.665784
0.731945
0.798702
0.843406
0.794530
0.854731
0.767708
0.762939
0.726581
0.939965
0.926852
0.901818
0.970960
1.000762
0.962615
1.086593
1.168847
1.071692
1.091957
1.138449
1.174808
1.071692
1.201630
1.324415
1.352429
1.472831
1.509786
1.551509
1.945496
2.002716
2.196431
2.486706
2.975464
3.780723
7.259846
30.520558
147.913694
327.476859
711.830854
1015.712023
1015.712023
1015.712023
1015.712023
1015.712023
1015.712023
1015.712023
1015.711427
715.913773
332.040787
162.844658
53.128600
20.607710
9.426475
8.544922
8.121729
8.234978
8.545518
8.109808
8.465648
##ZVALUE=385
0.439882
0.588894
0.581741
0.504851
0.577569
0.607967
0.511408
0.529885
0.605583
0.463724
0.600815
0.499487
0.617504
0.500679
0.442863
0.579953
0.409484
0.525713
0.664592
0.635982
0.563860
0.507832
0.540614
0.656843
0.536442
0.523925
0.513792
0.528693
0.757575
0.506639
0.468493
0.626445
0.704527
0.651479
0.633597
0.631809
0.695586
0.630617
0.647902
0.708699
0.863671
0.918508
0.735521
0.787973
0.785589
0.806451
0.759959
0.673532
0.739694
0.831485
0.784993
0.849962
0.791550
1.083612
1.024604
0.943542
1.013875
1.050830
1.090765
1.172423
1.164675
1.173615
1.357794
1.403689
1.353621
1.562834
1.763701
1.921654
2.158880
2.485514
2.708435
2.816916
3.415942
3.784895
15.784502
58.140755
220.788717
471.282005
970.198512
1015.712023
1015.712023
1015.712023
1015.712023
1015.712023
1015.712023
1015.711427
947.015882
588.032603
257.695913
119.467974
36.344528
13.380647
8.269548
8.137822
7.702708
7.786751
##ZVALUE=390
0.543594
0.642538
0.476837
0.474453
0.475645
0.379682
0.488758
0.566840
0.458956
0.431538
0.515580
0.566840
0.506639
0.584722
0.699759
0.413656
0.522733
0.643730
0.541806
0.528693
0.662804
0.558496
0.627637
0.539422
0.725985
0.424981
0.562668
0.510812
0.579953
0.535846
0.492930
0.611544
0.572801
0.488758
0.690818
0.695586
0.669956
0.588894
0.884533
0.770688
0.897646
0.814795
0.755787
0.905991
0.666976
0.751615
0.886917
0.789762
0.840425
0.771880
0.836849
0.888705
0.791550
0.915527
0.846982
0.870824
0.981688
1.094937
1.029968
1.092553
1.054406
1.071692
1.234412
1.382828
1.433492
1.466870
1.519918
1.711845
2.021790
2.266765
2.485514
2.563000
2.673864
3.005862
2.860427
3.164411
6.536841
42.046905
129.397511
394.137502
731.143951
1015.710831
1015.710831
1015.710831
1015.710831
1015.710831
1015.710831
1015.710831
1015.710831
749.440789
422.039628
165.875554
73.098540
20.905733
9.283423
7.631779
##ZVALUE=395
0.551939
0.515580
0.512600
0.346899
0.530481
0.484586
0.455976
0.459552
0.670552
0.518560
0.576973
0.557899
0.487566
0.391603
0.445843
0.509620
0.483990
0.488758
0.461936
0.603795
0.506639
0.467896
0.635982
0.578761
0.678897
0.609756
0.579953
0.600815
0.595450
0.668764
0.674725
0.594854
0.551939
0.730753
0.532866
0.570416
0.673532
0.590682
0.735521
0.863671
0.639558
0.704527
0.675917
0.647902
0.562668
0.705719
0.802875
0.702739
0.798702
0.837445
0.797510
0.842810
0.927448
1.022816
0.902414
0.817776
1.044869
0.906587
1.046658
1.038909
1.138449
0.999570
1.172423
1.208782
1.248717
1.182556
1.605749
1.726747
1.830459
2.099872
2.270937
2.266765
2.447963
2.422929
2.392530
2.709627
2.743602
3.060699
4.266500
29.003620
107.586980
345.358849
627.302527
1015.712023
1015.712023
1015.712023
1015.712023
1015.712023
1015.712023
1015.712023
1015.712023
939.005017
569.946766
239.799023
111.772418
32.445788
##ZVALUE=400
0.494719
0.378489
0.543594
0.541806
0.392795
0.512600
0.378489
0.464916
0.545979
0.434518
0.569820
0.607967
0.586510
0.658631
0.678897
0.600815
0.373721
0.618696
0.665784
0.410676
0.438690
0.492930
0.531673
0.576973
0.737906
0.546575
0.631809
0.676513
0.491738
0.626445
0.629425
0.703931
0.712872
0.649691
0.717640
0.694990
0.748634
0.717640
0.630617
0.769496
0.717640
0.700951
0.699759
0.714660
0.840425
0.767708
0.876784
0.929832
0.927448
0.904799
0.751615
0.768900
0.843406
0.911951
0.918508
0.890493
0.969768
1.079440
0.965595
1.039505
1.220703
0.932813
1.056790
1.115799
1.277924
1.267791
1.481771
1.632571
1.861453
1.913905
2.089739
2.015829
2.195835
2.017617
2.103448
2.059937
2.131462
2.152920
2.446771
3.030896
3.419518
11.232495
46.914816
187.290907
393.337011
849.775672
1015.710831
1015.710831
1015.710831
1015.710831
1015.710831
1015.710831
1015.710831
1015.710831
722.850561
353.033543
##END
