##TITLE=10FILTER
##FORMAT=SPECTACLE-ASCII V-1.2
##DATA TYPE=ULTRAVIOLET SPECTRUM
##SECOND TYPE=ULTRAVIOLET SPECTRUM
##DATE=12/18/17
##TIME=12:18:28
##SPECTROMETER/DATA SYSTEM=SPECTACLE
##XUNITS=NM EM
##YUNITS=ENERGY
##YFACTOR=1
##FIRSTX=220
##LASTX=410
##NPOINTS=96
##3DDATA=Equidistant
##ZUNITS=NM EX
##FIRSTZ=210
##LASTZ=400
##ZPOINTS=39
##XYDATA=(Y..Y)
##ZVALUE=210
12.764931
13.864636
12.021661
10.906458
10.397434
9.298921
8.805990
6.703734
6.060600
5.481839
3.929734
2.931952
2.314448
2.717972
1.891851
2.430677
2.507567
2.420545
2.269745
2.602935
3.089905
3.116727
3.300905
4.183650
4.391670
7.640719
7.652640
10.109544
12.641549
16.603470
18.815994
21.503568
24.789572
25.178790
27.169585
27.258992
27.930737
27.548671
26.359558
26.477575
25.378466
23.738742
23.808479
22.155643
19.891858
17.663836
17.459989
17.817616
17.150640
15.348792
14.632940
13.936758
14.048815
13.512969
11.413693
11.511445
12.601614
10.928512
10.389686
9.787679
9.080768
10.165572
9.069443
9.555817
9.799600
8.691549
8.752942
8.745790
8.558631
9.247661
9.574890
11.197925
11.138916
12.218952
12.540817
13.306737
14.154911
12.841821
11.086464
10.056496
9.590983
9.036660
8.161664
7.684827
7.315874
6.837845
6.954670
5.589724
5.495548
6.989837
8.837581
10.064840
15.033484
18.454790
22.907853
24.496913
##ZVALUE=215
34.394860
35.408735
31.102896
22.615790
18.578768
17.028451
15.815496
13.551712
14.356971
13.727546
11.041760
9.644628
6.221533
5.636811
3.689528
2.965927
2.793670
3.329515
3.005862
2.825856
3.096461
2.899766
3.751516
4.830956
5.132556
7.621646
10.870695
13.083816
16.818643
20.275712
23.840666
25.216937
31.867623
31.475425
33.729672
36.047697
31.893849
33.744574
32.670498
32.244921
32.447577
29.573441
27.664900
25.933981
26.019812
23.393631
20.763874
20.725727
20.267963
18.404722
16.482472
17.071962
14.499426
14.683604
13.961792
13.085604
11.931658
11.791587
12.532473
11.619925
10.405779
11.089444
10.140538
9.041429
9.358525
8.627772
8.852482
8.328557
7.764697
7.845759
9.395480
10.645986
11.967421
11.243820
11.867881
12.200475
11.276603
11.202693
10.638833
10.753870
9.385943
8.247495
8.141994
7.623434
6.640553
6.045699
6.036758
5.805492
5.424619
4.967451
4.671812
4.971623
5.020499
7.162690
9.089708
9.670854
##ZVALUE=220
81.644654
82.495809
75.938702
69.630742
59.374571
43.392777
36.346912
27.298927
23.145676
25.399923
23.278594
22.479892
21.332502
15.428662
14.316440
10.834932
6.687641
4.903674
3.726482
3.408790
2.868772
3.520846
4.509687
4.109740
6.341934
8.492470
10.189414
15.507936
18.291473
23.089647
27.108788
32.057762
34.875870
39.281845
41.317940
39.004683
40.675998
40.875673
39.195418
38.686991
36.335588
32.797456
32.224655
31.448603
29.775500
28.239489
25.531650
23.503900
22.242665
22.162795
19.540787
18.696785
17.131567
16.059875
15.135407
14.807582
14.241934
13.985634
12.797713
12.855530
11.978745
11.027455
10.926723
10.403991
11.051893
10.112524
9.527802
11.396408
10.365844
10.407567
10.503531
11.484623
11.353493
12.216568
11.356473
11.442900
11.355877
11.982918
11.930466
9.855628
11.404753
9.088516
8.743405
8.048415
6.521940
6.699562
5.944967
6.204844
5.296469
5.419850
5.513430
5.530715
5.069971
5.598664
5.255938
4.704595
##ZVALUE=225
108.317733
112.163424
129.509568
143.743753
137.838721
123.466849
105.007887
76.359510
59.613585
48.123002
36.980510
39.261580
37.604570
36.136508
37.501454
33.543706
23.174882
20.485520
16.136765
8.800626
6.830692
4.924536
4.300475
5.427599
5.469918
7.673502
9.857416
13.900995
17.519593
21.381974
26.065707
29.708743
33.203959
37.433505
38.815737
39.248466
39.696693
40.331483
37.152767
37.897825
36.794543
36.479831
33.703446
31.494498
29.789805
27.730465
24.897456
23.723841
22.611618
21.685958
20.285845
19.562840
17.275810
17.590523
18.181801
16.200542
14.924407
15.545487
13.473630
12.637973
12.156963
12.960434
11.382699
11.578798
10.577440
10.743737
10.790825
10.218620
9.730458
9.922981
10.034442
13.326406
12.113452
11.967421
11.140704
12.373924
12.665987
11.541843
11.210442
11.451840
9.278655
8.332729
8.558631
8.621812
8.100867
8.108616
6.277561
6.944537
7.012486
6.926656
6.656647
6.096959
5.383492
5.440712
6.864667
5.377531
##ZVALUE=230
78.166723
83.844662
117.266774
170.429945
208.474994
236.210823
234.518647
214.338899
183.678865
136.947632
100.318789
74.925423
57.667494
56.131482
55.616498
61.755776
61.967969
57.234764
48.572421
38.974881
25.071502
19.992590
11.268854
9.007454
7.097721
7.336736
8.308887
11.685491
13.384819
15.967488
18.891692
20.713806
23.353696
24.306774
26.657581
25.935769
27.461648
29.332638
29.371977
28.478503
29.621720
27.846694
25.487542
24.544597
24.837852
23.339987
22.731423
22.212863
19.059777
17.698407
17.524958
16.702414
17.111897
15.939474
13.863444
14.389753
13.922453
13.347864
13.197660
12.385845
13.675690
12.034774
12.867451
12.970567
12.131929
11.863708
10.866523
10.516644
11.675954
11.880994
11.613965
12.976527
13.030767
13.863444
13.907552
13.655424
12.164712
13.478994
11.881590
12.094975
10.274649
10.508895
9.304881
9.655952
8.866787
7.883906
7.743835
6.989837
7.060766
7.354617
7.151961
7.184744
8.004904
7.067919
7.284880
6.868839
##ZVALUE=235
23.692846
27.589798
51.106811
111.755729
164.886713
233.992934
294.293761
357.498527
367.980003
351.570845
292.276740
238.735676
160.849690
123.764873
86.345673
78.915954
80.288649
81.365705
88.459849
90.603828
81.512928
68.173409
52.702427
35.760999
25.195479
16.126633
11.555552
10.728836
10.049939
10.292530
12.223721
14.001727
14.793873
14.933944
14.720559
16.942620
17.062426
17.438531
17.822981
17.677546
19.257665
18.118620
17.479658
16.046762
17.430782
16.803741
15.930533
15.569925
14.645457
16.294718
15.758872
15.385747
13.229847
14.373660
13.897419
14.361739
12.868643
12.965798
12.878776
13.133883
13.393760
12.004972
12.263656
10.494590
12.135506
12.477636
11.353493
12.721419
12.482405
12.350678
12.406707
14.541745
14.178753
15.760660
14.011860
13.986826
13.956428
15.273690
14.054775
12.741685
12.568831
11.495948
11.082888
10.050535
8.917451
9.737611
9.211898
8.804798
9.636879
9.084940
8.001924
8.357763
9.085536
8.879900
7.713437
8.156896
##ZVALUE=240
2.430677
2.444983
9.478927
23.421645
60.725808
103.944540
193.847418
289.248824
414.778590
477.401614
524.449944
504.656434
450.854897
354.740620
271.407962
179.156661
132.571459
102.339983
92.737675
106.721520
111.941695
118.281841
113.683939
102.857947
85.365772
65.740943
47.217607
33.211708
20.417571
16.475916
12.604594
11.091828
11.331439
12.351871
12.838840
13.433695
13.628602
12.424588
12.395978
14.308691
15.349984
14.572740
13.946891
14.182925
15.228987
14.156699
13.178587
13.619661
13.481975
13.271570
13.842583
13.919473
14.012456
13.742447
14.176965
13.230443
12.800694
13.234615
12.414455
12.340546
13.159513
13.098717
12.546778
11.417866
12.786984
13.448596
11.861920
12.590885
12.126565
14.044642
13.756752
13.191700
15.334487
15.085936
14.370680
15.851855
15.711784
15.347600
14.102459
14.482737
13.461709
12.669563
12.212992
12.031794
10.995865
10.929704
9.077787
10.253787
9.801984
8.945465
9.013414
9.238720
10.007620
8.804798
10.449886
8.604527
##ZVALUE=245
2.130866
1.817942
1.680851
1.856685
4.482865
16.311407
39.087534
96.765757
171.949863
300.746560
405.781865
522.085428
579.084754
587.098002
541.175008
477.538705
360.820889
263.788700
164.402723
119.228959
92.987418
97.584724
112.963915
123.236775
130.944848
128.043890
113.935471
92.926621
76.996684
54.836869
39.638877
24.963617
19.460917
15.218854
13.572574
11.907816
12.235641
13.729930
13.418794
14.991760
14.118552
14.226437
14.224648
13.141632
14.702678
14.763474
14.428496
13.809800
14.086962
12.960434
14.347434
12.576580
13.272762
12.226701
12.898445
14.490485
12.745857
11.813641
12.471676
12.007952
12.392998
12.489557
12.009740
11.534691
10.370612
11.876822
11.851788
11.861920
10.819435
11.076927
11.485815
12.586713
13.276935
13.782978
13.051629
13.643503
12.287498
13.489723
12.725592
12.290478
10.937452
10.240674
10.181665
9.902716
10.020733
8.886456
8.258820
8.356571
8.827448
8.686781
8.771420
7.564425
8.067489
8.260608
8.646846
7.917881
##ZVALUE=250
1.581907
1.399517
1.554489
1.486540
1.588464
1.831651
2.733469
9.710789
26.955605
61.753988
151.713490
252.611637
407.930613
515.200496
619.117618
658.280849
643.592477
579.855442
484.452844
342.531800
233.829618
136.993527
101.472735
91.705918
103.114843
123.443604
135.459900
139.197707
140.183568
119.628906
109.934807
79.770684
62.608719
43.242574
32.551885
23.109913
19.426942
17.700791
17.251968
17.510653
17.349720
17.180443
17.724633
17.509460
17.692447
16.613603
16.021729
15.185475
14.817715
15.129447
15.410781
14.046431
13.899803
14.692545
13.200641
12.965798
12.808442
12.376904
12.247562
11.727810
10.874867
11.423826
11.614561
11.007786
11.083484
10.363460
10.692477
10.485649
9.980798
10.855794
11.111498
11.189580
12.226701
11.576414
12.116432
11.181831
11.054873
10.489821
10.414720
10.185838
9.713769
9.007454
8.716583
7.809997
8.131862
8.380413
7.359982
7.946491
7.785559
6.899834
7.565618
7.311702
7.236600
7.285476
6.946921
6.988645
##ZVALUE=255
1.385808
1.550913
1.725554
1.522899
1.470447
1.288652
1.636744
1.781583
2.151728
4.482865
20.425916
53.335428
108.743906
226.705670
340.188742
511.154532
625.504851
708.478689
735.445619
683.198571
588.931441
462.961793
286.063552
189.361572
110.004544
91.018677
90.271831
104.063749
129.494667
144.785643
151.807666
150.532722
139.583945
114.340782
95.744729
70.429444
52.020550
37.586689
28.928518
24.684668
22.423863
22.949576
21.148920
21.427870
20.097494
20.885468
19.462705
18.771887
18.510818
18.118620
17.356873
16.784668
16.381741
15.221834
15.180707
14.212728
14.288425
13.470650
12.192726
12.511611
12.172461
10.997653
11.139512
10.102987
10.012984
11.254549
11.454821
10.529757
10.780692
10.304451
9.574890
10.658503
10.449886
10.736585
10.226965
10.123849
9.729862
9.576678
9.378791
7.840991
8.191466
7.328987
7.583499
7.610917
7.311702
6.882548
6.440878
6.825924
6.077886
6.330609
5.885959
5.727410
5.848408
5.568862
5.277991
5.760789
##ZVALUE=260
1.554489
1.028776
1.489520
1.207590
1.424551
1.585484
1.562834
1.662970
1.534820
1.738667
1.583695
2.946854
7.933974
34.590960
78.665614
181.121826
290.443897
462.237597
592.094660
747.275949
810.945034
797.096491
692.781806
563.032627
374.420881
256.825686
151.716471
104.121566
81.606507
90.514421
110.871792
139.970779
157.971978
168.458819
167.995691
152.200460
133.394599
103.990436
82.396865
57.286620
44.632554
35.138726
30.999780
27.192831
27.053952
25.032759
23.700595
23.687482
22.877455
20.413995
19.866824
19.309521
17.621517
17.700791
16.892552
15.166998
13.824701
14.062524
13.462901
13.702512
11.977553
11.532903
11.998415
10.941625
10.785460
10.808706
10.012984
9.596944
9.953976
10.204911
9.480715
9.854436
9.822845
9.697676
9.237528
8.779764
9.793639
9.258986
8.801818
7.625818
7.376671
6.732941
6.799698
6.703734
6.586909
6.422997
6.442666
5.745888
5.815625
5.762577
5.581975
5.626678
5.315542
5.435944
5.816817
5.225539
##ZVALUE=265
1.134872
1.255870
1.330972
1.375675
1.289845
1.422763
1.468658
1.359582
1.460910
1.811981
1.591444
1.444817
1.742840
2.185702
4.801750
23.871660
55.885911
143.528581
243.001580
437.531471
594.412684
729.190707
855.158567
873.554945
781.200528
672.350526
498.018861
355.278850
202.713609
132.544637
90.968609
84.433556
99.277496
131.793618
150.700808
174.472928
180.837512
174.868703
158.638954
131.598711
110.449791
82.720518
64.075589
47.829747
37.675500
30.713677
27.827621
26.896596
24.923682
23.080707
22.852421
20.801425
20.933747
18.773675
17.609000
16.933680
15.786886
14.930964
14.641881
13.070703
13.024807
12.499690
11.409521
10.683537
10.940433
10.527968
10.428429
10.204911
9.217858
9.285808
9.815693
9.643435
9.871721
8.980632
8.659959
9.241700
8.433461
8.698702
7.600784
7.540584
6.441474
6.413460
6.185770
6.145835
6.132722
5.995631
5.628467
5.533695
5.684495
5.848408
5.522966
5.396605
5.071759
5.050898
5.245805
4.955530
##ZVALUE=270
1.164675
1.214743
1.247525
1.257658
1.102686
1.143813
1.107454
1.173615
1.306534
1.258850
1.551509
1.402497
1.581907
1.543760
1.755953
1.864433
2.486706
10.280609
31.393766
99.877715
193.575621
327.093601
550.354719
714.116693
877.418518
925.683975
893.759727
800.049901
618.401766
463.595986
323.897004
185.313821
117.968917
81.992745
84.331632
107.993484
130.948424
160.292983
175.639987
182.919502
180.087686
159.450769
137.938857
108.621716
85.357428
58.616996
47.122836
35.343766
29.212832
24.719834
23.168921
21.491647
20.002723
19.411445
17.913580
16.805530
15.842915
15.540719
14.893413
13.621449
13.111830
12.097955
12.010932
10.486841
10.360479
9.936690
9.950995
9.296536
8.834600
9.771585
9.339452
9.226799
9.047985
9.228587
8.857846
8.184910
8.347631
8.032918
8.098483
7.226467
6.818771
6.446838
6.518960
5.847812
5.883574
5.517602
5.672574
5.871654
5.252957
5.252957
5.342960
4.660487
4.974604
5.299449
4.791617
4.768968
##ZVALUE=275
1.223683
1.056790
1.334548
1.126528
1.119971
1.044869
1.065731
0.980496
1.303554
1.196861
1.163483
1.350641
1.226664
1.258850
1.375675
1.479983
1.654625
1.662970
1.845956
4.883409
19.087791
53.491592
151.691437
274.862647
489.539504
651.281476
818.555951
922.333002
948.872566
886.110663
774.744749
580.109954
418.491960
229.575634
143.939853
82.154870
69.716573
80.622435
100.101829
131.453872
151.003599
168.415904
176.016688
167.864561
154.364705
123.513937
102.235675
77.060461
57.774782
39.311647
29.693842
22.493601
19.701719
17.609596
17.075539
15.295744
14.864802
14.029741
13.450980
12.885928
12.110472
11.754632
11.763573
10.968447
10.950565
9.970665
9.922981
9.328723
9.135604
9.552836
9.162426
8.874536
8.993745
8.834600
8.981824
8.376837
8.058548
7.678866
7.544756
6.935596
6.795526
6.130934
6.411672
5.833507
5.520582
5.856752
5.807877
5.312562
5.483627
5.039573
4.955530
5.065799
4.928708
5.213618
5.044937
4.600883
##ZVALUE=280
0.906587
1.099706
1.141429
1.326799
1.047850
1.107454
1.066923
1.078844
1.073480
0.930429
1.180768
1.348853
1.332760
1.210570
1.247525
1.219511
1.461506
1.538992
1.617670
1.580715
1.826882
2.274513
12.200475
38.373470
118.905902
216.766000
386.476517
552.366972
769.708753
886.358023
952.281952
940.081477
848.405957
641.775727
479.279757
276.605487
171.539783
87.485909
57.463646
53.858757
67.963600
92.673898
115.652680
141.730905
155.086517
161.784887
154.947639
139.428973
117.641687
88.101625
68.597794
44.733882
33.698678
21.826625
17.511845
13.933778
12.618899
11.779666
11.212826
10.970831
10.639429
10.534525
10.341406
9.708405
9.516478
9.835958
9.191632
9.348989
8.866787
8.729696
8.419752
8.848906
8.383989
8.502603
8.056760
7.534623
8.104444
7.338524
7.102489
6.576777
6.845593
6.426573
6.289482
6.303787
6.099939
5.743504
5.755424
5.804896
5.514622
5.292892
5.353689
5.056858
4.804730
4.867911
4.927516
4.431605
##ZVALUE=285
0.992417
1.027584
0.992417
1.119971
0.902414
0.861883
0.794530
1.094937
1.254678
0.971556
1.169443
1.051426
1.087785
1.019835
1.170635
1.457930
1.219511
1.228452
1.027584
1.459718
1.340508
1.372695
1.852512
1.897812
6.124973
20.236969
67.724586
138.083696
290.453434
440.194607
597.147942
808.767676
925.651789
976.140499
917.744637
746.586919
578.757524
364.853740
229.406953
111.017823
63.027740
37.451982
39.567947
58.112741
77.009797
106.885433
127.766728
142.265558
148.985982
145.715475
134.153962
108.693838
89.426637
62.804818
45.198798
27.711987
19.262433
13.248920
11.164546
9.548664
9.392500
8.907914
8.608699
9.118915
8.462667
8.592606
8.303523
7.986426
8.826852
8.169413
8.505583
8.091927
8.133650
7.891655
7.751584
7.551908
7.304549
7.238984
6.935596
7.135868
6.534457
6.641746
6.376505
5.697608
5.624890
5.557537
5.045533
5.189776
5.280972
5.373955
5.180836
4.785657
4.840493
4.883409
4.863739
4.578829
##ZVALUE=290
0.871420
0.855923
0.770688
1.078844
0.797510
0.964999
0.876784
0.924468
0.970960
0.956655
1.049638
1.288652
1.223683
0.972748
1.195669
0.980496
1.013875
1.125932
1.219511
1.153946
1.246929
1.413822
1.644492
1.535416
1.722574
2.009869
2.818704
8.717775
39.948821
88.322759
132.579803
335.489511
507.557988
749.572515
887.040496
990.238786
969.423652
832.492709
677.450895
456.200838
305.128694
154.300928
82.783699
35.830736
26.619434
35.894513
48.566461
73.813796
92.493892
118.784904
133.029819
142.308474
138.189793
126.396418
108.429790
79.371929
59.252977
38.249493
26.824474
17.037988
12.606978
9.024739
8.621812
7.835627
8.116961
7.650852
7.767677
7.511973
7.364750
7.979870
7.680655
7.428527
7.657409
7.610917
7.310510
7.176995
6.939769
7.014871
6.354451
6.506443
6.309748
6.132722
6.076694
5.830526
5.569458
5.570650
5.499721
5.367994
5.117655
4.935861
4.995465
4.873872
4.785657
4.892945
4.599690
4.734993
##ZVALUE=295
0.867844
0.824928
0.831485
0.892878
1.022816
0.690818
0.925660
0.822544
0.886917
0.886917
0.977516
0.983477
1.066923
1.076460
0.964999
1.016855
0.741482
0.903606
1.031756
1.009703
1.227856
1.227856
1.119971
1.332760
1.308918
1.345873
1.610518
1.775622
1.965761
3.840923
13.280511
53.361654
119.803548
275.369883
428.709984
668.546557
828.186870
968.309641
995.450616
904.116631
771.581531
549.235940
379.392505
203.714967
112.466812
44.222474
24.616718
21.644831
28.871894
46.930909
63.266754
88.553429
108.252764
126.189590
134.065747
130.845904
121.704936
100.545883
81.796646
55.914521
40.968657
25.202632
17.591715
11.325479
8.981824
7.647872
7.154942
6.818771
6.689429
7.089972
7.017851
7.172823
7.081628
7.252693
6.610751
6.985664
6.775856
6.350875
6.218553
6.298423
5.840659
5.568862
6.144643
5.558729
5.484819
5.528927
5.288720
5.366802
5.343556
4.867911
5.167723
5.064607
5.118847
4.977584
4.893541
4.351735
##ZVALUE=300
0.708699
0.871420
0.860691
0.756979
0.677705
0.937581
0.933409
0.891685
0.827909
0.881553
0.843406
0.784993
0.851750
0.822544
0.865459
0.958443
0.873804
1.034737
1.096725
1.076460
1.031756
1.244545
1.181960
1.184940
1.404881
1.210570
1.291633
1.399517
1.496673
1.762509
1.736879
2.164841
8.371472
26.703477
88.308454
173.183680
347.133875
518.262982
747.674704
885.315537
983.942747
974.434614
838.717818
687.711835
452.878475
296.995640
150.494576
79.616904
30.099750
18.028617
18.868446
25.427938
41.864514
57.585835
81.239939
99.698901
120.474696
128.236413
125.628710
118.057728
98.829865
79.203844
56.597590
41.332841
24.906993
16.845465
11.043549
8.211732
6.854534
6.535649
6.143451
6.652474
6.408691
6.377697
6.476641
6.214976
6.347895
6.333590
5.880594
5.492568
5.891919
5.809665
5.704761
5.609989
5.269647
5.312562
5.030632
5.194545
4.808903
4.741549
4.604459
5.168915
4.674792
4.622936
4.824996
4.555583
##ZVALUE=305
0.746846
0.837445
0.803471
0.742674
0.766516
0.707507
0.823736
0.657439
0.827909
0.692606
1.029968
0.929832
0.805855
0.878572
0.849962
0.981688
0.962615
0.929832
0.874996
0.865459
0.800490
0.866652
0.978708
0.972748
1.127720
1.160502
1.234412
1.226664
1.286864
1.464486
1.452565
1.567602
1.834631
1.839995
4.291534
14.545918
56.989789
122.548938
270.575881
418.904424
652.071834
812.875032
965.991020
1004.851460
917.121768
783.068538
565.287471
401.305556
216.848850
118.608475
45.917630
21.753907
13.863444
16.251802
25.633574
37.517548
59.269667
75.773001
97.540617
111.971498
120.256543
119.820833
109.691620
94.783902
71.879625
56.893826
37.551522
25.461912
15.372634
10.346770
7.572770
6.689429
6.398559
6.116629
5.882978
5.933642
5.691648
5.564690
5.518794
5.420446
5.454421
5.433559
5.566478
5.341768
5.242825
5.344748
5.345941
5.207658
4.921556
4.809499
4.873872
4.664660
4.638433
4.811883
4.665852
4.267693
##ZVALUE=310
0.745654
0.794530
0.809431
0.815988
0.734925
0.711679
0.754595
0.930429
0.818968
0.796914
0.846982
0.757575
0.808835
0.733733
0.986457
0.848770
0.943542
0.947714
0.745654
0.874996
0.912547
0.779629
0.998974
1.038909
0.951886
1.145601
1.152754
1.113415
0.986457
1.230836
1.313686
1.248717
1.433492
1.495481
1.476407
1.758933
2.066493
8.070469
25.757551
81.741810
161.934495
331.334472
496.950746
727.412701
877.841711
987.187624
968.138576
845.829844
705.891848
475.311875
319.759846
162.521601
87.524652
32.593608
15.243888
11.715889
14.405847
22.245646
32.960773
51.007867
67.771673
89.102983
102.460980
111.894608
113.536716
103.538632
91.679692
72.069764
55.310726
36.313534
24.848580
15.009642
10.833740
7.067919
6.453991
5.786419
5.620718
5.478859
5.273819
4.966855
5.141497
5.358458
5.052686
5.255938
5.268455
4.908442
5.216599
4.846454
4.959702
4.797578
4.793406
4.496574
4.558563
4.541874
4.270673
4.377961
##ZVALUE=315
0.736713
0.739694
0.814795
0.635982
0.735521
0.630617
0.894666
0.664592
0.703931
0.796914
0.820756
0.815988
0.633597
0.841618
0.888705
0.886917
0.881553
0.874996
0.872612
0.715852
0.834465
0.962615
0.861883
0.989437
1.027584
0.901818
1.068711
0.855923
1.063943
1.103878
1.118779
1.067519
1.196861
1.296997
1.299977
1.352429
1.430511
1.665950
1.876950
3.864765
12.762547
51.781535
111.454725
251.075625
403.194427
643.980503
794.198513
930.431485
963.891745
889.304876
767.697692
552.969575
390.264988
207.926631
115.663409
44.659972
19.411445
10.107756
9.878874
13.583899
19.319654
31.213760
44.232607
64.106584
79.608560
97.226501
104.350448
106.106997
99.161863
82.919002
69.142580
50.952435
36.453605
22.098422
15.110970
9.147525
7.013679
5.516410
5.232692
5.068779
5.010962
4.482865
4.611611
4.627705
4.660487
4.693866
4.835725
4.854798
4.512668
4.494786
4.761815
4.816651
4.678965
4.652739
4.309416
4.278421
##ZVALUE=320
0.675917
0.576973
0.796914
0.668764
0.937581
0.798702
0.785589
0.848770
0.834465
0.594854
0.716448
0.715852
0.600815
0.824928
0.942945
0.805855
0.784993
0.828505
0.875592
0.714660
0.757575
1.060963
0.819564
0.775456
1.046658
0.990629
1.026988
0.906587
1.097918
1.049638
0.967979
1.012683
1.212955
1.119971
1.311898
1.321435
1.242757
1.264811
1.442432
1.552701
1.580715
2.091527
5.776882
28.984547
73.354840
186.397433
311.384797
508.136749
677.118897
862.152576
935.730934
917.289853
827.781558
632.064939
464.316010
259.990692
150.980949
65.183640
30.133724
11.117458
8.508563
8.971691
11.364818
17.815828
25.839806
41.556954
55.433512
73.899627
86.802840
98.097920
100.204945
93.036890
83.252788
63.330531
49.053431
31.929612
22.217631
13.137460
9.387732
6.237626
5.334616
4.621744
4.503727
4.643798
4.433990
4.484653
4.492998
4.340410
4.320741
4.463792
4.209876
4.457831
4.452467
4.107952
4.410744
4.051924
##ZVALUE=325
0.664592
0.682473
0.641942
0.735521
0.624657
0.665784
0.637770
0.704527
0.635982
0.614524
0.704527
0.784993
0.829697
0.769496
0.892878
0.839829
0.789762
0.601411
0.676513
0.808835
0.820756
0.819564
0.772476
0.772476
0.847578
0.733733
0.785589
0.785589
0.906587
1.060963
1.056790
0.978708
0.858903
1.134872
1.106858
1.039505
1.165867
1.164675
1.177788
1.245737
1.553893
1.543760
1.742840
2.000928
3.549457
17.957687
47.368407
129.370689
229.157805
422.328711
586.770773
785.337687
888.718963
925.127864
862.307549
684.986711
515.509844
308.799744
188.908577
88.551641
42.459965
14.192462
8.175969
7.010698
7.518530
10.860562
15.543699
25.583506
37.023425
56.037903
68.997741
84.275603
91.555715
92.926621
86.907744
73.652864
61.080456
43.024421
31.595826
18.833876
12.748837
7.981658
5.997419
5.023479
4.529953
4.406571
4.262924
4.174709
4.238486
4.178882
3.933907
4.066825
4.018545
4.206896
4.321933
4.102588
##ZVALUE=330
0.721812
0.639558
0.656843
0.650883
0.593662
0.624657
0.688434
0.763535
0.691414
0.705719
0.726581
0.823736
0.631809
0.798702
0.779629
0.708699
0.763535
0.760555
0.804663
0.865459
0.793934
0.899434
0.813603
0.704527
0.830889
0.818968
0.941753
0.921488
0.921488
0.774860
0.989437
0.848770
1.153946
0.931621
1.068711
1.115799
1.012683
1.031756
1.223683
1.261830
1.259446
1.257658
1.325607
1.443624
1.408458
1.659989
2.190471
6.432533
30.967593
76.303482
188.535452
311.834812
525.928736
682.212710
852.766633
910.198689
869.715810
767.170787
575.537682
421.024561
235.060453
132.941604
55.165887
25.673509
9.228587
6.750822
6.230474
6.957650
10.171533
15.026927
25.416613
35.364628
51.684976
64.501762
78.622699
85.433722
86.705685
81.756711
69.712996
56.308508
39.793849
29.194951
18.922687
13.180971
8.349419
6.026626
4.959702
4.520416
4.187822
3.974438
4.155636
3.922582
3.910661
3.878474
3.939867
3.863573
##ZVALUE=335
0.648499
0.599623
0.718832
0.755787
0.482798
0.626445
0.686646
0.598431
0.592470
0.666976
0.707507
0.685453
0.747442
0.747442
0.666976
0.528693
0.636578
0.762939
0.667572
0.766516
0.884533
0.827909
0.767708
0.724792
0.876784
0.691414
0.815988
0.775456
0.882745
0.788569
0.784993
0.870824
0.815988
0.866652
0.905991
0.937581
1.056790
1.000762
0.994802
1.097918
1.159906
1.128912
1.206994
1.185536
1.206994
1.319647
1.302958
1.369715
1.678467
4.149675
13.411641
53.463578
112.003684
251.670480
402.849913
626.093745
772.693753
891.866684
900.754929
798.653960
666.096807
458.152890
309.565663
162.327886
87.048411
32.675862
13.722777
6.787777
6.036758
5.907416
6.608963
9.484887
13.876557
23.386478
33.293962
49.148798
61.546564
73.603988
80.283880
80.914497
76.470971
64.813495
53.467751
38.559437
28.953552
18.822551
12.913942
8.286834
6.174445
4.734993
4.255772
3.944635
3.979802
3.856421
3.624558
3.726482
##ZVALUE=340
0.587702
0.514984
0.582933
0.608563
0.502467
0.676513
0.557899
0.574589
0.633597
0.687838
0.588894
0.680685
0.765920
0.695586
0.704527
0.738502
0.707507
0.765920
0.730753
0.688434
0.697970
0.704527
0.747442
0.891685
0.802875
0.888705
0.659823
0.931621
0.819564
0.727773
0.713468
0.935793
0.938773
0.810623
0.908971
0.801682
0.847578
0.924468
0.865459
0.973940
1.008511
1.062751
1.045465
1.055598
1.266599
1.115799
1.119971
1.307726
1.344681
1.485944
1.467466
2.232790
6.712675
31.016469
76.531768
193.792582
324.923992
530.803800
688.523650
849.461555
899.140835
847.719908
735.383630
541.929007
380.606651
199.133754
110.512972
44.436455
19.028783
7.542968
5.853772
5.797744
6.103516
6.805658
8.678436
14.220476
20.534992
32.153726
43.202639
58.580637
68.350434
75.692534
75.481534
70.455670
63.276887
50.300956
39.942861
27.330518
19.602776
12.739897
8.960962
5.849600
4.541874
3.861785
3.701448
3.556609
##ZVALUE=345
0.584722
0.487566
0.730753
0.592470
0.655651
0.585914
0.655651
0.556707
0.593662
0.595450
0.580549
0.581741
0.594854
0.657439
0.582933
0.645518
0.651479
0.685453
0.790954
0.568628
0.728965
0.605583
0.863671
0.653863
0.726581
0.659823
0.723600
0.728965
0.901818
0.584722
0.751615
0.804663
0.741482
0.873804
0.876784
0.745654
0.928640
0.986457
0.915527
0.963807
0.871420
0.971556
1.006722
0.826716
0.895858
1.045465
0.954866
1.017451
1.037717
1.301765
1.276731
1.317859
1.496673
1.552701
3.263950
17.852783
48.887730
127.810836
229.542851
417.283773
574.244857
760.030746
847.675800
860.280991
785.090923
600.195527
446.721911
263.278484
148.538947
60.454607
28.274655
9.884834
6.416440
5.705953
5.380511
5.189776
5.561709
7.949471
11.694431
19.537807
27.935505
42.052865
51.632524
61.375499
67.381859
69.557428
68.020821
59.151649
50.125718
38.608909
28.243661
18.211603
13.122559
8.186698
5.941987
4.463792
##ZVALUE=350
0.680685
0.722408
0.821948
0.776649
0.714660
0.638962
0.645518
0.656843
0.650883
0.742674
0.769496
0.731945
0.690818
0.650883
0.873804
0.784993
0.876784
0.807643
0.799894
0.754595
0.686646
0.622869
0.734925
0.791550
0.764728
0.776649
0.899434
0.652671
0.675917
0.892878
1.008511
0.923872
0.920892
1.064539
0.825524
0.875592
0.929832
0.940561
0.942945
1.024604
0.736713
0.817776
0.805855
0.950694
0.904799
1.127720
1.007915
1.092553
1.111627
1.121759
1.176596
1.202822
1.151562
1.426935
1.332760
1.658797
2.201796
9.035468
27.573705
87.052584
169.808865
338.908434
492.531657
694.283843
819.897652
884.671807
840.358734
695.557594
539.540648
319.563746
193.528533
88.079572
41.069984
12.735724
6.977916
5.514622
5.114675
4.960895
4.854798
5.700588
7.442832
11.794567
17.081499
25.749803
34.432411
45.691729
54.157972
61.941743
64.269900
61.545968
55.870414
46.175718
37.241578
26.012659
19.108653
12.646914
##ZVALUE=355
0.766516
0.701547
0.708699
0.570416
0.659823
0.725985
0.752807
0.664592
0.727773
0.847578
0.754595
0.849962
0.702739
0.670552
0.825524
0.783801
0.658631
0.697970
0.805855
0.762939
0.658631
0.851750
0.653863
0.814795
0.748634
0.736713
0.808835
0.838637
0.770688
0.656843
0.660419
0.679493
0.923872
0.709891
0.808835
0.859499
0.957847
0.869632
0.887513
0.856519
0.937581
0.938773
0.902414
0.887513
0.915527
0.926852
1.042485
1.053810
1.110435
1.026988
1.101494
1.232624
1.252890
1.407862
1.363754
1.411438
1.584888
1.679659
1.868606
4.573464
15.677810
58.075786
120.736957
265.833735
429.280996
669.505596
812.522769
912.435651
889.440775
740.509033
594.918728
390.678644
247.040987
108.274817
52.505732
17.107725
7.758737
5.433559
5.407929
4.714727
4.576445
4.750490
5.150437
6.589890
9.408593
14.943480
21.015406
31.386614
39.489865
49.086809
55.143833
58.459640
57.460666
52.329898
45.954585
35.837889
##ZVALUE=360
0.610948
0.564456
0.635982
0.503659
0.518560
0.519753
0.587702
0.508428
0.665784
0.614524
0.698566
0.867844
0.725985
0.675917
0.709891
0.652671
0.723600
0.729561
0.819564
0.787973
0.652671
0.667572
0.619888
0.637770
0.745654
0.748634
0.648499
0.700951
0.816584
0.767708
0.911951
0.706911
0.746846
0.872612
0.838637
0.786781
0.839829
1.015663
0.799894
0.742674
0.803471
0.953674
0.889897
0.906587
0.986457
1.044869
0.930429
0.800490
1.060963
1.041889
0.970960
1.028776
1.197457
1.099706
1.144409
1.372695
1.260638
1.414418
1.264811
1.635551
1.639724
2.610683
7.400513
32.144785
76.082945
194.197893
344.635844
588.602424
762.549639
915.101767
944.343805
857.875943
721.415877
493.090749
330.062509
158.548951
81.579685
29.482841
12.319684
5.518794
5.159974
4.707575
4.607439
4.364848
4.373789
4.733801
5.609989
7.869601
11.593699
17.896891
24.930835
35.442710
42.083859
49.560666
54.059625
54.215789
##ZVALUE=365
0.602603
0.674725
0.702739
0.683665
0.693798
0.505447
0.537634
0.629425
0.609756
0.810623
0.793934
0.780821
0.653863
0.741482
0.519753
0.576973
0.551939
0.625849
0.717640
0.623465
0.782609
0.712872
0.765920
0.854731
0.784993
0.681877
0.718832
0.699759
0.793934
0.834465
0.821948
0.834465
0.852942
0.748634
0.764728
0.787973
0.739694
0.789762
0.690818
0.707507
0.703931
0.743866
0.887513
0.831485
0.885725
1.085997
0.942945
0.754595
0.950694
0.900626
0.943542
0.994802
1.089573
1.068711
1.136661
1.176596
1.243949
1.258850
1.299977
1.505613
1.452565
1.647472
2.005696
1.973510
4.237890
14.351606
54.226518
118.911862
283.627510
467.346907
718.538761
862.067938
955.801010
928.095579
767.445564
608.935952
393.313766
246.861577
110.687613
51.628947
15.485883
7.068515
5.187988
4.702806
4.376769
4.139543
4.000664
3.925562
4.359484
4.885793
6.854534
9.927750
15.861988
22.137761
31.074882
38.067698
##ZVALUE=370
0.596642
0.749826
0.573993
0.674725
0.621676
0.645518
0.659823
0.656843
0.700951
0.696778
0.552535
0.514984
0.768900
0.633597
0.531673
0.454783
0.692606
0.565648
0.676513
0.594854
0.499487
0.657439
0.758767
0.746846
0.710487
0.803471
0.770688
0.608563
0.720620
0.833869
0.734925
0.731945
0.825524
0.778437
0.706911
0.749826
0.835657
0.758767
0.715852
0.798702
0.699759
0.810623
0.881553
0.755787
0.923872
0.996590
0.862479
0.900626
0.831485
0.883937
0.896454
0.919700
0.900626
0.970960
0.950694
1.097918
1.046658
1.080632
1.090765
1.209974
1.110435
1.162887
1.417994
1.402497
1.723766
1.806617
2.295971
9.269714
29.303432
91.083646
178.252459
345.335603
501.617789
701.102018
802.564025
828.198791
766.326785
612.927675
464.171767
274.872780
163.920522
68.125725
30.247569
9.479523
5.246997
4.368424
4.147887
3.720522
3.588796
3.550649
3.366470
3.794432
4.121661
5.764961
8.023977
12.623668
##ZVALUE=375
0.424981
0.564456
0.532866
0.626445
0.551939
0.521541
0.594854
0.751615
0.538826
0.699759
0.655651
0.760555
0.652671
0.612736
0.645518
0.776649
0.588894
0.582933
0.714660
0.633597
0.691414
0.477433
0.658631
0.691414
0.588894
0.665784
0.707507
0.658631
0.600815
0.820756
0.738502
0.833869
0.854731
0.791550
0.957847
0.807643
0.902414
0.739694
0.791550
0.931621
0.648499
0.893474
0.765920
0.793934
0.668764
0.837445
0.766516
0.823736
0.947714
0.750422
0.834465
0.919700
1.026988
0.872612
1.005530
0.827909
0.872612
0.982881
0.908971
0.927448
1.096725
1.049638
1.039505
1.045465
1.194477
1.139641
1.388788
1.444817
1.914501
4.762411
24.926662
59.372783
147.853494
261.588693
449.731946
594.340563
747.929811
802.652836
766.582489
668.022633
483.165979
344.247818
196.990967
113.822818
46.204925
19.453764
6.109476
4.408956
4.014969
3.649592
3.471971
3.243685
3.086925
3.043413
3.013611
3.458858
##ZVALUE=380
0.705719
0.684857
0.347495
0.640750
0.501871
0.646710
0.656843
0.742674
0.466704
0.485778
0.457764
0.616908
0.468493
0.589490
0.642538
0.617504
0.734925
0.625849
0.633597
0.591874
0.728965
0.492930
0.735521
0.614524
0.568628
0.747442
0.803471
0.799894
0.798702
0.811815
0.842810
0.905991
0.869632
1.018643
0.990629
1.031756
1.140833
1.090765
1.045465
0.928640
0.990629
1.022816
1.057982
0.912547
0.990629
0.939965
1.043677
0.846982
1.039505
0.876784
1.001954
1.021624
0.914931
0.822544
0.918508
0.972748
1.060963
0.927448
0.991821
1.027584
0.971556
1.005530
1.099706
1.101494
1.060963
1.246929
1.154542
1.330972
1.486540
1.621842
1.705885
3.035665
10.431409
49.768686
111.950636
251.545906
389.488935
577.297807
705.268979
803.622603
790.796876
682.804585
566.157699
399.549603
274.700522
141.045451
75.572729
27.157664
10.854602
4.442930
3.816485
3.427863
3.322959
3.162622
3.147721
3.123879
##ZVALUE=385
0.483990
0.551939
0.634789
0.564456
0.619888
0.626445
0.668764
0.549555
0.574589
0.590682
0.575781
0.543594
0.582933
0.445843
0.631809
0.588894
0.593662
0.575781
0.629425
0.611544
0.675917
0.472665
0.555515
0.811815
0.796914
0.710487
1.005530
1.119971
0.906587
1.003742
1.203418
1.350641
1.544952
1.509786
1.590848
1.515746
1.543760
1.433492
1.562834
1.488924
1.483560
1.434684
1.375675
1.176000
1.155734
1.208782
1.253486
1.260638
1.239777
1.021624
0.924468
0.920892
1.018643
1.034737
1.045465
1.025796
1.153946
0.928640
0.868440
0.951886
0.971556
0.901818
0.890493
1.022816
1.058578
1.092553
1.058578
1.027584
1.200438
1.376867
1.397729
1.426935
1.607537
1.910925
4.296899
22.809505
62.389970
168.230534
293.008685
500.046611
642.221570
763.891935
780.004859
710.525513
608.791709
443.376899
315.773487
176.774859
104.019642
45.655966
19.504428
5.786419
3.616810
3.442764
3.342628
3.294945
##ZVALUE=390
0.559688
0.565648
0.628829
0.515580
0.562668
0.653863
0.582933
0.646710
0.538826
0.631809
0.500679
0.390410
0.438690
0.555515
0.611544
0.663996
0.534654
0.605583
0.512600
0.656843
0.525713
0.434518
0.642538
0.857711
0.720620
0.789762
0.963807
1.063943
1.438856
1.551509
1.773834
1.975894
1.822710
2.072453
2.127886
2.290606
2.169609
2.247691
1.920462
1.985431
1.907945
1.882911
1.769662
1.588464
1.803637
1.651645
1.570582
1.561642
1.331568
1.426935
1.352429
1.318455
1.134872
1.267791
1.179576
1.100898
1.093745
1.170635
1.026988
1.046658
0.945926
0.940561
0.835657
1.099706
1.123548
0.969768
1.272559
1.132488
1.193881
1.106858
1.328588
1.278520
1.332760
1.409650
1.484752
1.554489
2.411008
10.736585
32.312870
102.314949
195.142627
367.392898
499.647856
640.102625
712.158680
720.520020
659.241676
519.011617
395.267606
240.138769
140.760541
58.808923
26.912689
8.089542
4.493594
3.412962
##ZVALUE=395
0.621676
0.598431
0.791550
0.680685
0.511408
0.462532
0.584722
0.650883
0.522733
0.560880
0.543594
0.574589
0.607967
0.544786
0.618696
0.724792
0.625849
0.643730
0.509620
0.444651
0.544786
0.523925
0.511408
0.624657
0.751615
0.855923
1.141429
1.219511
1.551509
1.711845
1.872778
2.338886
2.383590
2.528429
2.601743
2.609491
2.576709
2.588630
2.575517
2.498627
2.546906
2.326965
2.354980
2.159476
1.985431
2.045631
1.862645
1.706481
1.599789
1.526475
1.460910
1.453757
1.361966
1.300573
1.374483
1.259446
1.112819
1.329780
1.143813
1.116991
1.176596
0.999570
1.168847
0.958443
1.014471
1.050830
1.107454
1.048446
1.030564
1.104474
1.218915
1.361966
1.300573
1.178980
1.151562
1.246929
1.303554
1.360774
1.505613
5.836487
19.791722
67.445636
134.404898
265.893936
388.817787
554.336905
653.714538
713.897943
693.220496
584.881902
458.473563
285.210609
182.211995
87.612867
42.600632
14.654994
##ZVALUE=400
0.852942
0.652671
0.736713
0.664592
0.594854
0.440478
0.561476
0.625849
0.446439
0.546575
0.568628
0.677705
0.386834
0.538826
0.563860
0.568628
0.595450
0.639558
0.654459
0.529885
0.671744
0.604987
0.747442
0.726581
0.714660
0.880957
1.062751
1.248717
1.618862
1.687407
1.961589
2.344847
2.465844
2.563596
2.662539
2.901554
2.788901
2.765656
2.757907
2.753735
2.608895
2.480745
2.365708
2.205968
2.042651
1.950860
1.982450
1.638532
1.651645
1.609921
1.517534
1.419783
1.429915
1.589656
1.413822
1.194477
1.146793
1.177788
1.146793
1.127720
1.170635
1.119971
1.089573
0.961423
0.999570
1.041889
0.970960
1.091957
1.332760
1.129508
1.184940
1.195669
1.145601
1.141429
1.131892
1.212955
1.122952
1.158714
1.185536
1.213551
1.451969
3.544688
11.381507
40.060878
86.507797
192.489624
309.240818
483.050942
593.391657
685.641766
695.294738
609.200597
507.475734
350.026488
232.971907
120.452642
##END
