##TITLE=15FILTER
##FORMAT=SPECTACLE-ASCII V-1.2
##DATA TYPE=ULTRAVIOLET SPECTRUM
##SECOND TYPE=ULTRAVIOLET SPECTRUM
##DATE=12/18/17
##TIME=12:22:30
##SPECTROMETER/DATA SYSTEM=SPECTACLE
##XUNITS=NM EM
##YUNITS=ENERGY
##YFACTOR=1
##FIRSTX=220
##LASTX=410
##NPOINTS=96
##3DDATA=Equidistant
##ZUNITS=NM EX
##FIRSTZ=210
##LASTZ=400
##ZPOINTS=39
##XYDATA=(Y..Y)
##ZVALUE=210
13.410449
14.890432
12.189746
11.013746
9.388924
9.552836
9.118915
7.481575
7.137656
5.936623
4.156828
2.986789
3.080964
2.557635
2.784729
2.377629
2.315640
2.903938
2.683997
3.019571
2.827644
3.166795
4.545450
5.088449
6.933808
10.179877
14.124513
18.436909
23.288727
27.706623
33.937693
39.227605
43.968558
45.663714
47.924519
47.537684
48.830509
47.757626
48.434734
46.857595
44.166446
39.876699
39.256811
36.131740
35.636425
33.115745
32.212734
27.588606
28.716922
25.833845
23.565888
23.459792
22.593737
21.981597
19.684434
20.539761
17.900467
18.723607
15.791655
15.507936
15.637875
14.194846
14.304519
13.152957
13.106465
11.156797
11.096597
12.274981
10.523796
11.405945
12.537837
11.346936
14.394522
14.104843
12.127757
12.952685
13.021827
12.863874
12.388825
11.343956
10.696650
9.823442
9.186864
7.625818
7.581711
6.588697
6.103516
5.409718
6.734729
6.849766
9.461641
10.734797
14.577508
16.803741
21.086931
23.563504
##ZVALUE=215
37.579536
38.103461
29.349923
23.352504
18.875599
17.798543
18.319488
15.021563
14.872551
13.939738
10.899901
8.359551
6.920695
5.075932
4.077554
3.527999
2.514720
3.787875
2.868772
3.027916
3.450513
3.196597
4.316568
6.455779
7.667542
12.088418
15.295744
21.521449
27.402639
36.908984
41.533709
45.069456
52.161813
56.988001
60.179830
60.849786
58.848858
59.840679
58.123469
53.444505
51.735640
49.570799
47.452450
42.976737
42.364001
39.066672
36.317706
33.293962
31.356812
29.455423
29.450655
28.000474
25.348663
24.760962
25.099516
21.103621
18.153787
19.779801
18.501878
18.187761
16.395450
15.766621
16.007423
14.645457
13.875961
13.204813
13.373494
13.570786
12.771487
11.120439
13.785958
13.494492
12.868643
14.065504
14.503598
13.350844
13.643503
12.535453
12.536645
10.912418
11.018515
8.618832
8.912683
8.421540
6.869435
5.666614
5.816817
5.153418
5.021691
5.822778
5.692840
5.678535
5.384684
6.395578
7.713437
11.112690
##ZVALUE=220
78.207850
77.611804
75.846910
66.756606
58.305860
43.339729
36.381483
29.000640
25.804639
24.457574
22.763610
22.533536
20.838976
19.205809
12.537837
10.512471
6.561875
5.106926
3.885627
3.870726
3.895760
3.173947
3.930926
6.035566
7.046461
12.441874
15.986562
22.710562
31.205416
36.777854
47.075748
52.282810
62.226653
63.847899
70.350766
71.809888
68.305731
70.608854
66.640973
64.835548
62.229633
58.894753
55.337548
50.006509
47.060847
45.502782
43.403506
40.029883
36.966801
36.134720
33.594966
30.816793
29.826760
26.453733
24.293661
21.658540
22.409558
21.085739
19.033551
18.561482
17.713904
16.748905
15.005469
14.779568
14.710426
13.561845
12.508631
14.397502
12.570620
12.431741
13.679862
13.426542
13.690591
15.065670
15.007854
13.956428
14.144778
13.290644
12.769699
12.014508
12.894869
11.584759
9.489655
8.506775
8.333921
7.060766
6.904602
6.800890
6.319880
6.265640
5.748868
6.071925
5.201697
6.426573
6.605983
5.662441
##ZVALUE=225
95.827579
98.317862
120.829940
132.653713
130.006671
121.974945
103.402734
77.702999
61.243773
45.886636
39.958954
41.380525
38.095713
40.995479
38.401484
34.101605
24.707913
19.661784
14.487505
10.174513
6.653666
4.990697
4.628897
5.332828
7.904768
11.231899
13.859868
20.592809
27.797818
34.862757
41.018724
50.717592
54.279566
57.028532
63.195825
62.273741
66.417456
66.527724
64.062476
65.115690
58.542490
53.532720
52.386522
51.108599
47.611594
41.477680
41.070580
38.280487
36.432743
32.082796
29.804707
27.953982
28.014779
25.833845
23.588538
22.509694
21.510720
19.991994
18.750429
16.766787
17.721653
16.671419
15.765429
14.290810
12.982488
12.753606
14.121532
12.539625
11.812449
14.246702
12.118816
13.643503
14.424920
14.074445
14.296770
13.278723
13.208985
13.451576
10.966659
11.391640
10.605454
10.090470
9.645820
9.809732
7.512569
8.317828
8.270741
7.720590
7.279515
6.791949
6.401539
6.095767
6.393790
5.555749
5.647540
5.998611
##ZVALUE=230
64.447522
73.014498
104.484558
154.216886
193.231702
216.602683
224.814415
211.737752
192.180872
153.318644
105.424523
78.044534
60.981512
56.095719
57.057738
58.266521
60.655475
57.261586
49.309731
38.820505
30.205846
18.611550
13.407469
8.821487
7.842779
8.707643
11.582971
15.026927
16.899705
22.144914
27.562976
31.250715
33.537745
37.773848
42.065978
42.605996
41.266680
43.062568
42.298436
40.623546
41.239858
38.222671
37.420988
35.609603
35.916567
32.703876
33.203959
29.447675
27.568936
27.094483
25.516748
23.030639
24.583936
22.840500
19.420981
22.225976
17.856956
16.535521
18.873811
17.802715
13.914704
15.142560
14.289618
14.263988
14.154911
14.938712
13.644695
13.696551
13.761520
13.476610
13.877749
12.219548
14.220476
15.739799
14.342666
15.836954
14.646649
15.274882
12.256503
12.689829
12.035966
12.517571
11.012554
10.584593
10.421872
8.821487
8.604527
8.540750
8.772612
8.576512
9.105802
8.580685
7.725954
8.825660
7.555485
7.622838
##ZVALUE=235
18.530488
20.792484
47.216415
83.424449
151.124597
207.734704
285.095572
335.096717
361.874700
350.381732
305.013657
242.502689
185.343623
122.900605
95.229745
78.272820
77.436566
83.085895
87.873936
84.521770
78.749657
69.160461
51.462650
37.699938
23.667812
17.613769
12.549758
11.041760
12.678504
13.561845
15.580654
16.918778
18.503666
20.295978
19.895434
22.714734
24.267435
25.489926
24.236441
24.842620
25.058985
24.364591
26.362538
24.857521
24.824739
21.926761
21.188855
22.012591
20.855665
18.769503
19.468665
18.787980
19.476414
17.263889
17.083883
16.489625
16.140938
15.517473
15.611649
15.658736
14.911890
13.515949
14.177561
14.830828
15.118718
13.735890
13.575554
14.175773
13.233423
14.472604
15.493631
16.146898
15.201569
16.706586
16.822815
16.240478
16.651750
15.917420
14.452934
13.738871
13.499856
12.827516
11.960864
12.046695
12.195706
11.591911
10.789633
9.986758
10.151863
10.123849
10.129809
8.548498
9.851456
10.622740
9.559989
8.577704
##ZVALUE=240
2.701879
3.053546
6.607771
22.038817
45.314431
97.438693
165.202618
280.439854
369.334817
445.407629
510.378480
507.378578
450.421572
375.021696
269.884467
200.182796
135.091543
104.036927
95.617771
107.357502
110.889673
117.023587
112.086535
100.307465
86.177588
59.756637
47.817826
32.146573
24.300814
16.639829
13.958812
14.142990
14.683604
17.197728
15.826821
17.272830
17.557740
18.641949
18.881559
19.795895
19.014478
19.645691
18.726587
19.283891
20.282865
17.439723
18.424988
17.566681
17.900467
17.935634
17.276406
17.921925
18.106699
16.633868
16.876459
17.527938
17.432570
16.235709
16.871691
16.049743
15.984774
15.440583
13.920665
13.417602
15.246868
15.161633
14.929771
14.181733
14.989972
14.688969
15.643835
16.180873
16.790628
16.435981
16.150475
16.759634
15.881658
15.246868
16.629696
14.070868
14.781952
14.116764
13.028979
13.166666
12.147427
11.915565
11.715889
11.277795
10.678768
11.361837
11.052489
10.220408
10.314584
8.134842
9.601712
10.396838
##ZVALUE=245
1.675487
1.306534
1.299977
1.336932
4.435778
12.534857
38.252473
75.426698
171.494484
259.314775
407.311916
504.517555
569.716692
596.550703
567.163825
470.389724
378.381014
262.905955
187.819004
118.077993
94.739795
96.521974
111.255646
122.863650
127.914548
127.501488
111.242533
99.241734
73.695779
56.631565
42.980909
27.887821
21.834970
18.767715
18.389821
17.486811
18.334985
18.000603
19.286871
18.966794
20.178556
19.948483
19.063950
19.446611
20.677447
19.705892
18.300414
19.548535
19.565821
18.287897
18.057823
16.840696
16.533732
17.061830
17.062426
15.041828
15.565753
15.393496
14.882684
14.455914
14.908910
14.204979
13.261437
13.169646
12.549758
12.619495
12.189746
13.167858
13.096929
13.454556
13.681650
14.931560
13.867617
13.476610
15.085936
13.916492
13.978481
13.068914
13.651848
13.414621
11.838675
11.086464
10.071993
10.443926
10.823607
9.164810
9.479523
8.828640
9.822845
8.727908
8.808970
8.542538
8.496642
8.700490
8.350611
7.567406
##ZVALUE=250
1.725554
1.498461
1.719594
1.700521
2.246499
2.066493
2.922416
9.913445
25.248528
53.595901
139.301419
231.077671
390.044451
503.492951
612.822771
676.488876
662.062764
599.442720
513.389707
363.518596
243.990421
145.266652
105.031729
91.636777
103.449821
121.209621
137.468576
140.867829
140.872598
125.501752
112.116933
85.092783
69.363713
49.159527
38.209558
29.975772
26.811957
26.868582
27.654767
25.222898
26.538968
26.104450
25.184751
24.953485
23.812652
24.147630
23.552775
22.509694
20.931959
21.499991
20.893812
20.703673
20.306706
19.906759
19.947886
18.959641
17.298460
17.830729
17.788410
16.723871
15.666485
15.474558
13.604760
14.740825
14.150739
14.042854
13.535619
12.822747
12.478828
13.620853
13.131499
13.072491
13.883710
14.738441
13.329983
13.959408
13.078451
13.416409
12.831688
12.339950
11.223555
10.779500
10.271668
9.948611
9.903908
9.596944
9.312630
9.465814
8.808970
9.738803
8.648634
8.158684
8.047819
8.297563
7.925630
8.031726
##ZVALUE=255
1.718998
1.537800
1.481771
1.734495
1.658797
1.378655
1.829863
1.781583
1.984835
4.166961
19.867420
47.814846
95.695853
206.280947
322.549939
494.695902
612.253547
721.565485
758.634806
709.127784
610.309839
488.435626
304.862857
197.865963
118.345618
94.432831
93.915462
109.169483
134.779811
148.920417
159.232616
159.687996
151.802897
126.001835
105.796456
80.778599
65.693855
50.885677
43.970942
38.296580
34.578443
33.510923
35.362840
32.750964
31.420588
31.605959
29.759407
29.104948
26.900768
26.967525
26.068687
23.385882
23.304820
21.311641
22.138953
20.493865
19.673705
18.838644
18.535852
17.559528
17.885566
17.208457
16.477704
14.971495
14.214516
14.127493
14.005899
13.040900
13.043880
13.144612
12.435913
12.707710
12.816787
11.551976
12.854934
11.783838
11.813641
11.489987
9.678602
9.208918
10.039806
9.745955
8.935928
9.436607
8.762479
7.747412
7.820725
7.629991
7.136464
7.018447
7.032752
7.258654
7.402897
7.215738
6.616712
7.139444
##ZVALUE=260
1.357794
1.488924
1.387596
1.232624
1.252890
1.525879
1.468658
1.470447
1.636744
1.899600
1.977682
2.882481
8.691549
34.582615
71.722865
169.680715
275.530815
450.308919
589.217544
764.510036
834.941864
828.353763
752.056837
572.701693
419.116616
253.194571
170.237422
118.385553
93.264580
99.642873
127.979517
149.784684
174.415708
187.110901
183.892846
170.891881
148.031712
126.547813
97.581744
79.907775
63.526630
53.156614
47.907829
45.023561
40.503740
38.492680
37.826896
36.662817
33.523440
32.039881
31.162500
28.213859
27.642846
26.049614
24.610758
23.453832
22.590756
21.880865
20.564795
18.715858
18.586516
17.663836
16.593933
16.394854
14.910698
14.650822
13.330579
13.715625
13.224483
11.966825
12.552738
12.948513
12.273788
11.623502
11.207461
11.244416
11.038780
10.738969
10.278821
8.823872
8.381605
8.973479
7.999539
7.722974
7.548928
7.429719
7.319450
6.649494
6.563663
6.722808
6.773472
6.176829
6.205440
6.758571
6.421804
5.789995
##ZVALUE=265
1.374483
1.084805
1.152754
1.291633
1.356602
1.341701
1.465678
1.548529
1.492500
1.611710
1.751781
1.593828
1.942515
2.239943
4.762411
17.741919
60.603619
117.805600
208.712816
395.279527
568.095446
778.805614
878.053904
913.800597
848.355889
684.439540
549.295545
352.746844
243.274570
143.982768
110.184550
102.940798
122.115612
153.917670
176.425576
196.685791
204.149485
197.658539
182.226896
155.240893
131.941438
101.971626
84.550977
66.898465
56.387782
48.586726
44.469833
40.229559
38.938522
35.848618
35.592914
33.203959
31.499863
28.264523
26.796460
25.985837
23.235679
21.823645
21.258593
19.644499
18.570423
17.887950
16.789436
15.903711
15.000701
14.068484
13.690591
13.266802
12.653470
12.151599
11.872649
11.663437
11.159778
11.331439
11.616945
10.577440
10.774732
9.399652
9.079576
8.944869
9.023547
8.162856
7.875562
7.515550
7.597804
6.643534
6.983876
6.811619
6.300807
6.526709
5.824566
5.751848
5.894899
5.900860
5.955696
5.511642
##ZVALUE=270
1.135468
1.193881
1.184940
1.362562
1.210570
1.273751
1.445413
1.393557
1.260638
1.472831
1.479983
1.239777
1.576543
1.691580
1.733899
1.921654
2.484918
9.597540
29.974580
95.797777
181.690454
289.141536
529.772639
712.329745
905.239582
977.049470
954.169035
861.638784
679.044724
513.139963
330.675840
220.804811
133.554935
107.102990
110.079646
130.515695
160.997510
182.701945
200.281739
208.391547
200.260878
185.321569
155.332685
130.724907
100.382566
79.082847
62.600970
51.777959
42.737722
38.454533
35.219789
32.500625
30.287504
29.063821
25.373697
25.063753
21.732450
20.920634
19.396544
19.258857
17.866492
17.543435
15.651584
14.715791
14.842749
13.647676
12.152791
11.996627
12.026429
11.036992
11.109710
10.761619
11.499524
11.194944
10.201931
10.492802
9.797812
9.501576
8.599758
8.782744
8.282661
8.350611
7.232428
6.777644
7.063746
6.466508
6.238818
5.953908
6.211996
5.758405
5.873442
5.531907
6.384850
5.505681
5.560517
5.511642
##ZVALUE=275
1.087785
1.192689
1.234412
1.165867
1.146793
1.098514
1.231432
1.104474
1.193881
1.529455
1.520514
1.512766
1.308918
1.442432
1.376867
1.410842
1.773834
1.821518
1.835823
4.816651
18.053651
49.920678
144.745708
262.787938
483.052731
656.224489
855.482817
970.380902
1015.819907
962.160826
854.796767
636.243820
458.824635
261.627436
167.259574
101.865530
86.347461
98.719597
120.153427
148.864985
167.809725
186.410546
191.231966
183.305740
168.284774
141.138434
116.393566
88.067651
67.420602
49.852729
40.454865
31.950474
28.956532
25.138855
23.488998
21.593571
21.129847
19.306540
17.563701
17.203689
16.334653
14.729500
14.136434
13.835430
13.167858
12.009740
12.448430
11.871457
11.489987
10.420680
10.612607
11.351705
10.911822
10.028481
9.621978
9.621978
9.825826
9.331703
8.386970
7.919669
7.678866
7.989407
7.348657
7.245541
7.152557
6.846786
6.570816
6.713867
5.928874
6.082654
5.791783
5.615950
5.444884
5.429983
5.656481
5.351901
##ZVALUE=280
0.957847
0.788569
0.965595
0.914931
0.890493
0.846982
0.931621
1.003742
1.038909
1.054406
1.035929
1.247525
0.926852
1.040697
1.290441
1.179576
1.216531
1.310706
1.514554
1.618862
1.909733
2.245903
11.345744
37.260652
115.006566
209.595561
385.667682
561.239719
792.067647
938.556790
1015.691757
1012.868881
920.547843
702.500939
528.549552
308.793783
191.040635
101.156831
68.209767
63.215494
76.406598
103.001595
124.770999
152.045488
165.043473
167.965889
162.561536
145.104527
125.571489
95.082521
75.007677
49.519539
38.480759
26.896596
20.870566
17.969608
16.512871
15.145540
14.793873
14.331937
13.704896
13.405681
12.789965
11.818409
11.826754
10.957718
10.312796
10.970831
10.300875
9.961724
9.982586
9.444952
9.888411
9.412766
9.379983
9.502769
9.118915
8.221865
8.213520
8.184910
7.251501
7.415414
7.065535
6.969571
6.557703
6.320477
6.426573
6.489754
6.552935
5.942583
5.604625
5.798936
5.292892
5.274415
5.326867
5.194545
##ZVALUE=285
1.007915
0.900626
1.040697
1.147985
1.037717
0.870824
1.123548
0.949502
1.031756
1.058578
1.077652
0.904799
1.136661
1.279712
1.222491
1.404881
1.500845
1.460910
1.279712
1.373887
1.280904
1.619458
1.664758
2.042651
5.522966
18.824935
63.439608
135.833621
290.900469
447.904468
610.151887
853.449702
989.208817
1015.819907
994.541645
815.746784
639.500618
400.685668
253.309608
122.879744
70.486665
42.011738
42.849779
62.209964
82.075596
111.146569
129.942894
146.823525
152.720809
147.322416
137.346983
110.536814
90.092421
64.725876
45.746565
29.321909
20.725727
15.262961
12.871623
11.277795
11.023879
10.827780
10.592937
10.444522
10.227561
9.887815
9.634495
9.855628
9.809732
9.631515
9.467602
10.052919
9.654760
8.645654
9.349585
8.982420
8.877516
8.587837
8.592606
7.456541
7.692575
7.382631
6.929636
6.948709
6.712675
6.862879
6.744862
6.281734
6.248951
5.902648
6.281734
5.607605
5.963445
5.487800
5.303621
5.291700
##ZVALUE=290
0.940561
1.036525
1.098514
1.019835
1.049638
0.991821
1.111627
0.845790
1.006722
1.023412
1.059771
1.078844
0.988841
0.922680
0.897646
1.120567
1.278520
1.111627
1.264811
1.312494
1.344681
1.389980
1.677871
1.768470
1.964569
1.887679
2.586842
7.648468
35.664439
82.883835
165.613890
344.080925
528.581738
787.742734
950.163603
1015.819907
1015.819907
908.733010
742.173791
495.217443
329.378843
165.142417
88.274479
39.155483
28.742552
37.530661
50.787926
73.118806
94.459653
120.610595
135.984421
143.799782
140.824914
126.950741
108.375549
79.592466
60.696602
39.907694
28.423667
18.328428
13.397932
10.529757
9.521842
9.021759
8.828640
8.999705
8.670688
8.738637
8.748770
8.516908
8.911490
8.869767
8.993745
9.104609
8.965731
8.451939
8.192658
8.203983
7.935762
7.630587
7.681847
7.217526
6.900430
7.003546
6.622672
6.991625
6.710887
6.424785
6.776452
6.188750
5.948544
5.962849
5.810857
5.721450
5.420446
5.241632
##ZVALUE=295
0.983477
0.873804
0.821948
0.934601
1.003742
0.818968
0.990629
0.766516
0.819564
0.951886
1.041889
1.098514
1.122952
1.266599
0.936985
0.969768
1.104474
1.058578
1.142621
1.021624
1.233816
1.350641
1.357794
1.400709
1.614690
1.453757
1.903772
1.856685
2.101660
3.702641
12.256503
51.691532
118.488669
278.182626
444.293618
701.946616
882.847905
1015.819907
1015.819907
990.274549
847.359896
604.925752
421.242714
223.034620
121.438503
47.746897
25.145411
22.782683
29.622912
48.619509
65.416694
90.365410
110.036731
128.798485
135.108829
133.275986
122.188926
100.220442
81.409812
57.306886
41.461587
25.150776
17.534494
11.893511
9.782910
7.914901
8.207560
7.611513
7.756948
8.051991
8.439422
8.460879
8.322597
8.182526
8.397698
8.009672
7.945895
7.418990
7.726550
7.588863
7.378459
7.753968
7.398725
6.899834
6.829500
6.287694
6.816983
6.383657
6.319880
6.074905
5.964637
6.031990
5.448461
5.411506
6.085634
5.327463
##ZVALUE=300
0.722408
0.845790
0.824928
0.820756
0.842810
1.006722
0.925660
0.919700
0.887513
0.969768
0.941753
0.870824
1.003742
0.932813
1.166463
1.065731
1.016855
1.047850
1.083612
1.139641
1.236796
1.179576
1.136661
1.350641
1.161695
1.126528
1.428723
1.426935
1.697540
1.584888
1.785755
2.276897
5.973577
30.874610
77.789426
194.312930
336.300731
578.747392
769.891739
985.495448
1015.820503
1015.820503
946.411490
712.364912
521.216989
293.456912
174.064636
75.900555
36.383867
17.825961
18.454790
28.029680
39.932728
61.522722
80.140829
105.135441
118.826628
128.638744
127.470493
115.742683
100.680590
76.023936
58.576465
38.363934
26.729703
16.842484
12.337565
8.816719
7.991791
7.796884
7.399917
7.773638
7.377863
7.995963
7.638931
7.599592
7.522702
7.026792
7.167459
7.110834
7.138848
7.086992
6.679893
6.706715
6.494522
6.316900
6.118417
6.677508
6.278753
5.906820
5.893707
5.846620
6.009936
5.694628
5.838871
5.399585
##ZVALUE=305
0.961423
0.865459
0.942945
0.669956
0.890493
0.999570
0.855923
0.924468
0.987649
0.875592
0.939965
0.886917
0.971556
0.828505
0.835657
0.970960
0.971556
0.882745
0.980496
0.999570
1.108646
1.207590
1.169443
1.046658
1.117587
1.149774
1.220703
1.308918
1.439452
1.367927
1.521707
1.597404
1.762509
2.110600
3.343821
18.924475
51.341653
144.639611
260.209441
481.877923
671.607852
906.670690
1015.820503
1015.820503
1000.977755
799.121857
619.107485
389.739871
241.959691
108.305812
53.935647
20.068884
14.220476
17.677546
25.171638
41.185617
56.508780
79.338551
95.801950
114.392638
122.142434
120.780468
111.229420
93.865991
76.744556
51.919818
37.843585
23.954511
16.295910
10.634661
8.658767
7.601976
7.258654
7.170439
6.896853
7.086992
7.058978
6.940961
7.298589
6.746650
6.709695
6.977916
6.636977
6.707907
6.646514
6.451607
6.513000
6.134510
6.457567
5.762577
5.997419
5.940795
5.497932
5.875826
5.290508
5.606413
##ZVALUE=310
0.791550
0.852942
0.625849
0.638962
0.729561
0.726581
0.841618
0.837445
0.836849
0.884533
0.888705
0.895858
0.897646
0.730753
0.901818
0.701547
0.905991
0.908971
0.920892
0.903606
0.965595
0.859499
1.140833
0.902414
1.228452
1.113415
1.208782
1.234412
1.275539
1.223683
1.370907
1.336932
1.349449
1.406670
1.639724
2.094507
2.459884
8.183718
26.875734
89.913011
176.329613
362.528563
546.550751
797.114968
966.183543
1015.819907
1015.819907
935.190916
777.442455
512.675643
337.415934
169.121623
89.037418
31.504631
15.218854
11.868477
15.012622
23.107529
33.339858
52.835941
69.103837
89.792609
103.433728
112.902522
114.602447
104.598999
92.940927
71.326494
55.398941
35.597682
25.541782
15.779734
11.502504
8.096695
6.863475
6.734729
6.486773
6.307960
6.292462
5.922914
5.987883
6.041527
6.216764
6.000996
6.203651
6.125569
6.264448
6.221533
6.054640
6.048679
5.642772
5.681515
5.786419
5.328655
5.679727
5.581975
##ZVALUE=315
0.612736
0.806451
0.837445
0.703931
0.812411
0.789762
0.742674
0.765920
0.749826
0.874996
0.800490
0.886917
0.697970
0.735521
0.652671
1.023412
0.932813
0.735521
0.931621
1.090765
0.929832
1.005530
0.914931
1.020432
0.870824
0.906587
1.014471
1.112819
1.189709
1.255870
1.027584
1.328588
1.271963
1.356602
1.381636
1.448989
1.731515
1.876950
1.964569
3.865957
13.960600
56.420565
124.608874
278.475881
451.672673
713.049769
881.807804
1015.819907
1015.819907
980.231762
843.887925
607.348680
424.855947
223.666430
120.109916
44.023991
19.506812
10.178685
9.947419
14.389753
20.129681
32.766461
45.537949
64.787865
81.017613
99.359751
105.957985
106.835961
100.022554
85.165501
69.700480
50.379634
36.622882
22.426844
15.524626
10.101795
8.292794
6.796718
6.286502
6.045699
6.009936
5.762577
5.644560
5.899668
6.064773
5.779862
5.937815
6.067753
5.950928
5.969405
5.940795
5.585551
5.382895
5.414486
5.505681
5.317926
##ZVALUE=320
0.734925
0.635982
0.830889
0.648499
0.929832
0.737906
0.789762
0.779629
0.709891
0.763535
0.679493
0.743866
0.940561
0.774860
0.868440
0.700951
0.746846
0.685453
0.753999
0.881553
0.827909
0.993609
1.092553
1.034737
0.951886
0.888705
0.912547
1.076460
1.033545
1.063943
1.123548
1.187921
1.325607
1.069903
1.309514
1.348853
1.408458
1.545548
1.467466
1.526475
1.720786
2.426505
6.281734
31.982660
81.209540
207.357407
342.799425
565.834641
754.351616
968.315601
1015.819907
1015.819907
937.411785
718.238950
523.173809
287.434459
162.678957
69.120526
31.481981
11.298656
8.749962
9.302497
11.590719
18.248558
26.484728
42.418838
57.158470
75.231791
88.754892
99.999905
101.054907
94.625950
83.417892
63.509941
49.303770
32.562613
22.661686
14.255643
10.119677
7.215738
6.157756
5.673766
5.757809
5.497932
5.390644
5.649924
5.643964
5.487800
5.444884
5.147457
5.392432
5.364418
5.330443
5.350709
5.242825
5.308986
##ZVALUE=325
0.782609
0.782609
0.744462
0.856519
0.771880
0.812411
0.796914
0.665784
0.706911
0.740886
0.793934
0.881553
0.749826
0.731945
0.816584
0.833869
0.875592
0.948906
0.905991
0.815988
0.810623
0.817776
0.942945
0.900626
0.967979
0.919700
0.965595
0.908971
1.011491
0.964999
1.094937
1.086593
1.015663
1.117587
1.130700
1.201630
1.211762
1.256466
1.282692
1.539588
1.542568
1.528859
1.682639
1.928806
3.488660
21.224618
54.923892
142.186880
256.615877
477.519631
663.604736
891.847610
1004.991531
1015.814543
976.254940
771.660805
588.796735
357.876420
216.189623
93.953609
44.376850
15.094876
8.671880
7.219911
8.124709
11.130571
16.278625
26.932955
39.005876
56.099892
70.656538
86.055994
92.684627
94.961524
88.236928
74.015856
60.892701
44.041872
31.826496
20.110607
13.737679
8.724928
7.024407
5.929470
5.546808
5.545616
5.415678
5.146861
5.173683
4.879832
5.146861
4.962683
4.881620
5.135536
5.244613
5.194545
##ZVALUE=330
0.655651
0.684857
0.712872
0.569820
0.762939
0.614524
0.743866
0.705719
0.674725
0.649691
0.841618
0.779629
0.986457
0.750422
0.718832
0.812411
0.838637
0.789762
0.766516
0.895858
0.850558
0.676513
0.864863
0.815988
0.747442
0.814795
0.942945
0.764728
0.930429
1.022816
0.933409
0.969768
1.147985
1.243949
1.010895
1.047850
1.115799
1.163483
1.252890
1.155734
1.448989
1.442432
1.361966
1.429915
1.472831
1.765490
2.376437
9.089708
29.116869
94.994903
184.762478
370.642543
543.567538
788.516998
938.286781
1015.816927
1004.822850
849.387646
677.286983
434.332490
276.847482
129.507780
64.757466
22.769570
10.652542
6.691813
6.800890
7.600784
9.972453
16.132593
23.463964
37.131906
49.798489
68.278909
78.723431
88.136792
87.343454
81.470609
71.958899
55.618882
42.467713
27.183890
19.983649
13.183951
9.616613
7.116795
5.888939
5.407929
5.144477
5.218983
4.954934
5.109906
5.109906
4.859567
4.706979
4.792809
##ZVALUE=335
0.883937
0.823736
0.941753
0.855923
0.969768
0.810623
0.814795
0.731945
0.921488
0.881553
0.826716
0.882745
0.999570
0.888705
0.878572
0.985861
0.878572
0.900626
1.022816
0.999570
0.759959
0.991821
0.852942
0.943542
1.084805
0.981688
1.042485
1.033545
0.899434
0.996590
0.975728
1.169443
1.121759
1.028776
1.171827
1.104474
1.110435
1.301765
1.332760
1.297593
1.303554
1.343489
1.385808
1.451969
1.529455
1.592636
1.728535
1.811981
2.120733
4.875660
15.571713
60.073733
127.825737
280.138850
446.227789
700.529814
863.644481
995.049477
1011.337638
902.828574
753.640532
516.507626
348.729491
179.837942
94.218850
31.997561
13.689995
7.235408
6.549954
6.454587
7.213950
10.127425
14.332533
24.092793
34.678578
50.503612
61.562657
75.256824
81.685781
82.492828
76.700449
65.510869
54.695606
39.678812
30.302405
19.608736
14.071465
9.442568
7.346869
6.046891
5.368590
4.845858
4.932880
5.022883
4.649758
4.802942
##ZVALUE=340
0.714660
0.672936
0.576973
0.706911
0.695586
0.694990
0.698566
0.723600
0.822544
0.738502
0.655651
0.647902
0.833869
0.886917
0.776649
0.694990
0.638962
0.712872
0.761747
0.835657
0.716448
0.913739
0.611544
0.555515
0.697970
0.755787
0.825524
0.926852
0.712872
0.817776
1.002550
0.851750
0.771880
1.013875
0.825524
0.887513
0.949502
1.058578
0.945926
1.073480
0.992417
0.996590
1.187921
1.220703
1.114607
1.281500
1.405478
1.389980
1.554489
1.625419
1.644492
2.528429
7.841587
37.254691
89.140534
220.359564
365.350842
588.477850
761.664510
940.172672
994.686484
941.423774
818.522573
602.234602
421.502590
216.497779
119.804740
47.452450
19.330978
7.845759
6.522536
6.179810
6.345510
7.114410
9.241700
14.488697
21.518469
33.207536
44.714808
60.482621
69.489479
76.788664
76.588988
71.785450
64.717531
51.332712
40.380955
27.995706
20.578504
12.880564
9.343624
6.547570
5.621910
4.714727
4.405975
4.418492
##ZVALUE=345
0.677705
0.677705
0.651479
0.645518
0.676513
0.643730
0.655651
0.701547
0.714660
0.453591
0.620484
0.723600
0.649691
0.754595
0.755787
0.750422
0.830889
0.899434
0.775456
0.725985
0.729561
0.695586
0.790954
0.803471
0.944734
0.848770
0.816584
0.861883
0.759959
0.793934
0.828505
0.890493
0.865459
0.985861
0.817776
0.888705
1.015663
0.958443
1.077652
1.102686
1.002550
1.071692
1.106858
1.110435
1.142621
1.191497
1.212955
1.139641
1.182556
1.241565
1.271963
1.528859
1.647472
1.842976
3.770590
20.114779
55.511594
147.598982
264.127851
476.701856
653.448701
856.474638
952.158570
965.400934
878.857970
672.791004
498.611927
292.823911
165.905952
64.518452
28.592944
10.293722
6.830692
5.953908
5.970597
5.877614
6.281734
8.618832
12.401938
20.458698
29.376745
42.493939
52.539706
63.712001
68.761706
70.780516
67.781806
59.656501
51.818490
38.575530
29.439926
19.033551
13.717413
8.859634
6.735921
5.103946
##ZVALUE=350
0.577569
0.766516
0.720620
0.895858
0.608563
0.576973
0.549555
0.615716
0.667572
0.782609
0.771880
0.705719
0.697970
0.607967
0.599623
0.674725
0.790954
0.674725
0.706911
0.712872
0.681877
0.763535
0.764728
0.804663
0.755787
0.759959
0.853539
0.839829
0.839829
0.792742
0.755787
0.861883
0.863671
0.873804
0.868440
0.814795
0.867844
0.797510
0.908971
0.988841
0.933409
0.821948
0.811815
0.931621
0.958443
1.077652
0.971556
0.976920
1.209974
1.286864
1.050830
1.393557
1.484752
1.332760
1.410842
1.668930
2.194643
10.143518
32.228827
101.096630
194.272399
378.282666
547.727942
765.084028
890.212655
958.367586
906.806588
736.885667
566.231608
346.324444
207.448602
92.379451
42.180419
12.989640
7.030964
5.616546
5.618930
5.192757
5.079508
6.009936
7.287860
12.112856
17.343760
26.930571
35.665631
47.507882
55.639744
62.547922
64.899921
62.494874
57.003498
46.775937
38.440824
26.661754
19.790530
13.311505
##ZVALUE=355
0.672936
0.776649
0.679493
0.772476
0.689626
0.739694
0.753999
0.683665
0.794530
0.670552
0.701547
0.736713
0.731945
0.704527
0.756979
0.567436
0.770688
0.631809
0.554919
0.729561
0.623465
0.697970
0.688434
0.834465
0.816584
0.574589
0.653863
0.862479
0.930429
0.755787
0.780821
0.776649
0.746846
0.827909
0.798702
0.880957
0.883937
1.020432
0.818968
0.847578
0.819564
0.799894
0.989437
0.966787
1.003742
0.876784
1.028776
1.065731
1.121759
1.081824
1.158714
1.050830
1.150966
1.278520
1.463890
1.429915
1.341701
1.549721
1.781583
5.029440
17.633438
66.659451
136.285424
284.865499
445.300937
688.017011
830.000639
933.148861
925.427675
788.626671
636.269450
416.086912
263.638496
116.654634
55.419803
17.093420
8.159876
5.581975
5.354881
5.171895
4.906654
4.895926
5.628467
6.996989
9.411573
15.716553
22.046566
32.106638
40.115714
49.685836
55.080652
58.528781
56.955814
51.023960
44.999719
34.882426
##ZVALUE=360
0.679493
0.573993
0.761747
0.845790
0.705719
0.661612
0.680685
0.708699
0.715852
0.625849
0.729561
0.764728
0.688434
0.687838
0.606775
0.737906
0.719428
0.712872
0.738502
0.762939
0.864863
0.693798
0.775456
0.881553
0.723600
0.721812
0.703931
0.817776
0.759959
0.880957
0.928640
0.780821
0.705719
0.785589
0.854731
0.942945
0.789762
1.012683
1.020432
1.007915
0.872612
1.085997
0.953674
0.946522
0.906587
0.979900
1.015663
1.069903
1.009703
0.984669
1.143813
1.212955
1.026988
1.155734
1.126528
1.166463
1.422763
1.341701
1.472831
1.683831
1.776814
2.556443
7.839799
34.830570
84.720850
209.980607
346.089005
558.453798
726.418495
890.754461
928.316712
855.040550
725.425482
492.494702
325.809717
157.187581
80.449581
28.956532
11.967421
5.942583
5.358458
4.828572
4.720688
4.669428
4.442930
4.782677
5.703568
8.457899
12.193918
18.327832
25.621653
35.262704
42.585731
49.987435
52.932501
52.699447
##ZVALUE=365
0.737906
0.724792
0.706911
0.709891
0.626445
0.751615
0.673532
0.827909
0.653863
0.659823
0.755787
0.641942
0.782609
0.687838
0.829697
0.747442
0.740886
0.556707
0.575781
0.726581
0.730753
0.730753
0.642538
0.763535
0.657439
0.896454
0.901818
0.782609
0.767708
0.707507
0.818968
0.851750
0.821948
0.948906
0.809431
0.801682
0.841618
0.865459
1.021624
0.885725
0.808835
0.879765
0.848770
0.943542
0.847578
0.962615
0.844598
0.968575
0.983477
0.913739
1.083612
1.122952
0.932813
1.153946
1.041889
1.217723
1.169443
1.074672
1.372695
1.367927
1.411438
1.558661
1.622438
1.869798
3.778934
19.507408
52.905679
140.120983
258.990526
476.914644
649.757981
834.792852
911.137462
877.880454
773.612857
575.888753
408.575535
213.272572
114.503503
41.029453
16.672611
6.095767
5.123615
4.620552
4.618764
4.396439
4.202724
3.946424
4.211664
4.710555
6.394982
10.341406
14.758706
22.648573
29.013753
37.344694
##ZVALUE=370
0.734925
0.534654
0.737906
0.795722
0.760555
0.696778
0.790954
0.840425
0.824928
0.716448
0.833869
0.858903
0.912547
0.764728
0.732541
0.794530
0.827909
0.807643
0.929832
0.844598
0.875592
0.767708
0.732541
0.893474
0.626445
0.854731
0.942945
0.841618
1.004934
0.913739
0.757575
0.906587
0.842810
0.905991
1.020432
0.938773
0.962615
0.907779
0.776649
0.906587
0.936985
0.870824
0.893474
0.931621
1.045465
0.947714
1.009703
0.886917
0.907779
0.951886
1.101494
0.998974
1.039505
1.067519
0.995994
1.018643
1.192689
1.130700
1.192689
1.367927
1.319647
1.327991
1.510978
1.750588
1.643896
1.875758
2.339482
10.198951
32.930970
107.114911
201.244950
384.839773
558.327436
781.859756
887.159705
907.319784
827.443004
644.217730
477.953553
267.329812
150.645971
59.508681
25.588870
8.454919
5.244613
4.447699
4.319549
4.186630
3.761649
3.551841
3.553629
3.718734
4.339814
5.947948
8.034706
13.292432
##ZVALUE=375
0.562668
0.645518
0.603795
0.548959
0.578761
0.520945
0.494719
0.500679
0.615716
0.571609
0.570416
0.702739
0.528693
0.616908
0.539422
0.457764
0.556707
0.519753
0.543594
0.598431
0.707507
0.776649
0.646710
0.680685
0.640750
0.679493
0.632405
0.894666
0.682473
0.736713
0.868440
0.795722
0.828505
0.856519
0.801682
0.985861
0.939965
0.825524
0.977516
0.892878
0.898838
0.900626
0.869632
1.035929
0.928640
0.953674
0.920892
0.912547
0.867844
0.924468
0.838637
0.743866
0.842810
0.924468
1.020432
1.068711
1.012683
0.988841
0.934601
1.026988
0.939965
0.975728
1.044869
1.163483
1.310706
1.497865
1.542568
1.696944
1.812577
5.171895
17.649531
63.262582
133.842826
299.786925
466.462970
700.109601
837.219954
921.889544
892.381668
733.368993
565.344691
340.154767
213.105679
103.456974
50.919652
15.664697
6.854534
4.369617
4.178882
3.870726
3.843904
3.445745
3.366470
3.284812
3.217459
3.695488
##ZVALUE=380
0.576973
0.793934
0.670552
0.686646
0.653863
0.580549
0.665784
0.563860
0.713468
0.729561
0.718832
0.551939
0.565648
0.617504
0.660419
0.596642
0.768900
0.732541
0.691414
0.605583
0.683665
0.749826
0.568628
0.630617
0.775456
0.753999
0.788569
0.983477
1.055598
1.077652
1.203418
1.170635
1.229644
1.425743
1.255870
1.352429
1.249909
1.419783
1.453757
1.526475
1.308918
1.243949
1.251698
1.071692
1.089573
1.268983
1.079440
1.036525
1.176000
1.063943
1.203418
1.145601
1.144409
1.006722
1.065731
1.023412
1.034737
0.970960
1.160502
1.125932
1.122952
0.970960
1.109838
1.222491
1.305938
1.334548
1.327991
1.426935
1.369715
1.713634
1.976490
3.096461
9.620786
44.789910
103.281736
242.376924
389.897823
603.813529
761.407614
896.653533
902.394652
778.877735
639.770627
442.719460
294.268727
143.565536
72.271824
24.863482
10.143518
4.652739
4.005432
3.932714
3.458858
3.448725
3.350973
3.059506
##ZVALUE=385
0.580549
0.655651
0.589490
0.538826
0.657439
0.532866
0.790954
0.625849
0.562668
0.674725
0.600815
0.690818
0.664592
0.631809
0.635982
0.747442
0.632405
0.705719
0.553727
0.634789
0.516772
0.688434
0.624657
0.573993
0.840425
1.027584
0.844598
1.123548
1.402497
1.505613
1.772642
1.673698
2.088547
2.182722
2.265573
2.191663
2.081990
2.061725
2.054572
2.109408
1.929998
1.872778
1.998544
1.730919
1.666546
1.709461
1.789927
1.595616
1.560450
1.457930
1.476407
1.482964
1.422763
1.506805
1.287460
1.327991
1.163483
1.207590
1.173615
1.230836
1.296997
1.208782
1.267791
1.233816
1.133680
1.303554
1.276731
1.415610
1.394749
1.672506
1.671910
1.799464
1.799464
2.157688
4.826784
25.697947
66.505671
168.013573
293.506980
509.595871
676.251650
842.891932
892.483592
841.967463
733.053684
533.982515
377.517939
202.917457
115.287900
46.669841
18.550754
5.703568
3.863573
3.686547
3.566742
3.386736
##ZVALUE=390
0.568628
0.678897
0.688434
0.644922
0.648499
0.537634
0.531673
0.557899
0.647902
0.558496
0.666976
0.719428
0.616908
0.554919
0.632405
0.638962
0.640750
0.837445
0.575781
0.695586
0.540614
0.619888
0.682473
0.767708
0.804663
1.055598
1.177788
1.579523
1.943707
2.273917
2.383590
2.742410
3.000498
3.181696
3.338456
3.365874
3.348589
3.219843
3.022552
3.236532
3.108978
2.851486
2.820492
2.389550
2.282858
2.235770
2.098680
2.083778
1.948476
1.926422
1.866817
1.653433
1.744628
1.583695
1.553893
1.447797
1.411438
1.399517
1.438856
1.355410
1.273751
1.312494
1.305938
1.326799
1.316667
1.184940
1.344681
1.496673
1.498461
1.650453
1.579523
1.628995
1.543760
1.636744
1.707673
1.750588
2.798438
13.095737
40.705800
125.389695
236.918926
444.356799
604.979992
780.338645
876.907706
894.681811
823.519826
645.484924
488.441586
292.937756
167.429447
67.050457
29.611588
8.305907
4.488826
3.777742
##ZVALUE=395
0.627637
0.714660
0.609756
0.686646
0.491738
0.605583
0.558496
0.567436
0.582933
0.606775
0.560880
0.553727
0.584722
0.689626
0.531673
0.752807
0.574589
0.426769
0.713468
0.770688
0.602603
0.663996
0.572801
0.702739
0.831485
1.139641
1.246929
1.672506
2.170801
2.666712
3.163815
3.470778
3.634691
4.236698
4.241467
4.372597
4.395843
4.259944
4.054904
4.150867
3.802776
3.627539
3.413558
3.279448
3.257990
3.061891
2.541542
2.560616
2.486706
2.341866
2.123713
2.017617
2.024770
1.851916
1.610518
1.659989
1.623631
1.541972
1.528859
1.485944
1.401901
1.410842
1.428723
1.409650
1.224875
1.233816
1.301765
1.418591
1.520514
1.475811
1.574755
1.533628
1.428723
1.530647
1.477599
1.529455
1.500845
1.551509
1.982450
7.731915
27.290583
92.810988
176.766515
334.067941
493.201017
712.457895
845.271945
926.254988
893.284678
747.527480
584.354997
357.424617
220.507979
92.712641
43.270588
13.845563
##ZVALUE=400
0.699759
0.738502
0.669956
0.686646
0.774860
0.646710
0.517964
0.630617
0.604987
0.634789
0.551939
0.602603
0.547767
0.528693
0.645518
0.557899
0.493526
0.564456
0.616908
0.557899
0.549555
0.709891
0.575781
0.788569
0.721812
1.052618
1.346469
1.980662
2.415776
2.576709
3.079772
3.770590
4.159808
4.457831
4.423857
4.709959
4.670620
4.643798
4.529953
4.247427
4.246831
4.071593
3.769994
3.592968
3.487468
3.058910
3.056526
2.970695
2.661943
2.421737
2.063513
2.236962
2.022982
1.881719
1.943707
1.836419
1.583695
1.540780
1.617670
1.632571
1.582503
1.474619
1.485944
1.515746
1.451969
1.437664
1.437664
1.463890
1.516938
1.482964
1.599789
1.486540
1.511574
1.388788
1.338720
1.277924
1.395941
1.280904
1.582503
1.661777
1.808405
4.219413
14.503598
55.704713
118.671656
260.120630
403.779745
605.301857
757.465959
888.382792
896.909833
783.194900
644.543767
437.471867
284.748673
140.411854
##END
