##TITLE=20FILTER
##FORMAT=SPECTACLE-ASCII V-1.2
##DATA TYPE=ULTRAVIOLET SPECTRUM
##SECOND TYPE=ULTRAVIOLET SPECTRUM
##DATE=12/18/17
##TIME=12:27:37
##SPECTROMETER/DATA SYSTEM=SPECTACLE
##XUNITS=NM EM
##YUNITS=ENERGY
##YFACTOR=1
##FIRSTX=220
##LASTX=410
##NPOINTS=96
##3DDATA=Equidistant
##ZUNITS=NM EX
##FIRSTZ=210
##LASTZ=400
##ZPOINTS=39
##XYDATA=(Y..Y)
##ZVALUE=210
128.390789
128.153563
77.086687
46.294928
26.385784
17.688870
15.620589
15.244484
16.183853
15.456676
16.385913
15.421510
16.889572
18.539429
20.716786
21.795630
23.192763
25.841594
26.947856
29.371977
31.074882
34.214854
38.871765
40.642619
41.913986
45.401454
49.182773
53.325891
53.458810
63.220859
62.984824
70.807934
68.168640
73.366761
72.543621
77.405572
77.048540
79.728961
80.181956
80.916882
80.362558
87.163448
83.262920
85.593462
88.967681
88.210702
91.773868
90.512633
89.352727
89.731812
92.797875
89.836717
94.712973
96.201897
102.929473
95.515847
98.377466
100.619793
102.085471
101.194978
102.020502
97.920895
100.309849
103.187561
103.835464
107.631683
114.389658
122.931600
135.118961
170.059800
190.868974
237.434506
275.985599
338.837504
380.478501
437.088609
468.350649
483.519435
501.585603
497.516990
482.538939
433.303714
385.034680
322.324634
263.235569
206.396580
169.196725
134.889483
119.558573
132.967830
153.377652
197.897553
241.409540
310.158730
361.398458
420.538783
##ZVALUE=215
375.651717
363.173485
302.699804
201.086998
136.231780
75.301528
45.383573
27.376413
23.428798
25.578737
21.742582
21.247864
19.201636
19.607544
19.103885
18.735528
20.600557
21.517873
21.973848
24.843812
25.643706
30.666590
31.349659
35.310984
37.476420
40.736794
42.010546
48.647523
47.352910
52.469969
57.927966
57.792664
59.162974
66.792965
65.582991
71.695447
69.919825
69.868565
70.313811
69.631934
71.136951
69.613457
72.119832
75.692534
73.427558
71.696639
72.435737
79.489946
80.808997
76.954961
77.163577
77.101588
79.801679
78.883767
80.781579
80.289841
79.291463
80.412626
81.740618
81.055760
81.609488
82.981586
86.044669
85.150599
85.543990
87.236762
92.643499
98.835826
107.153654
124.744773
141.569972
174.689889
204.882622
242.581964
265.861750
303.042531
322.516561
342.531800
342.793465
338.511467
329.622626
306.796432
277.298689
239.322782
200.219750
155.994892
131.982565
106.003881
88.024735
81.536770
72.301626
68.603754
74.255466
78.528523
94.893575
131.030679
##ZVALUE=220
656.729937
653.666854
651.424527
574.989915
479.378700
342.290998
241.071582
128.211975
73.904991
49.635768
32.440424
31.358600
31.411648
27.638674
25.192499
22.204518
19.974709
18.467903
17.457604
18.999577
20.550489
21.392703
22.100806
24.438500
25.499463
30.236840
33.046603
35.943985
36.898851
43.740869
43.459535
45.843720
52.311420
51.378608
51.206946
53.218603
56.238770
56.737661
56.644678
57.432652
57.048798
54.997802
56.037903
56.648850
57.904720
54.776669
54.890513
54.098964
56.343675
57.258606
55.914521
52.983761
56.114793
54.232478
55.802464
54.854751
54.499507
55.867434
53.603649
58.986545
55.756569
55.624843
52.194595
56.149960
56.491494
56.487918
59.178472
62.339902
68.587661
76.362491
92.186928
104.762912
133.805871
147.037506
166.296959
182.002783
190.906525
202.455521
208.651423
207.844973
199.380517
187.512636
176.228881
153.438449
121.257901
103.374720
73.431730
65.574646
55.715442
49.912930
47.254562
45.406818
46.211481
45.882463
45.336485
43.912530
##ZVALUE=225
622.740984
659.765601
799.357891
899.303555
894.978642
789.711475
675.060749
481.746793
338.923931
217.915773
112.296939
67.152977
49.103498
46.939850
45.547485
41.484833
35.392642
30.087829
26.631951
20.890832
18.299818
18.215775
18.553734
19.824505
22.156835
24.585724
25.892854
28.993487
29.498935
32.962561
36.554933
39.131641
41.729808
44.447780
45.498610
46.473742
46.874881
48.902631
50.369501
51.725507
51.130652
49.189925
49.546957
46.915412
46.314001
46.697855
48.495531
46.984553
46.342611
45.948625
46.259761
43.955445
42.889714
44.522882
42.378902
44.376850
42.540431
42.434931
44.150949
45.016408
43.969750
45.277476
45.272708
44.104457
43.562651
44.808984
47.080517
52.363873
54.522753
62.058568
68.333745
80.164671
95.615983
112.143755
120.217800
134.572983
138.500929
150.525570
151.508451
144.973993
146.104693
127.980709
121.566653
100.730658
92.071891
69.922805
59.317946
49.875975
42.447448
41.473508
38.907528
38.721561
37.232637
36.612749
36.630630
35.257936
##ZVALUE=230
318.375826
354.959965
540.381670
857.102871
1015.819907
1015.819907
1015.819907
1015.819907
1015.819907
954.036713
621.431470
399.514437
199.998617
121.488571
78.956485
71.225762
70.122480
69.504976
65.440536
51.908493
44.542551
31.309724
29.160976
22.842884
23.139715
23.981929
22.016764
26.743412
25.983453
30.493736
31.283498
34.711957
36.488771
39.655566
39.587617
41.667819
42.973757
40.854812
42.456985
43.318868
44.039488
42.738914
45.597553
43.435693
42.500496
43.219924
41.497946
41.552782
40.404797
40.239692
41.538477
42.048693
41.316748
41.597486
40.963888
38.918853
41.228533
40.198565
40.247440
40.154457
38.144588
39.425492
42.118430
40.487647
40.840507
40.913820
41.095614
45.124888
50.938725
55.436492
62.882900
73.352456
83.908439
91.422796
100.308657
106.852651
119.391680
116.627812
115.606785
111.993551
102.747679
97.811818
85.109472
72.117448
59.824586
53.141713
42.606592
37.265420
33.345819
34.536719
33.892989
32.854676
29.125810
27.598739
31.940937
29.688478
##ZVALUE=235
67.147613
77.750683
171.883702
394.189954
627.895594
986.099839
1015.819907
1015.819907
1015.819907
1015.819907
1015.819907
1015.819907
789.671540
532.629490
281.665921
169.128776
105.249882
94.149709
99.680424
101.259947
92.092752
75.994730
67.241788
48.909783
37.274957
27.742982
25.921464
23.692846
22.186637
24.253726
25.355816
26.765466
27.718544
29.954910
30.483603
28.428435
30.807853
30.984879
29.961467
31.268597
31.430721
30.027628
30.589700
30.421615
30.561686
32.180548
30.936599
30.846000
32.199621
30.556917
28.235912
28.749704
31.191707
28.982759
27.996898
29.031634
28.585792
30.329823
28.417706
27.851462
29.105544
28.156638
29.049516
29.343963
28.391480
26.213527
29.402971
30.450821
33.010840
37.857890
43.370724
50.674677
57.559609
61.467886
65.348744
67.415833
72.251558
72.797537
70.691705
66.091418
65.014958
58.418512
51.075816
44.125915
37.750602
31.163692
27.624965
25.874972
23.717880
25.015473
23.619533
25.243759
24.123788
23.368597
21.368861
20.825863
##ZVALUE=240
3.662705
4.491806
10.524988
39.924979
96.419454
238.282681
412.097573
784.306526
1015.819907
1015.819907
1015.819907
1015.819907
1015.819907
1015.819907
975.810885
671.984553
366.341472
234.323740
156.415701
118.436813
122.248530
130.492449
125.165582
108.586550
92.458725
71.099997
55.501461
38.383603
30.128956
22.701621
20.576715
17.922521
18.855929
19.317865
19.174814
20.412803
20.472407
20.274520
20.928979
21.102428
21.780729
20.925999
21.383762
21.070838
22.912621
21.495819
22.356510
20.131469
21.568537
21.451712
21.611452
21.757483
21.191835
21.599531
20.891428
20.405650
21.114945
21.744967
19.803643
21.171570
19.880533
22.594929
22.182465
20.332932
22.117496
21.683574
22.094846
22.793412
25.453568
26.710629
30.667782
34.888983
38.054585
45.613647
50.876737
50.876737
54.613948
53.013563
54.641962
52.868724
46.363473
41.504502
36.836863
32.361746
28.748512
24.125576
22.056699
20.954609
19.536614
19.584894
18.249750
19.404888
18.022656
17.904639
18.595457
17.258525
##ZVALUE=245
2.540946
2.513528
2.187490
2.530813
11.792779
36.889911
122.985840
255.053639
545.281768
830.163956
1015.196443
1015.196443
1015.196443
1015.196443
1015.196443
1015.196443
1015.197039
973.904729
688.305497
350.462794
199.179649
128.064752
122.697949
135.064721
138.195753
135.993958
121.850967
104.513764
81.685781
62.486529
48.932433
32.906532
26.722550
22.075772
20.864606
19.976497
20.945668
19.573569
21.256804
21.929741
20.239949
21.156669
20.862818
20.350814
19.504428
20.218492
20.094514
19.757748
19.694567
20.839572
19.597411
19.335747
19.549727
18.842816
18.863678
22.436976
19.625425
20.628572
18.945932
19.003749
19.909739
19.841790
18.911958
19.667745
20.090938
17.513633
19.955635
20.681620
22.776723
23.977757
25.604963
29.391646
32.797456
35.508871
39.443970
41.367412
40.353537
40.755868
38.319826
35.667419
35.425425
29.736757
27.050972
24.900436
21.846890
18.950701
16.969442
15.992522
15.980601
16.159415
14.671683
13.469458
13.767481
13.965964
12.885928
13.818741
##ZVALUE=250
2.004504
2.034903
2.484918
2.874732
2.559423
2.762675
6.798506
24.090409
99.816918
198.166966
414.857864
634.809732
904.978514
1015.710831
1015.710831
1015.710831
1015.710831
1015.710831
1015.710831
981.325507
688.722730
434.013009
198.659897
122.812986
111.837983
127.419829
141.845942
147.762895
140.584707
129.883885
112.271905
83.211660
65.657496
44.727921
32.423735
24.607778
18.869638
18.435717
18.050671
17.229915
18.709898
17.012954
18.232465
18.424988
17.492771
16.600490
17.313957
16.335845
16.752481
15.487671
16.087890
16.313791
15.889406
16.529560
15.454888
15.326738
15.110970
13.887882
15.203953
15.131831
14.265776
14.853477
13.832450
15.084743
13.755560
13.986826
14.283657
14.569759
15.293956
15.962720
17.699599
19.629598
20.129681
24.575591
25.036931
25.595427
26.657581
28.804541
27.768612
25.601983
26.464462
23.953915
20.085573
18.271804
16.179681
13.443828
12.730956
12.158751
11.131763
11.338592
10.933876
10.993481
10.900497
10.411739
9.773970
10.617971
##ZVALUE=255
1.874566
2.106428
2.239943
2.076626
1.933575
2.104640
2.222657
2.590418
3.157854
7.353425
48.259497
116.560459
240.456462
495.867729
769.683719
1015.691757
1015.691757
1015.691757
1015.691757
1015.691757
1015.691757
1015.691757
669.011474
424.885750
216.192603
135.571957
100.066662
108.371973
133.885741
146.654844
158.226490
153.615475
141.286850
115.541816
95.266700
66.836476
50.132871
33.115745
25.973916
20.937920
20.239949
18.761754
19.386411
18.670559
16.747713
18.019676
18.213987
17.535686
17.409921
16.013980
16.181469
16.320944
15.527606
15.783906
14.911890
15.321970
15.208721
13.426542
14.734864
12.980700
13.381839
13.742447
13.023615
12.922883
12.932420
12.903810
12.376904
12.842417
13.533831
14.119744
14.436841
16.195774
17.999411
19.310713
20.421743
21.360517
21.829605
21.241903
19.798875
18.382668
17.249584
15.655756
15.118718
12.873411
11.450648
9.419918
8.555651
8.658767
9.052753
8.392930
7.913709
8.105636
8.364916
7.938743
7.866621
7.954836
##ZVALUE=260
1.739860
1.641512
1.983643
2.018809
2.184510
2.203584
1.799464
1.934767
2.121925
2.169609
2.590418
3.636479
10.187626
48.967600
117.746592
291.203856
484.280586
778.777003
991.250873
1015.856862
1015.856862
1015.856862
1015.856862
940.085649
606.459975
402.600765
227.753520
142.385960
92.953444
91.661811
114.991665
138.057470
152.988434
163.544416
159.235001
143.941641
127.372742
94.990730
74.211955
49.818754
36.139488
27.987957
22.635460
19.876957
18.452406
18.048882
17.324686
16.962886
16.530752
14.931560
15.697479
14.858842
14.553666
13.607740
13.029575
12.687445
12.100935
12.401938
11.967421
10.643601
11.294484
10.366440
10.522604
10.024905
10.706782
9.672642
9.627938
9.798408
9.632707
10.104775
10.069609
10.429621
9.834766
11.208653
10.635853
10.369420
10.989904
9.467602
9.382963
9.150505
8.051991
7.723570
7.355809
7.328987
6.687641
6.382465
6.394982
5.587935
5.401969
5.973577
5.234480
5.758405
5.151629
5.277991
5.240440
5.601645
##ZVALUE=265
1.607537
1.209974
1.612902
1.446605
1.536608
1.489520
1.710653
1.710653
1.584888
1.583695
1.757741
2.005696
2.072453
2.288818
7.186532
24.790764
82.987547
160.307884
269.959569
514.238477
726.997852
991.861820
1015.819907
1015.819907
1015.819907
931.953788
740.574002
474.609733
317.612886
169.395804
111.390948
84.164739
93.683600
122.794509
143.681765
161.467791
166.523457
159.806609
145.560503
119.401813
95.386505
69.745779
53.810477
34.842491
27.339458
20.746589
18.364787
17.247796
16.455650
15.166998
15.208721
14.326572
14.173985
13.724566
12.685657
12.500882
11.683702
11.919737
10.804534
10.022521
9.378791
9.606481
9.845495
8.911490
9.239912
9.194613
8.178949
8.263588
8.629560
8.061528
8.851886
8.892417
9.580851
9.228587
9.251833
8.995533
9.230971
8.693933
7.902980
7.531643
7.203817
6.518960
5.962849
6.052852
5.732775
5.454421
5.722642
5.149841
4.929900
4.621744
5.077720
5.332828
4.794598
4.995465
4.601479
5.235672
##ZVALUE=270
1.464486
1.394749
1.369715
1.316667
1.405478
1.412630
1.563430
1.519918
1.532435
1.618862
1.763701
1.738667
1.791716
2.093911
2.042651
2.214909
3.049970
15.028715
43.563843
131.581426
253.489614
426.285863
733.037591
965.756774
1015.803814
1015.803814
1015.803814
1015.803814
901.368856
688.623786
471.145511
252.141953
150.531530
84.826946
75.586438
97.363591
120.077729
150.110722
164.675713
169.082880
163.366795
147.622824
127.493739
94.529986
72.582960
47.667623
34.494996
25.194883
19.952655
17.329454
15.366673
14.760494
14.320612
12.915730
12.668967
11.893511
12.109876
10.537505
10.528564
9.978414
9.754896
9.178519
9.098649
8.542538
8.208752
7.997751
8.568764
8.198619
7.783771
8.283854
8.377433
8.632541
9.632707
9.032488
9.730458
9.063482
8.978844
7.711649
7.608533
6.857514
6.929636
6.133914
5.638599
5.670786
5.807877
5.223751
4.916787
4.902482
4.933476
4.896522
4.785657
4.931688
4.574656
4.468560
4.365444
4.587770
##ZVALUE=275
1.444817
1.314878
1.237988
1.363754
1.384616
1.319647
1.387596
1.584888
1.551509
1.503825
1.498461
1.581907
1.398921
1.871586
1.680851
1.879930
2.361536
2.153516
2.593994
7.661581
36.478639
104.503632
264.227986
457.773805
777.607560
994.776487
1015.819907
1015.819907
1015.819907
1015.819907
1015.819907
845.077634
605.875850
330.669880
193.192959
94.385743
68.379641
71.766973
91.043711
120.753646
142.216682
159.677863
163.968801
160.650611
145.104527
116.434693
93.932748
67.159534
49.476624
31.528473
22.854805
16.928911
14.394522
12.461543
12.034774
11.190772
11.498928
10.343790
10.401607
9.574890
9.872913
8.700490
8.448958
8.298755
7.704496
7.367730
7.707477
7.497668
7.777810
7.775426
7.721782
8.038878
8.603930
8.433461
8.713603
8.372664
8.105636
8.168817
7.673502
6.678700
6.765723
6.094575
5.579591
5.438924
5.308986
5.399585
4.896522
4.701614
4.460812
4.595518
4.633665
4.385710
4.464984
4.169941
4.535913
3.993511
##ZVALUE=280
1.176596
1.098514
1.161695
1.173615
1.144409
1.370907
1.309514
1.259446
1.324415
1.372695
1.400709
1.471639
1.397729
1.784563
1.703501
1.599789
2.041459
1.914501
2.157688
2.278686
2.420545
2.957582
15.381575
66.891909
242.195725
427.197814
742.064714
1002.274752
1015.819907
1015.819907
1015.819907
1015.819907
1015.819907
972.480774
717.770457
415.490866
251.715779
117.453933
66.419840
51.582456
65.170527
90.451837
114.496946
140.487552
151.173472
158.917904
152.450800
134.000778
114.009976
84.733963
63.210726
42.006969
30.014515
19.112825
14.448762
11.244416
10.214448
9.861588
9.146929
9.044409
8.752942
8.632541
8.513927
8.096695
8.282661
8.066893
8.073449
7.935762
7.784963
7.783771
8.079410
8.116961
8.482933
8.126497
8.566976
8.513927
8.330941
7.729530
7.688999
6.935596
6.722808
6.112456
5.733967
5.387664
5.261898
5.158782
4.946589
4.680753
4.950762
4.398823
4.716516
4.625916
4.570484
4.477501
4.444718
4.453659
##ZVALUE=285
1.204610
1.277924
1.199841
1.220703
1.327991
1.507998
1.294613
1.443624
1.287460
1.358986
1.414418
1.611710
1.266599
1.461506
1.541972
1.357794
1.773834
1.621842
1.715422
1.953840
2.117753
2.416968
2.592802
2.968907
7.039905
24.122000
87.451935
219.977498
529.603958
835.726857
1015.819907
1015.819907
1015.819907
1015.819907
1015.819907
1015.819907
942.460895
574.903488
357.141495
168.702602
87.097883
43.435693
41.628480
59.844851
79.619884
107.076764
126.987696
144.223571
150.987506
144.102573
133.979917
109.818578
88.651776
62.288642
43.366551
25.610924
17.833710
12.232661
10.015965
8.690953
8.553863
8.382797
8.242726
7.752776
7.813573
7.808805
7.947683
7.634759
7.613897
7.480979
8.433461
8.171797
8.676648
8.960962
8.814931
8.141994
7.719994
7.892847
7.447600
6.925464
6.713867
6.078482
5.829930
6.006956
5.508661
5.066991
5.152822
4.804730
4.870892
4.827976
4.718900
4.445910
4.881620
4.680753
4.436970
4.585981
##ZVALUE=290
1.090765
1.196861
1.116991
0.904799
1.097918
1.212955
1.184940
1.313686
1.190901
1.261830
1.096725
1.273751
1.219511
1.334548
1.361966
1.490712
1.501441
1.674891
1.536608
1.663566
1.817942
1.832843
2.020597
2.154708
2.464652
2.662539
3.612638
10.400414
44.966936
105.008483
257.911682
462.472439
855.098963
1015.815735
1015.815735
1015.815735
1015.815735
1015.815735
1015.815735
820.354819
468.553901
273.934007
113.891959
54.411888
29.429793
34.426451
52.379966
69.670677
96.713901
116.579533
137.353539
141.109824
140.349865
129.786730
104.853511
82.660913
57.956576
41.619539
25.421977
17.620921
11.402965
8.708835
7.814765
7.010698
7.295609
6.839633
6.976724
6.487966
7.084608
7.058978
7.013679
7.148981
7.568598
7.075667
6.920695
7.339716
6.504655
6.558895
6.074905
5.836487
5.624890
4.916787
5.354881
5.097985
4.748702
4.860759
4.842877
4.598498
4.759431
4.439950
4.302859
4.492998
4.678965
4.680753
4.310608
4.311800
##ZVALUE=295
1.032948
0.988841
0.967979
0.982881
1.120567
1.153946
1.213551
0.940561
1.066923
1.066923
1.099706
1.080632
1.173615
1.204610
1.067519
1.213551
1.332760
1.397729
1.352429
1.323819
1.405478
1.344681
1.547933
1.583695
1.818538
1.978874
2.212524
2.361536
2.771020
4.355907
22.235513
59.761405
171.438456
324.910879
622.403622
888.379812
1015.819907
1015.819907
1015.819907
1015.819907
1015.819907
916.409492
573.230982
359.846950
159.924626
76.931715
29.807687
22.938848
32.646656
45.230985
68.459511
87.341666
113.001466
127.409697
135.481954
133.379698
120.067596
102.321506
77.008605
59.467554
39.031506
26.193857
15.762448
11.032820
7.847548
6.540418
6.644726
6.121993
6.495714
6.651878
6.662607
6.673932
6.741881
6.612539
6.710887
6.810427
6.370544
5.899668
5.734563
5.774498
5.357862
4.805923
4.739761
4.811883
4.779696
4.791617
4.567504
4.595518
4.326701
4.547834
4.616976
4.246831
4.301667
4.113913
4.308820
4.354715
##ZVALUE=300
1.056790
0.814795
0.940561
0.982881
0.924468
0.902414
1.014471
0.939965
0.983477
1.036525
1.140833
1.022816
1.154542
1.060963
1.144409
1.265407
1.456738
1.307726
1.232624
1.316667
1.371503
1.083612
1.425743
1.413822
1.240969
1.599789
1.716614
1.895428
1.723766
2.055764
2.363920
2.756715
9.693503
34.152865
113.724470
223.611593
472.260714
723.987818
1015.820503
1015.820503
1015.820503
1015.820503
1015.820503
1015.820503
722.920895
470.758677
238.000751
127.030611
45.125484
21.491647
19.601583
26.410818
41.907430
57.753921
82.718730
102.529526
119.786859
127.415657
127.852559
118.001699
97.687840
79.525709
55.942535
40.619969
24.599433
16.361475
10.512471
7.921457
6.391406
6.407499
6.116629
6.165504
6.360412
6.439686
6.238818
5.983710
5.981922
5.834699
5.663633
5.225539
5.153418
5.076528
4.780889
5.070567
4.709959
4.764795
4.628897
4.357696
4.460812
4.553795
4.284978
4.281998
4.280806
4.194975
4.194975
4.150867
##ZVALUE=305
0.990629
0.877976
0.933409
0.928640
1.088977
0.933409
0.995994
1.065731
0.865459
0.953674
1.008511
1.027584
0.881553
0.994802
1.040697
1.121759
1.091957
1.123548
1.109838
1.308918
1.214743
1.258850
1.320839
1.563430
1.293421
1.414418
1.538992
1.590848
1.630783
1.529455
1.832843
1.858473
2.199411
2.580881
4.190803
22.473931
63.197613
182.271600
332.380533
630.142689
896.712542
1015.819907
1015.819907
1015.819907
1015.819907
1015.819907
912.280083
570.551753
353.765488
161.591768
77.965856
26.995540
15.494823
17.812848
25.659800
41.134953
57.702661
80.556870
97.779632
114.523768
121.552944
118.681788
110.767484
92.843771
75.566769
51.471591
36.673546
23.754835
15.609860
9.442568
7.429719
6.221533
6.090999
5.999804
5.842447
5.701780
5.852580
5.266666
5.219579
5.229712
5.025864
4.958510
4.796982
4.543662
4.657507
4.423857
4.210472
4.321933
4.345775
4.151464
4.120469
4.329681
4.182458
4.116893
3.734827
4.164577
##ZVALUE=310
0.965595
1.065731
1.189709
0.994802
0.820756
0.899434
1.028776
0.916719
0.929832
0.959635
1.056790
0.964999
1.003742
1.078844
1.094937
1.031756
1.066923
1.162887
1.009703
1.152754
1.142621
1.184940
1.158714
1.207590
1.139641
1.372695
1.371503
1.447797
1.276731
1.511574
1.542568
1.691580
1.803637
1.841784
2.048612
2.380610
2.843738
9.741783
32.815933
111.758709
225.610733
472.249985
907.698870
1015.819907
1015.819907
1015.819907
1015.819907
1015.819907
1004.957557
792.419910
280.389786
242.314935
61.972737
48.040748
18.254519
13.639927
15.290976
32.014847
34.062862
65.800548
69.195628
90.222955
102.868676
114.583969
113.608837
94.554424
90.679526
70.876479
36.767721
33.591986
24.317503
11.892915
10.358691
6.934404
6.348491
5.644560
5.064607
5.211830
4.701614
4.635453
4.250407
4.777908
4.496574
4.354715
4.240870
4.290938
4.309416
4.377961
4.322529
3.811717
4.127622
3.946424
3.988743
4.094839
4.125834
3.952980
##ZVALUE=315
0.806451
0.988841
0.928640
0.922680
0.840425
0.957847
0.982881
0.981688
1.038909
0.929832
0.902414
0.984669
1.025796
0.865459
0.813603
1.027584
1.013875
1.102686
1.027584
1.141429
1.132488
1.067519
1.271963
1.256466
1.286864
1.286864
1.171827
1.317859
1.308918
1.357794
1.378655
1.298785
1.459718
1.840591
1.774430
1.912713
1.957417
2.302527
2.467632
4.012585
20.571947
60.710907
176.084042
326.879621
636.709929
923.661590
1015.819907
1015.819907
1015.819907
1015.819907
1015.819907
971.276760
610.013604
379.347801
169.951916
79.406500
23.005605
11.973977
11.164546
13.892651
21.353960
31.132698
47.255754
62.358975
83.849430
97.403526
106.784701
107.547641
99.511743
86.433887
65.894723
51.626563
33.934712
23.824573
14.070868
9.983778
6.825924
5.665421
4.933476
4.559755
4.366636
4.124641
4.304647
3.981590
4.039407
4.134774
4.017949
3.917813
3.921986
4.246831
4.108548
4.161596
3.808737
3.749728
4.029870
3.638864
##ZVALUE=320
0.792742
0.800490
0.790954
0.841618
0.797510
0.801682
0.942945
0.946522
0.843406
0.936985
1.022816
0.924468
0.948906
0.874996
0.847578
0.756979
1.085997
1.059771
1.089573
0.999570
1.164675
1.040697
1.177788
1.003742
1.120567
1.138449
1.081824
1.093745
1.170635
1.287460
1.304746
1.353621
1.618862
1.511574
1.483560
1.718998
1.694560
1.821518
1.972914
2.014637
2.131462
3.049970
7.749796
40.294528
103.321671
274.471641
463.580489
786.695480
1015.820503
1015.820503
1015.820503
1015.820503
1015.820503
1015.821099
817.618370
453.559756
257.501602
107.403994
46.669841
14.238954
9.447932
9.877682
12.065768
18.242002
26.690960
43.226480
57.182908
76.547861
90.216994
99.558830
101.343989
95.613599
83.939433
64.588785
49.654841
31.782985
22.173524
13.453960
8.928776
5.834699
4.833937
4.230738
4.051924
4.003644
3.924966
3.812909
3.854632
3.717542
3.624558
3.816485
3.724694
3.537536
3.733635
3.776550
3.529787
3.741980
##ZVALUE=325
0.820756
0.783801
0.830889
0.728965
0.902414
0.884533
0.838637
1.058578
0.739694
0.943542
1.041889
0.959635
1.022816
0.871420
1.029968
0.955462
0.907779
1.145601
0.971556
1.135468
1.058578
0.989437
1.092553
1.161695
1.083612
1.107454
1.047850
1.100898
1.208782
1.482964
1.379848
1.341701
1.483560
1.545548
1.618862
1.629591
1.734495
1.688600
1.868606
2.021790
2.245903
2.203584
2.615452
2.900958
5.119443
27.567744
74.060559
209.346414
419.152975
916.875601
1015.823483
1015.823483
1015.823483
1015.823483
1015.823483
1015.823483
982.561707
595.269799
351.671576
148.802996
68.790913
20.536780
10.540485
8.629560
9.194613
12.536645
17.049909
26.761889
39.006472
58.305860
71.649551
86.413622
93.966722
94.952583
89.148879
73.568821
61.807632
43.371916
31.452775
18.767715
12.386441
7.677674
5.756617
4.731417
4.209876
4.014969
3.827810
3.845692
3.750920
3.827810
3.938675
3.671646
3.697872
3.558993
3.477931
3.767610
##ZVALUE=330
0.729561
0.767708
0.817776
0.825524
0.894666
0.878572
0.891685
0.729561
0.673532
0.737906
0.743866
0.859499
0.969768
0.882745
0.785589
0.844598
0.903606
0.819564
0.837445
0.909567
0.895858
0.829697
1.026988
1.014471
1.092553
1.021624
1.057982
0.951886
1.058578
1.233816
1.109838
1.198649
1.265407
1.096725
1.173615
1.224875
1.127720
1.270771
1.325607
1.412630
1.667738
1.606941
1.664758
1.812577
2.023578
2.420545
2.845526
11.197925
36.994815
126.287937
246.017575
509.891510
769.801736
1015.777588
1015.777588
1015.777588
1015.777588
1015.777588
1015.777588
712.468624
456.223488
211.687684
103.495717
33.767819
13.491511
7.502437
7.361770
8.125901
10.413527
16.561747
24.061799
37.445426
50.797462
69.122910
79.711676
87.623596
88.356733
81.087947
71.062446
54.916739
42.580962
27.300715
18.937588
11.620522
8.311868
5.240440
4.443526
3.855824
3.577471
3.454685
3.363490
3.306866
3.517866
3.268719
3.353953
3.210902
##ZVALUE=335
0.752807
0.815988
0.718832
0.781417
0.797510
0.604987
0.759959
0.889897
0.750422
0.827909
0.723600
0.791550
0.808835
0.840425
0.753999
0.785589
0.745654
0.860691
0.886917
0.876784
0.977516
0.956655
0.936985
0.789762
0.870824
0.974536
0.968575
0.959635
0.996590
0.887513
1.146793
1.064539
1.011491
1.186728
1.176596
1.013875
1.182556
1.114607
1.249909
1.265407
1.417994
1.474619
1.508594
1.749992
1.872778
1.789927
1.816750
2.145767
2.252460
5.526543
18.870831
77.260733
166.209936
379.810929
628.902912
994.845629
1015.779972
1015.779972
1015.779972
1015.779972
1015.779972
850.678682
572.621822
297.733545
153.664947
50.773621
19.181967
8.180737
6.872416
6.673932
7.777810
10.482669
15.269518
25.015473
34.533739
49.049854
60.758591
75.095892
80.973506
81.488490
76.540709
63.518882
52.739978
39.434433
29.616952
18.981695
13.018847
7.977486
5.758405
4.309416
3.703833
3.307462
3.236532
3.151894
3.100634
2.935529
##ZVALUE=340
0.610948
0.649691
0.742674
0.817776
0.751615
0.643730
0.642538
0.823736
0.556707
0.710487
0.823736
0.607967
0.846982
0.859499
0.651479
0.760555
0.683665
0.852942
0.785589
0.775456
0.777841
0.735521
0.705719
0.830889
0.738502
0.627637
0.804663
0.796914
0.753999
0.874996
0.869632
0.856519
0.973940
0.978708
0.904799
1.046658
0.958443
1.120567
1.063943
1.159906
1.084805
1.051426
1.142621
1.111627
1.334548
1.438856
1.559854
1.563430
1.786947
1.889467
2.170801
3.105998
9.348989
45.533776
114.612579
291.136503
500.100851
849.528909
1015.692949
1015.692949
1015.692949
1015.692949
1015.692949
985.912681
713.814497
368.338823
202.603936
78.726411
29.887557
9.254813
6.766915
6.528497
6.736517
7.527471
9.686947
15.294552
21.306872
33.282638
44.176579
60.218573
69.503784
76.445937
77.172518
70.905685
62.862635
50.637722
39.244890
26.647449
19.407868
11.951923
8.135438
5.120635
4.103780
3.382564
3.283620
3.197789
##ZVALUE=345
0.807643
0.796914
0.762939
0.838637
0.719428
0.794530
0.773668
0.733733
0.935793
0.859499
0.712872
0.762939
0.833869
0.739694
0.687838
0.770688
0.811815
0.780821
0.852942
0.849962
0.913739
0.750422
0.787973
0.912547
0.821948
0.864863
0.886917
0.851750
1.027584
1.226664
0.988841
1.002550
1.125932
0.973940
1.046658
1.113415
1.137853
1.160502
1.168847
1.027584
1.261830
1.119971
1.299977
1.335740
1.324415
1.367927
1.364946
1.604557
1.524687
1.625419
1.844764
2.089739
2.039671
2.398491
4.565716
25.902987
72.425008
195.098519
358.453989
679.751635
958.454609
1015.819907
1015.819907
1015.819907
1015.819907
1015.819907
851.360559
486.567616
277.852416
113.543868
47.140718
14.483929
7.891655
7.091761
6.674528
6.363988
6.755590
8.634925
11.911988
20.101666
28.508902
42.690635
52.379966
63.484907
68.460703
69.856644
67.008734
58.816671
50.672889
37.685633
27.852654
17.835498
12.657642
8.002520
5.901456
3.959537
##ZVALUE=350
0.922680
0.652671
0.843406
0.604987
0.647902
0.601411
0.818968
0.667572
0.666976
0.828505
0.767708
0.798702
0.868440
0.759959
0.713468
0.667572
0.959635
0.832677
0.628829
0.821948
0.953674
0.776649
0.772476
0.984669
0.906587
1.091957
0.875592
0.845790
0.966787
1.003742
0.969768
0.919700
0.941753
0.935793
0.877976
1.084805
1.048446
1.012683
1.008511
1.023412
1.215935
1.212955
1.196861
1.183748
1.196861
1.350641
1.394749
1.408458
1.310706
1.462698
1.607537
1.827478
1.641512
1.973510
1.925826
2.350807
2.973676
12.379885
40.587783
132.317543
257.101655
530.186892
793.438554
1015.819907
1015.819907
1015.819907
1015.819907
1015.819907
973.671675
591.769814
362.571478
162.307024
74.085593
19.063950
8.821487
6.472468
5.904436
5.693436
5.477667
5.990863
7.555485
12.000799
17.317533
26.131868
34.554601
46.371818
54.812431
63.132644
64.301491
62.446594
56.321621
45.780540
38.073659
26.274920
17.040968
12.303591
##ZVALUE=355
0.764728
0.750422
0.749826
0.766516
0.718832
0.697970
0.896454
0.805855
0.855923
0.763535
0.832677
0.859499
0.721812
0.769496
0.899434
0.769496
0.880957
0.839829
0.897646
0.819564
0.844598
0.807643
0.842810
0.939965
1.029968
1.069903
0.941753
0.958443
0.908971
1.131892
1.092553
0.978708
0.985861
0.888705
1.128912
1.000762
1.223683
1.021624
1.005530
0.937581
0.990629
1.109838
1.180768
1.168847
1.232624
1.211762
1.240969
1.500845
1.431704
1.333952
1.344681
1.479983
1.468658
1.685619
1.781583
1.906753
1.977682
1.988411
2.494454
6.384850
22.466779
87.167621
182.405710
396.995544
630.294681
989.656448
1015.819907
1015.819907
1015.819907
1015.819907
1015.819907
734.656453
470.715761
207.153559
96.053481
27.626753
10.789633
6.310940
5.706549
5.415678
5.126595
4.938841
5.420446
7.235408
9.699464
15.715957
21.415949
31.592846
39.541721
48.864484
55.027604
57.935715
57.265759
51.399469
44.430494
34.709573
##ZVALUE=360
0.727773
0.746846
0.739694
0.776649
0.761747
0.787973
0.755787
0.892878
0.792742
0.800490
0.773668
0.868440
0.761747
0.728965
0.656843
0.846982
0.632405
0.838637
0.910759
0.803471
0.917912
0.963807
0.933409
0.870824
1.013875
1.096725
0.926852
1.057982
0.905991
1.022816
1.076460
0.976920
0.950694
1.126528
1.123548
1.095533
0.997782
1.161695
1.092553
1.038909
1.040697
1.019835
1.094937
1.205802
1.054406
1.366735
1.320839
1.284480
1.231432
1.245737
1.273751
1.519918
1.529455
1.490712
1.468658
1.631975
1.852512
1.800656
1.952648
2.231598
2.406836
3.551841
9.869933
44.838786
111.379623
288.029909
490.571856
829.610825
1015.819907
1015.819907
1015.819907
1015.819907
1015.819907
870.752931
586.525798
288.512707
147.786736
51.775575
18.992424
7.053614
5.946755
5.305409
5.031824
4.805923
4.749894
5.154610
5.832911
8.213520
11.508465
17.874837
25.015473
34.823418
42.447448
49.709678
52.965879
52.397847
##ZVALUE=365
0.835657
0.774860
0.813603
0.780821
0.826716
0.745654
0.894666
0.891685
0.839829
0.877976
0.789762
0.721812
0.793934
0.790954
0.760555
0.970960
0.914931
0.718832
0.747442
0.762939
0.891685
0.943542
0.831485
0.789762
0.894666
0.998974
0.923872
0.887513
0.924468
0.871420
0.917912
0.982881
0.926852
0.950694
1.001954
1.026988
0.938773
0.957847
1.106858
1.059771
1.065731
1.072884
1.169443
1.140833
1.102686
1.114607
1.125932
1.087785
1.262426
1.274943
1.265407
1.168847
1.463890
1.331568
1.544952
1.647472
1.573563
1.757741
1.722574
1.996756
2.107620
2.128482
2.547503
3.001690
4.691482
25.240779
70.888400
192.890763
366.147757
703.946948
976.170897
1015.820503
1015.820503
1015.820503
1015.820503
984.938741
721.280575
400.939584
216.786861
75.936913
28.156638
8.155704
6.105900
5.595684
5.184412
4.721880
4.487634
4.063845
4.186630
5.090833
6.621480
10.434985
14.638901
22.475719
29.397607
37.688613
##ZVALUE=370
0.792742
0.869632
0.840425
0.851750
0.810623
0.714660
0.758767
0.747442
0.728965
0.824928
0.849962
0.809431
0.836849
0.784993
0.925660
0.893474
0.775456
0.738502
0.912547
0.836849
0.859499
0.928640
0.969768
0.940561
0.939965
0.932813
0.900626
0.916719
0.896454
0.923872
0.838637
0.855923
0.879765
1.128912
1.169443
1.035929
1.063943
1.004934
1.192689
0.963807
1.156926
1.023412
1.070499
1.110435
1.126528
0.978708
1.074672
1.069903
1.111627
1.249909
1.283884
1.296997
1.401901
1.280904
1.449585
1.470447
1.286864
1.464486
1.555681
1.701713
1.614690
1.812577
1.830459
1.964569
2.112985
2.351999
3.195405
14.294982
46.301484
147.683620
289.356709
574.559569
859.092474
1015.819907
1015.819907
1015.819907
1015.819907
1015.819907
868.037939
498.694777
285.605788
110.870004
46.788454
12.971759
6.532669
5.199909
4.958510
4.442930
4.188418
4.138947
3.871918
3.852844
4.434586
6.016493
8.378625
12.656450
##ZVALUE=375
0.805855
0.676513
0.830889
0.739694
0.783801
0.793934
0.822544
0.802875
0.789762
0.795722
0.742674
0.975728
0.966787
0.705719
0.810623
0.653863
0.787973
0.733733
0.735521
0.830889
0.847578
0.936985
0.752807
0.920892
0.814795
0.942945
0.772476
0.905991
0.732541
0.887513
1.055598
0.971556
0.873804
1.007915
0.955462
0.873804
1.031756
0.917912
1.091957
0.952482
1.090765
0.930429
1.053810
1.020432
1.026988
0.957847
1.111627
1.089573
1.173615
1.128912
1.029968
1.138449
1.177788
1.187921
1.202822
1.316667
1.434684
1.319647
1.473427
1.596808
1.512766
1.553893
1.476407
1.725554
1.800656
1.895428
2.025962
2.332926
2.795458
6.997585
23.715496
89.497566
197.262764
458.493829
736.934543
1015.819907
1015.819907
1015.819907
1015.819907
1015.819907
998.117924
634.501576
399.855971
194.896460
96.239448
28.230548
10.173917
5.106926
4.688501
4.298687
4.248619
3.632903
3.696680
3.544688
3.530979
3.924966
##ZVALUE=380
0.601411
0.805855
0.589490
0.746846
0.870824
0.949502
0.746846
0.766516
0.702739
0.701547
0.698566
0.750422
0.821948
0.809431
0.562668
0.844598
1.007915
0.925660
0.826716
0.779629
0.750422
0.758767
0.873804
0.894666
0.796914
0.850558
0.890493
0.963807
1.061559
1.060963
1.017451
0.988841
1.141429
1.111627
1.067519
1.032948
1.069903
1.052618
1.071692
1.120567
1.056790
1.126528
1.127720
1.081824
1.176000
1.058578
1.107454
1.202822
1.114607
1.128912
1.134872
1.146793
1.128912
1.292825
1.221895
1.255870
1.284480
1.314878
1.355410
1.456738
1.477599
1.414418
1.450777
1.467466
1.551509
1.776814
1.725554
1.749992
2.140999
2.363920
2.564788
3.976822
12.516975
60.916543
146.210790
356.568694
597.675443
971.279740
1015.819907
1015.819907
1015.819907
1015.819907
1015.819907
806.157589
538.716912
262.448788
134.902596
44.167638
16.279817
6.021857
4.644990
4.088879
4.038811
3.729463
3.440976
3.529787
##ZVALUE=385
0.801682
0.694990
0.600815
0.853539
0.842810
0.718832
0.610948
0.858903
0.767708
0.833869
0.742674
0.650883
0.821948
0.844598
0.648499
0.739694
0.692606
0.640750
0.557899
0.868440
0.770688
0.917912
0.782609
0.913739
0.835657
0.911951
0.920892
0.965595
1.070499
1.126528
1.264811
1.177788
1.229644
1.377463
1.285672
1.318455
1.137853
1.354814
1.423955
1.284480
1.130700
1.186728
1.176596
1.315475
1.264811
1.241565
1.287460
1.257658
1.231432
1.202822
1.215935
1.172423
1.154542
1.189709
1.205802
1.343489
1.251698
1.390576
1.294613
1.253486
1.228452
1.348853
1.438856
1.370907
1.535416
1.608729
1.472831
1.714826
1.829863
1.906753
2.175570
2.395511
2.540946
2.979636
6.206632
33.680797
90.612769
239.002705
436.311960
814.632773
1015.819907
1015.819907
1015.819907
1015.819907
1015.819907
996.738672
733.426809
397.340655
222.292542
87.739825
33.155680
8.135438
4.896522
4.028678
4.100800
3.669858
##ZVALUE=390
0.672936
0.757575
0.769496
0.726581
0.739694
0.729561
0.734925
0.705719
0.751615
0.678897
0.609756
0.908971
0.774860
0.607967
0.737906
0.614524
0.742674
0.796914
0.699759
0.666976
0.690818
0.625849
0.887513
0.840425
0.982881
0.914931
1.020432
1.059771
1.044869
1.248717
1.389980
1.356602
1.358986
1.291633
1.560450
1.561642
1.615882
1.545548
1.643896
1.414418
1.539588
1.414418
1.428723
1.366735
1.346469
1.416802
1.263618
1.468658
1.394749
1.202822
1.189709
1.302958
1.283884
1.321435
1.381636
1.318455
1.315475
1.228452
1.264811
1.291633
1.238585
1.266599
1.304746
1.281500
1.551509
1.440644
1.485944
1.643896
1.660585
1.950860
1.967549
2.016425
2.150536
2.240539
2.284646
2.566576
3.656745
17.919540
55.621862
177.154541
343.494415
673.641562
963.338017
1015.819907
1015.819907
1015.819907
1015.819907
1015.819907
919.160843
565.381050
326.684713
131.949782
58.063865
16.263723
6.310940
4.354715
##ZVALUE=395
0.758767
0.764728
0.661612
0.643730
0.779629
0.792742
0.684857
0.751615
0.689626
0.651479
0.631809
0.646710
0.620484
0.771880
0.697970
0.736713
0.641942
0.633597
0.730753
0.739694
0.752807
0.722408
0.699759
0.847578
0.835657
0.853539
0.762939
0.874996
1.234412
1.405478
1.586676
1.568794
1.734495
1.686811
1.766682
1.887679
1.996756
1.782775
1.892447
1.689792
1.807809
1.804829
1.692772
1.663566
1.612902
1.552701
1.677871
1.413822
1.412630
1.376867
1.548529
1.269579
1.350641
1.334548
1.330972
1.400709
1.391768
1.283884
1.365542
1.351833
1.278520
1.236796
1.171827
1.302958
1.370907
1.410842
1.460910
1.510978
1.618862
1.736879
1.975894
1.895428
1.970530
2.075434
2.145767
2.219677
2.124906
2.495646
2.620816
9.637475
35.631657
129.074454
257.315040
528.435707
799.219012
1015.819907
1015.819907
1015.819907
1015.819907
1015.819907
1015.819907
685.249567
435.517430
205.061436
94.892979
28.415918
##ZVALUE=400
0.872612
0.763535
0.792742
0.530481
0.695586
0.600815
0.663996
0.640750
0.651479
0.739694
0.780821
0.743866
0.774860
0.619888
0.728965
0.657439
0.530481
0.677705
0.858903
0.744462
0.772476
0.805855
0.641942
0.713468
0.805855
0.762939
0.868440
1.040697
1.341701
1.263618
1.548529
1.687407
1.817942
1.802444
1.760721
1.846552
1.917481
1.877546
1.997948
1.930594
1.989603
1.805425
1.855493
1.719594
1.983643
1.732707
1.517534
1.518726
1.535416
1.532435
1.333952
1.360774
1.265407
1.353621
1.260638
1.205802
1.360774
1.285672
1.163483
1.340508
1.426935
1.332760
1.324415
1.357794
1.171827
1.424551
1.592636
1.721978
1.529455
1.510978
1.618862
1.789927
1.793504
1.634955
1.834631
1.706481
1.806617
1.909733
2.110600
2.144575
2.587438
4.478693
21.612644
63.021779
184.626579
347.604752
674.378872
962.110758
1015.819907
1015.819907
1015.819907
1015.819907
1015.819907
863.590837
497.210622
297.682881
##END
