##TITLE=25FILTER
##FORMAT=SPECTACLE-ASCII V-1.2
##DATA TYPE=ULTRAVIOLET SPECTRUM
##SECOND TYPE=ULTRAVIOLET SPECTRUM
##DATE=12/18/17
##TIME=12:31:17
##SPECTROMETER/DATA SYSTEM=SPECTACLE
##XUNITS=NM EM
##YUNITS=ENERGY
##YFACTOR=1
##FIRSTX=220
##LASTX=410
##NPOINTS=96
##3DDATA=Equidistant
##ZUNITS=NM EX
##FIRSTZ=210
##LASTZ=400
##ZPOINTS=39
##XYDATA=(Y..Y)
##ZVALUE=210
76.929927
73.329806
44.995546
26.609898
17.748475
13.950467
13.623834
13.848543
12.103915
9.374619
9.528995
9.838939
10.109544
10.049939
10.593534
13.765693
12.431741
15.375614
14.610887
16.358495
16.395450
17.937422
19.374490
22.715926
23.357868
25.098920
28.222799
29.368997
33.733845
35.113692
35.366416
35.623908
39.229989
39.448738
43.155551
43.413639
45.297742
42.964816
47.380924
47.893524
45.986772
47.951937
48.683882
47.754645
48.873425
45.425892
48.156977
50.297976
52.738786
50.478578
51.420927
50.839782
48.661828
48.426986
50.373673
52.795410
52.188635
51.062703
54.504871
55.513978
54.130554
54.555535
54.693818
53.343773
55.570602
56.603551
60.568452
65.331459
77.303648
90.594888
109.315515
127.486587
160.997510
179.767609
215.308666
231.123567
251.255631
263.343453
263.992548
258.860588
249.840617
224.364996
199.624896
172.106624
134.150982
107.154846
85.242987
69.752932
63.613653
68.410635
85.401535
108.066797
142.914653
176.705718
220.081806
255.785584
##ZVALUE=215
284.964442
267.444849
216.599703
139.697790
92.571974
54.086447
34.370422
23.433566
20.038486
20.534992
19.797683
17.175674
15.496612
14.016628
12.743473
14.040470
13.805628
14.965534
18.232465
19.785762
17.275810
21.052957
21.770000
24.424791
25.646687
27.835965
29.113889
32.331944
34.270883
35.830736
39.484501
42.616725
44.325590
46.277642
47.113895
47.858953
50.793886
49.864650
49.276948
50.550699
49.573779
51.619411
49.466491
52.758455
53.907633
52.200556
51.400661
50.768852
52.761436
51.553845
54.887533
54.605603
54.427981
54.186583
53.261518
52.753687
53.220987
53.878427
52.728653
53.381920
51.467419
53.918958
53.738952
54.221749
54.972768
55.567622
62.420964
64.867735
75.957775
85.235834
106.362700
121.350884
145.267844
167.158842
193.007588
210.519433
231.275558
241.242647
242.647529
238.285661
222.089887
212.181807
183.521509
157.139897
125.079751
101.608634
75.112581
65.215826
56.218505
50.208569
48.347712
47.329664
51.308870
55.514574
72.322488
92.312694
##ZVALUE=220
608.776808
607.208610
592.266917
500.462651
396.551490
269.991755
177.032948
92.772841
54.616928
39.414763
32.215714
32.239556
29.158592
28.592944
23.766756
20.906925
17.867684
15.307665
16.460419
16.595721
16.639829
17.229915
19.087791
21.757483
25.143623
26.879907
28.441548
30.911565
34.284592
35.515428
37.224889
41.327477
42.554736
43.500662
46.807528
45.859814
49.948692
48.212409
51.984787
49.687624
50.281882
49.860477
49.628615
48.811436
48.107505
47.417879
47.444701
45.989752
49.038529
45.566559
47.092438
48.422813
45.675635
46.288967
44.179559
46.429634
45.102835
45.527816
46.216846
45.603514
44.688582
45.454502
45.393705
48.146844
46.192408
49.254894
50.131679
55.956841
62.918663
71.799755
84.614754
102.070570
114.067793
133.417845
158.806443
177.061558
187.294483
206.363797
214.179754
219.208598
215.543509
190.759897
175.700784
139.212608
119.196773
88.205934
76.020956
59.293509
48.969984
44.883490
45.028925
43.381453
42.973757
41.440725
42.729974
42.226911
##ZVALUE=225
658.239722
684.054494
802.800655
906.400681
897.625685
805.470943
683.791637
474.794507
311.960578
195.702910
94.854832
58.592558
47.945976
50.843954
45.249462
44.665933
37.217736
31.691790
27.613640
23.781657
21.396875
20.860434
20.590425
20.929575
21.843910
25.729537
26.075840
26.925802
30.652881
33.844709
35.819411
39.314628
41.929483
44.216514
45.991540
45.154691
47.753453
47.883987
48.954487
48.919916
49.274564
48.798919
46.712756
46.731830
47.032833
47.990680
46.041608
47.585964
47.321916
47.934651
44.015646
47.509670
47.746897
47.293901
45.552850
47.244430
46.389699
45.758486
44.920444
46.380758
47.661662
45.050979
47.525764
46.308637
48.301816
48.324466
51.780939
54.130554
62.396526
67.482591
80.247521
93.879700
108.042955
128.275752
139.591694
150.901675
163.380504
164.589882
167.970657
168.724656
156.907439
146.903992
130.009651
111.863613
90.685487
75.487494
59.626698
51.352978
45.547485
44.354796
42.460561
40.960908
38.830638
39.258599
39.398670
38.884878
##ZVALUE=230
334.256887
357.837677
595.345497
823.266506
1000.512838
1015.819907
1015.819907
1015.819907
932.539701
664.158463
446.894765
225.651860
133.736730
79.688430
67.805648
67.924857
70.379972
65.186620
61.838627
53.333640
43.091774
30.584931
25.744438
21.453500
19.698739
22.719502
22.949576
24.853945
26.752949
27.780533
28.513670
32.031536
33.938885
35.360456
35.881996
36.617517
37.822723
39.609671
36.973953
40.028691
42.592883
40.121675
37.738681
37.565827
39.548874
35.537481
39.486885
38.819909
35.436749
37.080646
35.518408
35.555959
33.704638
33.909678
33.959746
32.564998
34.271479
33.836961
35.045743
33.991933
34.024715
33.971667
32.922626
34.963489
35.100579
34.908652
38.562417
38.459897
44.141412
48.356652
56.898594
63.707829
73.109865
79.794526
91.450810
95.540881
98.687410
101.303458
101.821423
102.236867
94.493628
86.849928
75.143576
68.515539
53.897500
44.740438
38.122535
33.784509
29.126406
28.104782
27.686954
27.662516
27.458668
28.126836
26.908517
27.121902
##ZVALUE=235
71.088672
86.637735
172.827840
392.689705
606.837869
907.305479
1015.819907
1015.819907
1015.819907
1015.819907
1015.819907
828.917623
496.134758
320.527554
176.259875
111.613870
94.281435
90.746880
95.677972
97.907782
90.207458
76.174736
60.765743
46.869516
35.081506
26.485920
22.263527
20.817518
19.970536
20.406842
23.015738
21.338463
23.389459
22.811890
25.514960
26.905537
25.289655
27.157664
27.692914
29.290915
27.728677
27.419925
27.834773
27.746558
28.075576
27.830601
28.788447
27.213693
27.272701
26.640892
27.011633
27.536750
28.885603
27.573705
26.029944
25.673509
27.127862
27.418733
25.650859
27.352571
27.293563
28.224587
26.896000
26.620626
27.137995
26.392937
29.740930
31.186938
32.375455
38.196445
41.002631
48.392415
55.759549
61.030984
66.365600
72.417855
75.434446
81.179738
79.808831
76.722503
75.661540
64.682961
55.632591
48.103929
38.823485
32.566786
28.466582
24.122596
24.158955
21.870732
20.930767
21.881461
22.029877
22.087693
21.172762
20.253658
##ZVALUE=240
3.737807
4.605651
17.069578
49.307942
138.389468
267.176628
538.162589
823.979974
1015.774012
1015.774012
1015.774012
1015.774012
1015.774012
932.161808
687.416792
396.590829
243.104696
141.732693
110.854506
108.512640
117.846727
126.430988
121.762753
109.455585
88.619590
74.297786
53.854585
40.172935
26.418567
20.103455
16.381741
17.280579
15.372634
18.345714
17.366409
17.304420
19.542575
20.468831
18.409491
18.766522
18.805861
19.765496
20.534992
20.666718
19.361973
21.042824
19.952655
20.204782
19.593835
20.884871
18.866658
19.491911
20.362735
19.673705
20.278692
20.680428
20.351410
19.480586
18.587708
19.986629
19.440651
20.345449
19.259453
17.838478
18.965602
20.438433
18.365979
20.780563
21.812916
23.657680
27.335882
30.638576
34.843683
40.687919
42.230487
46.854615
45.605898
45.336485
42.962432
44.239759
42.534471
37.019849
33.695698
28.679967
26.110411
21.751523
19.154549
18.642545
16.220808
16.216636
13.038516
15.099645
15.946627
15.846491
14.453530
15.734434
##ZVALUE=245
2.724528
2.302527
2.684593
3.151894
8.287430
21.131635
65.745711
138.402581
312.649012
497.106910
829.692483
1015.819907
1015.819907
1015.819907
1015.819907
1006.439924
829.317570
540.001392
358.420610
192.466974
127.015710
111.797452
117.611885
129.701495
134.848952
124.584436
117.006898
99.449754
74.970722
56.115985
40.764809
26.646852
19.225478
13.471842
12.173653
13.355613
13.655424
13.942719
13.074875
13.132691
12.818575
13.792515
13.342500
12.570620
12.103915
12.675524
12.208819
11.730790
11.004806
13.013482
12.354851
12.390614
10.916591
10.859966
11.395812
11.136532
11.714697
11.214614
10.763407
11.233687
10.699630
10.882616
11.040568
11.738539
11.201501
9.585619
10.513663
10.687709
11.727810
13.496876
14.670491
14.220476
15.739799
17.199516
17.024875
17.639995
17.840862
16.805530
15.783906
13.696551
13.562441
12.948513
11.297464
10.531545
11.331439
8.992553
9.359717
9.349585
9.231567
8.130670
9.072423
9.342432
8.633733
7.867813
8.586645
7.703900
##ZVALUE=250
1.739860
1.820922
1.979470
2.272725
2.164841
2.509952
4.134774
12.860894
52.689910
110.442638
238.092542
373.274684
537.853837
744.621754
876.750946
968.138576
939.878821
819.527507
668.578744
447.214842
290.061831
190.889835
112.958550
96.231699
108.376741
117.920637
135.446787
143.335462
133.905411
121.782422
107.277632
79.683661
63.114762
40.000677
29.237866
18.221736
15.345812
13.606548
12.650490
13.253689
13.935566
13.082623
13.482571
12.889504
11.891723
12.322664
12.353659
11.747479
12.161732
11.423826
11.154413
10.692477
10.711551
10.708570
9.958744
9.573698
9.986758
8.900762
9.528995
8.996725
9.578466
9.759665
9.062886
9.485483
9.091496
8.387566
9.138584
9.336472
9.580851
9.723902
10.620952
10.877848
11.640787
12.979507
12.845993
13.570786
13.075471
13.296604
12.215972
11.506677
11.750460
10.355711
9.381771
7.966757
8.209944
7.184744
7.821918
7.170439
6.908774
7.925630
6.629825
6.246567
7.460713
6.222725
6.488562
6.500483
##ZVALUE=255
1.729727
1.805425
1.854897
1.806617
1.765490
2.182722
2.347827
2.321601
2.772808
5.959868
40.832758
112.406611
268.452764
437.586904
673.325658
855.134726
1015.819907
1015.819907
1015.819907
929.093957
771.977901
521.286726
352.258682
197.027922
127.050877
89.868903
90.656877
110.401511
127.163529
142.808557
152.996778
150.302649
132.522583
115.729570
87.153912
65.206885
43.351650
31.878948
20.137429
18.213987
15.448928
14.612675
15.148520
15.123487
14.082789
14.582872
13.500452
12.877584
12.212992
12.357831
12.899637
11.943579
11.254549
11.340976
10.123849
10.509491
10.437965
10.224581
9.819865
9.991527
9.351969
9.353757
9.410977
9.138584
8.727908
8.649826
8.546710
9.440780
9.120703
9.464622
10.497570
10.613799
10.487437
11.229515
10.859966
12.008548
11.442900
11.424422
10.512471
9.765625
9.265542
9.363890
7.941723
7.364750
6.541610
6.520748
5.873442
6.312728
6.098747
6.228685
6.058812
6.403923
5.650520
5.795956
5.490780
5.795956
##ZVALUE=260
1.559854
1.389980
1.503825
1.432896
1.435876
1.570582
1.889467
1.758933
1.794696
1.867414
1.921654
2.819896
7.658601
30.707717
68.090558
161.460638
264.905691
442.944765
586.437583
765.454769
842.501521
850.764513
751.346946
619.755983
413.273573
283.387899
164.744854
108.145475
83.359480
84.514618
104.680657
133.938789
147.456527
156.742930
155.648589
136.518478
121.428967
90.380907
70.484877
47.206879
34.355521
24.198890
20.384789
16.507506
15.046597
14.578700
14.283657
14.126897
13.161898
12.752414
12.120605
11.834502
11.213422
10.778904
11.299849
9.667873
9.778738
9.167790
9.383559
8.971691
8.676648
7.732511
8.558631
8.508563
7.457733
7.715821
7.392764
7.200837
7.740855
7.407665
7.733703
7.493496
8.139610
7.803440
7.560849
6.920695
7.361770
7.081628
6.879568
6.691813
5.978942
5.953908
6.083846
5.288720
5.119443
5.052686
5.118847
4.784465
4.582405
4.966855
4.366636
5.208850
4.742742
4.476905
5.091429
4.791617
##ZVALUE=265
1.229644
1.181960
1.052618
1.279712
1.373887
1.579523
1.500845
1.415610
1.629591
1.653433
1.719594
1.720786
2.138615
2.264977
4.188418
19.405484
48.343539
120.742917
215.496421
399.683714
559.546947
716.217756
864.093900
896.144509
826.687813
714.322925
534.777641
380.470753
219.857693
135.278702
91.256499
75.914860
88.209510
120.044947
141.229630
160.466433
166.581869
160.808563
146.365762
117.089748
96.431971
68.645477
50.160885
33.392906
25.679469
19.061565
17.392635
15.941858
15.535951
14.577508
14.089942
12.757778
12.682676
11.945963
11.169910
11.225939
11.028647
9.882450
9.693503
8.931756
9.178519
8.200407
8.188486
8.148551
7.619858
7.425547
7.050633
7.662773
7.315874
7.286668
7.753968
7.351637
7.536411
7.083416
7.159710
7.439852
7.636547
6.721616
6.548762
6.351471
5.870461
4.941821
5.468726
5.350709
4.991889
5.009770
4.946589
4.539490
4.526973
4.249811
3.947616
4.292727
4.315972
4.081726
4.220605
4.188418
##ZVALUE=270
1.271963
1.423955
1.408458
1.442432
1.437664
1.368523
1.342893
1.484752
1.614690
1.660585
1.784563
1.487732
1.609921
1.656413
1.889467
1.945496
2.517700
9.472966
27.453899
85.531473
168.646574
298.680663
511.786938
687.070489
876.107812
944.702029
920.449495
853.762031
675.695539
510.033965
350.842476
191.497803
117.572546
71.649551
70.956945
95.947981
119.460821
146.162510
161.547661
170.694590
164.067745
148.385763
126.725435
94.507933
72.699785
46.600699
35.913587
25.116801
19.045472
15.873909
15.077591
13.189912
13.369918
12.405515
11.545420
11.497736
11.203885
10.350943
10.165572
9.984970
9.299517
8.874536
8.579493
8.929968
8.184910
7.752776
7.535815
7.610917
7.320642
7.377863
7.440448
7.062554
7.035732
7.191896
7.351637
7.063746
6.225705
6.448627
6.504655
6.109476
5.696416
5.147457
5.571842
4.977584
5.212426
4.765987
4.615784
4.322529
4.510880
4.437566
4.178882
4.483461
4.281998
4.253983
4.254580
4.159808
##ZVALUE=275
1.119971
1.006722
1.046658
0.929832
1.172423
1.356602
1.114607
1.492500
1.207590
1.311898
1.390576
1.418591
1.567602
1.585484
1.367927
1.563430
1.859665
1.756549
2.103448
4.772544
17.431974
44.890642
129.887462
246.744752
459.058881
623.090863
815.997720
934.227705
980.661511
937.420726
795.033574
629.705787
454.794765
250.321627
153.601766
79.681873
61.399937
69.444776
88.447928
118.724704
139.826536
158.705711
165.273547
158.547759
142.783523
115.515590
95.050931
66.323876
49.277544
31.621456
23.312569
16.429424
13.907552
12.251735
11.691451
10.987520
11.042953
9.788871
9.626746
9.028912
9.411573
8.765459
8.625984
8.319616
8.145571
7.466674
7.508993
7.148981
6.761551
7.202625
7.290840
7.322431
7.488728
7.394552
7.345676
7.112622
7.240772
6.350875
6.812811
6.361604
5.547404
5.417466
5.089641
4.760623
4.729629
4.485846
4.919767
4.431605
4.404783
4.251599
3.934503
4.120469
3.654957
3.533959
3.799796
3.743768
##ZVALUE=280
1.138449
1.083612
1.022816
1.036525
0.982881
1.176000
1.023412
1.220703
1.141429
1.269579
1.290441
1.329780
1.445413
1.414418
1.242757
1.507998
1.513958
1.461506
1.618862
1.912713
2.122521
2.632737
17.184615
53.474903
142.857432
245.091915
425.001979
592.406988
812.433958
942.646861
1015.819907
1004.858017
913.636684
701.078773
522.315502
304.750800
183.560848
89.489818
56.838989
48.581958
62.514544
89.343786
110.168457
136.175752
149.514675
155.814886
152.326822
133.755803
114.899874
85.312724
66.172481
43.054819
30.390620
18.623471
13.669729
10.218620
10.296702
8.907914
8.591413
8.581877
8.343458
8.409619
8.244514
7.627606
7.515550
7.559657
6.858706
7.095933
6.922483
6.593466
7.128716
6.366968
7.415414
7.038713
7.027984
6.928444
6.602407
6.170869
5.878806
5.435944
5.195737
4.871488
4.865527
4.967451
4.764795
4.394650
4.477501
4.347563
4.436970
4.144907
4.218817
3.958941
3.730655
3.607869
3.644824
3.712773
##ZVALUE=285
1.019835
0.942945
1.092553
0.903606
1.045465
1.100898
1.100898
1.143813
1.234412
1.043677
1.052618
1.256466
1.278520
1.243949
1.169443
1.251698
1.071692
1.402497
1.376867
1.458526
1.679659
1.755953
1.849532
2.108812
5.780458
19.465685
52.385926
138.489604
242.030621
436.771512
609.039664
838.402510
964.163542
1015.825868
980.183482
805.822015
636.972785
399.338007
254.061818
121.689439
67.547560
36.860704
38.130879
56.490898
77.265501
106.663704
124.679804
141.388774
147.965550
143.281817
129.666924
106.848478
86.899996
59.502721
42.592883
25.606751
16.736984
10.946989
8.707643
7.664561
7.060766
7.209778
7.221699
6.883740
7.068515
6.682873
6.564856
6.434917
6.922483
6.982684
6.413460
6.671548
6.239414
6.275773
6.693602
6.193519
5.966425
5.887747
5.832911
5.326867
5.177855
4.918575
4.754663
4.416704
4.401803
4.167557
4.278421
3.922582
4.276633
3.989935
3.826618
4.106760
3.938675
3.818870
3.542900
3.780723
##ZVALUE=290
0.925660
1.072884
0.947714
1.008511
1.024604
0.906587
0.926852
1.109838
0.939965
1.160502
1.033545
0.995994
1.087785
1.058578
1.209974
1.127720
1.016855
1.185536
1.315475
1.433492
1.399517
1.439452
1.528859
1.873970
2.020597
2.017617
2.560616
7.351637
34.247637
78.683496
183.973908
316.169858
488.469005
740.618706
900.973678
1014.886498
1015.819907
896.780491
742.977858
501.752496
336.907506
173.758864
92.385411
38.172603
26.262999
34.158826
48.582554
72.757602
92.731714
117.452741
133.066773
140.605569
140.949488
124.721527
107.807517
79.217553
59.328675
37.015676
25.432706
15.269518
10.936856
8.103848
6.985664
6.663799
6.210804
6.043911
6.230474
6.150603
6.481409
5.923510
6.276965
5.969405
5.790591
6.036758
5.647540
5.567670
5.571842
5.633831
5.122423
4.664660
4.642606
4.682541
4.625916
4.285574
4.054904
4.284978
4.210472
4.032850
3.961921
3.973842
3.935695
3.732443
3.785491
3.539920
3.702641
3.428459
##ZVALUE=295
0.922680
0.919700
0.922680
1.016855
1.051426
0.951886
1.081824
0.927448
0.980496
0.947714
1.109838
1.034737
0.958443
1.156926
1.067519
1.136661
1.109838
1.159906
1.296997
1.297593
1.228452
1.093745
1.555681
1.493692
1.564622
1.554489
1.603961
1.706481
2.020597
3.834963
13.644695
54.886937
116.021633
263.119936
415.627956
657.573938
829.837918
998.123884
1015.819907
962.523818
826.915503
594.827533
415.807962
221.269727
121.507645
45.816898
24.349689
20.990968
28.400421
46.796799
63.555837
89.587569
108.105540
127.503872
134.274960
132.457614
120.230913
100.458860
80.360770
55.648685
39.899945
23.422837
15.537739
10.250807
7.487535
5.976558
5.584955
5.627871
5.494952
5.662441
5.896688
5.946755
5.914569
5.738735
5.482435
5.531907
5.505681
4.998446
5.154610
4.614592
4.607439
4.680753
3.989935
4.048944
4.030466
4.131794
3.939867
3.848672
3.943443
3.669858
3.627539
3.787875
3.749728
3.824830
3.447533
3.575683
##ZVALUE=300
0.904799
0.870824
0.974536
1.066923
0.853539
0.820756
0.966787
0.865459
0.919700
1.079440
0.981688
0.958443
1.053810
1.108646
1.118779
0.987649
1.120567
1.087785
1.086593
0.994802
1.273751
1.149774
1.094937
1.197457
1.511574
1.439452
1.480579
1.511574
1.633763
1.626611
1.975894
2.305508
5.756617
29.348731
72.703958
183.085799
312.900543
540.762544
721.551776
928.858519
1012.066603
1009.652615
913.031697
697.885752
516.134501
292.051435
174.681544
77.104568
37.527680
17.597675
17.618537
27.380586
39.041638
60.452819
79.921484
104.958415
118.422508
128.251910
127.614737
115.096569
99.981427
74.587464
57.091713
37.083626
25.669932
15.028715
9.831786
6.892681
5.856752
5.333424
5.282760
5.287528
5.316734
5.373955
5.202889
5.110502
5.004406
4.766583
4.546642
4.430413
4.342794
4.287958
4.006624
3.984571
4.085898
4.020929
3.647804
3.901720
3.838539
3.749728
3.327727
3.489852
3.480911
3.281832
3.535748
3.453493
##ZVALUE=305
0.968575
1.149774
0.870824
0.907779
0.986457
0.992417
0.864863
0.879765
1.054406
1.085997
0.930429
0.988841
1.089573
0.981688
0.967979
0.968575
1.163483
1.109838
1.113415
1.110435
1.153946
1.281500
1.134872
1.308918
1.091957
1.322627
1.496673
1.446605
1.443624
1.591444
1.582503
1.760721
1.634955
2.111793
3.449917
16.993880
48.106909
133.590698
241.897702
454.676747
636.961460
870.099664
995.433927
1015.897989
983.723998
779.338479
610.553622
389.612913
242.647529
107.452869
53.295493
19.615889
13.762712
16.949773
24.694800
40.809512
56.933761
79.450607
96.033812
113.346577
121.118426
118.654966
111.166835
92.913508
75.337887
52.277446
37.418604
23.229718
15.108585
8.759499
6.673932
5.620718
5.465746
4.871488
5.114675
4.727840
4.679561
4.633665
4.363656
4.272461
4.434586
4.172921
4.027486
4.207492
4.181862
3.987551
3.918409
3.812909
3.945827
3.789663
3.671646
3.743768
3.362894
3.467798
3.219843
3.491640
##ZVALUE=310
0.838637
0.711679
0.795722
0.739694
0.885725
0.864863
0.773668
0.885725
0.899434
0.866652
0.910759
0.892878
0.951886
0.891685
0.909567
1.028776
0.996590
0.953674
0.935793
0.953674
1.097918
1.095533
1.032948
1.162887
1.270771
1.142621
1.106858
1.096725
1.226664
1.371503
1.441836
1.525879
1.345873
1.497865
1.850724
1.816750
2.158880
7.781982
25.575757
84.399581
164.379478
337.441564
512.932539
752.336979
908.831954
1015.819907
1015.819907
894.758701
737.476945
503.459573
336.144567
170.935988
89.148879
32.418966
14.591813
11.507869
14.616847
22.632480
32.622814
50.442815
67.584515
89.575648
102.699995
112.049580
113.115907
104.201436
91.309547
70.275664
54.328442
35.720468
24.265647
14.384985
9.515882
6.374717
5.388856
4.460812
4.489422
3.987551
3.871918
4.179478
3.882647
3.700852
3.585815
3.855824
3.735423
3.568530
3.579855
3.617406
3.628731
3.696680
3.593564
3.545880
3.545880
3.396869
3.236532
3.365874
##ZVALUE=315
0.731945
0.649691
0.813603
0.757575
0.905991
0.778437
0.901818
0.851750
0.932813
0.998974
0.670552
0.976920
0.860691
0.831485
0.814795
0.958443
0.847578
0.907779
0.859499
0.899434
1.037717
0.969768
0.984669
1.041889
0.990629
0.981688
1.265407
1.209974
1.148582
1.165867
1.227856
1.102686
1.394749
1.336932
1.571774
1.437664
1.458526
1.631975
1.916885
2.990961
15.707612
43.567419
127.048492
231.017470
443.942547
627.371669
847.289562
974.465013
1015.820503
975.674987
798.193812
628.736615
392.066836
248.093009
114.257932
54.489970
17.657876
10.437965
10.267496
12.935996
20.624995
29.496551
46.681762
61.282516
82.745552
95.656514
106.348991
107.555985
97.604990
85.971951
65.192580
50.732493
33.882856
22.507906
13.159513
9.024739
5.963445
4.535913
4.190803
3.576875
3.627539
3.630519
3.597736
3.462434
3.118515
3.377795
3.263950
3.523827
3.376603
3.525615
3.157854
3.140569
3.419518
3.298521
3.207922
3.078580
##ZVALUE=320
0.902414
1.048446
1.007915
1.004934
0.999570
0.901818
0.973940
0.944734
0.965595
0.955462
0.858903
1.047850
1.025796
1.046658
0.823736
0.999570
0.895858
0.931621
0.941753
1.033545
1.163483
1.223683
1.098514
1.235604
1.206994
0.975728
1.006722
1.036525
1.191497
1.262426
1.290441
1.138449
1.271963
1.372695
1.481771
1.373887
1.361966
1.679659
1.761913
1.639724
1.779795
2.481937
5.934834
29.593706
73.970556
191.279650
318.091512
528.661013
708.061457
919.870734
1007.223725
1007.321477
913.856030
707.466006
518.887639
289.515853
166.627765
72.540641
33.295751
11.544824
8.598566
8.787513
11.661649
17.791986
25.924444
42.772889
56.266785
74.855685
87.799430
97.971559
100.974441
94.590783
83.859563
63.724518
48.962831
31.389594
21.623969
12.800694
8.416772
5.148649
4.202724
3.715754
3.379583
3.566742
3.267527
3.370643
3.194809
3.204942
3.169775
3.337860
3.531575
3.121495
3.276467
3.045797
3.272891
3.319979
##ZVALUE=325
0.752807
0.672936
0.678897
0.656843
0.788569
0.666976
0.815988
0.835657
0.754595
0.851750
0.770688
0.918508
0.722408
0.882745
0.765920
0.851750
0.870824
0.882745
0.703931
0.931621
0.994802
0.951886
0.728965
0.768900
0.916719
1.017451
0.956655
1.046658
1.087785
0.986457
0.851750
1.176000
1.115799
1.186728
1.065731
1.198649
1.275539
1.336932
1.210570
1.312494
1.439452
1.606941
1.775622
1.802444
3.136992
18.553734
49.051642
127.949715
230.519772
439.150929
614.082813
836.112499
957.715511
1005.976796
946.300030
758.231878
580.031872
357.804894
218.878984
95.519423
45.753717
15.249848
8.316636
6.844997
7.607937
10.916591
15.096664
25.665760
37.418604
56.802630
69.493651
85.124969
92.236996
92.569590
87.886453
73.424578
60.238838
42.365789
30.634999
18.109679
11.845827
6.711483
5.196929
3.928542
3.357530
3.187656
3.266931
3.150702
3.142953
2.853870
2.812743
2.839565
3.133416
2.910495
2.997518
2.895594
##ZVALUE=330
0.579953
0.648499
0.687838
0.782609
0.667572
0.645518
0.698566
0.675917
0.725985
0.760555
0.577569
0.763535
0.645518
0.693798
0.634789
0.821948
0.640750
0.799894
0.630617
0.788569
0.879765
0.818968
0.751615
0.900626
0.625849
0.838637
0.879765
0.813603
0.747442
0.920892
0.834465
0.978708
1.061559
0.918508
1.058578
0.906587
1.044869
1.180768
1.220703
1.195669
1.243949
1.322627
1.391768
1.441836
1.489520
1.745820
2.228618
8.064508
26.011467
87.643862
169.447660
340.354443
502.231717
737.726688
882.148743
985.549688
966.352820
828.287601
669.322610
433.022976
280.041695
132.085681
66.616535
23.660660
10.529757
6.522536
6.325841
7.326603
9.469986
15.769601
23.341775
36.463737
50.115585
67.785978
77.662468
86.621642
87.368488
80.966949
70.775747
54.035783
41.147470
26.274920
18.615723
11.312962
7.673502
5.026460
3.645420
3.354549
3.187656
3.005862
2.816916
2.707839
2.762675
2.882481
2.674460
2.471805
##ZVALUE=335
0.781417
0.664592
0.746846
0.629425
0.696778
0.634789
0.836849
0.701547
0.806451
0.812411
0.830889
0.752807
0.695586
0.697970
0.766516
0.601411
0.680685
0.737906
0.741482
0.848770
0.913739
0.780821
0.876784
0.885725
0.849962
0.952482
0.808835
0.818968
0.844598
1.145601
0.942945
0.889897
0.861883
1.058578
0.919700
0.943542
1.129508
1.058578
0.993609
1.267791
1.283884
1.296997
1.149774
1.193881
1.192689
1.409650
1.470447
1.686811
1.865625
4.237890
13.608932
52.496791
113.906860
259.046555
415.229797
661.399961
826.323628
962.678790
985.150933
893.175602
750.697851
511.491895
347.039700
182.783604
97.053647
33.288002
13.657808
6.725788
6.084442
6.111860
6.503463
9.510517
13.672709
23.515821
33.632517
49.461722
61.537623
74.046850
79.855919
80.874562
75.788498
63.386559
52.550435
38.179755
27.866960
17.860532
12.270808
7.603765
5.643964
3.975630
3.469586
2.991557
2.821684
2.892613
2.640486
2.397895
##ZVALUE=340
0.629425
0.649691
0.599623
0.686646
0.621676
0.742674
0.791550
0.679493
0.775456
0.742674
0.925660
0.795722
0.694990
0.769496
0.705719
0.752807
0.771880
0.673532
0.639558
0.946522
0.764728
0.526905
0.668764
0.690818
0.787973
0.871420
0.942945
0.776649
0.823736
0.894666
0.780821
0.866652
0.894666
0.893474
0.837445
0.964999
0.969768
0.936985
0.825524
1.020432
1.121759
1.260638
1.087785
1.154542
1.153946
1.262426
1.271963
1.489520
1.507998
1.609921
1.617670
1.987815
8.756518
64.352751
83.868504
280.483961
366.858840
524.799824
789.096951
958.070755
960.713029
918.457508
801.234841
421.656966
392.568707
251.438618
112.989545
53.711534
16.043782
7.848740
5.988479
5.688667
5.810857
6.707907
8.942485
12.566447
30.689836
32.308698
56.266785
58.119893
69.412589
76.293945
76.445937
65.298676
61.300993
48.648715
37.158728
28.700829
18.109679
12.675524
7.494688
5.008578
3.747940
3.310442
2.891421
2.540946
##ZVALUE=345
0.669956
0.638962
0.685453
0.627637
0.690818
0.669956
0.543594
0.697970
0.599623
0.642538
0.695586
0.759959
0.603795
0.652671
0.680685
0.754595
0.713468
0.688434
0.697970
0.698566
0.683665
0.692606
0.628829
0.755787
0.935793
0.870824
0.683665
0.749826
0.797510
0.856519
0.937581
0.776649
0.756979
0.626445
0.973940
0.938773
0.868440
0.906587
0.831485
0.950694
1.030564
1.013875
0.941753
0.862479
0.890493
0.959635
0.893474
1.138449
1.100898
1.095533
1.344681
1.612902
1.431704
1.593828
3.188848
18.233657
50.168633
132.789612
236.868858
436.944962
604.874492
804.595947
904.104710
932.829976
859.328508
666.579008
497.883558
295.118690
168.282986
65.769553
29.665828
9.996891
6.260872
5.380511
5.104542
5.251765
5.392432
7.659793
11.385679
19.451976
28.467774
42.280555
50.615668
62.034726
67.637563
69.621801
66.829920
58.980584
49.394965
37.393570
28.218627
17.461777
11.931658
6.957650
4.765987
3.618598
##ZVALUE=350
0.680685
0.680685
0.635982
0.789762
0.644922
0.736713
0.695586
0.711679
0.626445
0.711679
0.865459
0.630617
0.746846
0.677705
0.706911
0.761747
0.659823
0.699759
0.709891
0.751615
0.921488
0.888705
0.796914
0.728965
0.656843
0.810623
0.923872
0.837445
0.770688
0.837445
0.835657
0.803471
0.848770
0.720620
0.946522
0.865459
0.906587
0.959635
0.918508
0.850558
1.085997
0.995994
0.915527
1.000762
0.871420
1.044869
1.210570
1.102686
1.174808
1.091957
1.216531
1.223683
1.327991
1.244545
1.381636
1.604557
2.450943
7.258654
31.618476
74.051619
182.461739
307.057500
511.185527
669.024587
846.598744
908.765793
870.466828
759.570599
538.428426
367.311835
184.084773
100.875497
38.800836
15.307665
6.428957
5.266666
4.905462
4.781485
4.628897
5.146861
7.451773
10.838509
17.147660
23.908615
35.447478
44.394732
55.941939
61.399937
63.650608
62.342882
54.532886
47.124624
35.445690
26.565790
17.683506
12.313724
##ZVALUE=355
0.623465
0.605583
0.797510
0.938773
0.753999
0.747442
0.825524
0.678897
0.743866
0.649691
0.740886
0.575781
0.554919
0.739694
0.743866
0.703931
0.666976
0.658631
0.738502
0.834465
0.918508
0.900626
0.803471
0.804663
0.884533
0.754595
0.958443
0.789762
0.944734
0.882745
0.540614
0.854731
0.846982
0.869632
0.920892
0.970960
0.802875
0.752807
0.807643
0.844598
0.814795
0.922680
0.905991
0.882745
1.037717
0.987649
0.920892
1.149774
0.930429
1.111627
1.070499
1.075864
1.352429
1.296997
1.386404
1.288652
1.382828
1.489520
1.721978
4.482865
15.550852
57.873726
119.239688
250.967741
394.398570
615.734458
751.857758
864.266753
870.354772
752.007961
612.440705
407.324433
263.061523
116.637945
56.103468
17.361641
7.750988
5.280972
4.848838
4.386902
4.207492
4.159808
4.595518
6.385446
8.949637
14.551878
20.399690
30.587912
38.968921
49.020648
55.553913
58.270693
56.694746
51.061511
43.546557
33.928752
##ZVALUE=360
0.674725
0.733733
0.854731
0.960827
0.759959
0.843406
0.662804
0.509620
0.740886
0.790954
0.752807
0.613928
0.773668
0.581741
0.762939
0.830889
0.747442
0.689626
0.797510
0.812411
0.762939
0.718832
0.726581
0.663996
0.793934
0.839829
0.764728
0.815988
0.645518
0.821948
0.868440
0.933409
0.754595
0.768900
0.814795
0.819564
0.768900
0.801682
0.756979
1.035929
0.885725
0.981688
0.937581
0.945926
0.919700
1.078844
1.079440
1.082420
0.956655
1.042485
1.008511
1.046658
1.104474
1.148582
1.164675
1.181960
1.226664
1.441836
1.385808
1.638532
1.732707
2.365708
6.753802
30.346513
73.440671
182.548761
301.816463
495.603681
652.303696
811.741948
857.719779
801.559687
688.018799
478.203893
320.342779
157.654881
81.468821
29.788613
11.992455
5.572438
4.752874
4.378557
4.164577
3.951788
3.849864
4.251599
4.949570
7.660985
10.850430
17.168522
24.410486
34.712553
41.399002
49.040914
52.681565
52.071810
##ZVALUE=365
0.667572
0.810623
0.697970
0.734925
0.602603
0.674725
0.737906
0.612736
0.689626
0.713468
0.715852
0.692606
0.709891
0.690818
0.794530
0.783801
0.734925
0.652671
0.767708
0.837445
0.941753
0.744462
0.606775
0.627637
0.781417
0.793934
0.685453
0.825524
0.800490
0.853539
0.656843
0.839829
0.700951
0.730753
0.797510
0.861883
0.956655
0.810623
0.889897
0.730753
0.970960
1.015663
0.988841
0.934601
0.835657
0.903606
0.902414
1.030564
1.011491
0.907779
0.809431
0.871420
1.099706
0.900626
1.206994
1.132488
1.232624
1.216531
1.324415
1.270771
1.391768
1.710653
1.676679
1.733899
3.328919
16.864538
45.052767
121.316910
224.304795
415.797830
566.070676
735.331774
816.411972
812.853575
723.767877
536.167622
384.956598
213.121772
115.811825
42.595863
17.302632
6.072521
4.750490
4.104972
4.078746
3.655553
3.594756
3.552437
3.443956
4.316568
6.036758
9.460449
14.015436
21.628737
28.679967
37.292838
##ZVALUE=370
0.732541
0.606775
0.741482
0.615716
0.613928
0.722408
0.676513
0.636578
0.748634
0.781417
0.733733
0.622869
0.774860
0.631809
0.627637
0.706911
0.770688
0.757575
0.754595
0.777841
0.809431
0.727773
0.732541
0.664592
0.740886
0.701547
0.795722
0.767708
0.745654
0.939965
0.767708
0.800490
0.713468
0.759959
0.778437
0.882745
0.775456
0.885725
0.931621
0.823736
0.850558
0.913739
0.885725
0.946522
0.938773
0.750422
0.860691
0.996590
0.892878
0.979900
0.880957
0.958443
0.980496
0.982881
1.032948
1.027584
1.244545
1.069903
0.988841
1.093745
1.038909
1.174808
1.325607
1.388788
1.501441
1.701713
2.110600
9.393692
29.067993
90.282559
172.805786
334.071517
485.420823
685.305595
788.734555
820.212960
761.181712
603.615642
454.662442
260.361433
148.649812
58.813691
25.810599
8.303523
5.079508
4.253983
3.753901
3.490448
3.277659
3.172755
3.103614
3.194809
3.893971
5.350709
7.589459
12.353659
##ZVALUE=375
0.667572
0.659823
0.630617
0.596642
0.658631
0.642538
0.633597
0.624657
0.561476
0.669956
0.447631
0.609756
0.587702
0.743866
0.699759
0.623465
0.731945
0.668764
0.646710
0.691414
0.617504
0.668764
0.563860
0.566840
0.651479
0.730753
0.847578
0.736713
0.893474
0.909567
0.683665
0.848770
0.636578
0.746846
0.576973
0.703931
0.853539
0.697970
0.837445
0.772476
0.895858
0.879765
0.866652
0.854731
0.743866
0.868440
0.782609
0.817776
0.684857
0.736713
0.882745
0.945926
0.803471
0.744462
0.834465
0.877976
0.727773
0.898838
1.007915
0.951886
1.043677
1.120567
1.064539
1.134872
1.055598
1.224875
1.292825
1.448989
1.704693
4.430413
15.286803
55.058002
116.614699
259.018540
404.346585
609.786510
732.492805
815.828443
804.011822
679.834485
536.772609
334.895849
208.555460
96.430779
47.467947
14.906526
6.770492
3.938675
3.843904
3.541708
3.315806
3.011823
2.928972
2.776980
2.914667
3.268719
##ZVALUE=380
0.554919
0.626445
0.586510
0.354648
0.524521
0.489950
0.419617
0.577569
0.542998
0.469685
0.599623
0.485778
0.577569
0.425577
0.429749
0.505447
0.503659
0.567436
0.507832
0.560880
0.667572
0.671744
0.620484
0.701547
0.444651
0.542998
0.698566
0.644922
0.670552
0.613928
0.711679
0.726581
0.699759
0.770688
0.885725
0.871420
0.777841
0.872612
0.729561
0.719428
0.774860
0.748634
0.834465
0.698566
0.709891
0.922680
0.836849
0.714660
0.799894
0.697970
0.710487
0.975728
0.742674
0.798702
0.877976
0.834465
0.952482
0.873804
0.764728
0.900626
0.902414
0.977516
0.892878
0.954866
0.893474
0.951886
1.056790
1.082420
1.391768
1.480579
1.567602
2.563596
8.399487
38.086772
89.253783
209.115744
338.699818
532.113910
672.146678
801.554918
815.333724
722.681880
597.508550
408.846736
275.214911
135.002732
68.838000
23.689866
9.660721
4.490614
3.509521
3.245473
3.079772
2.870560
2.990961
2.832413
##ZVALUE=385
0.616908
0.691414
0.706911
0.708699
0.719428
0.525713
0.680685
0.627637
0.688434
0.645518
0.696778
0.601411
0.483990
0.615716
0.765920
0.524521
0.764728
0.656843
0.738502
0.753999
0.714660
0.618696
0.663996
0.806451
0.532866
0.835657
0.781417
0.828505
0.797510
0.870824
1.140833
0.975728
1.180768
1.183748
1.146793
1.065731
1.181960
1.149774
1.114607
1.059771
1.086593
1.057982
0.942945
1.036525
1.063943
1.062751
1.085997
1.070499
1.141429
1.037717
1.012683
0.839829
0.943542
1.022816
0.991821
0.920892
0.890493
0.867844
0.810623
0.963807
1.059771
0.931621
1.050830
0.971556
1.012683
0.994802
0.983477
1.093745
1.162887
1.445413
1.469851
1.478791
1.504421
1.650453
4.832745
16.252995
60.978532
128.030777
277.042985
424.160957
623.731017
734.511018
799.992681
782.280564
660.586953
528.785586
336.658955
214.573741
97.517967
47.042966
15.634894
6.319880
3.522635
3.486872
3.342628
3.125668
##ZVALUE=390
0.545979
0.736713
0.516772
0.726581
0.627637
0.732541
0.541806
0.698566
0.679493
0.635982
0.648499
0.610948
0.652671
0.588894
0.488758
0.588894
0.618696
0.567436
0.632405
0.659823
0.618696
0.774860
0.761747
0.656843
0.748634
0.731945
0.865459
0.913739
1.042485
1.008511
1.078844
1.253486
1.480579
1.424551
1.358986
1.338720
1.414418
1.305938
1.485944
1.331568
1.075864
1.206994
1.310706
1.361966
1.225471
1.265407
1.233816
1.401901
1.178980
1.092553
1.084805
1.126528
1.039505
1.142621
0.936985
0.994802
0.888705
0.847578
0.945926
0.988841
0.834465
1.088977
0.884533
0.999570
1.031756
1.130700
1.158714
1.142621
1.131892
1.451969
1.225471
1.467466
1.357794
1.476407
1.483560
1.544952
2.172589
11.476874
34.697652
104.513764
196.976662
374.380946
523.107648
695.259571
781.046748
806.870461
747.788548
597.761869
457.981825
281.786919
162.657499
66.929460
31.152964
9.849668
4.620552
3.512502
##ZVALUE=395
0.743866
0.513792
0.692606
0.495911
0.579953
0.528693
0.723600
0.675917
0.627637
0.625849
0.534654
0.601411
0.649691
0.545979
0.780821
0.631809
0.689626
0.575781
0.570416
0.643730
0.643730
0.554919
0.765920
0.640750
0.795722
0.747442
0.766516
0.999570
1.075864
1.146793
1.171827
1.524687
1.476407
1.526475
1.584888
1.625419
1.680851
1.651645
1.464486
1.616478
1.623631
1.436472
1.446605
1.394749
1.530647
1.301765
1.137853
1.262426
1.251698
1.198649
1.162887
1.220703
1.143813
0.923872
1.000762
0.901818
1.085997
0.998974
1.046658
1.134872
1.075864
0.908971
0.983477
0.932813
0.951886
1.050830
1.158714
1.004934
1.194477
1.137853
1.184940
1.357794
1.418591
1.294613
1.262426
1.295805
1.458526
1.692772
1.743436
6.566644
23.407936
80.356598
150.446892
286.378860
425.992012
621.591806
743.941665
825.735927
809.800625
689.828992
546.037555
343.144536
213.088989
92.562437
44.270754
14.172792
##ZVALUE=400
0.699759
0.697970
0.702739
0.571609
0.622869
0.534654
0.610948
0.408888
0.498891
0.576973
0.437498
0.522733
0.518560
0.463724
0.597835
0.489950
0.545979
0.539422
0.411868
0.612736
0.623465
0.658631
0.526905
0.680685
0.835657
0.630617
0.763535
0.921488
1.089573
1.038909
1.155734
1.342893
1.395941
1.438856
1.430511
1.474619
1.562834
1.532435
1.470447
1.651645
1.446605
1.323819
1.455545
1.148582
1.448989
1.437664
1.222491
1.222491
1.218915
1.154542
1.133680
1.004934
1.091957
1.089573
1.025796
0.885725
0.821948
0.993609
0.967979
0.862479
1.022816
0.891685
0.966787
0.898838
0.859499
0.982881
1.046658
1.074672
1.114607
1.193881
1.240969
1.075864
1.091957
1.419783
1.188517
1.025796
1.004934
1.205802
1.401901
1.379848
1.534820
3.764629
12.239814
45.228601
96.671581
215.818882
345.354676
536.262989
669.413805
784.029961
801.450014
713.464618
598.622561
415.354967
276.947618
140.306950
##END
