##TITLE=30FILTER
##FORMAT=SPECTACLE-ASCII V-1.2
##DATA TYPE=ULTRAVIOLET SPECTRUM
##SECOND TYPE=ULTRAVIOLET SPECTRUM
##DATE=12/18/17
##TIME=12:35:09
##SPECTROMETER/DATA SYSTEM=SPECTACLE
##XUNITS=NM EM
##YUNITS=ENERGY
##YFACTOR=1
##FIRSTX=220
##LASTX=410
##NPOINTS=96
##3DDATA=Equidistant
##ZUNITS=NM EX
##FIRSTZ=210
##LASTZ=400
##ZPOINTS=39
##XYDATA=(Y..Y)
##ZVALUE=210
18.032789
16.735792
13.665557
11.768937
10.232925
9.025931
9.557605
8.505583
7.363558
5.711913
4.638433
4.200935
3.396869
3.074408
3.469586
3.134608
3.556609
3.766418
2.991557
3.437996
3.811717
4.266500
4.644990
5.628467
5.799532
8.374453
8.309484
10.664463
11.477470
14.321804
15.736818
18.038750
19.390583
21.463633
21.828413
21.982789
22.331476
21.490455
22.998452
20.620823
21.429658
21.392703
20.412803
18.195510
17.782450
18.801689
17.385483
16.405582
15.144944
15.220642
13.854504
13.606548
13.962984
13.120770
12.026429
11.785626
11.898875
10.892749
11.095405
11.897683
10.651946
10.446906
10.473728
9.734631
9.513497
9.856820
10.356903
10.416508
10.441542
13.216734
12.019873
13.314486
14.229417
15.992522
17.584562
16.867518
16.647577
15.419722
15.774965
13.246536
12.256503
11.074543
11.423826
8.728504
7.730722
6.788969
6.889701
7.293820
7.078648
9.108782
12.006760
14.874935
19.629598
26.171803
29.781461
36.759973
##ZVALUE=215
42.425990
40.430427
34.492612
23.640990
21.622777
17.468929
17.273426
16.071796
13.771653
13.417602
12.796521
9.255409
8.165836
5.061626
4.307628
3.369451
3.422499
3.879666
4.009604
3.578663
4.241467
4.202724
4.166961
5.045533
5.627871
6.755590
9.071827
11.632442
13.229847
15.509725
17.626882
20.169616
23.947954
24.100542
24.882555
27.293563
26.856661
25.115609
25.910735
24.536848
23.834705
23.713708
23.427606
22.223592
22.735596
18.293858
19.485950
19.407868
17.624497
15.589595
16.654730
15.445948
15.288591
14.002919
13.508797
15.270710
12.999773
12.410879
12.278557
10.245442
10.923743
10.649562
10.458827
9.609461
10.299683
9.651780
8.858442
10.320544
11.239648
12.263656
12.316704
14.227629
13.796687
14.774799
14.931560
15.302896
15.222430
14.685988
12.756586
12.805462
11.960864
11.549592
10.424852
9.398460
8.865595
8.039474
7.679462
6.958842
6.508827
7.137656
6.562471
6.043911
6.722808
8.000731
10.057688
13.842583
##ZVALUE=220
83.933473
84.444880
81.496835
75.361729
64.350963
46.662688
37.278533
29.657483
24.709702
25.688410
26.033521
24.478436
20.864606
17.262697
13.589859
10.854602
7.609725
5.632639
4.431605
3.631711
3.232956
4.018545
4.106760
4.566908
5.291700
6.708503
9.164810
12.030602
15.041828
16.646981
20.497441
22.993684
26.525855
28.058887
30.421615
31.897426
32.645464
30.649900
30.905604
30.080676
29.295683
28.690696
26.262999
26.198626
25.685430
24.516582
22.538900
21.572709
20.993948
20.062923
17.533898
17.637610
16.903877
15.319586
15.517473
14.467835
14.442801
12.719631
13.180971
12.278557
12.129545
12.142658
12.163520
12.130737
10.626912
11.206865
10.262728
10.363460
10.103583
10.538697
11.720657
12.129545
11.895895
13.208985
12.978911
14.056563
13.654828
13.456941
12.305975
11.220574
10.018945
10.777712
9.191632
9.740591
7.648468
7.773638
6.914735
5.784631
6.100535
5.986691
5.134940
5.827546
6.239414
5.607605
6.067753
4.903674
##ZVALUE=225
102.706552
109.774470
135.605931
142.554641
142.928958
130.556822
112.770796
84.784627
64.601898
49.823523
40.322542
38.643479
38.829446
39.095879
37.055612
32.193661
25.824904
21.853447
17.978549
9.137988
6.541610
5.066991
5.261898
4.576445
5.530715
7.667542
9.305477
12.469888
13.625622
18.670559
19.765496
23.686886
24.885535
27.459860
28.251410
31.279922
32.123923
33.092499
32.020807
32.139421
30.392408
30.578971
29.202700
27.924776
25.613904
24.482608
23.909807
21.481514
21.490455
20.509958
17.658472
18.099546
17.379522
15.636683
16.989708
14.659762
15.407801
14.349818
14.308691
13.692975
13.393760
12.427568
12.299418
10.753870
12.304783
11.059642
11.895895
10.505915
10.221601
13.043880
11.726618
12.920499
12.822747
13.177991
13.072491
14.790893
13.578534
12.253523
11.675954
12.557507
10.885000
10.305643
7.877946
9.484887
8.625984
8.015633
8.139610
7.057786
6.796718
6.432533
7.190704
6.705523
5.890727
6.589890
5.464554
6.233454
##ZVALUE=230
73.811412
74.936748
113.666654
173.897743
209.404826
240.140557
245.828629
232.369900
199.862719
165.946484
107.750893
81.816912
63.407421
55.458546
61.105490
62.425733
60.158968
57.968497
52.761436
38.564801
31.230450
18.339753
13.207793
8.876920
6.295443
7.155538
7.945895
9.343624
11.858940
13.359785
15.001893
17.120838
19.589663
23.039579
23.320913
23.055673
23.754835
25.349855
25.005937
25.075674
25.203824
24.704933
25.298595
22.160411
22.683740
22.425652
19.725561
17.966628
19.036531
18.469691
17.060637
18.415451
16.903877
15.211701
15.629530
14.308691
15.463829
14.001727
12.768507
14.503598
12.518764
12.016892
13.483763
12.118816
12.556911
12.249947
11.988878
11.970997
11.001825
12.305975
13.116598
14.306903
14.099479
14.789701
15.433431
15.618801
13.736486
13.486743
12.408495
12.604594
11.161566
11.641979
10.850430
9.388924
8.892417
7.726550
8.628964
7.609725
8.118749
7.882714
8.143783
6.617904
7.272959
7.726550
6.992817
6.128550
##ZVALUE=235
20.421743
19.979477
51.318407
87.887645
159.779787
222.443938
308.899879
355.721712
392.112732
375.767946
317.205787
257.124901
189.406872
128.232837
97.920895
80.099702
76.835752
84.896684
91.184974
87.262988
79.378486
69.224834
52.746534
38.233995
23.157597
16.377568
12.417436
9.692907
9.993911
10.326505
10.226965
11.199713
13.530850
14.804602
15.798807
14.997721
18.256903
17.750859
16.925931
18.754601
18.188953
17.899871
18.028617
17.453432
18.293858
16.389489
16.959906
15.601516
13.866425
14.897585
14.037490
15.041828
13.570786
13.880730
12.020469
13.196468
13.358593
13.566613
12.007952
12.342930
12.568831
11.530519
12.132525
11.237860
11.122823
12.893677
11.300445
11.588931
12.092590
11.864901
12.165904
13.924837
13.853908
14.098883
14.706850
15.819669
16.768575
13.245940
14.016628
12.558699
11.578798
11.179447
11.510849
10.044575
10.485649
10.647774
9.487867
9.123683
9.575486
8.610487
9.232759
7.862449
7.902980
7.379651
7.005930
7.866621
##ZVALUE=240
2.949834
2.698898
5.731583
22.198558
49.582720
105.883479
174.525976
293.554664
386.353731
478.519797
548.528433
549.097657
488.251448
409.664512
293.146968
210.412741
137.517452
108.438730
100.746751
100.198984
115.340948
122.023821
114.823580
101.181865
84.705949
61.917901
47.131777
32.742620
23.465753
16.218424
12.789965
9.744763
11.167526
11.714697
10.935664
12.771487
11.763573
13.251901
12.812614
13.129711
13.585687
12.791753
13.257861
13.686419
13.245940
13.439655
14.076829
12.875795
11.914968
13.403893
12.495518
12.419820
13.217926
12.996793
12.862682
11.280775
12.882948
11.746883
11.209846
12.145638
12.036562
12.276769
12.637973
11.025667
11.754632
11.276603
10.878444
11.777878
11.924505
11.976957
13.412833
14.646649
13.905764
15.414953
15.107989
15.394688
15.967488
13.642907
14.805794
13.518929
12.499690
13.101697
11.635423
10.241866
11.436939
10.241866
9.649992
10.511875
8.351803
8.619428
9.619594
8.938909
9.241700
8.783937
8.128881
8.319616
##ZVALUE=245
2.134442
2.570748
1.794696
2.225637
4.806519
12.673736
38.276911
81.826448
180.854797
276.297927
432.754755
532.397628
612.037778
643.842816
610.796809
513.954759
414.127707
283.830762
205.173492
124.107003
104.311705
98.683834
117.635727
128.004551
133.016706
127.405524
114.314556
94.043612
72.481632
54.585934
38.660765
26.422739
19.223690
14.213920
13.230443
12.263656
13.629794
12.350678
12.857914
13.154745
14.647841
13.202429
13.257861
13.211966
11.971593
12.927651
11.992455
11.148453
12.086630
11.067986
11.176467
11.267662
11.247993
10.399818
11.109710
11.563897
11.742711
11.976957
11.820793
10.596514
10.985732
11.749864
11.239648
10.615587
11.548996
10.738969
9.988546
11.325479
9.725690
11.142492
10.781884
12.498498
14.226437
14.059544
14.016628
13.227463
14.315844
12.643933
11.244416
11.662841
11.383891
11.300445
10.450482
9.340644
9.256601
8.522868
8.492470
7.344484
8.825660
8.449554
7.519722
7.524490
7.863641
7.544756
7.439852
7.644892
##ZVALUE=250
2.184510
2.156496
1.675487
1.833439
1.786947
2.437830
2.820492
9.091496
23.681521
71.850419
142.529011
243.498683
412.781835
530.737638
656.562448
723.630786
716.716647
651.884675
514.682531
395.945907
244.070888
165.560842
105.214715
96.119642
105.494857
119.540691
137.961507
143.311620
141.047835
126.156807
104.395747
80.797672
62.420964
42.982697
31.257868
20.367503
17.554760
16.382933
14.432669
14.889836
14.223456
14.879704
15.597939
14.811754
14.070868
13.676882
13.748407
13.347864
13.801455
13.883710
12.803674
12.800694
12.537837
12.165904
11.535883
10.719895
10.594726
11.173487
11.032820
10.211468
10.649562
11.467934
9.882450
10.316968
10.470748
10.161996
10.101795
11.214614
9.815693
10.976791
10.696650
12.040734
11.619925
11.828542
12.382865
11.242628
10.833740
10.396838
9.871721
9.919405
10.509491
9.946823
8.554459
8.204579
7.553697
7.476807
7.527471
7.055998
7.394552
6.963611
6.595850
6.874800
7.138848
6.459951
6.933808
6.927848
##ZVALUE=255
1.564622
1.861453
1.648664
1.773834
1.550913
1.712441
2.034903
1.690984
2.486706
4.253983
20.292401
48.013926
98.669529
219.677687
340.998769
526.839495
658.070445
790.966749
817.461014
771.790743
671.761036
534.176826
340.979695
218.580961
121.485591
94.113946
91.917515
104.408860
131.611824
144.193769
155.016780
148.059726
137.144923
110.897422
92.451572
64.519644
49.517751
33.428669
25.984645
21.032691
18.155575
19.151568
17.915964
18.336773
16.960502
15.465617
16.483665
15.936494
15.134811
16.180873
14.243722
13.714433
13.685822
13.376474
12.708902
11.477470
12.587905
11.180639
11.268854
11.523962
11.424422
10.954738
10.046959
10.449886
10.212660
10.084510
9.852648
9.618998
10.584593
10.275841
10.540485
9.957552
10.814667
10.399818
10.885000
10.360479
10.227561
9.649992
9.396672
9.055734
7.920861
8.307695
7.604957
6.802678
7.176995
7.332563
6.641746
6.989837
6.906986
6.166697
6.551743
5.778670
5.423427
5.670786
5.131960
5.292892
##ZVALUE=260
1.620650
1.508594
1.403689
1.612902
1.483560
1.661777
1.602769
1.446605
1.660585
1.934767
1.818538
3.185868
9.589791
33.364892
74.651837
141.618848
297.222733
441.021919
651.152730
795.431733
905.011892
911.137462
789.389014
646.802783
441.016555
296.326876
191.253424
108.886957
84.506869
91.757774
115.077496
137.064457
156.230927
164.143443
165.395737
146.094561
125.725865
97.743869
78.062415
55.081844
40.847659
30.540824
26.616454
22.807717
22.013783
20.418763
18.804669
19.454956
18.518567
17.213821
17.131567
16.079545
15.269518
14.281869
15.594959
13.542771
13.296604
12.314916
13.194680
11.725426
11.272430
11.807680
10.540485
10.924935
10.428429
10.791421
9.894967
9.807944
9.434819
10.098815
10.036826
10.074973
10.796785
10.335445
10.475516
9.921789
9.463429
9.547472
9.018779
7.944703
7.557869
7.200837
6.912947
7.128716
6.838441
6.141663
5.927682
5.534887
5.963445
5.563498
5.862713
5.494952
5.213618
5.171895
5.062819
5.061626
##ZVALUE=265
1.617670
1.492500
1.402497
1.141429
1.392961
1.421571
1.399517
1.550913
1.535416
1.841784
1.789927
2.001524
2.000928
2.433658
4.341602
21.080971
51.547885
131.724477
234.363675
440.967679
623.965859
797.975659
959.971547
996.749997
909.048915
784.906745
588.390827
419.089794
237.516761
152.949691
104.194880
83.494782
93.284845
127.068758
149.691701
171.040893
178.519487
173.744559
156.604648
128.678679
104.901791
76.595545
60.052872
41.682720
31.964779
26.610494
24.014711
22.464991
20.861626
20.139813
18.943548
18.286705
16.898513
17.808676
16.641617
15.026927
14.600754
13.259649
13.791919
13.031960
12.660623
11.377931
11.564493
11.049509
10.656714
10.502934
10.595918
10.110736
10.153651
9.560585
9.924769
9.859800
10.355711
9.855628
9.999871
9.189844
8.972883
8.695722
8.343458
7.792711
7.047653
7.017851
6.793737
6.473660
5.877614
5.603433
5.952716
5.605817
5.771518
5.418658
5.740523
4.741549
4.793406
4.786849
5.179644
4.816651
##ZVALUE=270
1.396537
1.380444
1.265407
1.303554
1.402497
1.370907
1.446605
1.421571
1.677871
1.449585
1.602769
1.723766
1.573563
1.756549
1.809597
2.304912
2.406836
10.365844
29.280782
93.404651
185.326934
327.375531
576.487780
767.892003
986.092687
1015.837789
1015.837789
952.022672
747.450590
565.815568
394.366980
217.753649
132.686496
80.474615
80.651641
102.620721
128.295422
156.380534
173.132420
179.955959
173.519850
156.634450
136.619806
104.834437
81.435442
56.435466
43.440461
30.522943
27.094483
22.352934
20.982623
19.255877
18.662810
17.604828
17.033815
15.817881
15.023947
14.869571
14.095902
13.206601
13.287663
12.444854
11.917949
11.186600
11.116862
10.914803
10.585785
9.905696
10.143518
10.103583
10.134578
10.028481
9.789467
10.055900
9.558797
9.642839
9.008646
8.233786
8.381605
7.890463
7.649660
7.114410
7.035732
6.534457
6.017685
5.487800
5.634427
5.537868
5.211830
5.523562
4.961491
5.247593
5.418658
5.152822
4.847646
4.258752
##ZVALUE=275
1.098514
1.286864
1.205802
1.142621
1.290441
1.219511
1.273751
1.174808
1.363754
1.303554
1.424551
1.408458
1.529455
1.496673
1.752973
1.727939
1.805425
1.975894
2.412796
4.183650
20.020604
53.711534
157.660842
286.170840
521.093607
712.719560
934.304595
1015.819907
1015.819907
1015.819907
888.862610
711.824894
455.197692
291.745663
151.896477
95.316768
68.332553
76.133609
102.636814
124.547482
152.329803
165.967941
173.263550
168.557763
149.077773
128.832459
99.842548
76.901913
51.318407
38.463473
28.717518
22.776723
18.754601
17.128587
16.889572
15.797615
14.526844
14.300942
13.913512
13.149977
12.399554
12.375712
12.011528
11.000633
11.088848
10.581613
10.588765
10.373592
10.084510
10.097623
9.532571
9.972453
9.791851
9.534955
9.127855
8.923411
8.669496
8.616447
7.814765
7.420778
7.388592
7.025599
6.640553
6.388426
6.250739
5.985498
5.726814
5.307794
5.761981
5.178452
5.244613
4.690886
4.637837
4.451871
4.480481
4.654527
##ZVALUE=280
1.196861
1.170635
1.212955
1.086593
1.401901
1.255870
1.238585
1.290441
1.301765
1.267791
1.280904
1.189709
1.370907
1.294613
1.284480
1.588464
1.733899
1.829863
1.811981
2.133846
2.287626
2.753735
11.593699
36.800504
116.626620
216.786861
400.551558
593.083501
852.099657
1000.994444
1015.879512
1015.879512
1008.374691
790.902972
588.573813
345.184803
213.245749
102.369785
65.871477
55.797696
67.049861
94.084740
117.720962
144.256949
158.212781
163.994431
157.289505
135.541558
117.381811
88.478923
69.793463
46.709776
33.392906
23.179650
17.805696
14.161468
13.478994
12.138486
11.900663
11.620522
11.732578
11.025667
11.034608
10.298491
10.613799
10.405779
10.089874
9.922981
9.890795
9.178519
9.601712
9.487867
9.024739
9.745955
8.931756
8.905530
8.299947
8.273721
7.861853
7.643700
6.766915
6.620884
6.210804
6.555915
5.789995
6.021857
5.728602
5.359650
5.449653
5.356669
5.175471
5.070567
4.831553
4.586577
4.662871
4.611611
##ZVALUE=285
1.077652
1.068711
0.899434
0.829697
1.073480
1.157522
1.373887
1.146793
1.220703
1.378655
1.234412
1.181960
1.087785
1.346469
1.308918
1.438856
1.399517
1.501441
1.474619
1.482964
1.690984
2.061725
1.916885
2.306700
5.739927
18.786788
64.008832
136.376619
296.816826
465.127826
719.525814
918.937922
1015.819907
1015.819907
1015.819907
904.956460
718.555450
458.671451
286.420584
139.564872
76.313615
42.273998
41.788816
60.739517
80.514550
108.197927
128.978491
147.307515
151.456594
149.226785
136.186481
111.485720
90.931654
64.342618
44.858456
28.163791
19.805431
13.692975
11.237860
9.663701
9.954572
9.946823
9.605885
9.670854
9.343624
8.809566
8.870959
8.915663
9.028912
8.990765
8.939505
9.102821
8.997917
8.829832
8.088946
8.242726
7.921457
7.508993
7.644892
7.240772
6.855726
6.262660
6.470680
6.154776
5.871654
5.759597
5.224943
5.091429
5.304813
5.209446
4.975796
4.725456
4.868507
4.809499
4.599690
4.795790
##ZVALUE=290
0.999570
1.126528
1.092553
1.200438
1.196861
1.026988
1.206994
1.159906
1.217723
0.902414
1.112819
1.014471
1.210570
1.087785
1.326799
1.129508
0.955462
1.253486
1.334548
1.497865
1.536608
1.534820
1.640916
1.805425
1.979470
2.214909
2.968907
7.792711
36.065578
85.999966
171.242952
357.995629
554.360747
841.459632
1006.273031
1015.819907
1015.819907
1007.805467
843.950510
576.581955
386.721492
193.202496
101.991892
42.998791
29.047728
36.331415
49.877763
73.331594
94.591975
120.759606
134.736896
145.023465
141.537786
127.444863
109.916925
82.029700
62.790513
39.812922
27.451515
16.980767
12.798905
9.231567
8.489490
8.198619
7.967949
8.032918
7.948875
8.093715
7.797480
7.874966
7.843971
7.836819
7.851720
8.158684
7.617474
7.242560
7.452965
7.048845
6.624460
6.502867
5.889535
5.744696
5.964637
5.436540
5.623698
4.993677
5.190969
5.070567
4.852414
4.963875
4.671812
4.904866
4.391670
4.425645
4.538894
4.372597
##ZVALUE=295
0.980496
0.835657
1.077652
0.922680
0.833869
0.996590
1.102686
1.034737
0.860691
1.007915
1.077652
0.969768
1.066923
1.201630
1.020432
1.148582
1.309514
1.290441
1.165867
1.146793
1.300573
1.314878
1.440644
1.696944
1.619458
1.827478
1.953840
1.855493
2.189875
4.297495
14.300942
58.861971
127.972960
292.282701
468.500853
745.272636
947.520733
1015.819907
1015.819907
1015.819907
963.335037
698.055029
486.374497
262.221694
145.109892
54.314733
28.306842
21.967888
29.657483
47.411919
64.985752
92.074871
108.514428
127.758980
136.504769
132.704973
120.876431
100.804567
81.422925
56.439638
40.891767
25.294423
17.558932
11.288524
8.889437
6.951690
7.249713
6.312728
6.579757
6.833673
7.038713
7.043481
6.686449
6.759763
6.637573
6.695986
6.445646
6.035566
5.912781
5.545616
5.601645
5.217791
5.113482
4.946589
5.071759
4.877448
4.791617
4.389882
4.738569
4.515648
4.479885
4.580617
4.333854
4.233718
4.241467
4.303455
##ZVALUE=300
0.806451
0.857711
0.896454
0.994802
1.000762
0.958443
0.980496
1.051426
1.178980
1.050830
1.084805
1.062751
0.987649
0.905991
1.022816
1.243949
1.077652
1.134872
1.121759
1.107454
1.344681
1.415610
1.400709
1.278520
1.412630
1.415610
1.459718
1.676679
1.758933
1.827478
2.168417
2.542734
5.713701
30.866861
77.836514
202.198625
348.911881
612.739921
823.819637
1015.819907
1015.819907
1015.819907
1015.819907
812.211037
604.979992
347.661972
206.007957
90.510845
43.455958
19.981861
18.363595
27.677417
39.161444
60.948730
80.630779
104.557872
118.686557
130.004883
127.483606
116.985440
100.743771
76.264739
58.418512
38.661957
26.651621
15.568733
10.579824
7.653832
6.703734
5.984902
6.076694
5.986691
6.388426
6.271601
5.808473
5.910993
5.733967
5.731583
5.471706
5.477667
5.131960
4.945993
4.841685
4.615784
4.801750
4.747510
4.692674
4.482865
4.530549
4.301667
4.193783
4.066825
4.119873
4.085898
4.087687
4.009604
##ZVALUE=305
0.895858
0.886917
1.091957
0.832677
0.762939
1.107454
0.942945
0.929832
1.115799
0.805855
0.855923
1.024604
1.036525
1.020432
0.947714
1.133680
0.987649
1.235604
1.172423
1.233816
1.117587
1.118779
1.215935
1.345873
1.344681
1.279712
1.265407
1.346469
1.492500
1.553893
1.744628
1.716614
1.945496
2.186894
3.603697
18.333793
51.344633
146.239996
269.346833
505.443811
720.496774
984.103680
1015.822887
1015.822887
1015.822887
915.501714
719.599724
461.368561
288.771987
131.429434
65.045953
23.767948
14.832616
17.512441
25.131702
41.115880
57.569742
79.296827
97.717643
116.275549
122.193694
120.392442
112.695694
94.326735
77.060461
52.716732
37.893653
23.445487
15.787482
10.000467
7.742643
6.502867
5.886555
5.843639
5.560517
5.598664
5.198717
5.148649
4.958510
5.207658
4.671812
4.661679
4.573464
4.434586
4.544854
4.514456
4.576445
4.338622
4.483461
4.452467
4.186630
3.971457
4.073977
3.985763
3.883839
4.005432
##ZVALUE=310
0.911951
0.872612
0.749826
0.724792
0.774860
0.881553
0.906587
0.853539
0.944734
1.129508
0.866652
0.904799
1.101494
0.920892
1.032948
0.972748
1.201630
0.940561
1.073480
1.018643
0.911951
1.104474
1.057982
1.218915
1.160502
1.141429
1.128912
1.156926
1.427531
1.399517
1.261830
1.563430
1.779795
1.702905
1.631975
1.901984
2.342463
8.278489
27.694702
91.570616
182.626843
380.381942
579.556823
868.771672
1015.819907
1015.819907
1015.819907
1015.819907
874.405503
603.506565
410.549641
206.963420
109.811425
39.465427
17.582774
11.746883
15.065670
23.187995
33.475757
51.262975
68.552494
91.115832
103.278756
114.534497
115.157962
106.319785
92.961788
72.278976
54.799914
35.638809
24.440885
14.948845
10.118484
7.003546
5.763769
5.166531
4.957914
4.425645
4.572868
4.501939
4.287958
4.372597
4.377961
4.118681
4.245639
4.266500
4.163980
4.272461
3.939867
4.202724
4.105568
3.891587
3.782511
3.573895
3.713965
3.767610
##ZVALUE=315
0.705719
0.915527
0.932813
0.934601
0.900626
0.882745
0.912547
0.847578
0.944734
1.047850
0.999570
0.862479
1.040697
0.963807
0.795722
0.799894
0.904799
0.856519
1.049638
0.983477
0.969768
1.109838
1.095533
1.146793
1.088977
1.073480
1.260638
1.236796
1.270771
1.358986
1.370907
1.299977
1.424551
1.456738
1.633763
1.628995
1.623631
1.846552
1.908541
3.896952
13.554692
55.598617
126.912594
296.202898
480.346680
773.111582
975.661874
1015.819907
1015.819907
1015.819907
994.974971
728.758574
517.250896
279.063582
150.670409
55.707693
23.631454
10.946989
10.493994
14.296770
19.908547
32.368898
45.836568
65.333843
81.140995
99.004507
106.652975
107.700825
101.546645
85.134506
69.892406
50.447583
36.904812
22.414923
14.566779
8.898973
6.527901
5.192757
4.665852
4.377961
4.312992
4.135966
4.046559
4.237890
4.066825
3.981590
4.035830
3.982782
4.084706
3.883839
4.086494
3.898740
3.639460
3.808737
3.753901
3.494620
##ZVALUE=320
0.753999
0.666976
0.735521
0.614524
0.661612
0.784993
0.727773
0.936985
0.819564
0.849962
0.666976
0.826716
0.850558
0.776649
0.937581
0.780821
0.773668
0.877976
0.852942
0.844598
0.887513
0.836849
0.931621
0.900626
1.024604
0.954866
0.987649
1.209974
1.019835
1.004934
1.047850
1.161695
1.082420
1.090765
1.264811
1.344681
1.448989
1.525879
1.630783
1.626611
1.894832
2.473593
6.421804
32.618642
81.766844
209.453702
356.002450
609.769821
815.855861
1015.704870
1015.704870
1015.704870
1015.704870
844.287872
628.131628
352.599621
200.609565
81.451535
37.889481
13.454556
8.451939
9.502769
11.620522
18.116832
26.868582
42.564869
56.437850
75.125694
88.708997
100.138783
100.873709
92.849731
83.336830
63.371658
48.679709
33.024549
22.407770
12.907982
8.609891
5.484819
4.873872
4.239678
3.921986
3.730655
3.786683
3.842711
3.590584
3.661513
3.599524
3.343821
3.696680
3.539920
3.413558
3.512502
3.450513
3.472567
##ZVALUE=325
0.776649
0.700951
0.790954
0.875592
0.819564
0.907779
0.908971
0.783801
0.706911
0.832677
0.970960
0.837445
0.899434
0.810623
0.710487
0.908971
0.951886
0.896454
0.867844
1.000762
0.997782
0.970960
0.851750
0.926852
1.102686
1.125932
0.972748
1.097918
0.966787
1.004934
1.111627
1.288652
1.213551
1.145601
1.268983
1.274943
1.264811
1.262426
1.305938
1.537800
1.623631
1.684427
1.684427
2.189875
3.821850
19.840598
52.190423
145.082474
262.978673
499.597788
712.261796
982.688665
1015.819907
1015.819907
1015.819907
918.626785
698.868036
423.251987
262.173414
120.111704
57.065487
17.943978
8.925796
7.660985
8.353591
10.978580
15.792847
25.720596
37.966967
57.010651
70.396662
87.262988
93.499422
94.422698
88.461637
75.661540
61.559677
42.825937
30.701756
18.491745
12.026429
7.699728
5.463958
4.530549
4.024506
3.766418
3.776550
3.481507
3.679991
3.631711
3.479719
3.540516
3.489852
3.404617
3.313422
3.294945
##ZVALUE=330
0.703931
0.760555
0.780821
0.915527
0.810623
0.916719
0.844598
0.872612
0.818968
0.794530
0.744462
0.763535
0.824928
0.727773
0.934601
0.886917
0.950694
0.891685
0.867844
0.964999
0.788569
0.941753
0.945926
1.050830
0.902414
0.820756
1.074672
0.994802
1.133680
0.956655
0.970960
1.105666
1.094937
1.150966
1.123548
1.177788
1.066923
1.269579
1.195669
1.376867
1.504421
1.514554
1.445413
1.630783
1.897812
2.108812
2.629757
9.138584
27.731657
95.454454
185.837746
382.481813
576.665998
853.703022
1014.512777
1015.820503
1015.820503
992.458463
806.897879
528.975725
346.328020
163.849592
83.226562
28.590560
11.873841
7.026792
6.525517
7.466674
9.855628
16.332865
23.570657
36.782622
50.665736
67.682862
79.083443
86.597800
87.889433
81.309676
70.826411
54.618716
41.620731
27.320981
19.459724
12.288690
8.447766
5.556941
4.577637
3.802776
3.659725
3.465414
3.426671
3.440976
2.910495
3.096461
3.312826
3.245473
##ZVALUE=335
0.672936
0.721812
0.827909
0.851750
0.735521
0.779629
0.724792
0.719428
0.738502
0.820756
0.977516
0.678897
0.731945
0.908971
0.805855
0.746846
0.914931
0.838637
0.741482
0.724792
0.808835
0.829697
0.814795
0.924468
0.928640
0.932813
0.938773
0.903606
1.002550
0.882745
0.892878
0.918508
1.046658
1.034737
1.209974
1.059771
1.183748
1.090765
1.080632
1.095533
1.203418
1.100898
1.350641
1.379848
1.631975
1.760721
1.672506
1.700521
2.142787
4.428625
15.047789
57.971478
125.399828
286.527872
469.400883
753.203034
952.636003
1015.819907
1015.819907
1015.819907
900.040865
620.464683
423.809886
228.951573
121.125579
42.281747
16.695857
7.367730
6.487966
6.382465
6.955862
9.840727
13.958812
23.827553
33.677816
49.319863
61.251521
74.114799
80.948472
82.302690
76.665878
64.902902
53.541660
39.291978
28.851628
18.308759
12.928843
8.274913
5.700588
4.352927
3.864765
3.637671
3.431439
3.097653
3.341436
3.004670
##ZVALUE=340
0.617504
0.753999
0.762939
0.806451
0.806451
0.749826
0.843406
0.892878
0.883937
0.797510
0.847578
0.895858
0.751615
0.814795
0.786781
0.701547
0.841618
0.740886
0.733733
0.795722
0.764728
0.800490
0.946522
0.910759
0.944734
0.786781
0.882745
0.933409
0.864863
1.039505
0.867844
0.826716
0.953674
0.909567
1.130700
1.056790
1.136661
0.964999
0.936985
1.113415
1.041889
1.197457
1.171827
1.178980
1.228452
1.449585
1.496673
1.624823
1.741648
1.751781
1.869798
2.501607
7.280707
34.642816
87.126493
219.784975
379.296541
644.448996
838.842988
1015.820503
1015.820503
1015.820503
966.476798
726.794004
518.419743
272.069573
151.830912
61.516762
24.273992
8.180737
6.539822
6.279945
6.003976
7.029772
8.859634
14.477968
20.728707
33.073425
45.017600
60.203671
69.293976
76.727867
76.998472
71.855783
64.248443
51.104426
40.085912
27.754903
19.604564
11.991858
8.458495
5.327463
4.126430
3.470778
3.382564
3.118515
##ZVALUE=345
0.751615
0.706911
0.625849
0.639558
0.679493
0.800490
0.757575
0.740886
0.942945
0.821948
0.764728
0.711679
0.738502
0.670552
0.761747
0.786781
0.721812
0.598431
0.635982
0.629425
0.761747
0.805855
0.908971
0.762939
0.830889
0.820756
0.796914
0.829697
0.907779
0.948906
0.871420
0.944734
0.918508
1.021624
0.892878
0.939965
1.062751
1.007915
0.946522
1.061559
0.991821
1.168847
1.193881
1.195669
1.249909
1.221895
1.231432
1.342893
1.483560
1.593828
1.501441
1.683831
1.650453
2.051592
3.827810
19.724965
53.969622
148.425698
269.426703
501.807928
704.790950
950.152874
1015.819907
1015.819907
1015.819907
816.747546
609.206557
352.587700
203.626752
84.715486
36.907792
11.947751
7.028580
6.125569
5.662441
5.692840
6.358624
8.016825
11.860728
19.735694
28.141737
42.358637
52.509904
63.398480
68.676472
70.813894
67.988634
58.697462
50.217509
38.180947
29.120445
17.990470
12.566447
7.914901
5.560517
4.198551
##ZVALUE=350
0.624657
0.740886
0.772476
0.732541
0.666976
0.728965
0.742674
0.748634
0.837445
0.938773
0.853539
0.791550
0.724792
0.656843
0.796914
0.790954
0.794530
0.738502
0.712872
0.653863
0.718832
0.858903
0.833869
0.841618
0.780821
0.975728
0.896454
0.959635
0.880957
0.849962
0.897646
0.914931
0.948906
0.848770
0.939965
0.922680
1.005530
0.936985
0.888705
0.898838
0.947714
1.005530
1.025796
1.038909
1.168847
1.179576
1.294613
1.240969
1.180768
1.215935
1.361966
1.453757
1.414418
1.571774
1.691580
1.779795
2.543926
7.901788
33.943653
81.829429
206.617713
353.038907
597.571731
793.048739
1006.015539
1015.819907
1015.819907
919.796824
657.233596
448.669791
228.974819
126.095414
48.679709
18.746853
7.176995
5.799532
5.315542
4.957914
4.960895
5.503893
8.895993
15.659928
17.538667
33.642650
36.959648
46.025515
56.899786
62.780976
64.704418
62.012672
47.872663
46.824813
36.693811
25.478601
18.472672
9.995699
##ZVALUE=355
0.671744
0.738502
0.755787
0.764728
0.780821
0.632405
0.771880
0.763535
0.659823
0.807643
0.728965
0.680685
0.948906
0.937581
0.847578
0.914931
0.643730
0.922680
0.912547
0.929832
0.841618
0.862479
0.695586
0.899434
0.913739
0.843406
0.987649
0.970960
0.782609
0.874996
0.874996
0.868440
0.894666
0.836849
0.767708
0.967979
0.863671
0.832677
0.855923
1.003742
1.052618
0.943542
0.969768
1.154542
1.098514
1.068711
1.129508
1.220703
1.066923
1.252890
1.146793
1.296997
1.183748
1.418591
1.411438
1.516938
1.644492
1.843572
2.066493
4.561543
16.493797
65.095425
134.662986
288.819671
457.885861
726.507902
911.662579
1015.819907
1015.819907
940.644741
767.232776
515.401959
332.155824
148.369670
70.852637
22.028685
8.978844
5.627871
4.972816
4.698634
4.629493
4.635453
5.249977
6.804466
9.498596
15.403628
21.246672
30.443668
39.187670
49.930811
56.452751
58.300495
57.998896
52.366853
45.039654
35.037994
##ZVALUE=360
0.632405
0.771880
0.794530
0.689626
0.722408
0.879765
0.651479
0.790954
0.819564
0.729561
0.810623
0.772476
0.918508
0.850558
0.788569
0.820756
0.758767
0.794530
0.658631
0.712872
0.836849
0.830889
0.901818
0.702739
0.834465
0.860691
0.871420
0.822544
0.954866
0.814795
0.879765
0.918508
0.725985
0.794530
0.886917
0.800490
0.847578
1.043677
1.048446
0.946522
0.938773
0.961423
0.947714
1.003742
1.101494
1.016855
1.141429
1.096725
1.113415
1.298785
1.311898
1.179576
1.321435
1.350641
1.140833
1.384616
1.301765
1.539588
1.661777
1.932979
2.127886
2.798438
7.409453
32.623410
80.367923
208.070874
349.850655
585.783720
784.570575
992.876887
1015.828848
997.779965
861.393809
601.272583
405.535698
201.762915
105.237961
37.620664
14.856458
6.041527
5.203485
4.944801
4.653931
4.431605
4.307628
4.638433
5.566478
7.984638
11.320710
17.596483
24.745464
34.892559
41.668415
49.151778
52.539706
53.389668
##ZVALUE=365
0.748634
0.648499
0.746846
0.848770
0.731945
0.623465
0.681877
0.715852
0.762939
0.842810
0.771880
0.803471
0.765920
0.898838
0.739694
0.716448
0.726581
0.716448
0.753999
0.602603
0.714660
0.958443
0.913739
0.808835
0.652671
0.896454
0.792742
0.943542
0.742674
0.986457
0.823736
0.914931
0.926852
0.814795
0.794530
0.970960
0.817776
0.854731
0.893474
0.994802
0.970960
0.994802
0.979900
1.045465
1.049638
1.088977
0.991821
1.059771
1.057982
0.893474
1.208782
1.226664
1.383424
1.325607
1.392961
1.112819
1.253486
1.384616
1.517534
1.397729
1.687407
1.775622
1.970530
2.131462
3.401637
17.083883
48.861504
142.458677
261.643529
479.260683
671.731830
899.599791
1006.923914
1011.534929
907.902718
681.414008
490.942597
274.533629
152.688622
56.581497
22.589564
7.097721
5.237460
4.826784
4.490614
4.095435
3.911853
3.843904
3.896952
4.763603
6.279945
10.193586
14.182925
21.443963
27.831793
37.109852
##ZVALUE=370
0.804663
0.711679
0.565648
0.678897
0.546575
0.661612
0.771880
0.658631
0.689626
0.808835
0.727773
0.785589
0.620484
0.770688
0.731945
0.858903
0.716448
0.726581
0.756979
0.794530
0.776649
0.727773
0.740886
0.724792
0.776649
0.775456
0.785589
0.769496
0.760555
0.952482
0.944734
0.891685
0.880957
0.813603
0.755787
0.880957
0.936985
0.994802
0.884533
0.925660
0.819564
1.068711
0.970960
0.845790
0.907779
0.798702
0.923872
0.968575
0.952482
1.016855
1.073480
1.031756
1.043677
1.042485
1.107454
1.066923
1.248717
1.255870
1.281500
1.356602
1.316667
1.435876
1.395941
1.678467
1.670718
1.883507
2.445579
9.885430
31.511784
99.495649
196.617842
387.432575
574.891567
832.547545
969.440937
1015.819907
963.935852
774.122477
583.586693
338.968635
195.445418
77.768564
35.097599
10.230541
5.562901
4.505515
4.196763
4.087687
3.721714
3.680587
3.426671
3.603697
4.054904
5.562901
7.753968
12.348890
##ZVALUE=375
0.660419
0.616908
0.690818
0.743866
0.785589
0.698566
0.793934
0.684857
0.675917
0.700951
0.747442
0.905991
0.762939
0.767708
0.796914
0.737906
0.778437
0.640750
0.795722
0.697970
0.692606
0.732541
0.789762
0.735521
0.778437
0.821948
0.950694
0.886917
0.853539
0.829697
1.032948
0.874996
0.855923
0.945926
0.761747
0.951886
0.887513
0.875592
0.872612
0.910759
0.949502
1.022816
0.992417
0.876784
0.937581
0.780821
0.905991
0.883937
0.909567
1.047850
1.038909
0.935793
0.983477
1.069903
1.095533
0.956655
0.982881
1.126528
1.144409
1.203418
1.219511
1.316667
1.282692
1.286864
1.265407
1.418591
1.531839
1.771450
1.943707
5.162954
16.274452
60.504675
133.385658
303.786993
482.493639
742.059946
908.511877
1015.820503
1013.229489
863.529444
682.413578
423.271656
270.408988
135.094523
67.524910
20.671487
8.036494
4.595518
3.952980
3.923774
3.725886
3.619790
3.320575
3.237724
3.027916
3.703833
##ZVALUE=380
0.812411
0.722408
0.696778
0.648499
0.706911
0.734925
0.701547
0.603795
0.643730
0.800490
0.880957
0.774860
0.691414
0.696778
0.642538
0.778437
0.738502
0.764728
0.640750
0.541806
0.835657
0.909567
0.803471
0.756979
0.824928
0.722408
0.884533
0.833869
0.895858
0.842810
0.974536
0.838637
0.934601
1.003742
1.170635
0.965595
1.143813
1.080632
0.978708
1.036525
1.048446
0.941753
0.996590
1.041889
1.155734
0.978708
1.108646
0.956655
1.037717
1.158714
1.092553
0.872612
0.987649
1.011491
0.917912
0.893474
0.955462
1.158714
1.086593
0.991821
1.107454
1.083612
1.095533
1.206994
1.187921
1.274943
1.226664
1.608729
1.549721
2.001524
2.135634
3.253818
9.047985
42.448640
101.418495
243.117809
401.492715
642.955899
828.669667
1004.050970
1015.819907
929.057002
774.613619
530.519485
358.835459
179.209709
93.668699
32.102466
12.590885
5.194545
4.133582
3.738999
3.722906
3.490448
3.102422
3.126860
##ZVALUE=385
0.667572
0.546575
0.730753
0.704527
0.757575
0.769496
0.647902
0.756979
0.604987
0.765920
0.608563
0.716448
0.717640
0.633597
0.617504
0.610948
0.695586
0.766516
0.676513
0.658631
0.733733
0.622869
0.886917
0.629425
0.762939
0.800490
0.913739
0.896454
1.040697
1.072884
1.229644
1.177788
1.307726
1.246929
1.317859
1.318455
1.336932
1.341701
1.300573
1.385808
1.383424
1.338720
1.274943
1.245737
1.423955
1.163483
1.199841
1.173615
1.146793
1.270771
1.282692
1.169443
1.012683
1.058578
1.155734
1.076460
1.228452
1.024604
1.028776
1.161695
1.129508
1.143813
1.034737
1.153946
1.095533
1.281500
1.271963
1.288652
1.258850
1.556873
1.654625
1.655817
1.873970
2.021790
5.225539
17.504692
67.715645
145.894885
322.665572
506.281853
765.582919
917.198658
1015.442610
1006.130576
864.685774
696.319938
451.317430
288.893580
133.462548
65.408945
21.263957
7.818937
4.065633
3.812909
3.663898
3.477931
##ZVALUE=390
0.643730
0.677705
0.544786
0.793934
0.793934
0.723600
0.762939
0.777841
0.647902
0.704527
0.738502
0.917912
0.832677
0.609756
0.610948
0.616908
0.804663
0.793934
0.564456
0.668764
0.789762
0.695586
0.760555
0.778437
0.855923
0.845790
0.814795
0.923872
1.306534
1.277924
1.359582
1.585484
1.505613
1.769662
1.780987
1.736879
1.743436
1.778603
1.725554
1.812577
1.853704
1.797676
1.807809
1.656413
1.402497
1.493692
1.577735
1.459718
1.484752
1.361966
1.156926
1.283884
1.271963
1.125932
1.213551
1.129508
1.078844
1.165867
1.183748
1.162887
1.301765
1.283884
1.187921
1.302958
1.108646
1.214743
1.318455
1.370907
1.424551
1.569986
1.578927
1.600981
1.807809
1.868606
1.658797
1.900792
2.792478
12.257695
37.418604
118.884444
230.467916
449.409485
639.261007
867.812634
990.247726
1015.823483
973.279476
780.786872
604.721904
373.755693
217.984915
90.147853
41.296482
12.265444
5.318522
3.676414
##ZVALUE=395
0.733733
0.826716
0.754595
0.630617
0.715852
0.679493
0.588894
0.645518
0.630617
0.716448
0.590682
0.482798
0.742674
0.655651
0.766516
0.753999
0.615716
0.930429
0.657439
0.621676
0.656843
0.891685
0.747442
0.715852
0.696778
0.723600
0.945926
1.264811
1.350641
1.407862
1.617670
1.724958
2.026558
1.999736
2.255440
2.087951
2.146959
2.076626
2.134442
2.130866
2.049804
2.024770
1.935959
1.915693
1.789927
1.824498
1.808405
1.561642
1.516938
1.513958
1.283884
1.488924
1.303554
1.335740
1.266599
1.251698
1.087785
1.308918
1.212955
1.265407
1.109838
1.176000
1.227856
1.103878
1.178980
1.257658
1.317859
1.286864
1.556873
1.517534
1.422763
1.458526
1.326799
1.289845
1.599789
1.710653
1.534820
1.935959
2.278686
6.793737
23.615956
84.565878
171.048641
350.942612
529.266596
781.544447
943.229795
1015.819907
1015.819907
911.780596
726.215839
457.991958
293.940902
137.677789
65.443516
20.728707
##ZVALUE=400
0.885725
0.725985
0.915527
0.838637
0.634789
0.627637
0.690818
0.603795
0.671744
0.618696
0.509620
0.533462
0.804663
0.710487
0.554919
0.552535
0.971556
0.773668
0.581741
0.517964
0.709891
0.762939
0.693798
0.631809
0.727773
0.889897
1.041889
0.986457
1.344681
1.433492
1.646876
1.742840
1.976490
2.236962
2.249479
2.230406
2.237558
2.254844
2.164841
2.170801
2.160668
1.989603
1.923442
1.965761
1.834631
1.713634
1.641512
1.625419
1.545548
1.588464
1.574755
1.384616
1.464486
1.400709
1.284480
1.250505
1.147985
1.263618
1.171827
1.205802
1.136661
1.216531
1.269579
1.170635
1.246929
1.023412
0.987649
1.335740
1.350641
1.385808
1.371503
1.473427
1.560450
1.709461
1.533628
1.499653
1.383424
1.427531
1.509786
1.625419
1.823902
3.874898
12.970567
48.529506
107.562542
250.059962
409.624577
656.479001
836.312771
997.948647
1015.819907
939.554572
786.207914
532.256961
355.168581
181.435943
##END
