##TITLE=35FILTER
##FORMAT=SPECTACLE-ASCII V-1.2
##DATA TYPE=ULTRAVIOLET SPECTRUM
##SECOND TYPE=ULTRAVIOLET SPECTRUM
##DATE=12/18/17
##TIME=12:42:43
##SPECTROMETER/DATA SYSTEM=SPECTACLE
##XUNITS=NM EM
##YUNITS=ENERGY
##YFACTOR=1
##FIRSTX=220
##LASTX=410
##NPOINTS=96
##3DDATA=Equidistant
##ZUNITS=NM EX
##FIRSTZ=210
##LASTZ=400
##ZPOINTS=39
##XYDATA=(Y..Y)
##ZVALUE=210
30.220747
28.445721
19.970536
15.940666
13.514757
11.386871
10.294914
10.256767
7.867813
6.852746
6.127954
6.871819
5.979538
5.588531
5.795956
6.239414
6.205440
6.876588
6.877780
6.667972
7.750988
8.675456
10.616779
11.060834
12.332797
15.362501
17.541647
22.316575
26.358962
28.049946
34.884810
36.200881
40.755868
44.380426
46.675801
47.910810
48.413873
49.687624
47.536492
45.816898
46.942830
46.774745
40.767789
40.317774
39.228797
37.343502
39.621592
36.478639
35.089850
37.750602
34.317970
34.163594
32.760501
32.587647
32.170415
31.961799
31.840801
30.537844
30.447841
31.611919
29.942989
31.429529
29.536486
28.904676
29.708743
30.819774
31.170845
32.797456
34.708977
38.301945
47.058463
52.771568
63.450933
68.865418
79.433918
87.265968
99.709630
105.924606
108.382702
110.670924
104.673505
99.278688
88.041425
76.710582
62.556863
50.901771
39.860606
33.045411
29.110909
31.261444
39.557815
47.967434
65.604448
76.932907
96.569657
112.360716
##ZVALUE=215
129.765868
119.678974
95.252991
62.779784
45.602918
30.410886
23.846626
16.861558
16.877651
16.600490
15.537739
11.971593
10.502934
8.192658
7.767677
7.210970
6.640553
7.594824
7.696748
8.541942
8.640885
9.702444
11.128783
11.883974
14.882684
17.947555
19.774437
26.161671
30.627847
36.894679
41.571856
44.263601
50.819516
53.449869
57.963729
57.103634
57.237744
57.947636
58.487654
55.638552
56.954622
55.080652
52.869916
49.761534
49.048662
46.477914
47.338605
46.292543
43.556690
41.910410
41.164756
41.842461
38.496852
40.466785
39.218664
40.176511
38.021803
38.654804
37.460923
35.224557
36.272407
35.176873
34.903884
35.063624
36.104918
37.063956
35.745502
37.485957
41.334629
46.347976
53.467751
62.573552
72.183609
81.715584
91.301799
94.032884
98.250508
106.335878
108.466744
99.483728
95.995665
93.630552
85.331798
71.499944
60.212612
47.946572
38.532615
34.648776
26.602745
26.260614
25.347471
25.913715
24.248958
28.961897
32.772422
44.853687
##ZVALUE=220
296.380520
290.682912
284.923911
249.335766
200.469494
141.983628
97.749829
53.066611
38.048625
29.379725
28.565526
27.488470
24.801493
22.214651
19.392967
14.765859
12.120605
10.132790
9.452701
8.574724
9.152889
10.190606
11.487603
13.202429
15.020967
18.248558
21.562576
28.437972
32.138824
38.696527
42.775869
51.051974
54.235458
60.223937
62.111616
61.492920
63.001513
63.210726
65.619946
64.684749
61.396956
61.234832
59.987903
56.629777
55.232644
52.727461
49.953461
46.378970
46.337843
43.234825
42.158961
40.182471
39.108992
38.990974
38.624406
35.729408
33.188462
33.686757
32.509565
32.396913
31.828880
32.655001
31.777620
30.305982
32.246709
30.259490
31.268597
32.769442
32.153726
37.589669
43.123960
45.799613
56.718588
59.075952
66.075921
72.418451
75.366497
75.192451
77.446699
76.799989
77.170730
71.082711
65.945983
58.804750
48.795938
38.067698
31.026602
28.901696
22.176504
21.414757
19.347668
19.750595
20.311475
19.296408
17.744899
18.870831
##ZVALUE=225
275.288820
286.906958
337.949991
385.339856
375.081897
344.626904
280.855894
197.379589
132.882595
94.933510
58.265924
44.051409
40.500760
41.606426
34.904480
36.384463
27.655959
23.952723
17.356873
13.440847
10.663867
9.561777
9.606481
9.683967
11.541843
14.435649
17.612576
22.481680
27.021766
32.738447
38.793683
44.928789
48.203468
54.386854
57.911873
58.151484
58.373809
62.292814
59.117675
58.399439
55.758953
57.044625
53.355694
49.477816
47.221780
46.508908
42.258501
42.522550
42.251945
38.104653
39.251447
35.782456
35.127997
33.468604
30.318499
31.423569
30.437708
29.823780
27.927756
26.255846
24.852753
27.476549
27.544498
24.039745
24.808645
24.298429
23.668408
25.214553
25.041699
25.205612
28.927922
31.439662
34.411550
37.229657
39.901733
42.063594
41.812658
39.973855
40.038824
37.799478
34.802556
33.646822
30.806661
29.425621
24.719834
23.069978
21.264553
19.969940
18.210411
16.110539
15.980601
15.148520
14.967918
15.549660
15.636683
14.356971
##ZVALUE=230
206.632614
227.558613
353.944898
550.192595
683.804750
792.964697
831.514597
762.026906
653.553605
468.491912
337.188840
208.795667
115.418434
80.706477
67.278743
63.807964
67.172647
62.365532
51.325560
46.259761
34.378767
24.919510
19.073486
15.641451
14.963746
15.337467
17.191768
21.070838
24.867654
26.641488
30.937791
33.103824
35.958886
42.964816
44.724941
46.481490
47.092438
49.887896
46.501756
50.892830
48.297644
48.532486
45.564771
44.466853
46.891570
42.408705
44.441819
41.767955
41.306615
38.518906
36.901832
38.105845
36.987662
35.821795
35.904646
34.564734
34.010410
32.631755
32.373667
35.768747
32.869577
32.264590
31.847954
32.698512
31.935573
32.397509
32.832623
35.648942
37.630796
42.908788
45.049787
51.136613
56.463480
66.438913
73.713660
81.299543
81.539750
78.886747
81.738830
75.621605
75.382590
69.423914
58.821440
50.913692
43.070912
36.728978
33.925772
29.438734
28.263927
23.449659
26.706457
23.208857
25.421977
24.356842
23.322701
22.486448
##ZVALUE=235
53.464770
62.745810
128.803849
299.884677
490.912795
769.922733
986.702442
1015.819907
1015.819907
1015.819907
1015.819907
912.237763
591.934919
398.826599
227.402449
140.322447
95.041990
94.848871
96.229911
95.989704
92.157722
74.006915
62.635541
45.002699
35.132766
24.436712
21.050572
20.583868
20.104647
21.833777
25.796890
26.780963
26.728511
29.727817
31.493902
34.327507
34.389496
34.161806
36.804676
34.893751
36.384463
35.349727
36.588907
37.072897
37.634969
34.015775
32.759905
34.191608
35.548806
35.448670
34.092665
31.320453
32.838583
33.094883
29.856563
30.511618
29.165745
30.581951
30.112863
30.268431
29.630661
29.519796
27.545691
29.150844
28.307438
27.764440
28.654933
29.569864
31.092763
33.395886
37.084818
41.520596
44.635534
48.990846
55.101514
54.989457
57.515502
54.945946
54.274797
51.001906
46.210885
43.579936
39.776564
34.004450
31.159520
24.735928
24.795532
22.398829
20.611882
18.549562
18.383861
18.582940
18.032789
17.519593
18.213987
17.191768
##ZVALUE=240
3.587604
3.664494
9.578466
34.266710
73.829889
170.723796
282.624960
501.912832
682.036877
910.353661
995.977521
1005.647779
929.697752
730.548501
553.473830
392.225981
229.883790
149.744749
111.095905
110.764503
113.853812
119.294524
119.112730
104.936957
86.487532
66.762567
50.833821
35.402775
26.472807
20.062923
17.175674
15.729666
15.803576
16.538501
17.718673
18.804669
18.858910
21.097660
19.462705
19.446611
20.698905
20.840764
21.874905
19.528866
19.094944
20.668507
19.908547
17.754436
18.818974
19.728541
17.645955
17.380714
18.477440
16.118884
16.864538
17.607808
18.094778
17.427802
16.347766
15.396476
15.781522
15.941858
15.888810
16.896725
16.220808
14.901757
16.723871
15.440583
14.282465
16.391873
16.045570
20.017624
19.640923
20.892620
19.691586
21.800995
21.202564
20.787716
18.903613
18.386841
18.655658
16.026497
16.850829
14.076829
13.987422
13.439655
12.810826
11.820793
11.233687
11.355877
11.686683
12.210608
11.862516
11.955500
11.538863
10.921955
##ZVALUE=245
2.103448
2.221465
2.063513
2.565980
5.373955
13.482571
42.330623
83.586574
187.879801
289.330482
448.340774
558.210611
642.630458
680.472851
640.518665
526.350737
419.265628
286.045671
195.584893
121.761560
98.282695
97.923875
114.055872
124.289989
130.237937
126.250982
114.826560
97.873807
73.656440
58.041811
42.337775
28.892756
21.324754
17.164946
16.647577
15.994906
16.927719
18.158555
17.793775
18.040538
17.191768
18.988848
18.796921
17.035604
16.461611
15.813708
17.218590
16.658902
16.184449
15.471578
15.771985
14.838576
15.429854
14.903545
15.930533
15.319586
15.227795
14.928579
14.103651
14.127493
14.173985
13.412833
12.474656
13.216734
12.845993
12.580752
12.049675
12.217760
13.008714
12.611747
12.532473
13.119578
13.690591
13.857484
13.211966
13.119578
13.960600
12.527704
12.606978
11.232495
12.129545
11.416674
10.182858
9.769797
10.775924
9.336472
10.068417
8.637905
8.677840
9.574890
8.220673
9.304881
8.891821
8.133650
8.103848
8.169413
##ZVALUE=250
1.768470
1.657605
1.843572
1.833439
2.346635
2.090931
3.586411
8.481741
30.084848
66.614747
155.890584
255.366564
367.171764
521.377921
618.083477
677.838922
677.200556
596.844554
500.420928
333.720446
232.995749
153.734684
105.753541
96.079707
105.838776
122.259855
136.837959
143.794417
139.086843
128.454566
114.793777
88.913441
68.178773
47.841668
37.570000
28.560758
23.792982
22.748709
22.784472
21.686554
22.255778
22.820830
21.680593
21.438599
20.735860
19.583702
20.278692
20.542741
19.296408
18.545985
17.331839
16.172528
17.289519
16.340613
15.382767
16.812682
15.341640
15.039444
14.416575
14.969707
14.118552
13.072491
13.175607
12.677908
12.277961
12.885928
12.001991
12.019873
11.818409
11.281967
12.075901
12.168884
12.801886
12.652874
12.166500
12.427568
12.195706
11.589527
11.825562
10.070801
10.031462
9.053946
9.830594
8.409619
7.843971
8.097887
7.249713
8.297563
7.927418
7.381439
7.723570
7.644892
7.307529
7.253885
7.008910
6.969571
##ZVALUE=255
1.731515
1.664758
1.691580
1.833439
1.700521
1.998544
2.080798
2.036691
2.321601
4.807711
21.527410
51.340461
102.284551
212.364793
332.734585
500.964522
631.763935
734.737515
768.013000
708.184838
606.411695
478.700995
300.877690
196.501613
115.026832
92.063546
93.503594
107.600689
133.609772
149.357915
156.232715
157.675743
144.095421
122.689605
101.282597
77.193975
62.943697
44.845939
38.707852
33.607483
29.309988
29.371977
28.521419
28.835535
26.630759
26.318431
25.189519
23.912787
23.373961
22.365451
21.180511
21.529794
19.442439
19.963980
19.552708
18.019676
17.338991
15.905499
16.251802
14.713407
15.719533
14.830828
14.820695
13.244748
13.603568
12.954473
12.190938
12.243986
11.804700
11.542439
11.659861
12.207627
11.606812
11.927485
11.410713
10.786653
11.012554
10.110736
9.710789
8.850694
8.798838
8.454919
7.715821
7.985830
8.064508
7.508993
7.280707
7.380843
6.758571
6.924868
6.494522
6.461740
6.464720
6.552935
6.443858
7.038713
##ZVALUE=260
1.604557
1.536608
1.542568
1.738667
1.534820
1.659989
1.604557
1.708865
1.720786
2.249479
1.706481
2.735853
7.750988
32.807589
70.968866
170.377493
271.732807
450.764894
591.803789
759.868026
834.088922
838.657022
730.729699
594.727993
402.064919
271.697640
164.841413
108.948946
88.405609
96.429586
119.160414
146.420002
164.978504
177.879930
176.589489
159.804821
144.015551
114.229918
93.521476
70.291758
56.197643
44.850707
41.594505
37.041903
35.660863
32.551885
32.581687
30.433536
29.027462
28.644800
25.442839
26.209950
24.385452
23.161769
21.859407
20.561814
20.447969
18.123984
17.778873
17.952919
16.630888
15.726686
15.357733
14.158487
14.803410
13.490915
13.114810
11.783838
12.310743
11.933446
12.106895
12.167692
11.543632
11.630654
10.750890
10.778904
10.163784
9.336472
9.983778
8.590817
7.786751
8.569956
8.279681
7.360578
7.354617
6.597638
6.691813
6.533861
6.351471
6.018877
5.894899
6.159544
5.709529
5.510449
5.663633
5.753636
##ZVALUE=265
1.580715
1.451969
1.479983
1.688600
1.430511
1.743436
1.405478
1.442432
1.881719
1.655817
1.683831
1.382828
1.512766
2.324581
4.255772
21.432638
53.435564
127.730966
225.282907
412.078500
578.373671
732.199550
879.302621
903.945565
821.513534
702.670813
526.836514
372.071862
216.675997
146.795511
107.656717
94.186664
110.026002
142.485499
168.629885
188.179612
194.360614
189.737678
174.518824
149.009824
124.633908
96.771717
76.430440
60.291886
50.048828
42.269826
38.736463
35.723448
34.324527
31.835437
30.462742
29.078722
27.882457
25.435686
23.725629
22.235513
21.502972
20.914674
18.621683
17.875433
17.731786
16.836524
15.709996
15.296936
14.638901
13.642907
12.819767
12.364984
12.263656
12.034774
11.195540
11.386871
11.853576
10.826588
10.967851
9.968877
9.664893
8.902550
9.827614
8.754730
7.832646
7.672906
7.420778
7.212758
6.481409
6.159544
6.328821
6.462932
5.725622
5.870461
5.794764
5.733967
5.618930
5.016923
5.581975
5.562901
##ZVALUE=270
1.221895
1.395941
1.273751
1.343489
1.459718
1.391768
1.549721
1.238585
1.518726
1.526475
1.719594
1.589656
1.662970
1.894832
1.760721
1.940727
2.534986
10.369420
28.831959
92.641711
180.380940
315.650702
539.158583
717.720985
903.984904
973.509550
953.974724
857.946873
675.715804
508.494973
354.291797
204.799771
131.774545
94.779730
98.573565
122.020841
148.029923
175.735950
192.192793
200.259686
195.352435
175.593495
155.200958
122.477412
98.165870
70.899725
57.472587
47.467947
39.746761
33.897758
32.062531
30.225515
28.338432
25.445819
24.906993
23.149848
22.523999
19.898415
19.134879
17.876625
17.313957
15.997887
15.605688
14.740825
13.524890
12.506843
12.408495
12.145638
12.003779
11.377931
11.400580
10.728836
10.921955
10.016561
10.157824
9.592772
9.869933
9.225607
8.780956
8.126497
8.215904
7.423759
7.108450
7.319450
6.712675
6.597638
6.650686
6.025434
6.081462
5.886555
5.551577
5.794764
5.541444
5.188584
4.965663
5.223751
##ZVALUE=275
1.221895
1.165867
1.335740
1.285672
1.243949
1.414418
1.362562
1.389980
1.332760
1.305938
1.347661
1.612902
1.432896
1.344681
1.717806
1.776814
1.538992
1.615882
2.111793
5.148649
17.831922
51.253438
143.201947
263.852477
478.317738
644.199848
833.847523
956.040621
997.345448
951.179862
838.466883
624.998808
451.324582
253.098607
161.353946
97.499490
81.794858
95.637441
115.690827
146.482587
167.366862
182.519555
189.764500
180.512667
164.289474
135.188699
114.562511
87.910891
67.319870
47.725439
38.197637
30.937791
26.309490
24.061799
22.318959
21.386743
19.730926
18.882751
18.066764
16.299486
16.425848
14.640689
14.478564
13.032556
12.702942
12.548566
12.179613
11.350513
11.314750
10.861754
11.105537
10.461807
10.177493
10.250807
9.864569
9.886622
8.940697
8.832812
8.863807
7.796884
7.428527
7.212758
7.225871
6.530881
6.593466
6.083846
6.329417
5.917549
5.830526
5.568862
5.521774
5.122423
5.480647
5.295873
5.036592
5.021691
##ZVALUE=280
1.189709
1.055598
1.140833
1.046658
1.047850
1.115799
1.199841
1.319647
1.231432
1.355410
1.418591
1.324415
1.540780
1.295805
1.421571
1.366735
1.688600
1.707673
1.761913
2.007484
1.922846
2.445579
11.168718
36.442876
111.472607
204.195976
371.553898
541.545749
769.957900
911.895633
1007.144451
994.997025
898.970962
686.718822
510.055423
298.595428
186.636448
96.955895
66.710711
64.760447
76.591969
104.380846
126.601458
152.806640
164.567828
172.250867
166.278481
146.524906
126.221776
96.526742
74.567795
51.282644
38.715601
26.840568
21.213889
17.230511
16.483665
14.765859
14.129877
14.175773
13.885498
13.339520
12.401938
12.022853
11.931658
11.433959
10.733604
10.949969
10.272861
10.157824
9.713769
9.757876
9.704828
9.563565
9.587407
8.929968
8.789897
8.028746
8.243918
7.634759
7.364750
6.810427
6.513000
7.142425
6.330609
5.981922
5.905628
5.993843
5.787611
5.350709
5.792975
5.623698
4.930496
5.074739
4.963875
5.134940
##ZVALUE=285
0.966787
0.997782
1.094937
1.080632
1.202822
1.142621
0.919700
1.046658
1.332760
1.199841
1.259446
1.260638
1.121759
1.300573
1.268983
1.355410
1.328588
1.484752
1.369715
1.478791
1.394749
1.717806
2.053976
2.219677
5.791783
19.377470
61.985850
129.354596
276.541710
427.071452
650.903583
820.122957
947.902799
1013.566852
963.791013
785.617828
616.627932
387.755632
243.669748
121.275783
69.047809
42.449832
44.969916
63.875914
84.175467
113.430619
131.490827
146.998763
153.586864
147.072673
137.029886
112.065673
92.765689
66.198707
47.119856
29.575825
21.116734
15.104413
12.638569
11.422634
11.170506
10.940433
10.758638
10.237694
9.672642
9.756684
10.028481
9.851456
9.451509
9.483695
9.020567
9.570718
9.179711
9.047985
8.611679
8.445978
8.268952
8.162856
8.283854
7.574558
7.238984
7.237792
6.872416
6.607771
6.621480
6.101727
6.351471
6.079674
5.767941
5.483627
5.714893
5.574822
5.188584
5.185604
5.037785
4.954934
##ZVALUE=290
0.936985
1.026988
1.034737
1.092553
1.027584
0.925660
1.082420
1.154542
1.115799
1.146793
1.377463
1.095533
1.360774
1.057982
1.226664
1.333952
1.298785
1.203418
1.437664
1.368523
1.576543
1.704693
1.413822
1.796484
1.953840
1.936555
2.438426
10.838509
30.024648
91.906786
174.108744
353.093743
524.353981
764.183998
915.294886
1015.819907
1010.117531
868.527889
703.873634
476.268530
314.682722
161.044598
86.439848
38.403869
27.795434
37.426949
51.620603
75.748563
96.425414
120.323896
135.706663
144.568682
143.284798
127.968788
109.457970
82.498789
62.303543
40.845871
28.711557
18.174648
13.166666
10.546446
9.423494
9.061694
8.817911
8.421540
8.508563
8.277893
8.419752
8.407831
8.403659
8.970499
8.148551
8.513927
8.314848
8.059740
7.645488
7.258654
7.342696
7.042885
6.777644
6.810427
6.438494
6.202459
5.966425
6.239414
5.875826
5.769730
5.744696
5.416870
5.302429
5.236864
5.282760
5.219579
4.762411
4.710555
##ZVALUE=295
1.132488
1.077652
1.089573
0.918508
1.101494
1.183748
1.088977
1.165867
1.257658
1.262426
1.264811
1.406670
1.111627
1.184940
1.240969
1.220703
1.332760
1.336932
1.373887
1.529455
1.410842
1.486540
1.631975
1.700521
1.736879
1.755953
1.955628
2.186894
2.225637
3.968477
18.061399
49.678683
114.628673
263.306499
421.423912
666.221976
835.000873
998.665690
1015.985012
950.555801
811.839700
577.040911
397.441983
208.661556
115.703940
46.646595
25.129914
22.675991
31.058788
48.055649
66.398978
92.309713
111.166835
129.525661
137.712955
133.506656
122.152567
100.766420
82.374811
57.437420
41.066408
25.397539
17.921925
11.721849
9.678602
8.132458
7.582903
7.469654
7.930994
7.617474
7.833838
7.540584
8.024573
8.004904
7.974505
7.878542
7.167459
7.074475
6.699562
6.966591
6.682873
6.247759
6.540418
6.527901
6.048679
6.118417
5.932450
6.059408
5.724430
5.608797
5.543828
5.310774
5.207658
5.124807
5.154610
5.055666
##ZVALUE=300
1.041889
1.016855
0.960827
1.082420
1.032948
0.841618
1.109838
0.919700
0.919700
1.034737
0.919700
1.114607
0.887513
0.945926
1.071692
0.919700
1.057982
1.253486
1.102686
1.209974
0.978708
1.200438
1.319647
1.288652
1.480579
1.444817
1.539588
1.481771
1.643896
1.811981
1.981854
2.249479
5.952716
30.936599
74.851513
188.033581
320.903659
552.852750
733.183026
934.135914
1014.844775
1004.339457
903.411508
687.695742
500.409007
276.851654
164.512992
74.333549
35.932660
17.628670
18.292665
28.226972
40.140748
61.555505
81.096888
106.143951
120.862722
130.166411
129.606724
117.416978
100.517869
76.571703
57.932734
38.518906
27.170777
15.685558
11.024475
7.939935
7.100701
6.875992
6.990433
6.700754
6.812811
6.823540
6.756783
6.840825
6.591678
6.066561
5.998611
6.356835
5.985498
5.960464
5.902648
5.908608
5.940795
5.650520
5.341768
5.601645
5.251765
5.475879
5.171895
5.089641
5.199909
4.926920
4.842877
4.646778
##ZVALUE=305
0.929832
0.793934
0.723600
0.712872
0.949502
0.899434
0.789762
1.072884
1.057982
1.007915
0.856519
0.896454
0.927448
1.096725
0.919700
1.060963
1.053810
0.935793
1.049638
0.973940
1.091957
1.196861
1.196861
1.110435
1.122952
1.280904
1.267791
1.241565
1.320839
1.445413
1.653433
1.635551
1.809597
2.036691
3.492832
18.302798
49.820542
140.306950
252.048969
455.197692
640.313029
861.361027
979.017615
1014.075875
946.570635
745.690465
578.275919
367.105007
229.058862
104.143620
51.824450
19.655824
13.725758
17.609596
25.118589
41.070580
56.697726
78.990459
97.560883
116.052628
124.173760
121.789575
111.943483
93.777776
76.538920
53.097606
38.653612
24.008751
16.538501
9.962916
8.119941
6.759763
6.706715
6.312728
6.449819
6.212592
5.891919
6.012917
5.802512
5.607605
5.684495
5.397797
5.619526
5.503893
5.599856
5.503893
5.322695
5.344748
5.447865
5.434752
5.140901
4.852414
5.159974
4.750490
4.764795
4.984736
##ZVALUE=310
0.886917
0.880957
0.736713
0.902414
0.692606
0.864863
0.882745
0.849962
0.930429
0.998974
0.795722
0.857711
0.906587
0.810623
0.740886
0.885725
1.012683
1.134872
0.887513
1.072884
0.986457
1.075864
1.113415
1.149774
1.014471
1.096725
1.199841
1.236796
1.349449
1.230836
1.231432
1.360774
1.529455
1.759529
1.821518
1.696944
2.283454
8.073449
25.803447
86.118579
168.173909
343.227983
515.030622
753.302574
911.150575
1014.979482
1005.977988
879.305005
721.167922
478.178859
316.991806
157.817006
84.292889
31.101704
14.779568
11.926889
14.745593
23.232698
33.522844
51.800609
68.334937
90.944767
104.574561
114.024878
115.101933
105.147958
92.651844
72.461963
56.119561
36.877990
25.749803
15.776753
11.072755
7.679462
6.616712
5.758405
5.522966
5.300641
5.299449
5.202889
5.631447
5.388856
5.401969
5.285740
5.153418
5.304813
5.409718
5.204678
5.067587
5.282760
5.340576
5.071759
4.879832
4.538894
4.577637
4.790425
##ZVALUE=315
0.772476
0.807643
0.805855
0.781417
0.826716
0.808835
0.950694
0.829697
0.887513
0.826716
0.930429
0.826716
0.664592
0.819564
0.927448
0.928640
1.077652
0.903606
0.867844
1.060963
1.042485
0.965595
1.085997
1.103878
1.085997
1.148582
1.140833
1.226664
1.263618
1.289845
1.222491
1.396537
1.256466
1.372695
1.485944
1.597404
1.717806
1.967549
2.116561
3.772974
13.400912
55.063963
117.891431
262.189507
424.660444
678.145885
839.003921
982.295871
1015.833616
939.583778
802.794695
574.685931
402.187705
213.409662
115.608573
42.749643
19.329786
10.269880
10.446906
14.359951
19.707680
33.233762
44.734478
64.715743
80.804825
98.990798
107.618570
109.362602
102.208853
85.393786
70.093870
50.559640
37.379861
22.269487
15.185475
9.357929
7.336736
5.944967
5.625486
5.302429
5.087852
5.034804
4.888773
4.975796
5.139709
4.905462
4.899502
5.095601
4.990697
4.984736
5.017519
4.748702
4.742742
4.819632
4.750490
4.510880
##ZVALUE=320
1.064539
1.071692
0.793934
0.958443
0.901818
0.950694
0.883937
0.873804
0.946522
1.027584
1.044869
1.022816
0.987649
1.113415
1.101494
1.139641
0.987649
1.137853
1.269579
1.248717
1.215935
1.118779
1.266599
1.283884
0.893474
1.157522
1.221895
1.218915
1.315475
1.124740
1.257658
1.424551
1.447797
1.464486
1.465678
1.611710
1.506805
1.605749
1.784563
1.882911
1.967549
2.636909
6.306767
30.277967
77.018738
194.918513
322.111845
533.511639
710.072517
915.462971
994.791985
984.601974
886.237025
677.541494
496.595502
274.980664
157.576799
67.358613
30.952692
11.339784
8.839965
9.344816
11.980534
18.566847
26.771426
43.175817
58.451891
77.691674
91.144443
102.489591
103.981495
95.547438
83.916783
64.238906
50.160885
32.708645
22.908449
13.778806
9.437799
6.791949
5.561709
5.161762
5.256534
4.868507
4.926920
4.935861
4.743934
4.729629
4.890561
4.790425
4.784465
4.877448
4.780889
4.556775
4.526973
4.620552
##ZVALUE=325
0.799894
0.802875
0.851750
0.590682
0.714660
0.877976
0.736713
0.716448
0.690818
0.873804
0.867844
0.829697
0.791550
0.811815
0.886917
0.949502
0.905991
0.846982
0.836849
0.926852
0.859499
1.022816
0.927448
0.976920
0.852942
0.885725
0.893474
0.967979
0.905991
1.167655
1.069903
1.203418
1.283884
1.221895
1.253486
1.223683
1.259446
1.341701
1.154542
1.403689
1.363754
1.629591
1.703501
1.916885
3.495812
19.075871
51.275492
138.643980
245.176554
441.426635
613.811016
828.765631
946.512818
985.776782
917.125940
722.885728
547.840595
332.148671
203.770995
90.398788
42.057633
14.085770
8.211732
7.438660
8.179545
11.222959
16.553998
27.351975
38.981438
57.201982
71.304440
87.039471
93.601942
94.313622
89.154840
74.745417
61.249733
43.567419
32.327771
19.866824
13.324618
8.345842
6.234646
5.278587
5.064607
4.617572
4.439950
4.458427
4.497766
4.430413
4.414916
4.488826
4.137754
4.263520
4.088879
4.221797
##ZVALUE=330
0.856519
0.718832
0.745654
0.669956
0.865459
0.664592
0.767708
0.764728
0.692606
0.780821
0.757575
0.806451
0.839829
0.813603
0.769496
0.830889
0.836849
0.732541
0.963807
0.902414
1.097918
0.808835
0.866652
0.853539
0.908971
0.860691
0.877976
0.814795
0.910759
1.062751
1.081824
1.036525
0.989437
1.180768
1.033545
1.063943
1.186728
1.201630
1.216531
1.223683
1.292825
1.408458
1.325607
1.480579
1.602769
1.718998
2.223849
9.015799
27.316809
88.496804
170.476437
341.789722
503.324866
731.654763
874.801874
965.470672
936.120749
781.330466
621.283650
407.776833
261.541605
121.172667
61.924458
21.938682
10.176897
6.843805
6.903410
7.867813
9.893775
16.464591
24.186969
38.150549
50.167441
68.383813
79.691410
87.246895
88.544488
82.646608
71.907640
55.500865
42.604804
27.876496
19.649863
13.124943
9.360909
6.218553
5.358458
4.492998
4.437566
4.510880
4.296899
4.258752
4.075766
4.023910
4.050732
4.195571
##ZVALUE=335
0.840425
0.809431
0.649691
0.714660
0.800490
0.777841
0.808835
0.730753
0.852942
0.723600
0.851750
0.815988
0.794530
0.658631
0.769496
0.646710
0.769496
0.839829
0.718832
0.822544
0.791550
0.992417
0.929832
0.872612
0.835657
0.843406
0.985861
0.975728
0.984669
0.962615
1.075864
1.004934
0.937581
1.109838
1.013875
0.896454
1.146793
1.164675
1.168847
1.148582
1.127720
1.274943
1.303554
1.242757
1.494884
1.561642
1.528859
1.480579
1.721978
4.279613
14.107823
55.210590
115.344524
254.443884
408.459902
644.366741
794.234872
919.813514
936.066508
834.452510
699.515939
482.582450
326.265693
168.019533
87.531805
30.562878
13.293624
7.035732
6.287694
6.638765
7.101893
10.074973
14.170408
24.030805
34.485459
51.163435
62.521696
75.017810
81.471801
83.170533
77.998638
64.455867
54.183602
39.883852
29.916763
19.129515
13.572574
8.577704
6.398559
5.243421
4.594922
4.357696
4.175901
3.868937
3.996491
3.885627
##ZVALUE=340
0.701547
0.750422
0.809431
0.874996
0.905991
0.702739
0.772476
0.705719
0.656843
0.819564
0.774860
0.627637
0.786781
0.740886
0.734925
0.824928
0.745654
0.784993
0.758767
0.927448
0.776649
0.922680
0.860691
0.821948
0.871420
0.904799
0.900626
0.776649
0.825524
0.889897
0.646710
1.047850
0.934601
0.913739
0.885725
0.840425
0.930429
1.070499
1.025796
0.915527
1.241565
1.046658
1.150966
1.353621
1.214743
1.177788
1.548529
1.317859
1.454949
1.522899
1.811981
2.266765
6.928444
32.887459
81.465840
199.809670
334.244967
541.625619
702.501535
867.835879
918.518901
865.180492
749.675035
554.296970
390.915871
203.631520
112.121701
45.521855
18.294454
7.354617
6.103516
5.811453
6.037951
7.091761
9.051561
14.733672
21.619797
33.314824
45.394897
60.708523
70.684552
77.824593
78.056455
72.047710
64.705610
51.839948
40.863752
28.228760
20.192862
12.902617
8.987784
6.049871
4.921556
4.219413
3.998876
3.874898
##ZVALUE=345
0.639558
0.707507
0.856519
0.774860
0.852942
0.734925
0.616908
0.781417
0.742674
0.740886
0.634789
0.680685
0.835657
0.712872
0.724792
0.736713
0.844598
0.858903
0.764728
0.760555
0.713468
0.832677
0.820756
0.944734
0.745654
0.846982
0.773668
0.751615
0.785589
0.995994
0.886917
0.835657
0.913739
0.836849
0.912547
0.837445
0.934601
0.985861
0.845790
0.953674
1.010895
0.975728
1.114607
1.035929
1.081824
1.071692
1.221895
1.197457
1.299977
1.463890
1.326799
1.461506
1.636744
1.796484
3.630519
18.401742
50.616860
133.299828
236.849785
429.676771
588.978529
783.443451
873.254538
882.748961
806.481838
620.161891
458.463430
270.285606
152.644515
60.194731
27.177930
10.075569
6.700754
5.819798
5.596876
5.782843
6.227493
8.320808
12.141466
20.544529
29.386878
43.420792
53.683519
64.059496
69.379807
71.978569
68.580508
60.591698
51.502585
39.135814
29.333830
18.846989
13.038516
8.149743
6.126761
4.770756
##ZVALUE=350
0.657439
0.798702
0.731945
0.807643
0.833869
0.865459
0.794530
0.716448
0.727773
0.692606
0.763535
0.730753
0.815988
0.850558
0.825524
0.690818
0.803471
0.839829
0.833869
0.737906
0.666976
0.856519
0.818968
0.738502
0.784993
0.811815
0.720620
0.733733
0.831485
0.868440
0.875592
0.846982
0.989437
0.861883
0.905991
0.947714
0.900626
0.930429
1.082420
1.012683
0.997782
1.042485
0.904799
1.027584
1.019835
0.979900
1.011491
1.122952
0.996590
1.139641
1.167655
1.383424
1.395941
1.389980
1.623631
1.610518
2.227426
8.966923
29.167533
89.811683
172.041655
335.461497
484.745502
683.965683
803.126693
868.707895
830.127597
675.361753
520.254970
319.426656
194.376707
85.980892
40.032864
12.696981
6.970763
5.609989
5.340576
5.143881
5.102754
5.756617
7.499456
12.245774
17.367601
27.512908
36.618710
47.930479
55.721402
63.480735
65.296888
62.847733
56.642890
46.308637
37.567616
27.142763
19.542575
13.201833
##ZVALUE=355
0.610948
0.674725
0.853539
0.762939
0.746846
0.696778
0.794530
0.683665
0.656843
0.677705
0.795722
0.902414
0.957847
0.786781
0.609756
0.878572
0.768900
0.764728
0.918508
0.692606
1.024604
0.731945
0.770688
0.859499
0.768900
0.793934
0.799894
0.957847
0.860691
0.822544
0.709891
0.839829
0.919700
0.790954
0.838637
0.760555
1.045465
0.886917
0.865459
0.772476
0.968575
0.983477
1.021624
1.030564
1.029968
0.958443
1.066923
1.052618
1.201630
0.997782
1.049638
1.115799
1.270771
1.256466
1.270771
1.384616
1.375675
1.645684
1.648664
4.575849
15.592575
57.694912
118.289590
248.834491
391.502976
605.710745
739.428997
839.054585
836.714506
714.185834
574.371815
375.909805
239.428878
106.326938
51.251650
16.213655
8.002520
5.636811
5.038977
4.764795
4.599690
4.596710
5.173683
6.814599
9.420514
15.167594
21.498799
32.135844
39.815903
50.352812
56.315660
59.247613
57.593584
51.836967
44.708848
34.920573
##ZVALUE=360
0.695586
0.658631
0.663996
0.733733
0.722408
0.641942
0.720620
0.865459
0.643730
0.545979
0.750422
0.791550
0.689626
0.698566
0.736713
0.730753
0.750422
0.700951
0.769496
0.805855
0.793934
0.842810
0.931621
0.745654
0.791550
0.938773
0.834465
0.712872
0.882745
0.875592
0.817776
0.804663
0.911951
0.969768
0.996590
0.891685
0.760555
0.903606
0.918508
0.886917
1.017451
0.936985
0.972748
1.102686
0.957847
1.002550
1.047850
0.999570
1.008511
1.062751
1.120567
1.138449
1.148582
1.043677
1.217723
1.378655
1.292825
1.447797
1.341701
1.546741
1.613498
2.605915
7.005930
30.926466
74.083805
183.921456
302.683711
492.787957
645.586848
791.897774
825.507641
764.333606
647.937655
442.066789
295.563936
142.989755
74.737668
27.695894
11.488795
5.629659
4.974604
4.913807
4.494786
4.215837
4.233718
4.688501
5.355477
8.108616
11.449456
18.087626
24.784803
35.363436
42.565465
50.172806
52.884817
53.546429
##ZVALUE=365
0.712872
0.715852
0.714660
0.728965
0.614524
0.692606
0.810623
0.665784
0.738502
0.711679
0.675917
0.786781
0.652671
0.589490
0.790954
0.784993
0.719428
0.712872
0.787973
0.808835
0.722408
0.794530
0.789762
0.800490
0.901818
0.790954
0.790954
0.708699
0.854731
0.868440
0.925660
0.938773
0.842810
0.892878
0.866652
0.994802
0.908971
0.991821
0.735521
0.906587
1.050830
0.988841
0.910759
0.939965
1.032948
1.024604
0.898838
0.860691
1.038909
0.980496
1.038909
0.947714
1.123548
1.117587
1.106858
1.065731
1.158714
1.071692
1.301765
1.211762
1.426935
1.448989
1.655817
1.860857
3.329515
17.078519
45.654774
120.764971
221.033692
408.726931
553.793907
717.102885
790.582895
777.277946
686.344504
503.327847
358.856916
197.962523
107.493997
38.812757
16.435981
6.253719
4.870892
4.348755
4.277825
4.051924
3.848672
3.576875
3.982782
4.648566
6.394982
9.959936
14.523864
22.420883
29.251575
37.846565
##ZVALUE=370
0.749826
0.589490
0.681877
0.829697
0.732541
0.738502
0.723600
0.684857
0.547767
0.705719
0.686646
0.721812
0.517964
0.502467
0.652671
0.726581
0.718832
0.872612
0.700951
0.804663
0.809431
0.672936
0.767708
0.843406
0.777841
0.876784
0.622869
0.704527
0.780821
0.675917
0.757575
0.774860
0.723600
0.740886
0.878572
0.741482
0.791550
0.697970
0.929832
0.794530
1.010895
0.904799
0.918508
0.798702
0.740886
0.835657
0.851750
0.803471
0.840425
0.922680
1.112819
1.036525
1.105666
0.942945
1.094937
1.151562
1.129508
0.983477
1.073480
1.103878
1.273751
1.313686
1.224875
1.396537
1.599789
1.695752
2.130866
8.668900
28.470755
91.839433
171.992779
325.594544
470.420718
667.376518
766.334534
790.755749
725.165606
569.535494
420.186520
234.094858
132.245421
51.915646
24.029613
8.916855
5.200505
4.555583
4.071593
3.863573
3.830791
3.420711
3.339648
3.697872
4.119873
5.888939
8.300543
13.118982
##ZVALUE=375
0.662804
0.687838
0.806451
0.737906
0.679493
0.625849
0.564456
0.682473
0.674725
0.671744
0.654459
0.646710
0.816584
0.737906
0.648499
0.590682
0.765920
0.644922
0.769496
0.749826
0.611544
0.720620
0.602603
0.856519
0.684857
0.827909
0.634789
0.823736
0.829697
0.878572
0.661612
0.836849
0.855923
0.883937
0.871420
1.022816
0.982881
0.823736
1.093745
0.951886
0.789762
0.937581
0.890493
0.918508
0.960827
0.977516
0.933409
0.894666
0.922680
0.893474
1.076460
0.697970
0.863671
0.973940
0.962615
1.000762
1.012683
1.092553
1.192689
0.988841
1.083612
1.114607
1.210570
1.149774
1.357794
1.229644
1.435876
1.534820
1.774430
4.742742
15.331507
54.489970
115.528703
255.363584
399.102569
596.133471
713.984966
788.016915
764.052868
630.132556
487.156510
296.443701
187.167525
92.674494
46.416521
15.097857
6.565452
4.237890
3.998876
3.887415
3.798604
3.395677
3.206730
3.007650
3.225803
3.551841
##ZVALUE=380
0.665784
0.566840
0.635982
0.655651
0.604987
0.655651
0.680685
0.651479
0.620484
0.686646
0.698566
0.784993
0.722408
0.536442
0.475645
0.708699
0.668764
0.676513
0.660419
0.748634
0.791550
0.888705
0.769496
0.719428
0.708699
0.734925
0.760555
1.111627
0.871420
0.852942
0.998974
0.983477
1.101494
1.201630
1.446605
1.225471
1.221895
1.272559
1.123548
1.244545
1.112819
1.061559
1.024604
1.226664
1.109838
0.978708
1.014471
1.072884
1.041889
1.132488
1.092553
1.039505
1.027584
1.129508
0.851750
1.097918
1.016855
1.153946
1.075864
1.040697
1.006722
1.113415
1.075864
1.211762
1.147985
1.256466
1.398921
1.453757
1.469851
1.616478
1.627803
2.842546
8.354783
38.839579
89.590549
208.642483
332.210660
519.994497
655.500889
773.232579
776.003599
675.515532
554.804802
385.923982
259.222984
128.394961
66.186786
22.724867
9.645820
4.304647
3.679991
3.499985
3.467798
3.416538
3.278852
3.115535
##ZVALUE=385
0.498891
0.502467
0.541806
0.381470
0.486970
0.516772
0.503659
0.498891
0.473857
0.598431
0.531673
0.449419
0.285506
0.533462
0.641942
0.596642
0.516772
0.384450
0.501871
0.570416
0.584722
0.547767
0.503659
0.667572
0.634789
0.673532
0.814795
0.918508
1.094937
1.147985
1.314878
1.292825
1.493692
1.545548
1.558661
1.561642
1.545548
1.551509
1.700521
1.614690
1.465678
1.485944
1.398921
1.479983
1.487732
1.336932
1.329780
1.357794
1.178980
1.113415
1.180768
1.211762
1.147985
1.083612
1.044869
1.124740
0.984669
1.031756
1.087785
0.998974
1.009703
1.005530
1.075864
1.017451
0.996590
1.077652
1.198649
1.176000
1.419783
1.235604
1.338720
1.367927
1.516938
1.826882
4.228950
21.949410
56.392550
141.364932
248.357654
433.542728
578.840971
722.793937
768.308640
729.169846
637.235641
463.309884
327.564478
177.927613
100.744963
40.785670
16.443729
5.257726
3.760457
3.234744
3.197789
2.960563
##ZVALUE=390
0.863671
0.853539
0.932813
0.974536
0.847578
0.975728
0.878572
1.019835
0.842810
0.967979
0.796914
0.827909
0.913739
0.781417
0.936985
0.926852
0.837445
0.988841
0.989437
0.899434
0.954866
0.965595
1.097918
1.023412
1.076460
1.132488
1.536608
1.584888
2.103448
1.927614
2.252460
2.517700
2.563596
2.722740
2.909899
2.970695
2.950430
2.908707
2.977848
2.778769
2.738833
2.712607
2.510548
2.379417
2.203584
2.211928
1.999736
2.025962
2.097487
1.966953
1.843572
1.611710
1.786947
1.796484
1.762509
1.744628
1.601577
1.617670
1.561642
1.409650
1.460910
1.583695
1.408458
1.571774
1.542568
1.427531
1.450777
1.557469
1.507998
1.548529
1.651645
1.842976
1.899600
1.848936
1.778603
1.950860
2.834797
9.676814
42.035580
95.304847
219.945908
345.184803
520.601869
645.080805
752.367973
771.621466
699.316859
587.681532
403.025746
268.321633
128.883719
66.672564
23.083687
9.452701
4.477501
3.860593
##ZVALUE=395
0.765920
0.817776
0.802875
0.629425
0.664592
0.809431
0.793934
0.736713
0.787973
0.694990
0.810623
0.855923
0.847578
0.802875
0.837445
0.860691
0.732541
0.822544
0.766516
0.718832
0.850558
0.796914
0.783801
0.768900
0.980496
1.132488
1.291633
1.481771
1.857877
2.374649
2.464652
2.896786
3.205538
3.317595
3.307462
3.468990
3.600717
3.572702
3.466606
3.325939
3.274679
3.120899
3.066659
2.692938
2.705455
2.447963
2.406836
2.433658
2.181530
2.249479
1.879930
1.928806
1.932979
1.902580
1.676679
1.780987
1.597404
1.589656
1.526475
1.485944
1.442432
1.443624
1.528859
1.372695
1.410842
1.545548
1.525879
1.537800
1.502633
1.755953
1.580715
1.450777
1.536608
1.629591
1.563430
1.447797
1.489520
1.680851
1.967549
6.885529
23.253560
78.849792
148.532987
282.685757
416.510701
604.634881
720.616579
789.897442
768.083930
650.540590
508.579612
313.882828
194.857717
84.731579
40.269494
13.348460
##ZVALUE=400
0.860691
0.897646
0.686646
0.639558
0.784993
0.705719
0.620484
0.640750
0.693798
0.658631
0.620484
0.827909
0.617504
0.652671
0.551939
0.690818
0.734925
0.641942
0.590682
0.669956
0.737906
0.730753
0.545979
0.773668
0.979900
1.206994
1.406670
1.510978
1.841784
2.254844
2.532601
2.869964
2.945662
3.330708
3.335476
3.521442
3.635883
3.548861
3.625751
3.448725
3.366470
3.331900
3.169775
2.915859
2.816916
2.709627
2.548695
2.418756
2.293587
1.920462
2.085567
1.791716
1.803637
1.728535
1.504421
1.696944
1.526475
1.628995
1.533628
1.513958
1.538992
1.291633
1.426935
1.302958
1.261830
1.245737
1.248717
1.274943
1.252890
1.463890
1.400709
1.327991
1.362562
1.266599
1.265407
1.322627
1.420975
1.395941
1.509786
1.546741
1.591444
3.657937
12.311935
47.254562
100.389719
217.510462
343.715549
525.461435
649.006963
750.530958
762.903690
670.272708
555.844903
382.593870
250.326991
126.161575
##END
