##TITLE=45FILTER
##FORMAT=SPECTACLE-ASCII V-1.2
##DATA TYPE=ULTRAVIOLET SPECTRUM
##SECOND TYPE=ULTRAVIOLET SPECTRUM
##DATE=12/18/17
##TIME=12:50:08
##SPECTROMETER/DATA SYSTEM=SPECTACLE
##XUNITS=NM EM
##YUNITS=ENERGY
##YFACTOR=1
##FIRSTX=220
##LASTX=410
##NPOINTS=96
##3DDATA=Equidistant
##ZUNITS=NM EX
##FIRSTZ=210
##LASTZ=400
##ZPOINTS=39
##XYDATA=(Y..Y)
##ZVALUE=210
117.411613
115.649700
65.760612
40.479898
24.346709
18.209815
14.748573
15.324950
14.702678
16.035438
13.983846
13.622642
15.263557
15.572906
18.844604
19.447803
22.371411
22.203922
20.715594
24.873614
28.228760
29.522777
30.397773
34.457445
35.948753
37.982464
42.293668
44.863820
48.026443
48.575997
54.314733
57.124496
59.765577
60.482621
62.771440
69.320798
64.632893
69.290996
70.105791
67.962408
73.043704
72.122812
70.796609
71.384907
73.827505
73.039532
73.766708
72.628856
73.294640
73.131919
74.248910
77.256560
72.551966
77.914000
81.737638
78.532696
81.261992
80.183744
75.488687
76.552629
80.021620
75.907707
77.532530
77.941418
82.408786
81.609488
87.453723
96.068978
115.338564
131.332874
153.714418
182.669759
212.653875
240.134001
277.001858
290.519595
306.895971
316.473842
312.681794
298.895836
283.703804
262.700915
229.951739
186.841488
148.561597
125.111938
94.962716
85.899830
78.866482
85.999966
108.050704
143.893957
186.636448
225.499868
283.540487
318.490863
##ZVALUE=215
257.222652
258.617997
188.012719
134.678483
79.200864
51.099658
30.759573
21.499991
21.973848
17.275810
17.360449
15.881658
15.129447
13.726950
11.808872
11.921525
12.328625
14.089942
14.982820
16.083717
16.683936
17.247796
20.005703
21.186471
22.452474
25.475621
27.035475
30.824542
33.017993
36.010742
38.747787
42.762756
40.523410
42.370558
46.181679
47.130585
46.638846
50.426722
48.856735
46.554804
50.353408
48.957467
48.460960
48.544407
48.716664
46.180487
49.331784
45.547485
46.129823
44.570565
47.237873
45.351982
46.858788
45.377612
45.800805
46.109557
46.589971
46.608448
48.187971
49.351454
47.746897
45.286417
46.402812
47.396421
49.216747
48.154593
52.685738
52.747726
61.183572
68.447590
85.209608
103.783607
116.404891
143.458843
153.800845
178.493857
190.830827
198.117495
206.330419
199.630857
186.049938
163.926482
141.687989
114.660859
92.799664
69.493651
54.095984
45.788884
41.461587
37.272573
36.096573
36.220551
35.851598
43.332577
54.345727
74.764490
##ZVALUE=220
323.681831
318.568945
309.909582
266.590714
224.764943
157.629848
109.687448
61.689615
42.532682
33.207536
28.970838
26.425719
25.861859
22.037625
19.158721
15.072823
12.464523
10.441542
9.419918
8.653998
9.687543
11.284947
10.586977
11.778474
13.516545
14.789701
16.610622
20.005703
23.701787
25.663972
27.737617
32.226443
34.054518
37.075877
36.741495
40.018559
41.096807
39.340854
39.307475
42.029619
37.268996
37.798882
39.465427
35.198927
36.768913
36.174655
34.289956
31.381845
31.104684
31.773448
32.082796
30.573606
29.623508
29.113889
27.607679
27.841926
27.398467
28.062463
26.237965
26.529431
24.488568
26.998520
24.256706
23.081899
24.147630
24.147630
23.166537
23.785830
27.667880
31.594634
36.191940
37.007928
41.047931
50.218701
54.019690
57.362914
59.736967
60.734749
61.874986
58.328509
53.623915
45.580864
39.221644
32.488704
25.522709
20.573735
16.435981
15.580654
13.730526
13.603568
13.352633
11.499524
13.503432
11.462569
12.457967
11.505485
##ZVALUE=225
229.282975
236.517787
276.767612
314.236879
308.244824
274.477005
223.521590
155.362487
102.575421
70.455670
48.119426
40.350556
40.191412
40.699840
41.324496
36.724806
28.887987
22.061467
18.559694
12.328625
8.971691
7.779598
6.901622
7.602572
7.970929
9.778738
11.396408
14.192462
14.307499
18.223524
22.988915
24.047494
26.188493
26.954412
28.669834
30.003786
30.989647
29.709935
29.662848
31.813979
27.835965
28.364658
30.139685
26.227832
25.060773
25.051832
24.712682
22.373796
22.646785
21.946430
20.711422
20.285845
19.781590
18.476844
18.095970
16.694665
16.257763
17.644763
18.248558
15.122890
14.649630
15.056729
15.319586
14.160872
15.214682
14.613867
14.901757
14.570951
16.489625
16.884804
18.783808
20.398498
21.781921
26.071668
25.799870
29.469728
28.700829
27.788877
28.294921
28.890967
25.044680
22.424459
21.814704
17.880797
14.809966
12.644529
11.097789
10.389686
10.799766
9.624958
9.860992
9.589791
9.473562
9.353757
9.845495
8.710623
##ZVALUE=230
120.082498
133.313537
190.034509
292.612910
361.858010
408.111811
408.462882
360.811949
295.707583
223.290920
136.190653
92.421770
61.461926
57.770610
61.246753
63.325763
57.632923
57.176948
48.585534
39.985776
31.712651
20.883679
14.849901
8.867979
8.347631
8.029938
7.238984
9.800792
10.346770
11.763573
14.492869
17.615557
19.408464
19.156933
21.005869
21.336675
21.884441
22.277832
24.379492
23.963451
22.370815
23.368597
20.844936
20.084977
20.823479
18.135905
18.493533
17.808676
18.024445
16.844869
15.218854
15.638471
15.539527
15.210509
14.579892
13.986826
13.791919
13.398528
13.119578
13.617873
12.137890
12.251735
12.117624
12.739897
12.451410
11.937618
11.353493
12.715459
12.575984
14.595985
14.966726
16.193986
16.774535
17.916560
18.836856
18.606782
17.784834
18.193722
18.211603
17.175674
15.676618
14.254451
13.385415
11.736751
11.872649
10.730624
9.660721
9.445548
9.347796
9.044409
9.287000
8.489490
8.469820
8.627772
8.806586
8.671880
##ZVALUE=235
30.813813
34.366846
66.955686
137.373805
209.786892
312.743783
394.092798
494.760871
521.488786
512.973666
433.650613
338.736773
224.718451
169.818997
121.237636
97.278953
82.719922
84.808469
92.275739
90.951920
83.037615
68.713427
55.519938
38.697720
27.394891
16.229749
13.479590
9.719729
10.250807
11.000633
11.857748
11.164546
13.664961
14.117956
15.066862
15.750527
16.624928
15.967488
16.893744
16.459823
17.667413
16.443729
18.633604
17.012954
15.479922
16.219616
15.232563
15.179515
15.160441
14.760494
15.099645
14.832616
15.638471
15.540719
14.295578
12.759566
14.702678
13.980865
14.165640
12.371540
14.530420
14.552474
14.097691
13.793707
13.224483
13.336539
13.633966
13.304949
14.676452
15.405416
15.302896
17.474890
18.953681
20.349622
23.064613
25.217533
25.237799
26.462674
26.738644
24.164915
22.915602
20.948648
18.797517
17.162561
14.790893
13.642907
12.169480
11.938810
11.915565
10.299683
10.352731
9.997487
10.171533
9.998679
10.464787
9.821653
##ZVALUE=240
3.321767
3.417730
8.074641
23.464561
50.904751
118.406415
197.184682
335.036516
455.533862
590.950847
665.035844
683.678985
630.033016
517.604947
414.804816
272.324681
200.172663
144.500732
111.019611
108.072758
118.180513
119.580626
119.004846
107.042789
85.832477
69.521666
47.687888
34.772754
22.627711
17.821789
13.381839
12.897849
12.313724
12.756586
13.032556
14.370680
13.822913
13.678670
13.530850
15.061498
15.401840
15.602708
15.651584
15.800595
14.207959
14.120936
14.775991
14.523864
14.999509
14.695525
13.962984
14.996529
14.346838
13.381839
15.208721
15.047789
14.102459
15.547872
15.460849
16.477704
15.188456
13.923645
15.314817
14.517903
14.458895
14.473796
15.214682
14.140606
14.539957
16.800761
17.100573
20.501614
20.946860
23.917556
24.916530
26.492476
27.735829
26.983619
26.658773
25.469661
23.317933
22.225976
19.738674
17.215610
15.799999
14.812946
13.750792
13.753772
13.058782
13.090968
12.914538
13.375878
12.360811
11.807680
11.528730
12.068748
##ZVALUE=245
2.497435
2.519488
2.406836
2.788901
4.321933
16.561747
36.687851
95.421672
181.551576
307.136774
518.737435
690.508485
847.584605
877.602696
831.871629
735.384822
522.139668
392.882824
295.470953
151.740909
104.920864
102.126002
113.678575
130.417943
135.205984
122.807622
117.323995
93.579888
77.135563
53.054690
36.984682
24.656653
18.362999
14.408827
12.021661
12.491941
13.428926
12.777448
12.947917
13.877749
12.667775
13.091564
13.495684
12.137890
13.299584
12.208819
12.396574
13.510585
12.207627
13.013482
12.134910
11.550784
11.673570
11.302829
12.042522
11.344552
11.048913
11.628866
12.078881
12.450814
12.272000
12.132525
12.520552
12.096763
12.368560
12.554526
11.626482
12.742877
12.547970
14.177561
14.369488
15.558600
15.374422
17.213821
17.269850
16.681552
17.689466
18.219948
17.323494
17.235875
15.618801
15.018582
13.718605
13.438463
11.799932
11.143684
11.390448
9.527802
8.922815
10.015965
9.344816
9.547472
8.520484
8.740425
8.750558
9.319782
##ZVALUE=250
1.909733
1.914501
1.851916
1.689792
2.144575
2.176762
3.296733
7.683635
28.890967
61.727762
147.542953
236.979723
345.262885
491.778851
592.334867
661.424994
653.219819
572.901964
495.929718
340.521932
242.573619
162.975788
102.843642
92.470646
104.756951
122.276545
137.358904
142.099857
135.066509
125.675797
106.135607
82.224607
61.246753
40.470958
28.047562
18.974543
15.874505
13.690591
13.508797
13.891459
13.912916
13.578534
13.396740
13.180971
11.903644
12.215972
11.862516
12.347698
12.113452
11.492968
11.734962
11.034608
10.257959
11.161566
10.789633
10.556579
10.362864
10.344982
9.719729
9.221435
10.872483
9.975433
9.542704
9.745955
9.765625
9.460449
9.625554
7.923841
9.535551
9.475946
9.977818
10.624528
10.394454
11.470914
10.460615
11.584759
9.649992
9.872913
10.059476
9.002686
9.000897
8.762479
8.492470
7.550716
7.305741
7.455945
8.077621
7.165670
6.410480
7.058978
6.947517
6.832480
7.178783
7.034540
6.508827
6.474853
##ZVALUE=255
1.393557
1.537800
1.656413
1.423955
1.802444
1.888871
1.860857
2.028942
2.247691
4.418492
19.916892
47.866702
97.291470
200.356841
310.351849
481.414795
598.265529
711.176991
746.887922
703.773499
615.945458
486.669540
313.618779
199.654698
116.654634
90.534687
90.042949
104.163885
130.355954
144.758821
152.048469
149.391890
136.074424
115.210414
89.692473
66.074729
46.863556
31.821728
23.872852
19.404888
16.675591
16.669631
16.303658
14.839768
15.628934
14.387965
14.194846
13.722777
13.779998
13.404489
12.282729
12.111664
12.196898
10.392666
10.809898
11.244416
11.191964
10.483861
10.647774
9.713769
10.178685
10.459423
9.734631
9.372830
8.930564
9.249449
9.125471
9.021759
9.259582
9.749532
9.330511
9.170771
9.723902
9.873509
9.448528
9.112954
9.124875
9.747744
7.785559
8.027554
8.211732
6.813407
7.653832
6.949902
6.457567
6.144643
6.257892
5.936623
6.227493
5.478859
5.567670
5.876422
5.775690
5.456805
5.432963
5.908608
##ZVALUE=260
1.594424
1.546741
1.452565
1.509786
1.693964
1.474619
1.573563
1.582503
1.564622
1.825690
2.127886
2.903938
7.589459
30.932426
68.712831
158.299804
264.346004
433.059931
574.284792
735.814571
818.485618
826.231837
746.212602
616.874695
416.595936
288.582444
172.225833
113.681555
82.870722
89.044571
105.619431
134.599805
150.748491
161.783695
165.228844
143.957734
126.552582
96.352696
74.967742
51.054955
40.381551
29.046535
22.620559
19.683838
19.391775
17.578602
17.317533
16.859770
16.849637
16.065836
14.290810
15.335679
14.172792
12.920499
12.893677
12.540817
11.521578
11.602640
11.159778
10.269880
11.055470
10.108948
9.788871
9.613633
9.327531
9.523630
8.812547
8.554459
9.303689
8.803606
8.469820
9.024739
9.023547
9.211898
8.703470
8.643866
8.474588
7.256866
8.067489
6.965995
6.758571
6.270409
6.306767
6.327629
6.111860
5.467534
5.043745
5.311966
5.590916
5.321503
5.047917
5.039573
4.726648
5.184412
4.951954
5.091429
##ZVALUE=265
1.344681
1.618862
1.491904
1.317859
1.527667
1.362562
1.705885
1.653433
1.400709
1.403689
1.643896
1.958609
2.050996
2.116561
4.918575
20.509958
49.594641
124.031901
218.297839
405.109525
563.125014
705.029964
865.511894
903.078914
822.480917
709.255934
533.123016
378.445983
215.238929
137.434602
86.195469
79.543591
90.381503
121.976733
141.360760
166.838765
173.013806
167.432427
152.730942
129.037499
103.793740
74.916482
56.155920
38.092732
29.859543
23.328662
21.150708
19.163489
19.448996
17.654896
17.829537
15.661716
15.911460
14.973879
14.531612
13.446808
12.447834
12.447834
12.184978
10.908842
10.593534
10.139942
10.099411
9.904504
9.115934
8.826852
8.654594
8.610487
8.861423
9.240508
8.966923
8.510947
8.922815
8.580685
7.994771
8.349419
8.059740
7.770658
7.137656
6.795526
5.963445
5.423427
5.911589
6.079674
5.765557
5.200505
5.313754
5.035996
4.900694
4.474521
4.544854
4.735589
4.605651
4.372597
4.709959
4.587770
##ZVALUE=270
1.312494
1.264811
1.302958
1.095533
1.280904
1.433492
1.308918
1.402497
1.417994
1.535416
1.719594
1.574755
1.669526
1.597404
1.867414
2.038479
2.532601
9.241700
27.301908
88.790655
172.126889
298.717618
521.318913
694.223642
876.116753
939.925909
924.967527
830.760002
649.126768
490.821600
343.585014
189.142823
114.451647
75.139999
76.858997
102.110505
123.044848
153.031945
169.999599
174.271464
171.307921
153.781772
134.336948
103.054643
77.736974
52.182674
39.320588
28.676987
24.206638
19.415617
17.194748
16.895533
16.284585
15.445948
14.259815
13.413429
13.018847
12.272000
11.678934
11.590719
11.094809
10.462999
9.954572
9.984970
9.651780
8.839965
9.184480
8.879900
8.382797
8.239746
8.380413
8.086562
8.135438
8.776784
8.164644
7.638931
7.481575
7.192492
6.500483
6.364584
6.417632
5.857944
5.771518
5.405545
5.073547
5.115867
5.514622
4.778504
4.716516
4.544854
4.884601
4.249811
4.581809
4.330873
4.366636
4.248619
##ZVALUE=275
0.960827
0.842810
0.900626
1.235604
1.009703
1.056790
1.017451
0.913739
1.070499
1.000762
1.273751
1.360774
1.276731
1.388788
1.624823
1.571774
1.323819
1.601577
1.817942
4.646778
16.111732
46.721697
132.596493
251.027942
459.529757
626.367927
814.217925
930.119753
978.142619
930.960774
778.722763
615.283847
443.751812
242.196918
146.168470
77.842474
63.689947
74.651837
94.055533
127.441883
145.935416
165.458918
170.770884
164.715648
151.498914
123.288631
100.853443
72.245598
53.396821
34.608841
25.912523
18.601418
15.786886
14.170408
13.232827
12.209415
12.036562
11.567473
11.291504
10.556579
10.546446
10.069609
9.194613
9.229779
8.762479
8.546710
8.717775
7.520914
7.876754
8.516908
7.707477
8.092523
7.933974
7.587671
7.836819
7.191896
7.219911
6.990433
6.762743
6.533861
6.024837
5.280972
5.463958
5.442500
5.308986
4.803538
4.821420
4.504919
4.238486
4.232526
4.344583
3.883839
4.122853
3.889799
3.934503
4.255772
##ZVALUE=280
0.814795
0.831485
0.714660
0.711679
0.910759
0.741482
0.781417
1.012683
1.047850
1.092553
0.903606
1.033545
1.131892
0.888705
0.921488
1.153946
1.159906
1.129508
1.370907
1.569986
1.509786
2.064705
10.328889
34.236908
107.678771
198.247433
362.734795
530.904531
755.626559
892.383456
918.053985
975.210667
891.940594
682.882667
506.475568
297.503471
181.792974
89.389682
56.922436
51.168799
63.951612
90.558529
114.204884
141.515732
155.620575
159.704685
155.318975
134.684443
116.787553
88.016987
68.299770
43.800473
30.967593
20.007491
15.398860
11.601448
10.301471
10.043979
9.382963
9.366870
9.251833
9.119511
8.879900
8.353591
8.224845
8.193851
7.700920
7.917881
7.351637
7.630587
7.163882
7.196665
7.223487
7.395744
7.287860
6.795526
6.527901
6.558895
6.329417
5.910993
5.294681
5.270839
5.204678
4.785657
4.818439
4.670620
4.764795
4.326701
4.160404
4.160404
3.978610
3.864765
3.927946
4.104972
3.512502
3.880858
##ZVALUE=285
1.026988
1.049638
1.110435
1.099706
0.988841
1.140833
1.202822
1.142621
1.151562
1.082420
1.109838
1.021624
1.265407
1.379848
1.334548
1.420975
1.204610
1.448989
1.334548
1.472831
1.571774
1.861453
1.922846
2.198815
5.361438
18.259883
60.081482
125.685930
266.478658
420.122743
598.392487
814.491510
950.365663
1013.105512
953.875780
776.482821
613.591671
383.011699
239.596963
115.941763
64.836740
37.445426
38.655996
57.510734
77.626705
108.066797
126.929879
145.476460
152.519941
146.586895
134.508610
109.494925
91.114640
62.594414
44.617653
26.756525
18.128753
12.773871
9.702444
8.863807
8.181930
8.111000
8.013844
7.635951
7.733703
7.450581
7.550716
7.428527
7.190704
7.319450
7.459521
7.238984
7.466674
7.201433
7.043481
6.583929
6.497502
6.422997
6.149411
6.091595
5.488992
5.532503
5.703568
5.261898
4.815459
4.896522
4.869699
4.809499
4.513860
4.391670
4.329681
4.201531
4.156828
4.247427
3.986955
4.076958
##ZVALUE=290
1.057982
0.816584
1.006722
0.919700
1.078844
1.053810
1.114607
1.170635
1.124740
1.063943
1.006722
1.089573
1.203418
1.075864
1.273751
1.299977
1.219511
1.360774
1.304746
1.429915
1.368523
1.538992
1.466870
1.629591
1.709461
1.958609
2.605915
7.168651
33.756495
80.256462
157.226920
328.246951
500.613451
751.109719
902.393460
1013.124585
1008.943915
877.285004
716.524720
485.423803
320.131779
159.108639
86.229444
36.013722
26.486516
35.597682
49.094558
71.799755
95.066428
121.517777
133.336782
143.766999
143.519640
126.376748
111.356974
83.238482
60.750842
39.726496
27.044415
15.812516
11.317730
8.894801
7.870793
6.784797
6.945729
6.784797
6.902814
6.652474
6.933808
7.162690
6.950498
7.341504
6.733537
7.092953
6.634593
6.386638
6.308556
5.671978
5.575418
5.595684
5.343556
4.963875
4.879832
5.130768
4.816651
4.328489
4.496574
4.777908
4.286766
4.317760
4.481673
4.061460
4.097819
3.907681
3.891587
3.914833
##ZVALUE=295
0.857711
1.043677
1.005530
0.954866
0.886917
1.081824
0.968575
1.067519
1.107454
0.935793
1.167655
1.032948
1.130700
1.160502
1.150966
1.121759
1.083612
1.150966
1.110435
1.371503
1.315475
1.372695
1.456738
1.467466
1.640916
1.440644
1.708865
1.943707
2.251863
3.633499
12.004972
48.888922
112.573504
262.757540
417.275429
666.583776
834.016800
1000.626683
1015.819907
955.310464
819.594860
584.368706
406.067967
213.702917
117.381811
43.544769
23.856759
21.173954
29.228926
48.238635
64.701438
91.223717
109.865665
129.128695
136.263967
134.705901
122.695565
103.137493
82.878470
57.576895
41.121840
25.090575
17.292500
10.346770
7.924438
6.985664
5.940795
6.311536
6.269813
6.341934
6.167889
6.412864
6.305575
6.478429
6.234646
6.233454
5.946755
5.578995
5.525947
5.343556
5.130768
5.002618
4.967451
4.731417
4.560947
4.574656
4.350543
4.470944
3.991723
4.376769
4.189610
4.041791
4.232526
4.198551
3.890991
3.885627
##ZVALUE=300
0.894666
1.043677
0.976920
0.959635
0.898838
1.006722
0.929832
0.909567
0.986457
1.044869
0.994802
1.169443
1.129508
1.099706
1.160502
1.159906
1.146793
1.164675
1.199841
1.133680
1.180768
1.282692
1.182556
1.373887
1.365542
1.438856
1.634955
1.564622
1.466870
1.695752
1.983643
2.315640
7.758737
26.183724
85.678697
167.515874
344.417691
519.105792
765.869617
918.413997
1015.819907
1012.493968
883.230567
726.179481
482.936502
314.104557
158.401728
83.085895
30.424595
17.565489
18.669963
25.875568
41.901469
57.324767
82.497597
101.831555
121.799707
129.599571
126.132965
118.756890
99.329948
81.915855
56.422949
42.104721
24.769902
16.280413
10.580420
7.954836
6.628633
5.975962
5.583763
5.677938
5.404949
5.714893
5.884767
5.707741
5.781651
5.058646
5.006790
4.794598
5.151629
4.392862
4.501939
4.440546
4.656911
4.307628
4.205704
4.383922
4.166961
4.315972
4.176497
3.992915
3.938675
4.029870
4.043579
3.906488
##ZVALUE=305
1.008511
0.868440
0.922680
0.932813
0.929832
0.932813
0.768900
0.999570
1.050830
0.905991
0.845790
0.862479
0.781417
1.032948
1.083612
1.014471
1.158714
1.015663
1.072884
1.289845
1.126528
1.176000
1.152754
1.162887
1.111627
1.419783
1.459718
1.486540
1.418591
1.506805
1.585484
1.661777
1.781583
2.145767
3.255606
17.506480
47.952533
135.906935
244.055986
451.452732
630.960464
859.422684
983.306766
1015.842557
966.498852
766.133666
593.660474
380.750895
236.647725
106.020570
53.252578
19.550920
13.599992
17.320514
24.578571
40.367842
55.996776
80.070496
97.545981
115.082860
122.389793
121.446848
111.983418
95.120668
76.730847
52.713752
38.207769
23.441911
15.734434
9.761453
7.625818
6.364584
5.846620
5.608797
5.279779
5.149841
5.044937
4.885793
4.619956
4.534721
4.424453
4.576445
4.534721
4.288554
4.493594
4.553795
3.980994
4.207492
4.069805
4.247427
4.038811
3.881454
3.903508
3.882647
3.947616
3.707409
##ZVALUE=310
0.925660
0.680685
0.885725
0.998974
0.976920
0.979900
0.820756
0.866652
0.858903
0.849962
0.890493
0.908971
1.001954
0.855923
0.924468
1.081824
0.900626
0.901818
0.886917
0.965595
0.997782
0.968575
1.134872
1.117587
1.131892
1.344681
1.182556
1.320839
1.341701
1.410842
1.375675
1.506805
1.490712
1.521707
1.604557
1.894832
2.185702
7.646680
25.766492
83.589554
164.824724
339.033604
511.768460
750.304461
904.828906
1013.947725
1007.669568
870.507956
718.645453
491.992831
331.072807
165.647864
86.696744
31.859875
15.237927
11.850595
14.920831
22.651553
32.777786
50.873756
68.093538
90.554953
104.578733
114.777684
116.786957
107.004642
93.644857
71.702600
54.450631
36.235452
25.568604
15.081763
10.182858
6.796718
5.284548
5.056858
4.829764
4.422665
4.292727
4.163980
4.143715
4.333854
3.981590
4.162788
4.306436
4.237890
4.174709
3.950000
4.046559
3.876686
3.936887
3.761649
3.736615
3.926754
3.692508
3.267527
##ZVALUE=315
0.713468
0.812411
0.856519
0.847578
0.856519
0.883937
0.792742
0.881553
0.822544
0.983477
0.853539
0.751615
0.885725
0.849962
0.724792
0.907779
1.039505
0.918508
0.749826
0.933409
0.939965
0.905991
1.138449
1.076460
1.101494
1.057982
1.143813
1.330972
1.156926
1.209974
1.122952
1.342893
1.308918
1.355410
1.431704
1.507998
1.635551
1.618862
1.800656
3.612638
12.700558
52.191615
113.584995
257.961750
420.253873
671.858788
833.340883
979.514718
1015.470028
943.132639
805.197954
579.496622
405.676961
214.661956
115.703940
43.755770
18.906593
10.316968
10.083914
13.628602
19.232631
31.860471
44.671893
65.344572
81.055760
98.902583
107.166767
108.148456
101.707578
85.445642
70.171952
51.819682
36.346912
22.351742
14.461875
8.418560
6.277561
4.962683
4.581809
4.425645
3.918409
3.790855
3.583431
3.869534
3.935695
3.870726
3.965497
3.872514
3.635883
3.971457
3.702641
3.790855
3.721714
3.833771
3.499985
3.707409
##ZVALUE=320
0.789762
0.851750
0.714660
0.725985
0.937581
0.862479
1.029968
0.761747
0.763535
1.044869
0.965595
0.888705
0.961423
0.804663
0.859499
0.962615
0.921488
0.887513
0.808835
1.042485
0.931621
1.037717
0.973940
1.032948
1.145601
1.214743
1.052618
1.034737
1.126528
1.018643
1.194477
1.218915
1.262426
1.361966
1.296997
1.401901
1.477599
1.444817
1.525879
1.635551
1.680851
2.220869
5.948544
29.206872
75.098872
194.344521
323.029757
536.369681
710.534453
921.056867
1000.240445
993.597507
893.018842
681.358576
498.479009
275.177956
156.418681
66.720843
30.319691
11.645555
8.309484
9.227991
11.346936
17.537475
25.700927
41.704774
56.325793
76.220632
89.073777
100.446939
101.745725
95.972419
83.447695
64.744949
49.813986
32.448769
22.164583
13.068914
8.641481
5.585551
4.525781
4.064441
3.735423
3.852844
3.824830
3.729463
3.822446
3.591776
3.721714
3.517866
3.712773
3.382564
3.469586
3.419518
3.475547
3.502965
##ZVALUE=325
0.687838
0.808835
0.776649
0.875592
0.826716
0.868440
0.779629
0.930429
0.915527
0.711679
0.853539
0.870824
0.840425
0.834465
0.863671
0.923872
0.924468
0.843406
0.975728
0.913739
0.929832
0.988841
0.968575
1.097918
0.900626
0.831485
0.994802
0.951886
1.035929
0.978708
1.075864
1.343489
1.326799
1.292825
1.242757
1.303554
1.308918
1.374483
1.487732
1.322627
1.437664
1.851916
1.775622
1.893640
3.397465
19.206405
50.240755
131.910443
234.209895
443.453789
622.277856
833.422542
950.952768
987.555981
925.827622
728.889704
551.899672
337.460637
202.725530
89.306831
43.135881
14.590621
8.340478
7.364750
7.849932
11.335611
15.810728
25.862455
38.448572
57.050586
70.962906
86.492896
94.343424
95.860958
89.164972
75.569749
60.844421
43.747425
31.818748
18.880963
12.116432
7.384419
5.615950
4.374981
4.104972
3.717542
3.725886
3.487468
3.454685
3.140569
3.461838
3.427863
3.221631
3.222823
3.284812
3.251433
##ZVALUE=330
0.690818
0.760555
0.649691
0.802875
0.808835
0.801682
0.606775
0.886917
0.872612
0.795722
0.820756
0.761747
0.763535
0.888705
0.739694
0.728965
0.901818
0.824928
0.766516
0.767708
0.766516
0.916719
0.777841
0.898838
0.949502
1.021624
0.871420
0.878572
0.948906
1.097918
1.002550
1.133680
0.997782
1.003742
1.143813
0.966787
1.078844
1.149774
1.005530
1.132488
1.160502
1.071692
1.386404
1.463890
1.760721
1.718998
2.358556
6.514788
30.907989
76.818466
189.045668
317.948461
533.008575
701.665878
885.774493
959.237814
924.948454
813.317895
611.659884
443.460941
241.294503
137.009621
55.792928
25.543571
9.326935
6.812811
6.363988
7.218719
10.242462
14.984608
25.847554
35.917759
51.934719
65.623522
80.055594
86.529851
87.839961
83.652735
70.036650
57.435632
39.895773
29.363632
18.878579
13.265610
8.010864
5.747676
3.860593
3.561974
3.541708
3.348589
3.038645
3.244877
3.167987
3.165603
3.334880
3.089905
##ZVALUE=335
0.757575
0.784993
0.800490
0.660419
0.737906
0.839829
0.773668
0.805855
0.819564
0.819564
0.896454
0.757575
0.877976
0.849962
0.720620
0.729561
0.783801
0.877976
1.011491
0.884533
0.891685
0.953674
0.952482
0.831485
0.745654
0.942945
1.065731
0.903606
0.988841
0.938773
1.136661
0.877976
0.926852
1.031756
1.066923
1.174808
1.077652
0.935793
1.099706
1.154542
1.053810
1.235604
1.289845
1.379848
1.350641
1.523495
1.407862
1.643896
1.841784
4.150867
13.508797
53.160787
112.837553
252.507925
404.772758
636.493564
795.558691
927.632451
940.978527
848.834515
708.492994
482.447743
328.139663
172.156692
90.152621
30.056834
13.150573
6.765723
6.255507
6.268620
6.995797
9.872913
13.854504
24.183989
33.764839
48.775673
61.735511
75.393915
81.129670
82.786679
76.524615
64.886808
54.724813
40.575862
30.551553
19.291639
13.044477
7.771850
5.923510
4.284978
3.639460
3.434420
3.321767
3.265738
2.986789
3.025532
##ZVALUE=340
0.720620
0.528693
0.759959
0.678897
0.794530
0.846982
0.841618
0.779629
0.691414
0.766516
0.602603
0.764728
0.925660
0.763535
0.784993
0.849962
0.758767
0.905991
0.837445
0.796914
0.752807
0.654459
0.751615
0.869632
0.919700
0.784993
0.876784
0.801682
0.840425
0.903606
1.005530
1.056790
0.982881
0.876784
0.813603
1.041889
0.998974
0.910759
1.115799
1.027584
0.960827
1.116991
1.160502
1.090765
1.155734
1.150966
1.238585
1.377463
1.339912
1.458526
1.721978
2.641678
6.965995
32.128692
79.618692
196.892023
330.028534
539.927483
705.084801
871.877670
923.257470
872.420669
761.104822
559.363961
392.019749
201.713443
109.535456
44.451952
18.624663
7.483959
6.064773
5.806684
5.770922
6.713867
8.700490
14.000535
20.459890
32.528639
44.310689
60.237646
69.316626
76.751709
76.910853
72.950721
64.938664
51.076412
40.438771
27.750731
19.780993
12.131929
8.173585
4.990697
4.223585
3.275871
3.096461
2.965927
##ZVALUE=345
0.680685
0.641942
0.646710
0.769496
0.725985
0.728965
0.842810
0.727773
0.742674
0.869632
0.714660
0.882745
0.794530
0.759959
0.759959
0.893474
0.948906
0.894666
0.722408
0.657439
0.649691
0.696778
0.831485
0.881553
0.790954
0.808835
0.896454
0.808835
0.858903
0.886917
0.804663
0.813603
0.823736
0.988841
0.774860
0.827909
0.934601
0.854731
1.082420
0.910759
0.978708
0.930429
0.868440
1.112819
1.092553
1.097918
1.200438
1.328588
1.342893
1.292825
1.427531
1.367927
1.591444
1.819730
3.414750
18.639565
49.862862
131.587982
236.717463
431.600809
593.356490
784.538984
876.333714
890.836716
816.913843
633.231997
468.441844
264.221430
150.172710
63.428879
27.623773
9.851456
6.416440
5.781651
5.277991
5.406737
6.052852
8.180737
11.537671
19.511580
28.573871
42.414665
51.911473
63.457489
68.698525
70.317984
67.754984
59.872866
51.108599
38.483739
28.672814
18.150806
12.873411
7.986426
5.646944
3.983974
##ZVALUE=350
0.479817
0.618696
0.622869
0.580549
0.544786
0.680685
0.525713
0.690818
0.675917
0.582933
0.680685
0.514984
0.640750
0.592470
0.680685
0.624657
0.783801
0.573993
0.546575
0.670552
0.687838
0.777841
0.751615
0.907779
0.585914
0.730753
0.546575
0.767708
0.803471
0.742674
0.526905
0.958443
0.685453
0.753999
0.599623
0.820756
0.733733
0.776649
0.935793
0.733733
0.881553
0.884533
1.005530
0.772476
0.855923
0.979900
0.928640
0.975728
0.993609
1.021624
1.170635
1.094937
1.125932
1.351833
1.508594
1.589656
2.073646
8.736849
28.372407
88.443756
169.438720
337.755680
491.295457
691.266656
812.366605
882.594585
836.609602
694.856644
531.743765
315.940976
192.495584
87.377429
40.626526
12.277961
6.488562
5.321503
4.983544
4.756451
4.440546
5.310774
6.935596
11.775494
17.032623
26.039481
34.527779
47.075748
55.375695
62.529445
64.608455
61.992407
56.928992
45.850873
37.601590
26.490688
19.342899
12.259483
##ZVALUE=355
0.621676
0.754595
0.774860
0.635982
0.821948
0.700951
0.837445
0.693798
0.678897
0.766516
0.873804
0.950694
0.888705
0.746846
0.841618
0.814795
0.684857
0.627637
0.746846
0.647902
0.828505
0.635982
0.716448
0.878572
0.981688
0.898838
0.671744
0.819564
0.960827
0.899434
0.817776
0.790954
0.903606
0.847578
0.877976
0.849962
0.780821
0.874996
0.875592
1.020432
1.002550
1.019835
1.118779
1.030564
1.051426
1.051426
1.021624
1.059771
1.098514
1.103878
1.125932
1.155734
1.104474
1.176000
1.223683
1.469851
1.365542
1.425743
1.907945
4.543662
15.455484
57.824850
119.691491
253.245831
393.427610
611.544847
748.374462
850.104690
849.290490
725.621581
588.186979
383.163691
244.920850
107.074976
51.587820
15.946627
7.653832
5.189776
4.798770
4.580617
4.202724
4.279613
4.961491
6.408691
9.419918
15.278459
21.441579
31.584501
39.853454
49.828887
55.426955
59.467554
57.205558
51.483512
45.115948
35.616755
##ZVALUE=360
0.743866
0.666976
0.713468
0.666976
0.728965
0.663996
0.728965
0.821948
0.836849
0.658631
0.729561
0.792742
0.767708
0.606775
0.766516
0.580549
0.759959
0.897646
0.759959
0.880957
0.870824
0.786781
0.841618
0.811815
0.852942
0.849962
0.774860
0.795722
0.924468
0.909567
0.809431
0.873804
0.932813
0.934601
0.920892
0.898838
0.804663
0.935793
0.881553
0.813603
0.814795
1.020432
0.992417
0.879765
1.073480
1.048446
0.991821
0.919700
0.967979
1.046658
0.983477
1.177788
1.118779
1.297593
1.216531
1.257658
1.337528
1.353621
1.453757
1.459718
1.654625
2.333522
6.782413
30.144453
72.770715
182.672739
302.641988
492.938757
650.985837
801.830888
836.409926
775.509477
660.074949
448.993444
298.074484
145.282745
75.171590
27.185678
11.679530
5.138516
4.712939
4.389882
4.368424
4.077554
4.035830
4.455447
5.229712
7.684827
10.996461
17.427802
24.358630
34.786463
42.009950
49.679875
52.894950
52.724481
##ZVALUE=365
0.732541
0.822544
0.708699
0.789762
0.772476
0.766516
0.879765
0.754595
0.703931
0.678897
0.716448
0.866652
0.639558
0.674725
0.615716
0.766516
0.734925
0.881553
0.791550
0.741482
0.717640
0.713468
0.937581
0.699759
0.741482
0.767708
0.873804
0.771880
0.800490
0.790954
0.889897
0.793934
0.807643
0.760555
0.837445
0.926852
0.883937
0.835657
0.930429
0.966787
0.889897
0.777841
0.991821
0.955462
0.986457
1.012683
1.033545
1.045465
1.041889
1.173615
1.090765
1.059771
1.046658
1.162887
1.165867
1.129508
1.236796
1.026988
1.255870
1.452565
1.301765
1.603961
1.656413
1.910925
3.286600
16.984940
45.615435
121.218562
223.164558
413.310528
558.986664
724.831820
799.729824
787.583590
694.608688
508.559942
359.970927
196.644664
107.167959
38.857460
15.870929
5.744696
4.776716
4.370809
4.238486
4.023910
3.632903
3.522635
3.614426
4.220605
6.096959
9.677410
14.270544
21.966696
28.707981
37.312508
##ZVALUE=370
0.768900
0.755787
0.605583
0.810623
0.898838
0.845790
0.717640
0.582933
0.697970
0.746846
0.744462
0.745654
0.550747
0.731945
0.632405
0.700951
0.772476
0.899434
0.707507
0.863671
0.840425
0.759959
0.886917
0.824928
0.675917
0.750422
0.722408
0.777841
0.729561
0.771880
0.827909
0.648499
0.867844
0.838637
0.821948
0.845790
0.999570
0.929832
0.935793
1.013875
0.855923
0.883937
0.925660
0.975728
0.925660
0.903606
0.984669
0.889897
0.820756
0.938773
0.908971
0.972748
1.005530
1.056790
1.013875
0.941753
0.884533
1.052618
1.014471
1.118779
1.097918
1.241565
1.432896
1.526475
1.587868
1.426935
2.225637
8.992553
28.669834
88.229775
169.625878
326.879621
475.260615
667.313933
767.374635
799.293518
735.876560
578.917861
428.977013
243.421793
138.948560
54.892898
24.460554
8.106828
4.883409
4.261732
3.985763
3.855824
3.557801
3.306866
3.315806
3.223419
3.814697
5.501509
7.724762
12.616515
##ZVALUE=375
0.757575
0.617504
0.928640
0.641942
0.824928
0.643730
0.767708
0.669956
0.701547
0.731945
0.748634
0.645518
0.733733
0.691414
0.719428
0.787973
0.777841
0.755787
0.769496
0.696778
0.725985
0.723600
0.836849
0.650883
0.756979
0.793934
0.927448
0.683665
0.809431
0.829697
0.866652
0.803471
0.732541
0.881553
0.868440
0.842810
0.805855
0.904799
0.801682
0.991821
0.852942
0.917912
0.992417
0.860691
0.970960
0.881553
0.792742
0.931621
1.063943
1.028776
1.029968
1.162887
1.102686
0.964999
1.048446
0.997782
0.965595
1.131892
0.947714
1.099706
1.078844
1.107454
1.144409
1.273751
1.135468
1.391768
1.387596
1.487732
1.746416
4.674792
15.171766
54.060817
115.512609
257.501006
399.656892
603.210926
721.912980
797.528028
776.680708
644.708872
500.526428
304.031968
191.357732
94.044805
46.837926
15.144944
6.525517
4.073977
3.816485
3.427863
3.346801
3.441572
2.954602
2.940893
2.975464
3.471971
##ZVALUE=380
0.711679
0.737906
0.727773
0.747442
0.700951
0.792742
0.606775
0.677705
0.614524
0.576973
0.620484
0.595450
0.603795
0.668764
0.756979
0.714660
0.682473
0.718832
0.756979
0.812411
0.852942
1.015663
0.730753
0.827909
0.804663
0.767708
0.733733
0.772476
0.769496
0.911951
0.694990
1.057982
0.937581
1.069903
0.963807
0.968575
1.012683
1.155734
1.073480
0.952482
1.017451
1.108646
1.076460
0.744462
0.967979
0.929832
0.920892
0.916719
0.949502
0.924468
0.812411
0.933409
0.921488
0.974536
1.117587
0.964999
1.027584
1.090765
0.988841
0.889897
0.867844
1.138449
1.133680
1.090765
1.095533
1.153946
1.334548
1.298785
1.563430
1.545548
1.911521
2.499819
10.566711
31.868815
97.774863
180.943608
346.753597
500.858426
686.663985
776.284933
785.229802
709.872842
558.914542
419.245958
244.135857
142.335892
58.266521
25.919676
8.561611
4.585981
3.707409
3.540516
3.279448
3.179908
3.121495
2.871752
##ZVALUE=385
0.680685
0.626445
0.605583
0.651479
0.855923
0.635982
0.725985
0.656843
0.718832
0.756979
0.675917
0.643730
0.686646
0.528693
0.551939
0.643730
0.641942
0.680685
0.660419
0.716448
0.654459
0.768900
0.711679
0.685453
0.756979
0.875592
0.843406
0.893474
0.993609
1.226664
1.198649
1.212955
1.141429
1.255870
1.334548
1.278520
1.227856
1.265407
1.274943
1.304746
1.249909
1.133680
1.297593
1.036525
1.101494
1.046658
1.170635
1.055598
1.017451
1.078844
0.979900
1.083612
0.914931
1.116991
1.028776
0.928640
1.038909
0.911951
0.926852
1.088977
0.984669
1.115799
1.118779
1.059771
1.077652
1.108646
1.211762
1.216531
1.358986
1.499653
1.543760
1.643896
1.877546
1.953840
4.218817
21.698475
56.726933
142.687559
250.362754
444.539785
594.278574
743.390918
784.720778
743.998885
655.550957
482.083559
340.963006
185.090899
104.089975
42.329431
17.265677
5.469918
3.815889
3.388524
3.140569
3.204942
##ZVALUE=390
0.637770
0.591874
0.568628
0.677705
0.579953
0.683665
0.695586
0.804663
0.571609
0.718832
0.710487
0.592470
0.618696
0.709891
0.628829
0.694990
0.606775
0.806451
0.717640
0.720620
0.680685
0.772476
0.622869
0.730753
0.830889
0.698566
0.874996
0.947714
1.219511
1.329780
1.276731
1.434684
1.674891
1.512766
1.713634
1.650453
1.639724
1.723766
1.662970
1.628995
1.505613
1.482964
1.456738
1.530647
1.599789
1.426935
1.476407
1.273751
1.299977
1.383424
1.199841
1.221895
1.205802
1.273751
1.135468
1.144409
1.085997
1.013875
1.023412
1.055598
1.000762
1.101494
0.971556
1.160502
1.003742
1.201630
1.148582
1.365542
1.279712
1.377463
1.343489
1.337528
1.489520
1.351833
1.386404
1.642704
2.272725
11.383891
34.457445
105.340481
197.044015
373.021960
518.562794
686.138868
765.621662
782.671571
718.933940
564.878583
430.456996
262.029767
150.143504
60.866475
28.675795
9.290576
4.516840
3.804564
##ZVALUE=395
0.721812
0.666976
0.570416
0.695586
0.787973
0.673532
0.773668
0.753999
0.631809
0.681877
0.507832
0.641942
0.683665
0.565648
0.748634
0.677705
0.726581
0.719428
0.771880
0.723600
0.653863
0.821948
0.732541
0.742674
0.763535
0.785589
0.989437
1.059771
1.313686
1.366735
1.538992
1.597404
1.850724
1.999736
1.756549
1.867414
2.001524
1.981854
1.977682
1.818538
1.855493
1.822710
1.764894
1.735687
1.609921
1.493692
1.588464
1.527667
1.528859
1.387596
1.367927
1.243949
1.287460
1.399517
1.176000
1.263618
1.087785
1.244545
1.119971
1.165867
1.155734
1.067519
1.254678
0.974536
1.022816
1.247525
1.252890
1.152754
1.082420
1.121759
1.338720
1.189709
1.345873
1.273751
1.282692
1.401901
1.350641
1.462698
1.859665
6.252527
22.072792
76.127648
149.815679
298.810005
435.011983
624.338984
736.460686
802.907944
783.098936
659.489632
515.039563
316.192508
200.201869
93.614459
44.574738
14.614463
##ZVALUE=400
0.838637
0.876784
0.819564
0.751615
0.740886
0.697970
0.553727
0.705719
0.638962
0.587702
0.625849
0.582933
0.691414
0.535846
0.772476
0.600815
0.625849
0.573993
0.832677
0.540614
0.734925
0.878572
0.641942
0.715852
0.759959
0.900626
0.811815
1.052618
1.227856
1.398921
1.596808
1.653433
1.839995
1.932979
2.200603
2.073646
1.967549
1.940727
2.058744
1.999736
1.976490
1.837611
1.757741
1.665950
1.737475
1.636744
1.510978
1.609921
1.580715
1.372695
1.471639
1.511574
1.499653
1.402497
1.372695
1.261830
1.029968
1.050830
1.134872
1.088977
0.945926
1.173615
1.004934
1.019835
1.060963
1.161695
1.166463
1.025796
1.213551
1.270771
1.180768
1.224875
1.330972
1.339912
1.075864
1.263618
1.151562
1.304746
1.372695
1.571774
1.565814
3.825426
12.527704
44.437647
96.621513
215.458870
345.513821
535.513759
663.806796
770.407915
785.762668
692.181587
576.114655
393.473506
258.672833
129.906535
##END
