##TITLE=50FILTER
##FORMAT=SPECTACLE-ASCII V-1.2
##DATA TYPE=ULTRAVIOLET SPECTRUM
##SECOND TYPE=ULTRAVIOLET SPECTRUM
##DATE=12/18/17
##TIME=12:53:58
##SPECTROMETER/DATA SYSTEM=SPECTACLE
##XUNITS=NM EM
##YUNITS=ENERGY
##YFACTOR=1
##FIRSTX=220
##LASTX=410
##NPOINTS=96
##3DDATA=Equidistant
##ZUNITS=NM EX
##FIRSTZ=210
##LASTZ=400
##ZPOINTS=39
##XYDATA=(Y..Y)
##ZVALUE=210
16.777515
17.970800
12.776852
11.736751
11.333823
11.092424
8.889437
8.772612
6.980896
5.358458
4.479885
3.894567
3.464818
3.423691
3.146529
3.588796
4.063845
3.762841
3.630519
3.907681
3.820658
4.875660
4.490614
5.592704
7.166862
8.881688
10.985732
12.300611
17.105937
19.770861
22.780895
24.802685
28.477907
30.442476
31.237602
32.000542
33.046603
34.167767
30.944943
30.781627
29.235482
27.405620
25.867820
25.400519
24.381876
23.286939
24.201870
21.119714
20.784736
21.034479
18.826723
18.507838
17.231703
16.339421
17.803907
17.238855
17.219782
14.029741
14.270544
14.061928
13.847947
13.738871
14.040470
11.919737
11.372566
11.465549
10.922551
10.598898
12.077689
12.478828
13.646483
14.205575
14.074445
16.096830
16.578436
16.583800
14.985800
13.649464
14.384985
11.689663
11.345744
10.076761
9.987950
8.705854
7.177591
6.876588
6.212592
6.878972
7.371902
7.542968
10.197759
14.347434
17.672777
19.983649
28.355718
31.889677
##ZVALUE=215
37.415624
34.981966
27.217865
23.829937
19.774437
16.503930
14.252663
15.841722
15.085936
12.148619
12.701750
10.702610
7.793903
5.404949
3.855824
3.910661
3.288984
2.902746
3.327727
3.989935
3.363490
3.706813
4.278421
5.193949
6.448627
8.515716
11.008978
14.585853
17.549992
21.289587
26.776791
27.540922
31.284690
33.320785
37.464499
37.824512
35.645962
36.564469
36.636591
36.312938
36.538839
33.457875
32.846928
32.644868
30.459762
25.547743
26.617646
25.099516
23.468733
22.309422
19.243956
20.997524
17.776489
18.654466
16.752481
16.179681
16.273856
15.419722
14.428496
15.106797
12.394786
12.483597
12.680888
12.297630
12.505651
11.390448
11.037588
11.461973
10.872483
10.509491
10.874867
11.681914
12.307763
12.355447
12.456775
12.475848
13.408661
11.331439
9.808540
10.617971
10.229945
8.667707
8.676648
7.497668
7.450581
6.998777
6.102920
5.169511
5.151629
5.390644
5.125999
4.954934
5.732775
6.306767
8.111596
12.033582
##ZVALUE=220
81.535578
83.808899
78.934431
64.642429
53.236485
43.200850
35.897493
26.762486
25.418997
24.166703
25.870800
24.127960
19.997954
18.737912
15.192628
10.842681
7.844567
5.822778
5.026460
3.787875
3.592968
4.067421
4.573464
4.290938
6.547570
10.287762
11.818409
15.841722
19.035935
24.772882
29.410720
33.878684
36.566854
43.192506
42.277575
44.035912
43.908954
43.892860
44.577718
42.284727
39.237738
38.926601
37.832856
35.539865
33.900738
33.366680
30.701756
28.676987
27.506948
25.330782
22.699833
23.810863
21.768808
19.272566
18.862486
17.370582
16.208887
15.278459
14.889836
14.578700
15.069842
14.434457
12.935996
12.705922
12.094975
11.174679
11.425614
11.448860
10.711551
11.627674
10.697842
12.680888
14.064908
11.894703
12.077689
13.014674
13.449788
12.157559
11.399984
9.648800
10.569692
10.202527
9.795427
7.484555
7.392764
6.854534
6.539822
6.542802
5.810857
5.897880
5.867481
6.437898
5.399585
5.133748
5.082488
5.335808
##ZVALUE=225
113.349557
116.965771
136.007667
140.809417
137.759447
118.843913
103.987455
77.589750
60.012937
45.816898
40.244460
38.757920
38.601756
38.887858
38.805604
33.577681
27.534962
21.523833
15.621781
11.107922
7.006526
5.451441
4.754663
5.316734
7.296801
8.177757
10.407567
14.167428
17.726421
21.931529
26.228428
31.631589
32.566786
34.723878
37.711859
40.151477
40.748715
42.483807
42.858720
45.082569
40.219426
39.340854
38.377643
34.208894
34.672618
31.205416
28.927922
26.576519
27.690530
26.029944
23.264885
23.772717
22.483468
21.327734
18.885732
17.698407
16.939640
17.412901
15.777946
14.668703
14.835596
13.270974
13.726950
11.846423
12.671947
10.911822
11.863708
11.976957
11.364818
11.189580
11.312962
12.857914
12.184978
13.971925
11.787415
12.969971
11.928678
12.673736
10.989904
11.174679
9.824634
9.552836
8.966923
8.283854
8.278489
7.941723
7.716417
6.695986
6.082654
6.936789
6.839633
6.243587
7.026792
6.983876
5.144477
6.403923
##ZVALUE=230
89.133978
96.808672
130.857825
179.551840
213.144422
232.122540
234.844685
205.127597
182.144642
142.758489
105.983615
77.216625
58.954954
54.168701
55.804849
61.851740
60.535669
57.191849
49.514771
41.170716
31.482577
19.306540
13.917685
9.115934
7.049441
7.038713
9.152889
10.346770
13.349652
15.276670
18.416643
20.957589
23.939610
27.116537
27.573705
27.804971
30.753613
31.200647
29.043555
31.590462
32.356977
30.590892
29.202700
28.405786
25.745630
25.991797
24.462938
23.199916
21.036863
20.165443
20.944476
19.161701
18.753409
17.694831
17.115474
14.406443
16.646981
15.349984
15.376806
14.765859
15.598536
12.613535
11.714697
13.025999
13.254881
12.283921
12.123585
11.970997
11.955500
13.734698
12.408495
13.062954
13.104677
12.404919
14.043450
13.398528
13.971925
13.169646
12.492537
11.128783
11.724830
10.341406
9.421706
9.369850
8.740425
9.250641
9.168983
7.027984
7.858872
7.642508
6.615520
7.078648
6.505847
6.796718
7.172823
7.318854
##ZVALUE=235
26.913881
32.827854
63.771605
122.973919
174.592733
253.027678
300.087929
343.975425
360.972881
347.253680
294.522643
236.893892
160.313845
122.599602
88.832974
80.133677
76.940656
83.345771
87.635517
86.287856
80.300570
66.848993
53.256750
36.620498
28.959513
16.037822
12.665987
10.074973
9.747744
11.915565
11.529922
12.774467
14.646649
16.056895
15.643835
17.292500
17.961860
20.403862
20.778775
18.903613
19.803643
18.302798
19.828677
19.414425
18.699765
18.599629
18.792748
18.644929
17.230511
15.643835
16.062856
14.144778
14.661551
14.354587
15.446544
14.835000
14.417768
13.080835
13.225675
13.840795
14.528632
12.427568
12.713671
13.297796
12.400746
12.712479
11.375546
13.256669
11.961460
12.394786
14.176965
13.394952
15.284419
14.714599
13.619661
14.572740
15.862584
13.030767
13.224483
13.096929
13.716817
11.165738
11.963844
9.616613
8.693933
10.664463
9.081960
10.188818
8.028746
8.787513
7.830858
8.357763
8.424520
8.071661
8.735657
7.833838
##ZVALUE=240
2.793670
3.583431
12.921691
30.916929
72.727799
122.240782
218.233466
303.994417
423.594713
486.650467
521.238446
503.520966
451.361537
355.874896
271.584988
180.605650
132.159591
103.311539
95.909834
99.872947
111.272931
115.102530
114.573836
101.227760
83.745718
71.295500
47.877431
35.218596
22.912621
15.193820
11.815429
11.389852
11.832714
12.932420
12.460947
12.777448
13.980865
14.239550
13.979673
15.363693
14.792681
15.461445
15.456676
14.604926
14.904737
15.674829
14.392734
14.396906
14.296770
13.821721
13.934970
14.175773
13.499856
13.586879
13.702512
12.041926
13.511777
13.168454
13.668537
13.367534
12.147427
11.763573
12.114644
12.454987
13.056993
12.693405
13.574958
12.417436
12.519956
13.709664
13.586879
14.099479
13.235807
13.478994
14.627576
15.122890
15.630722
14.874935
13.673902
13.598800
14.119744
12.266636
12.647510
12.153983
10.860562
9.628534
10.449886
10.128617
10.571480
8.234978
9.373426
9.382963
9.095669
9.024739
8.990765
9.460449
##ZVALUE=245
1.938939
2.280474
1.803637
3.016591
6.656647
22.488832
49.627423
112.641454
189.718604
274.250507
416.257977
510.601997
587.942600
599.826574
548.818707
471.620560
348.313451
261.513591
190.938711
120.348930
100.662708
98.623633
111.993551
129.341483
135.313869
125.931501
115.787983
94.090700
77.852607
55.762529
39.026737
26.131868
20.309687
15.613437
14.457703
13.828874
14.283657
14.682412
15.105605
15.587807
15.172958
15.876889
13.950467
14.570951
14.711618
15.086532
14.200807
12.678504
14.305711
13.334751
12.675524
12.036562
13.148785
12.290478
11.546612
13.091564
12.035966
11.749864
12.456775
11.676550
11.599660
11.499524
11.877418
11.304617
11.624694
12.350678
11.147857
11.384487
11.516809
12.627840
12.642741
11.749864
13.292432
13.263822
13.111830
13.123751
13.466477
12.228489
12.331605
11.845827
11.392832
10.325909
10.006428
9.620786
10.363460
10.473728
9.426475
8.284450
8.974671
8.330941
8.205771
7.795691
8.019805
8.598566
8.962750
8.766651
##ZVALUE=250
1.709461
1.628995
1.932979
2.036691
1.803637
2.441406
3.814697
12.191534
41.863918
86.753964
181.598663
274.548531
390.909910
532.507896
612.549782
666.515827
649.297833
572.259426
483.804941
338.016748
231.027007
151.791573
102.270842
90.713501
105.895996
120.073557
136.219859
141.146779
138.691664
127.275586
108.204484
85.952878
65.858960
43.992996
34.770966
23.773909
21.096468
18.356442
18.393993
18.192530
19.604564
18.810630
18.932819
17.091632
18.605590
17.814636
16.554594
15.952587
16.549826
16.116500
14.992952
13.849735
13.899803
13.928413
14.093518
12.916923
13.363957
13.091564
12.810826
12.185574
12.201667
12.186766
10.750890
11.189580
11.831522
10.903478
10.879636
10.408759
11.022687
11.511445
11.248589
11.977553
11.032820
12.349486
11.783838
11.309981
11.724830
11.633635
10.166764
9.722710
8.808970
9.014606
8.455515
8.100867
7.455945
7.898808
7.799864
7.475615
7.811785
7.022619
7.724762
7.086992
6.805658
7.135868
6.984472
7.180572
##ZVALUE=255
1.767874
1.898408
1.926422
1.929998
1.813769
1.818538
2.227426
1.928806
2.622604
5.494952
25.907755
61.986446
147.102475
234.541893
375.585556
501.540899
647.807717
712.656975
740.024447
695.948005
599.328876
435.503721
307.176709
178.625584
120.801926
89.462996
91.830492
110.634565
129.727721
149.266720
156.362653
150.445700
142.342448
117.356777
99.959970
70.499778
56.149960
39.428473
32.899976
27.699471
26.078820
25.005937
22.575855
23.151636
23.200512
21.188855
21.260977
20.797849
20.546913
19.639730
17.744899
17.429590
16.431808
16.962886
15.326738
14.912486
14.474988
14.225841
14.042854
13.783574
13.079643
12.233853
12.320876
11.283755
11.173487
11.250973
11.405945
10.194778
11.059642
11.118650
10.923743
11.564493
10.400414
11.744499
11.283755
10.982752
10.089874
9.874701
9.399652
8.598566
8.761883
7.496476
8.713603
7.574558
7.086992
6.988645
6.574988
6.405711
6.131530
6.677508
6.121993
6.576777
5.864501
6.131530
6.168485
6.696582
##ZVALUE=260
1.382828
1.368523
1.496673
1.339912
1.404881
1.715422
1.570582
1.631975
1.436472
1.695752
2.191663
3.365874
12.484789
45.179725
91.680884
205.287933
316.016674
476.975441
606.725812
749.181509
814.395547
811.208487
702.000856
580.019951
383.138657
265.117884
161.400437
105.623603
84.061623
94.115734
113.294721
145.909786
163.502693
177.474618
173.533559
157.654881
135.506988
107.680559
87.205768
64.055920
50.861835
38.747787
34.530759
31.422973
29.424429
27.459860
25.095940
25.690794
25.737882
23.168921
21.989942
21.090508
20.122528
18.589497
18.424988
17.130971
16.905665
16.362667
15.401840
14.196634
13.998747
13.673902
12.608767
12.001991
12.429953
11.610985
10.230541
10.718703
10.924935
10.728836
11.050701
10.267496
9.526610
10.271668
10.145903
9.029508
9.387732
8.648634
8.391738
7.401705
7.634759
6.425977
6.629825
6.502867
6.240606
5.675554
5.517602
6.091595
5.635619
5.387664
5.747676
5.878806
5.620718
5.460978
5.493760
5.475879
##ZVALUE=265
1.310706
1.273751
1.219511
1.449585
1.591444
1.493692
1.506805
1.676679
1.695752
1.789927
1.876950
1.704693
1.805425
2.552867
6.147623
31.602979
72.821975
158.313513
263.610482
453.841686
607.356429
748.176575
882.058740
896.337628
797.963738
684.430599
513.470769
365.188718
215.048790
138.830543
99.589825
87.927580
104.635954
134.285688
157.499909
178.820491
188.661814
182.127953
168.057680
140.937567
118.346810
88.561773
69.581866
52.641630
42.581558
35.846829
31.928420
30.499697
28.827786
26.466846
24.070740
24.547577
23.012757
21.796823
20.208955
18.777847
17.968416
17.909408
17.332435
15.480518
13.843775
13.627410
13.064742
12.754798
11.892915
11.755824
11.317730
10.695457
10.506511
9.892583
9.807944
9.866953
10.227561
9.935498
9.555817
8.861423
8.560419
8.538961
8.144975
7.277727
6.884933
6.273985
6.358624
6.221533
6.168485
5.535483
6.070733
5.616546
4.835725
4.892945
5.080700
5.066991
4.899502
4.893541
4.550815
5.128980
##ZVALUE=270
1.340508
1.363754
1.587868
1.440644
1.300573
1.592636
1.584888
1.310706
1.527667
1.642704
1.520514
1.873970
1.794696
1.826882
1.872778
1.957417
3.213882
15.205741
43.820739
121.822953
218.717456
361.468792
580.267906
736.844540
898.782611
944.709778
915.700793
825.579762
642.712712
487.533808
341.302752
190.952420
124.813914
87.254643
89.656711
113.976002
137.540698
169.735551
184.004903
191.275477
188.086629
168.856978
147.254467
115.199685
90.903640
64.906478
53.286552
40.509701
34.139752
29.475689
26.888847
25.259852
23.996830
21.763444
21.384954
19.410849
18.142462
17.371774
16.274452
14.993548
14.409423
13.607740
13.083816
12.674928
11.724830
11.528730
10.530949
10.143518
10.798573
9.777546
9.805560
10.121465
9.584427
9.136796
8.730888
8.373857
8.905530
8.463860
7.825494
7.597804
6.884933
6.220937
6.423593
6.307960
5.642772
5.866885
5.482435
5.464554
5.418658
4.836917
5.151629
4.676580
4.938841
5.167723
4.898906
4.929900
##ZVALUE=275
1.315475
0.996590
1.237988
1.470447
1.265407
1.336932
1.486540
1.265407
1.638532
1.518726
1.583695
1.532435
1.559854
1.557469
1.589656
1.832843
1.761913
1.882911
2.347827
6.762743
26.102662
69.768429
178.825855
309.332609
527.399778
676.720738
853.493810
948.066711
981.186032
918.948650
805.971026
601.923466
433.206558
242.770910
149.699450
88.929534
75.907707
87.610483
107.561946
138.332844
161.247849
178.360939
183.699727
175.551772
162.516832
130.352974
109.291673
81.554651
63.457489
44.129491
33.361912
26.670694
22.647977
20.407438
19.058585
17.464757
16.589761
16.353726
14.890432
14.134645
13.341904
13.368726
12.889504
11.491776
11.209846
10.266900
9.826422
9.728670
9.777546
9.695888
9.216666
9.213686
8.902550
8.906722
8.406639
8.236766
8.354783
7.328987
7.603765
7.365942
7.069707
6.547570
6.300807
6.123781
5.977750
5.854964
5.201697
5.077720
5.252957
5.016923
4.853606
5.164742
4.710555
4.446507
4.498959
4.634857
##ZVALUE=280
1.252890
1.289845
1.039505
1.164675
1.142621
1.253486
1.282692
1.145601
1.206994
1.179576
1.258850
1.221895
1.507998
1.305938
1.577735
1.434684
1.636744
1.844764
1.866817
1.792908
2.148747
2.701879
17.037988
53.232908
148.019791
253.386497
430.106521
598.938465
797.722936
920.986533
991.472602
970.081687
872.430801
661.484599
493.338704
288.778543
178.991556
93.677640
62.784553
59.356689
72.538853
101.926923
121.414661
150.987506
163.804889
167.826414
163.010955
144.144893
124.859810
93.254447
72.462559
48.948526
36.008954
24.360418
19.210577
15.502572
13.976693
13.770461
13.319850
12.397766
12.076497
11.466742
10.785460
10.710955
10.606647
9.659529
9.205937
9.370446
9.153485
8.999705
8.994937
8.897781
8.520484
8.538961
7.985830
8.249879
7.985830
7.310510
7.057786
7.071495
6.470680
6.355643
6.046891
5.761981
5.412698
5.671978
5.264878
5.430579
4.961491
4.924536
5.299449
4.930496
4.708767
4.754663
4.743934
4.730821
##ZVALUE=285
1.131892
1.147985
1.206994
1.194477
1.159906
1.299977
1.138449
1.187921
1.196861
1.033545
1.100898
1.148582
1.334548
1.298785
1.305938
1.393557
1.274943
1.484752
1.353621
1.635551
1.761913
1.765490
1.844764
2.288818
8.260608
27.763844
86.886883
167.354941
332.739949
485.324860
693.762898
839.926004
981.245637
1014.033556
926.759839
794.673562
575.768948
400.293469
218.248963
128.552914
62.038898
42.271614
43.974519
58.269501
84.140897
105.008483
129.960775
144.956708
153.084993
150.738955
135.596991
115.934610
88.846684
67.082644
43.747425
30.983686
18.776655
14.570951
12.170672
10.702610
9.448528
9.290576
9.233952
9.091496
8.629560
8.559823
8.697510
8.814931
8.229613
8.319616
8.203983
8.557439
7.958412
7.818937
7.639527
7.123947
7.532835
7.020831
6.530881
6.374717
6.478429
6.178617
5.933642
5.723834
5.668998
5.680919
5.122423
5.531907
4.978776
5.048513
4.953742
5.149841
4.583597
4.851818
4.684925
4.539490
##ZVALUE=290
1.006722
0.995994
0.943542
0.934601
0.992417
1.113415
1.079440
1.061559
1.062751
1.234412
1.201630
1.067519
1.123548
1.089573
1.189709
1.275539
1.351833
1.538992
1.638532
1.434684
1.433492
1.485944
1.742840
1.849532
1.935959
2.269745
3.331900
11.004806
50.258636
110.494494
202.044845
386.642814
560.982823
792.086720
931.710005
1015.819907
1003.517509
857.243538
700.630546
469.413996
311.354399
157.133937
85.023642
37.961602
28.059483
37.105680
50.672889
73.744655
94.901919
122.015476
136.423707
144.672990
143.210888
127.352476
110.328794
82.052946
61.511993
39.489865
28.187633
16.999841
12.851954
9.431839
8.142591
8.168817
7.801652
7.611513
7.535815
7.651448
7.463694
7.952452
7.860661
7.571578
7.519722
7.439852
7.238984
7.030964
6.865859
6.753802
6.623864
6.250739
6.037951
5.739927
5.787611
5.274415
5.574822
5.304813
5.217791
4.964471
4.938841
4.867911
4.840493
4.866719
4.633665
4.640818
4.739761
4.626513
##ZVALUE=295
1.056790
0.976920
1.002550
0.968575
1.039505
1.031756
0.936985
1.021624
1.016855
1.166463
1.233816
1.142621
1.378655
1.093745
0.934601
1.103878
1.157522
1.246929
1.242757
1.352429
1.473427
1.367927
1.595616
1.527667
1.641512
1.682639
1.765490
2.043843
2.145767
4.635453
17.928481
70.590973
146.406889
312.876701
475.341678
711.261034
864.267945
1005.101800
1015.819907
933.852792
797.283649
565.197468
391.579866
209.155679
115.938783
44.528842
25.025606
21.749735
28.907657
46.518445
65.209866
90.779662
110.791922
129.946470
138.522983
133.863688
122.924447
103.035569
83.077550
56.916475
40.985942
24.931431
17.750859
10.967851
8.337498
7.029772
7.108450
7.015467
6.849766
7.026792
7.079840
7.371902
7.160902
6.731749
6.782413
7.008910
6.678700
6.227493
6.106496
5.736947
5.524755
5.495548
5.274415
5.351901
5.105734
5.200505
5.168915
5.222559
4.643798
4.928708
4.831553
4.881620
4.655719
4.638433
4.879832
4.661679
##ZVALUE=300
0.876784
0.849962
0.859499
1.042485
1.072884
0.952482
0.982881
1.076460
1.177788
1.115799
1.142621
0.886917
1.187921
1.189709
1.068711
1.053810
1.043677
1.356602
1.010895
1.270771
1.167655
1.273751
1.159906
1.198649
1.511574
1.622438
1.563430
1.498461
1.881719
1.886487
2.092719
2.545714
10.812879
37.256479
113.945603
208.582878
395.292640
567.452908
793.789029
928.066969
1015.625596
1004.796624
863.201618
707.151890
466.566682
302.375555
153.413415
83.090663
32.971501
17.923713
19.167662
26.363730
41.951537
58.505535
83.738565
103.123784
123.782754
130.088925
129.297972
120.170712
100.169778
81.892610
58.126450
41.321516
25.113821
16.943812
10.995865
8.613467
6.984472
6.598830
6.506443
6.874800
6.510615
6.098747
6.215572
6.065965
6.204844
5.838871
5.692840
5.617738
5.322695
5.381703
5.583763
4.955530
5.113482
4.788637
4.798770
4.746914
4.810691
4.849434
4.600883
4.928708
4.713535
4.564524
4.739761
4.358888
##ZVALUE=305
0.910759
0.906587
1.124740
0.879765
0.965595
0.919700
1.034737
1.054406
1.108646
1.068711
1.052618
0.960827
1.015663
0.978708
1.120567
1.163483
1.030564
1.176000
1.197457
1.052618
1.216531
0.954866
1.139641
1.407862
1.162887
1.286864
1.361966
1.489520
1.591444
1.650453
1.826882
1.595616
1.863837
2.093911
4.207492
24.214983
64.563751
168.233514
289.732814
503.636003
681.232810
881.428719
988.346934
1014.519930
939.674973
739.632845
574.756861
368.933678
228.930712
103.719831
50.968528
19.370914
13.738871
17.600656
24.825931
41.054487
55.944920
79.609752
97.530484
115.741491
121.692419
120.803714
113.359690
93.704462
76.553822
54.429770
39.630532
23.183823
15.485883
9.970665
7.825494
6.606579
6.277561
5.597472
5.841851
6.374717
5.684495
5.089641
5.284548
5.335808
5.088449
5.065799
5.252957
5.102754
5.095601
4.897714
4.925728
4.585981
4.663467
4.507899
4.518628
4.632473
4.343987
4.618764
4.345775
4.423857
##ZVALUE=310
0.773668
0.906587
0.999570
0.978708
0.890493
0.914931
1.008511
0.898838
1.075864
0.957847
0.975728
1.022816
1.078844
0.952482
0.837445
1.129508
1.005530
0.930429
1.046658
1.125932
1.067519
1.218915
1.082420
1.071692
1.253486
1.088977
1.177788
1.153946
1.340508
1.338720
1.385808
1.595616
1.493692
1.707673
1.675487
1.911521
2.381802
10.056496
32.649636
105.322599
197.999477
380.848646
555.250645
784.940720
926.332474
1015.401483
999.974608
867.738724
713.948011
477.210879
315.941572
158.651471
84.135532
31.628609
15.553832
12.054443
14.874935
23.128986
33.747554
52.208900
68.502426
90.796947
104.278922
113.878846
115.668774
106.074810
94.370842
73.711872
55.504441
35.632849
25.454760
15.362501
10.956526
7.464886
6.778836
5.519986
5.078912
5.224943
5.116463
4.994869
4.463792
4.763603
4.680753
4.738569
4.793406
4.668832
4.844666
4.909635
4.569888
4.505515
4.498959
4.615784
4.259944
4.107952
4.200935
4.026890
##ZVALUE=315
0.919700
0.964999
0.983477
0.850558
0.876784
0.949502
0.976920
0.913739
0.905991
0.906587
1.004934
0.969768
0.976920
1.085997
1.090765
1.094937
1.042485
1.123548
1.105666
1.084805
1.088977
1.263618
0.985861
1.235604
1.306534
1.176596
1.350641
1.356602
1.390576
1.463890
1.312494
1.227856
1.593828
1.404881
1.635551
1.424551
1.558661
1.996756
2.150536
4.776716
16.713738
67.632794
141.661763
299.671888
468.169451
714.532733
861.129761
994.426012
1015.887856
930.737853
793.281794
564.412475
397.830606
209.311843
114.118457
42.964816
19.824505
10.461807
10.827780
13.893843
19.727945
32.618642
44.930577
65.165758
81.213713
100.424886
108.312964
109.759569
102.430582
85.480809
71.874857
50.897598
37.281513
21.999478
15.061498
9.383559
6.940961
5.473495
5.011559
4.580617
4.603863
4.505515
4.420877
4.600883
4.368424
4.583597
4.441738
4.204512
4.334450
4.503727
4.269481
4.032850
4.389882
4.264712
4.107952
4.083514
##ZVALUE=320
0.794530
0.848770
0.844598
0.833869
0.882745
0.923872
0.733733
0.702739
0.703931
0.976920
0.953674
0.936985
1.014471
0.935793
0.961423
0.846982
0.757575
0.836849
0.885725
0.992417
0.990629
1.091957
0.922680
0.978708
1.195669
1.112819
1.030564
1.115799
0.842810
0.980496
1.068711
1.352429
1.399517
1.365542
1.377463
1.341701
1.459718
1.676679
1.594424
1.835823
1.822710
2.493858
7.130504
37.784576
93.958974
227.120519
363.938808
579.822659
751.276612
931.552649
1000.180840
977.203846
875.037909
664.009452
490.640998
270.906687
155.907869
68.721771
31.066537
11.684895
8.354783
9.310842
11.828542
18.236637
26.205778
43.288469
57.655573
76.913834
90.249777
101.038814
101.878643
95.358491
84.599853
64.148903
50.545931
32.496452
22.435784
13.748407
9.548664
5.865693
5.139709
4.525781
4.332662
4.315972
4.155636
4.253983
3.981590
3.916621
4.220605
4.147887
3.911853
4.057884
4.105568
4.240870
3.927946
3.991723
##ZVALUE=325
0.695586
0.666976
0.807643
0.941753
0.846982
0.786781
1.001954
0.910759
0.847578
0.815988
0.820756
0.725985
0.952482
0.809431
0.877976
0.851750
0.905991
0.937581
0.917912
0.915527
0.842810
1.075864
1.099706
0.963807
1.022816
1.020432
1.020432
0.950694
1.201630
1.039505
1.192689
1.104474
1.189709
1.176000
1.314878
1.212955
1.292825
1.290441
1.312494
1.485944
1.468658
1.753569
1.835823
2.137423
3.791451
24.736524
65.329671
161.160827
281.906724
498.385429
669.586658
868.351460
968.561769
989.469886
911.039710
714.425445
540.786982
330.282450
200.267434
87.289810
41.856766
14.443994
8.601546
7.529855
8.389950
11.474490
16.055703
26.343465
38.640499
57.540536
71.673989
86.561441
93.206763
94.831586
89.570880
74.619651
61.005950
44.638515
31.218529
19.146800
12.607574
7.868409
6.085634
4.545450
4.472733
4.221797
4.074574
4.124641
3.948808
3.739595
3.907681
3.890991
3.782511
3.824830
3.876686
3.783703
##ZVALUE=330
0.800490
0.880957
0.824928
0.814795
0.726581
0.906587
0.809431
0.823736
0.659823
0.808835
0.755787
0.782609
0.866652
0.887513
0.849962
0.815988
0.859499
0.857711
1.043677
0.832677
0.906587
0.795722
0.940561
1.003742
0.910759
0.861883
0.904799
0.964999
1.004934
0.942945
1.043677
1.181960
1.069903
1.092553
1.107454
1.104474
1.278520
1.118779
1.293421
1.221895
1.525879
1.359582
1.510978
1.561642
1.663566
1.857877
2.402663
10.322928
34.011602
111.362934
206.679702
392.882824
559.268594
776.856542
905.323029
975.653529
935.053825
781.669021
620.346665
398.039818
255.109668
119.666457
61.294436
22.722483
11.001825
6.725788
6.685853
7.664561
9.730458
15.719533
23.427606
37.416816
50.129890
68.664551
80.470443
89.392662
88.422894
82.325935
72.429776
56.114793
42.855740
27.731657
19.154549
11.939406
8.530617
5.824566
4.937649
4.355907
4.005432
3.886819
3.928542
3.735423
3.752708
3.668666
3.620982
3.350973
##ZVALUE=335
0.727773
0.755787
0.801682
0.743866
0.782609
0.795722
0.680685
0.824928
0.719428
0.808835
0.813603
0.750422
0.824928
0.778437
0.723600
0.811815
0.868440
0.925660
0.856519
0.827909
1.014471
1.009703
0.901818
0.877976
0.944734
0.997782
0.939965
1.076460
1.037717
0.882745
0.879765
1.043677
0.980496
1.098514
1.038909
0.981688
1.075864
1.035929
1.042485
1.198649
1.294613
1.396537
1.271963
1.470447
1.345873
1.444817
1.661777
1.802444
2.055764
4.805923
18.021464
70.330501
144.325495
302.373767
466.475487
701.401830
844.540596
954.915881
954.765677
841.685534
696.901679
474.338531
321.734548
166.764855
88.435411
30.708909
13.561845
6.860495
6.395578
6.214976
7.037520
9.416938
13.737679
23.491979
34.025908
50.241947
62.187910
74.552894
81.112981
82.981586
77.597499
64.737797
54.543614
40.901899
30.686855
19.443631
13.206601
8.147955
6.296635
4.562736
3.861785
3.844500
3.377795
3.598928
3.563762
3.796816
##ZVALUE=340
0.601411
0.525713
0.576973
0.483990
0.574589
0.449419
0.466704
0.735521
0.500679
0.533462
0.518560
0.558496
0.642538
0.562668
0.629425
0.578761
0.626445
0.563860
0.624657
0.568628
0.678897
0.593662
0.615716
0.699759
0.721812
0.635982
0.686646
0.788569
0.712872
0.709891
0.737906
0.771880
0.913739
0.939965
0.618696
0.901818
0.810623
0.775456
0.981688
0.866652
0.954866
0.998974
1.004934
0.986457
0.937581
1.081824
1.173615
1.099706
1.266599
1.520514
1.382828
2.576709
8.111000
42.069554
101.823807
241.128802
387.725830
602.455735
759.260654
903.556943
942.572951
871.436596
751.128793
550.187826
388.263464
200.809836
112.011433
44.903755
18.972754
7.435679
5.913973
5.822778
5.614758
6.818771
8.907914
14.328957
21.116734
33.218861
44.613481
60.282946
69.680810
77.033639
76.706409
72.709918
64.677000
51.077604
40.846467
27.455688
20.126700
12.497902
8.453727
5.216599
4.357696
3.404617
3.457665
3.301501
##ZVALUE=345
0.558496
0.606775
0.707507
0.693798
0.594854
0.738502
0.583529
0.628829
0.680685
0.721812
0.806451
0.793934
0.859499
0.651479
0.813603
0.648499
0.711679
0.691414
0.694990
0.527501
0.583529
0.881553
0.756979
0.704527
0.765920
0.876784
0.875592
0.615716
0.806451
0.890493
0.976920
0.863671
0.772476
0.899434
0.797510
0.855923
0.930429
0.850558
0.945926
0.902414
1.069903
0.973940
1.172423
1.053810
1.113415
1.128912
1.147985
1.143813
1.301765
1.347661
1.265407
1.606941
1.513958
2.030730
3.795624
23.179650
64.062476
165.913701
285.024643
492.763519
652.113557
829.926729
908.365846
902.215838
815.557837
615.456700
454.069972
266.843438
151.293874
60.067773
27.545691
9.984970
6.738901
6.003976
5.532503
5.504489
5.991459
8.111596
11.346936
19.961596
28.802752
43.027997
52.720904
63.051581
68.740845
71.029663
68.368912
60.044527
51.189661
38.789511
28.881431
18.333793
12.923479
8.012652
5.668998
4.265904
##ZVALUE=350
0.726581
0.634789
0.718832
0.698566
0.768900
0.751615
0.662804
0.842810
0.892878
0.755787
0.758767
0.837445
0.652671
0.888705
0.712872
0.770688
0.841618
0.741482
0.792742
0.908971
0.893474
0.882745
0.786781
0.814795
0.851750
0.851750
0.808835
0.769496
0.851750
0.806451
0.823736
0.926852
0.925660
0.824928
1.013875
0.883937
1.017451
0.900626
0.881553
0.861883
1.010895
1.108646
1.152754
1.021624
1.078844
1.052618
1.026988
1.236796
1.115799
1.338720
1.496673
1.307726
1.464486
1.485944
1.610518
1.668930
2.640486
8.826852
41.721463
96.855760
223.143697
358.796716
567.455888
719.930530
867.494941
906.068683
841.293931
717.608929
493.294597
330.306888
166.976452
91.885924
35.414696
14.736652
6.598830
5.815625
5.113482
4.939437
4.985929
5.497932
7.566810
11.248589
17.744899
25.158525
36.639571
45.729876
56.469440
62.362552
65.892935
63.223839
55.862665
48.203468
36.499500
27.924776
18.075705
13.435483
##ZVALUE=355
0.659823
0.621676
0.745654
0.689626
0.773668
0.827909
0.799894
0.807643
0.577569
0.664592
0.672936
0.777841
0.770688
0.765920
0.890493
0.793934
0.912547
0.784993
0.791550
0.859499
0.866652
0.787973
0.695586
0.907779
0.702739
0.792742
0.784993
0.905991
0.850558
0.847578
1.011491
0.825524
0.908971
0.832677
0.870824
0.947714
0.811815
0.902414
0.923872
0.882745
1.141429
1.059771
0.914931
1.042485
1.085997
1.044869
1.110435
1.116991
1.048446
1.145601
1.131892
1.309514
1.232624
1.263618
1.271963
1.327991
1.467466
1.862645
2.029538
5.540848
19.647479
75.226426
149.751902
298.532844
449.888706
666.491985
794.456601
879.392028
864.831805
732.173920
585.360527
385.564566
246.591568
109.442472
52.772760
16.456842
7.989407
5.468726
5.033612
4.730821
4.489422
4.515648
5.079508
6.775856
9.181499
15.264750
21.684766
31.508803
39.526820
49.953461
55.741668
58.939457
57.705641
51.572919
45.230985
34.905672
##ZVALUE=360
0.785589
0.825524
0.655651
0.748634
0.803471
0.734925
0.803471
0.730753
0.785589
0.749826
0.826716
0.670552
0.811815
0.689626
0.721812
0.805855
0.830889
0.806451
0.748634
0.795722
0.780821
0.741482
0.773668
0.783801
0.921488
0.900626
0.835657
0.903606
1.023412
0.937581
0.893474
0.997782
0.785589
1.003742
0.879765
0.933409
0.839829
1.000762
0.981688
0.882745
1.066923
1.024604
0.958443
1.061559
1.105666
1.173615
1.137853
1.031756
1.066923
1.108646
1.155734
1.100898
1.147985
1.147985
1.259446
1.273751
1.327991
1.388788
1.540780
1.642704
1.829863
2.180934
9.857416
32.893419
106.236935
197.350979
367.218852
525.047779
728.006959
828.014016
855.935812
795.998573
635.845661
478.305817
278.905630
168.363452
72.270632
32.471418
10.023713
5.719662
4.835725
4.773736
4.487634
4.071593
4.197955
4.533529
5.734563
7.452965
12.158751
17.188787
25.810599
32.972693
43.451786
48.960447
53.416491
53.629875
##ZVALUE=365
0.780821
0.816584
0.811815
0.662804
0.709891
0.767708
0.646710
0.623465
0.712872
0.781417
0.632405
0.777841
0.684857
0.816584
0.722408
0.888705
0.769496
0.917912
0.696778
0.802875
0.870824
0.755787
0.758767
0.865459
0.876784
0.863671
0.889897
0.977516
0.846982
0.860691
0.851750
0.979900
0.793934
0.873804
0.862479
0.973940
0.873804
0.867844
0.924468
0.959635
0.812411
0.770688
0.932813
0.899434
1.096725
1.102686
1.129508
1.085997
1.040697
1.100898
1.043677
1.092553
1.037717
0.935793
1.149774
1.216531
1.454949
1.365542
1.026988
1.334548
1.554489
1.491904
1.634955
2.022982
4.030466
22.294521
59.300661
151.255727
266.456604
465.716720
609.214902
757.841468
815.524459
787.364841
688.634515
500.512719
352.127552
194.444656
107.185841
40.186644
16.568899
6.087422
4.998446
4.390478
4.157424
3.916621
3.828406
3.817677
3.919601
4.725456
6.293654
10.074973
13.893843
21.276474
28.153658
37.059784
##ZVALUE=370
0.687838
0.687838
0.660419
0.647902
0.640750
0.748634
0.744462
0.643730
0.696778
0.795722
0.759959
0.840425
0.751615
0.709891
0.758767
0.740886
0.823736
0.653863
0.867844
0.733733
0.799894
0.770688
0.586510
0.870824
0.853539
0.674725
0.716448
0.860691
0.851750
0.778437
0.690818
0.983477
0.929832
0.801682
0.803471
1.005530
0.890493
1.005530
0.937581
0.979900
0.994802
0.959635
0.714660
0.892878
0.950694
0.951886
1.002550
0.945926
1.001954
0.971556
0.985861
0.859499
0.960827
0.998974
0.979900
1.064539
1.178980
1.255870
1.206994
1.276731
1.359582
1.306534
1.407862
1.424551
1.683831
1.564622
2.227426
10.653734
36.452413
116.019845
209.325552
379.278660
527.525544
711.600780
792.741776
799.868703
728.792548
568.399429
417.865515
233.079791
131.702423
52.172542
23.934841
8.859634
5.063415
4.349947
4.068613
3.761649
3.630519
3.630519
3.347993
3.557801
4.220605
5.817413
8.052588
12.922883
##ZVALUE=375
0.693798
0.684857
0.681877
0.813603
0.642538
0.747442
0.868440
0.820756
0.861883
0.886917
0.828505
0.894666
0.790954
0.852942
0.763535
0.719428
0.851750
0.891685
0.702739
0.726581
0.747442
0.875592
0.805855
0.843406
0.966787
0.837445
0.876784
0.799894
0.869632
0.877976
0.877976
1.058578
0.938773
1.037717
0.935793
1.224875
1.129508
0.942945
1.086593
1.017451
0.918508
1.041889
0.850558
1.055598
0.996590
1.098514
0.975728
0.949502
1.056790
0.766516
1.085997
1.098514
1.024604
1.080632
1.020432
1.250505
1.011491
1.180768
1.101494
1.222491
1.222491
1.114607
1.167655
1.249909
1.456738
1.546741
1.664758
1.694560
2.039671
5.600452
19.984841
71.649551
148.057938
308.002830
458.206534
649.808645
758.735538
812.286735
779.345632
638.590455
492.325425
299.080610
185.647607
85.311532
43.063760
14.636517
6.752610
4.243851
4.162788
3.952980
3.547668
3.360510
3.396869
3.114939
3.192425
3.507733
##ZVALUE=380
0.660419
0.764728
0.848770
0.783801
0.690818
0.890493
0.847578
0.462532
0.572801
0.793934
0.810623
0.742674
0.729561
0.672936
0.692606
0.647902
0.693798
0.724792
0.666976
0.800490
0.608563
0.758767
0.633597
0.596642
0.817776
0.831485
0.905991
0.958443
1.067519
1.021624
0.985861
1.130700
1.015663
1.172423
1.115799
1.388788
1.317859
1.289845
1.008511
1.115799
1.259446
1.161695
1.151562
1.005530
1.129508
1.073480
1.246929
1.136661
1.078844
1.129508
1.079440
0.959635
1.053810
0.949502
1.004934
0.918508
1.005530
1.220703
1.190901
1.206994
1.264811
1.136661
1.107454
1.079440
1.179576
1.317859
1.340508
1.468658
1.522899
1.539588
1.904964
3.183484
10.945797
51.026940
115.079880
253.456831
391.290784
580.796599
709.303021
803.220868
796.018839
682.891607
553.892851
370.144844
246.421695
121.375918
65.168738
25.163889
10.174513
4.712939
3.717542
3.659725
3.422499
3.306866
3.185868
3.101826
##ZVALUE=385
0.815988
0.784993
0.745654
0.777841
0.676513
0.634789
0.695586
0.791550
0.728965
0.752807
0.727773
0.735521
0.856519
0.745654
0.728965
0.739694
0.772476
0.766516
0.682473
0.803471
0.910759
0.761747
0.765920
0.730753
0.906587
0.910759
1.072884
1.182556
1.386404
1.349449
1.311898
1.512766
1.590848
1.856685
1.470447
1.801848
1.693964
1.798868
1.685619
1.733899
1.674891
1.604557
1.616478
1.529455
1.497865
1.474619
1.417994
1.426935
1.442432
1.282692
1.425743
1.140833
1.288652
1.105666
1.350641
1.152754
1.179576
1.281500
1.273751
1.277924
1.223683
1.161695
1.285672
1.318455
1.277924
1.119971
1.305938
1.551509
1.314878
1.687407
1.518726
1.723766
1.811981
2.027750
4.951954
28.261542
73.156953
175.618529
297.852755
498.818755
641.892552
767.869949
792.999864
743.933916
645.449758
472.321510
332.359672
181.310773
102.061629
42.243600
17.108917
5.502701
3.955960
3.569722
3.512502
3.267527
##ZVALUE=390
0.698566
0.845790
0.633597
0.773668
0.776649
0.860691
0.677705
0.816584
0.528693
0.714660
0.685453
0.535846
0.556707
0.682473
0.710487
0.674725
0.759959
0.614524
0.612736
0.841618
0.690818
0.550747
0.816584
0.743866
0.804663
0.976920
1.045465
1.266599
1.470447
1.611710
1.656413
1.984835
2.175570
2.163649
2.403855
2.438426
2.410412
2.391934
2.390742
2.305508
2.163649
2.191663
2.177954
2.037883
1.958609
1.934767
1.812577
1.833439
1.678467
1.578927
1.658797
1.470447
1.579523
1.661777
1.348853
1.423955
1.272559
1.375675
1.440644
1.209974
1.077652
1.310706
1.234412
1.341701
1.203418
1.276731
1.391768
1.246929
1.406670
1.623631
1.440644
1.528859
1.482964
1.549721
1.734495
1.829863
2.757907
14.447570
46.166778
136.977434
246.804953
434.391499
575.881600
717.808008
784.068704
787.827969
716.496706
554.874539
421.956778
255.191922
147.952437
60.371757
28.003454
8.282661
4.378557
3.729463
##ZVALUE=395
0.757575
0.789762
0.475645
0.621676
0.812411
0.525713
0.554919
0.538826
0.691414
0.657439
0.738502
0.883937
0.757575
0.551939
0.810623
0.747442
0.660419
0.740886
0.661612
0.740886
0.768900
0.668764
0.894666
0.766516
0.980496
0.853539
1.072884
1.461506
1.625419
2.007484
2.009869
2.273917
2.563000
2.719760
3.166795
2.924800
2.866983
2.892613
2.859831
2.768636
2.646446
2.667904
2.599955
2.465844
2.367496
2.266765
2.053976
2.098680
1.935959
1.619458
1.823902
1.633763
1.610518
1.585484
1.405478
1.581907
1.244545
1.396537
1.482964
1.482964
1.204610
1.361966
1.153946
1.130700
1.120567
1.320839
1.307726
1.387596
1.316667
1.398921
1.414418
1.307726
1.504421
1.445413
1.532435
1.361966
1.607537
1.553893
1.969934
6.628633
36.403537
88.063478
194.789767
313.569903
502.745509
645.545721
778.523684
819.904804
766.282678
664.044619
489.719510
339.248776
179.072618
96.293688
36.160946
15.750527
##ZVALUE=400
0.732541
0.614524
0.553727
0.586510
0.558496
0.672936
0.588894
0.690818
0.689626
0.664592
0.552535
0.575781
0.681877
0.673532
0.506639
0.679493
0.593662
0.528693
0.659823
0.615716
0.644922
0.637770
0.680685
0.739694
0.774860
0.966787
1.123548
1.330972
1.526475
1.825690
2.120733
2.317429
2.574921
2.878904
2.792478
3.011823
2.935529
3.073812
3.274679
2.914667
2.803802
2.650619
2.559423
2.481937
2.332926
2.403855
2.160668
2.135634
1.914501
1.820922
1.747608
1.673698
1.692772
1.575947
1.498461
1.461506
1.467466
1.344681
1.333952
1.477599
1.237988
1.369715
1.186728
1.218915
1.262426
1.160502
0.897646
1.380444
1.485944
1.427531
1.282692
1.370907
1.333952
1.285672
1.170635
1.282692
1.351833
1.353621
1.452565
1.396537
1.684427
4.542470
15.891790
58.644414
123.643875
260.511637
400.372744
590.647459
708.683729
791.195631
787.752867
682.159662
553.210974
361.671448
237.758756
119.114518
##END
