##TITLE=NOFILTER
##FORMAT=SPECTACLE-ASCII V-1.2
##DATA TYPE=ULTRAVIOLET SPECTRUM
##SECOND TYPE=ULTRAVIOLET SPECTRUM
##DATE=12/18/17
##TIME=12:03:07
##SPECTROMETER/DATA SYSTEM=SPECTACLE
##XUNITS=NM EM
##YUNITS=ENERGY
##YFACTOR=1
##FIRSTX=220
##LASTX=410
##NPOINTS=96
##3DDATA=Equidistant
##ZUNITS=NM EX
##FIRSTZ=210
##LASTZ=400
##ZPOINTS=39
##XYDATA=(Y..Y)
##ZVALUE=210
15.972853
13.857484
11.012554
10.555983
9.892583
9.576678
8.805990
8.115768
5.802512
5.377531
4.102588
2.963543
2.661943
2.102852
2.738833
2.262592
2.500415
2.337694
3.063679
2.352595
2.644658
2.729893
3.369451
2.762675
3.348589
3.367662
2.804995
4.445910
3.849864
4.399419
3.779531
4.843473
4.886985
5.189776
6.136894
5.776882
4.969835
5.902648
5.642772
5.942583
4.721880
4.319549
6.076694
5.224943
6.094575
5.263686
5.357862
5.727410
5.161762
4.932880
5.520582
5.081892
5.959868
5.035996
5.241632
5.967617
4.944801
4.186630
5.383492
5.394816
5.299449
5.191565
5.146861
5.030632
5.626678
6.103516
5.937815
5.878806
6.217957
7.137656
7.919669
8.705854
8.917451
11.158586
11.467934
11.808872
12.799501
12.728572
11.459589
10.842681
10.297894
8.492470
7.964969
6.804466
6.565452
5.519986
5.881786
4.937649
5.541444
7.898808
8.498430
10.978580
14.543533
20.018816
22.951961
27.366877
##ZVALUE=215
38.816929
40.103793
28.741956
25.822520
22.859573
16.678572
15.402436
14.224648
14.723539
12.938976
10.456443
9.396672
7.219911
4.785657
3.388524
3.178716
3.355742
2.549887
2.586842
2.357960
2.413988
2.716780
2.898574
3.270507
3.464818
3.353953
3.797412
3.917813
5.665421
4.372597
4.600883
4.897714
5.121827
6.120801
5.992651
7.038713
6.331801
6.591678
7.741451
7.376671
6.959438
7.846951
6.669760
6.891489
6.794930
5.730987
6.204844
6.018877
7.531643
5.870461
6.479621
5.836487
5.583763
5.777478
5.964637
6.214976
5.446672
6.529689
5.885959
6.036758
6.246567
5.082488
6.089807
6.380677
5.150437
5.311966
5.791783
6.705523
6.852746
8.257627
8.743405
9.109974
10.214448
11.619925
12.074709
12.391806
11.548996
11.105537
11.093616
10.838509
10.373592
7.953644
7.883906
7.710457
6.539822
5.794764
5.591512
5.470514
5.264878
5.117655
5.114675
4.316568
5.317926
6.252527
8.118749
12.121797
##ZVALUE=220
89.653730
86.552501
84.927678
73.686838
60.056448
49.125552
37.307739
26.861429
23.624897
23.456812
25.306940
24.221539
20.679832
17.348528
14.223456
10.355711
7.224679
5.688667
3.557801
3.544688
2.809763
2.841949
2.899766
3.111959
3.539920
3.905892
4.730821
5.761981
5.461574
6.329417
7.194877
7.645488
7.389784
8.477569
9.089708
8.925796
8.658767
9.876490
9.867549
9.123683
9.402633
8.622408
9.035468
8.345842
8.895993
8.614659
7.937551
8.716583
8.124709
7.569790
7.281899
8.403659
6.756783
7.503629
6.767511
7.114410
8.035898
6.746650
7.052422
6.337762
7.182956
6.343722
6.675720
7.229447
6.996989
6.859899
7.312894
7.064939
7.512569
8.686781
8.113980
10.365844
10.706782
10.777712
12.590885
12.379885
14.053583
11.831522
12.203455
11.133552
10.985732
10.243654
9.163618
7.836819
6.938577
6.306767
6.619692
5.436540
5.141497
5.986691
6.249547
4.699826
5.073547
5.196929
5.303621
4.642606
##ZVALUE=225
124.041438
128.935575
144.281983
156.900883
145.304799
127.288699
106.709003
77.160597
59.927702
44.305921
38.878918
35.930872
38.558841
39.001703
36.371946
34.063458
26.170611
21.814704
14.700890
10.209680
6.672740
4.727840
3.646612
4.308820
3.962517
4.903674
5.171895
6.177425
6.644726
7.572770
7.983446
7.920861
9.865761
9.857416
11.300445
12.460947
12.028813
12.077689
12.052655
12.253523
12.700558
11.221766
10.318756
10.299683
9.489655
10.276437
9.517670
10.623932
9.551644
8.747578
7.515550
9.010434
8.849502
7.870793
8.011460
8.404851
8.780956
9.318590
8.093715
8.327961
8.154511
7.525682
9.049773
7.289648
8.071661
8.444786
8.626580
8.750558
8.396506
10.624528
9.482503
10.850430
12.115836
13.332963
11.746883
13.073683
12.517571
12.256503
12.353659
10.292530
10.579824
8.677840
10.043979
6.989837
7.214546
7.827878
7.344484
6.651878
5.916953
6.058812
5.937815
5.337596
5.622506
5.205870
5.841851
5.898476
##ZVALUE=230
96.956491
103.803873
138.250589
192.932487
229.137540
244.061947
248.198509
227.725506
192.258954
152.345896
111.988783
74.381828
60.496926
56.817532
55.750608
58.150887
60.908794
56.364536
46.773553
37.809610
30.029416
18.255711
11.520982
7.932782
6.957650
6.022453
5.932450
6.650686
6.992817
7.006526
7.978678
8.619428
10.701418
10.794997
11.124611
10.156631
11.034608
11.804700
11.070967
11.714697
12.027621
11.731982
11.818409
10.821819
10.846853
10.407567
9.871721
9.230971
7.876754
9.759665
8.884668
8.855462
9.605885
9.332895
9.240508
8.822680
9.506941
9.720922
9.454489
8.931756
9.251833
8.359551
9.194613
8.582473
9.403825
8.468628
8.355975
9.494424
10.269880
11.219978
11.136532
11.794567
12.560487
13.731718
13.743639
12.397766
14.052987
12.528896
12.067556
11.601448
11.748672
9.192824
10.700822
9.272695
9.060502
8.077621
7.949471
7.415414
7.546544
7.050633
7.018447
7.246733
6.394982
7.049441
6.791949
6.405711
##ZVALUE=235
29.521585
33.328533
63.548684
128.742456
193.234682
282.704830
334.434509
390.132666
400.784016
369.661450
321.809649
253.767967
166.478753
130.555630
91.949701
82.751513
77.059865
81.251860
85.651875
86.454749
82.401633
66.304803
51.248670
35.177469
27.567744
15.471578
12.166500
7.959604
7.774830
8.023977
8.191466
8.220673
9.049773
9.212494
8.962750
9.876490
10.749698
9.851456
10.941625
10.196567
10.260940
8.993745
10.075569
9.436607
10.795593
9.086728
9.053946
8.954406
9.160638
7.758737
8.707643
8.777976
8.368492
9.010434
8.722544
9.155869
8.348823
8.976460
9.636879
10.573864
9.106994
9.339452
10.078549
8.813739
8.176565
10.156631
10.208488
9.227991
10.533929
12.287498
11.451840
12.172461
14.765859
15.324950
14.219880
14.581680
14.142990
14.746785
14.566779
14.113784
12.966990
11.133552
10.524988
11.283755
9.780526
9.626746
10.755658
9.041429
9.002686
9.296536
8.285642
8.841753
8.003712
8.213520
8.200407
7.638931
##ZVALUE=240
2.518892
2.547503
11.298656
28.362870
77.061653
134.158731
235.786438
329.924822
450.306535
522.288680
555.986762
539.867878
483.263731
380.601883
299.318433
194.282532
146.318674
107.934475
94.132423
105.123520
110.971928
118.223429
109.996796
102.786422
82.705617
65.686703
44.870973
34.862757
19.093752
12.967587
8.655787
8.236766
7.663965
8.120537
7.633567
8.902550
8.436441
9.652972
8.361936
8.131862
7.668734
9.120703
8.439422
8.188486
7.754564
8.718967
8.510947
8.071661
9.687543
8.175969
9.037852
7.931590
7.505417
8.947849
9.332895
9.330511
8.910894
9.541512
9.644628
8.506775
8.976460
10.186434
10.397434
9.202957
9.862781
9.154677
9.896755
11.553764
11.101961
12.016892
12.946725
13.615489
14.191866
14.759898
17.054677
16.647577
15.212893
15.480518
14.467835
15.155673
12.969971
12.887716
12.872815
11.945963
10.613799
9.948611
9.917617
9.189844
9.118915
10.028481
10.289550
8.837581
9.062886
8.732677
7.914901
9.017587
##ZVALUE=245
1.693964
1.611710
1.927614
1.893640
5.951524
23.333430
55.868626
126.284957
211.666822
319.961905
458.392501
548.007488
633.252859
643.084645
588.566661
508.371592
373.660922
268.459916
242.129564
125.338435
99.590421
101.147890
110.559464
129.336715
126.320720
127.686858
109.024644
91.212988
72.491765
48.521757
36.403537
20.308495
13.932586
9.203553
8.389950
8.014441
7.039905
7.391572
7.289648
7.590652
7.798672
7.659793
7.604957
7.536411
7.410645
8.194447
7.310510
7.040501
7.421970
7.175803
7.230639
7.258654
8.206964
8.583665
8.282661
7.843971
8.310676
7.757545
8.072853
8.216500
8.319616
7.974505
7.922649
8.271933
8.344650
8.582473
8.900762
8.796453
9.430647
10.470748
11.531711
11.992455
12.108684
13.998747
12.801886
13.517737
12.793541
12.201667
12.241602
11.843443
11.451840
10.119677
10.304451
9.333491
10.033846
9.409785
9.047985
8.509755
8.129478
7.602572
7.441640
8.124709
8.205771
8.779764
8.071661
7.681847
##ZVALUE=250
0.927448
1.022816
1.074672
1.077652
1.022816
1.567602
2.575517
10.538697
45.532584
92.539787
199.062824
305.177569
422.002673
561.062694
659.708977
715.105534
704.516768
612.534881
513.526797
349.603891
237.936974
161.809921
103.258491
90.866685
101.389885
116.523504
130.025744
136.996508
134.098530
119.562745
100.434422
75.770617
57.606697
35.698414
22.175908
12.493730
10.231733
7.739663
7.691979
7.225871
7.414818
6.979704
7.369518
6.553531
6.214976
6.695986
6.238818
6.019473
5.868673
6.491542
7.278919
6.390810
6.094575
7.285476
7.511973
6.700754
6.324649
6.602407
7.095933
6.210804
6.637573
7.080436
6.559491
6.667972
6.492734
7.161498
6.729960
7.305741
7.783771
8.709431
8.097887
9.727478
10.015965
10.271668
10.828972
11.323690
10.743737
9.952784
8.893609
7.947683
7.969737
8.007884
7.461905
7.393956
7.338524
7.101893
7.048845
6.784797
7.002950
6.054640
6.434917
6.643534
6.657839
6.186962
5.727410
6.151795
##ZVALUE=255
1.415610
1.191497
1.159906
1.302958
1.648664
1.316667
1.642704
1.889467
2.420545
7.267594
25.379658
76.208711
138.922930
268.037915
526.886582
540.041924
734.729767
765.213966
779.379606
718.131661
619.945526
458.447933
194.926858
187.366605
87.191463
86.799860
98.825693
103.790760
132.134557
139.063001
143.045783
138.673782
125.507712
81.252456
77.941418
44.075847
37.727952
22.389889
14.993548
9.112954
8.502603
8.650422
7.776618
7.610917
7.617474
7.392764
7.748604
7.878542
7.978678
7.105470
6.798506
6.811619
6.978512
6.673932
6.704926
7.178783
6.545782
6.990433
6.993413
6.277561
6.738901
6.551743
6.421804
7.130504
7.241964
6.444454
6.591678
7.673502
7.285476
7.935762
8.317828
8.270741
8.738637
9.205937
9.123683
9.551644
8.476973
8.152723
7.981658
7.511973
7.210970
6.461740
7.245541
6.237626
6.159544
5.427599
6.111860
6.297827
6.146431
5.648732
5.534887
5.923510
4.881620
5.982518
5.512834
6.004572
##ZVALUE=260
1.297593
1.448989
1.063943
1.285672
1.196861
1.494884
1.489520
1.643896
1.464486
1.275539
1.944900
2.809763
14.702678
39.120913
99.773407
183.724761
392.800570
509.199500
641.180873
797.611475
867.988467
853.984952
629.739761
595.995784
293.346643
271.799564
165.464878
106.205940
76.875687
80.468655
96.162558
123.566985
141.086578
147.872567
146.813989
129.391551
112.581849
84.083676
62.434673
38.279891
26.687980
16.008615
11.542439
8.160472
8.474588
7.466674
8.092523
7.639527
7.971525
8.029938
7.110834
7.236600
6.659627
6.487966
6.893873
6.492734
6.832480
6.641746
6.183982
6.572604
6.065965
7.229447
6.069541
6.219745
6.485581
6.047487
6.124973
6.354451
6.843805
6.923676
7.556677
7.463694
7.575750
7.513762
8.409619
7.620454
7.681847
7.384419
6.864667
5.955696
6.227493
6.094575
6.190538
5.683899
5.769730
5.392432
4.904866
5.092621
4.934669
5.188584
4.977584
4.933476
4.871488
4.533529
4.819632
4.543662
##ZVALUE=265
1.141429
1.080632
0.951886
1.101494
1.303554
1.078844
1.263618
1.542568
1.152754
1.331568
1.773834
1.450777
1.662970
1.858473
5.853772
30.303597
71.178675
158.040524
265.513659
464.531779
631.474853
781.517029
918.093920
930.261612
844.298005
720.690489
532.494783
374.612808
208.440423
130.660534
79.114437
68.610907
79.823732
108.337998
127.942562
147.517920
153.705478
147.532821
134.594440
108.800530
87.392926
58.841705
40.834546
24.684668
16.746521
11.229515
9.586811
9.156466
8.075833
7.644892
7.317662
7.442832
7.670522
7.022619
7.724762
7.119775
7.292628
6.476641
7.085800
6.520748
6.491542
6.706715
6.794930
6.352663
6.843805
5.834699
6.070733
6.050467
6.201863
6.744862
7.142425
6.857514
6.881952
7.949471
7.225871
7.029772
6.847978
6.853938
6.412864
6.051660
5.741715
5.550981
5.440712
5.380511
4.973412
5.465746
4.901886
4.342794
4.574656
4.566908
4.786849
4.588962
4.566908
4.456639
4.944801
4.681945
##ZVALUE=270
0.925660
1.020432
1.161695
0.921488
1.080632
1.146793
1.252890
1.225471
1.350641
1.390576
1.134872
1.185536
1.099706
1.768470
1.364946
1.486540
2.485514
13.014674
38.712621
114.734769
213.305950
357.089043
578.573942
750.332475
916.273594
979.350805
945.866704
843.917727
651.606917
491.582751
350.310802
188.177824
109.151602
62.524676
61.989427
82.820654
106.521845
132.958889
146.673918
157.072544
150.094628
131.763816
112.908483
82.464814
62.157512
37.415624
26.730895
16.018748
12.524724
8.341670
8.549690
8.377433
8.047819
8.008480
7.238984
7.852912
7.880926
7.481575
7.339716
7.497668
6.950498
7.036924
6.311536
6.958842
6.340742
6.493926
6.500483
6.390810
6.466508
6.353855
6.688833
6.703734
6.804466
6.943941
7.240772
6.578565
7.151961
6.602407
6.419420
5.976558
5.330443
5.160570
5.534887
5.335808
5.344748
4.575849
4.131794
4.621744
4.421473
4.476905
4.434586
4.418492
4.251599
4.678965
4.952550
4.416704
##ZVALUE=275
1.037717
0.981688
1.048446
0.877976
1.128912
0.972748
0.986457
1.185536
1.048446
1.147985
1.305938
1.306534
1.192689
1.270771
1.229644
1.462698
1.476407
1.654625
1.895428
6.185770
23.369789
61.642528
166.647434
295.342803
519.059896
681.632757
871.477723
976.786613
1009.966731
957.833529
830.685496
612.924695
433.841944
235.270858
138.366818
66.135526
51.389933
60.653687
79.299808
108.982921
127.782822
145.793557
151.718855
146.228671
132.337809
104.674697
83.297491
59.225559
43.091774
26.009679
17.266870
11.241436
9.129643
8.360744
7.550716
7.461905
7.290840
7.611513
6.608963
7.252693
7.383823
6.917715
6.652474
6.616712
6.308556
6.395578
7.055998
6.442666
6.578565
6.705523
6.736517
6.651878
7.323623
7.179976
7.372499
6.784797
6.795526
6.450415
6.182790
5.925894
6.030798
5.442500
5.536675
4.891753
4.878640
4.863739
5.117655
4.991889
4.771948
4.800558
4.022717
4.296899
4.509687
4.434586
4.382730
3.962517
##ZVALUE=280
0.969768
0.905991
0.914931
0.924468
0.985861
0.771880
0.990629
0.904799
0.843406
0.875592
0.909567
1.104474
1.065731
1.210570
1.331568
1.190901
1.271963
1.478791
1.636744
1.529455
1.838803
2.457500
14.243722
45.299530
132.125616
234.980583
417.607427
595.770478
819.590688
954.726934
1015.819907
1015.698910
886.576772
726.147890
481.209755
320.358872
162.009001
87.783933
45.984983
42.352676
57.605505
76.490641
105.579495
124.266744
144.300461
147.273540
142.668486
129.817724
107.081532
82.877874
56.975484
39.669871
24.253726
16.686916
10.987520
8.437634
7.684827
6.808639
7.449985
7.279515
7.465482
6.805658
7.181764
7.087588
7.129908
6.696582
6.772876
6.804466
6.659627
6.787777
6.728768
6.643534
6.709695
6.655455
6.769896
6.828904
6.573796
6.251931
5.686879
5.797744
5.370975
5.460978
5.210638
4.961491
4.711747
5.082488
4.533529
4.692674
4.442930
4.518628
4.179478
4.454851
4.150867
4.165769
3.832579
4.319549
##ZVALUE=285
0.936985
0.889897
0.985861
0.690818
0.892878
0.823736
0.805855
0.865459
0.938773
1.115799
1.270771
1.203418
1.057982
0.975728
1.050830
1.065731
1.135468
1.253486
1.217723
1.436472
1.381636
1.516938
1.675487
2.054572
6.943941
22.736788
73.379874
148.673654
309.210420
470.234752
641.966462
879.630446
1006.777883
1015.818715
1013.075709
837.652683
658.427477
409.601927
253.786445
119.270682
62.968731
34.087896
34.730434
52.675605
72.507858
99.895597
118.483901
134.450793
141.378641
138.089657
128.555894
104.281902
84.925890
58.372617
41.083694
24.522543
16.404986
10.654926
8.602738
7.517934
7.110834
6.876588
6.873608
7.101893
6.860495
6.974936
6.821752
6.523728
6.612539
6.532669
6.976724
7.045865
7.170439
6.867647
7.071495
6.907582
6.333590
6.309748
6.038547
5.899668
5.781651
5.282760
5.543828
5.171895
5.139709
4.836917
4.863739
4.898906
4.585981
4.749894
4.625916
4.611611
3.917813
4.327893
4.183650
4.065633
##ZVALUE=290
0.916719
1.008511
0.889897
0.887513
0.913739
1.047850
0.894666
1.070499
1.054406
1.100898
1.153946
1.144409
1.138449
1.105666
1.214743
1.303554
1.137853
1.240969
1.265407
1.310706
1.549721
1.429915
1.527667
1.900792
1.894832
1.956820
3.114939
9.958744
43.175817
95.582604
146.400928
356.315970
544.153452
819.769502
986.456871
1015.935540
1015.935540
984.023809
808.956027
548.411608
365.007520
182.043910
92.616677
35.979748
24.506450
32.896996
46.642423
69.152713
89.413524
115.141869
128.915906
137.493610
135.457516
122.242570
106.020570
78.376532
59.599876
38.388968
26.725531
16.241670
11.938810
8.528829
8.237958
6.966591
7.284880
6.851554
7.308722
6.971955
7.180572
7.083416
7.177591
7.032752
7.506609
7.364750
7.248521
6.856918
6.870627
6.505847
6.429553
6.064773
5.576611
5.260706
5.510449
5.556941
5.111694
4.622936
5.176663
4.635453
4.849434
4.795790
4.904866
4.732609
4.450679
4.609823
4.281998
4.622936
##ZVALUE=295
0.885725
0.835657
0.826716
0.678897
0.900626
0.692606
0.758767
0.791550
0.823736
0.798702
0.962615
1.010895
0.796914
1.005530
0.903606
1.002550
0.963807
0.851750
1.110435
1.084805
1.154542
1.084805
1.195669
1.474619
1.266599
1.526475
1.512766
1.680851
2.016425
4.049540
20.698905
55.329800
150.738955
274.863839
496.565700
682.351589
920.048952
1015.819907
1015.819907
1015.819907
862.811804
686.994791
438.380837
277.298689
127.075911
61.448812
24.718642
20.226836
29.033422
42.467713
64.704418
85.477829
108.235478
124.340653
132.156610
130.934715
117.829442
100.546479
77.869892
59.742928
38.838983
26.707649
16.558766
11.942983
8.027554
7.539988
6.997585
6.922483
6.739497
6.882548
7.093549
7.152557
6.590486
6.596446
6.855726
6.598830
6.401539
6.165504
5.750656
5.660653
5.759597
5.154610
5.391836
5.024672
4.887581
5.113482
4.994869
4.770756
4.731417
4.570484
4.804730
4.352927
4.320741
4.208684
4.085898
4.256964
##ZVALUE=300
0.680685
0.891685
0.704527
0.712872
0.756979
0.824928
0.702739
0.760555
0.864863
0.810623
0.758767
0.826716
0.819564
0.885725
0.890493
0.965595
0.994802
0.878572
1.065731
1.097918
1.126528
0.947714
1.150966
1.159906
1.143813
1.193881
1.285672
1.278520
1.546741
1.940727
1.780987
2.312660
6.701946
35.238862
87.129474
213.780999
357.059836
599.146485
787.329674
992.978811
1015.819907
1015.819907
960.114598
735.599995
547.496676
314.687490
187.171698
81.168413
38.952827
17.449856
17.291903
27.010441
38.438439
58.576465
77.925920
102.001429
116.690993
124.573708
123.786926
113.877654
98.452568
74.969530
57.977438
37.996769
26.999712
15.673637
11.730790
8.580685
7.474422
6.836653
7.018447
6.578565
6.571412
6.300807
6.392598
6.181598
6.195903
6.028414
5.489588
5.770922
5.457997
5.232692
5.466938
4.921556
4.788637
4.503727
5.019903
4.660487
4.520416
4.567504
4.742742
4.469752
4.602671
4.205704
4.145503
4.234910
##ZVALUE=305
0.819564
0.706911
0.621676
0.659823
0.619888
0.867844
0.612736
0.672936
0.766516
0.749826
0.755787
0.773668
0.851750
0.830889
0.885725
0.841618
0.845790
0.783801
0.818968
0.970960
0.875592
0.965595
1.041889
1.116991
1.156926
1.177788
1.387596
1.265407
1.304746
1.375675
1.312494
1.582503
1.744628
1.952648
4.413724
16.634464
65.955520
140.119791
304.096937
476.122499
732.724667
913.384557
1015.852690
1015.852690
1002.830863
851.407647
612.782836
435.026884
234.896541
130.392909
49.753785
23.374557
14.063716
16.371608
25.237799
36.280751
57.053566
74.645877
95.433593
109.242797
119.831562
119.349957
107.862949
96.341968
73.466897
56.366920
37.432909
25.995970
15.279651
10.696650
8.049607
7.127523
6.283522
6.137490
6.012917
6.059408
5.806684
5.637407
5.342960
5.115867
5.059838
4.962683
4.808903
4.869699
4.724860
4.651546
4.451871
4.184842
4.523993
4.627705
4.401803
4.456639
3.883839
4.181862
4.107952
4.160404
##ZVALUE=310
0.680685
0.740886
0.699759
0.698566
0.659823
0.669956
0.755787
0.710487
0.552535
0.633597
0.769496
0.791550
0.703931
0.705719
0.786781
0.714660
0.937581
0.878572
1.020432
0.727773
0.872612
0.963807
0.921488
1.087785
1.006722
0.983477
1.200438
1.073480
1.116991
1.342893
1.162887
1.409650
1.379848
1.385808
1.549721
1.840591
2.096891
9.106398
28.316975
94.945431
188.136697
381.433964
580.056906
857.440829
1013.197899
1015.819907
1015.819907
991.104841
815.355778
549.023747
363.227725
179.960728
93.963742
34.416914
15.914440
11.967421
15.174747
22.345781
31.826496
49.511790
66.795945
87.843537
99.630952
110.996962
112.036467
103.200674
91.969967
70.182681
53.933859
36.067963
25.336742
15.356541
10.697842
7.465482
6.415844
5.591512
5.464554
4.963875
4.878640
4.868507
4.864931
4.428625
4.476905
4.442930
4.537702
4.452467
4.263520
3.981590
4.263520
4.274845
4.256964
4.041791
3.958941
4.314780
4.236698
3.751516
##ZVALUE=315
0.703931
0.745654
0.753999
0.606775
0.785589
0.618696
0.646710
0.677705
0.646710
0.702739
0.846982
0.646710
0.794530
0.781417
0.818968
0.791550
0.790954
0.806451
0.739694
0.908971
0.760555
0.848770
0.789762
0.763535
0.706911
0.963807
1.022816
1.135468
1.219511
1.256466
1.273751
1.230836
1.320839
1.269579
1.416802
1.482964
1.329780
1.673698
1.905560
3.368855
17.227530
49.400926
142.317414
257.675648
488.897562
687.624812
929.675698
1015.819907
1015.819907
1015.819907
873.449445
681.005716
422.345996
261.394978
117.778778
56.814551
19.004941
10.983944
10.435581
13.158917
20.141602
29.159784
44.837594
60.069561
79.950690
93.484521
103.280544
104.690790
96.391439
84.446669
65.271854
50.026774
33.569932
22.940636
13.894439
10.104775
6.677508
5.200505
4.603863
4.654527
4.431605
3.967881
4.213452
4.197955
4.073977
4.024506
4.021525
4.032850
3.947616
3.886819
3.832579
3.929734
3.797412
3.826618
3.715754
3.741980
##ZVALUE=320
0.686646
0.615716
0.669956
0.767708
0.634789
0.753999
0.641942
0.578761
0.707507
0.577569
0.577569
0.649691
0.690818
0.606775
0.825524
0.782609
0.692606
0.771880
0.854731
0.795722
0.661612
0.752807
0.811815
0.908971
0.863671
0.867844
0.840425
1.032948
0.857711
1.115799
1.024604
0.913739
1.013875
1.024604
0.946522
1.095533
1.129508
1.406670
1.395941
1.611710
1.696944
2.380610
6.337762
32.983422
83.814859
217.770934
361.256599
592.813492
786.350965
999.788642
1015.819907
1015.819907
978.609920
755.596757
556.906462
310.325623
177.876949
76.330900
34.177899
12.076497
8.574724
9.283423
11.589527
17.206669
24.964809
40.409565
54.377913
73.444843
86.077452
97.510815
99.001527
92.443824
82.529783
63.658953
48.664808
31.445622
22.378564
13.393760
8.643866
5.774498
5.071759
4.078746
3.695488
3.717542
3.874898
3.770590
3.883839
3.688931
3.635883
3.895760
3.979802
3.677607
3.810525
3.757477
3.658533
3.635883
##ZVALUE=325
0.646710
0.712872
0.577569
0.653863
0.546575
0.589490
0.549555
0.570416
0.700951
0.589490
0.654459
0.634789
0.714660
0.573993
0.641942
0.616908
0.644922
0.652671
0.809431
0.784993
0.610948
0.798702
0.780821
1.012683
0.730753
0.757575
0.773668
0.753999
0.802875
0.854731
0.953674
0.942945
0.849962
0.905991
0.889897
1.263618
0.997782
1.197457
1.157522
1.439452
1.337528
1.607537
1.737475
2.099872
3.624558
20.346642
55.939555
154.711604
277.980566
525.777936
734.079480
987.811685
1015.819907
1015.819907
1015.819907
809.332728
605.110526
359.081626
219.703913
100.400448
48.587918
16.114712
8.593798
7.039905
7.988811
10.548830
14.975667
24.983883
36.273003
54.817796
68.661571
82.916617
90.673566
91.688633
86.513758
72.361827
58.771968
43.465495
30.412674
18.173456
12.162924
7.311702
5.585551
4.609823
4.030466
3.957748
3.735423
3.513694
3.634691
3.640652
3.619790
3.514886
3.607869
3.572702
3.517866
3.769994
##ZVALUE=330
0.637770
0.674725
0.579953
0.704527
0.610948
0.660419
0.884533
0.726581
0.674725
0.648499
0.720620
0.585914
0.802875
0.788569
0.655651
0.813603
0.734925
0.781417
0.723600
0.699759
0.742674
0.808835
0.561476
0.762939
0.637770
0.804663
0.723600
0.951886
0.911951
0.841618
0.747442
0.907779
0.933409
0.790954
0.893474
0.892878
0.798702
1.053810
0.912547
1.203418
1.204610
1.362562
1.313686
1.434684
1.564622
1.914501
2.260804
9.095669
29.156804
98.903775
191.863775
394.746661
587.848425
878.921747
1015.819907
1015.819907
1015.819907
983.424783
776.539445
479.131937
302.168727
137.439966
69.734454
24.793744
10.917783
6.815791
6.392598
7.199645
9.569526
15.230775
22.525787
36.002994
48.080683
66.094995
76.772571
84.370971
85.352659
79.736710
69.841743
53.381920
41.677952
27.016997
19.104481
11.571646
7.878542
5.314946
4.312992
3.901720
3.384948
3.682971
3.542900
3.349781
3.458858
3.512502
3.568530
3.575683
##ZVALUE=335
0.655651
0.467896
0.738502
0.592470
0.655651
0.483990
0.492930
0.644922
0.587702
0.702739
0.637770
0.707507
0.525713
0.561476
0.601411
0.603795
0.635982
0.647902
0.511408
0.766516
0.651479
0.644922
0.669956
0.640750
0.604987
0.679493
0.753999
0.641942
0.786781
0.746846
0.768900
0.594854
0.852942
0.771880
0.921488
0.862479
0.804663
0.931621
0.909567
1.003742
1.092553
1.053810
1.046658
1.112819
1.295805
1.409650
1.639724
1.634955
1.638532
3.476739
19.054413
52.095652
143.286586
253.718495
473.252535
668.648481
923.053026
1015.819907
1015.819907
1010.648608
814.666748
616.592765
367.167592
220.407844
89.070797
41.020513
13.097525
7.269979
6.175637
6.188750
6.972551
8.652806
14.365911
21.567941
33.389926
44.236779
60.340762
70.784688
79.873800
79.591870
72.971582
64.664483
51.210523
41.256547
27.662516
19.528866
11.931658
8.171797
5.537868
4.373789
3.933907
3.705621
3.441572
3.491640
3.357530
3.300905
##ZVALUE=340
0.608563
0.589490
0.597835
0.509620
0.770688
0.536442
0.638962
0.551939
0.700951
0.675917
0.453591
0.593662
0.601411
0.553727
0.540614
0.694990
0.772476
0.766516
0.629425
0.643730
0.681877
0.704527
0.540614
0.755787
0.685453
0.502467
0.739694
0.775456
0.761747
0.699759
0.575781
0.782609
0.755787
0.818968
0.819564
0.720620
0.771880
0.875592
0.800490
1.025796
0.856519
0.934601
0.947714
1.080632
0.958443
1.204610
1.202822
1.261830
1.237988
1.489520
1.633763
2.388954
7.901788
38.251877
94.461441
229.940414
377.195477
605.361462
775.984526
963.978767
1015.819907
1001.753807
890.884995
678.287745
492.626429
274.187922
149.197578
53.669810
21.709800
8.096695
6.172657
5.836487
5.859733
6.657839
8.537769
13.881922
20.156503
31.880736
42.303801
57.364702
67.032576
73.951483
75.269938
69.068670
62.032938
47.979951
38.866997
27.447939
19.648671
11.741519
8.223653
5.238652
4.235506
3.510714
3.312826
3.103614
##ZVALUE=345
0.616908
0.685453
0.466704
0.549555
0.478625
0.592470
0.615716
0.616908
0.625849
0.604987
0.714660
0.603795
0.698566
0.554919
0.659823
0.340939
0.656843
0.534654
0.626445
0.508428
0.450611
0.641942
0.535846
0.616908
0.585914
0.625849
0.786781
0.611544
0.648499
0.665784
0.590682
0.682473
0.611544
0.694990
0.721812
0.682473
0.815988
0.843406
0.812411
0.882745
0.922680
0.942945
0.860691
1.149774
1.024604
1.059771
1.193881
0.968575
1.124740
1.251698
1.357794
1.465678
1.434684
1.683831
3.645420
20.358562
56.445599
148.459673
266.643763
479.811430
651.550889
852.855444
944.202542
954.181552
874.912739
676.227808
497.905612
283.410549
163.084865
69.711804
30.659437
10.136962
6.599426
5.804896
5.523562
5.199909
5.654693
7.605553
11.224747
18.888712
27.566552
40.135980
50.585866
61.155558
65.790415
68.043470
65.799952
56.642890
49.072504
37.621856
27.803779
17.745495
12.543797
7.938743
5.619526
4.088879
##ZVALUE=350
0.555515
0.599623
0.459552
0.410676
0.577569
0.580549
0.585914
0.654459
0.689626
0.554919
0.626445
0.651479
0.570416
0.624657
0.536442
0.603795
0.587702
0.573993
0.667572
0.581741
0.676513
0.559688
0.573993
0.625849
0.841618
0.489950
0.617504
0.611544
0.686646
0.520945
0.749826
0.749826
0.688434
0.789762
0.635982
0.824928
0.811815
0.847578
0.843406
0.800490
0.962615
0.904799
1.096725
0.832677
0.979900
1.013875
0.913739
1.052618
0.874996
0.905991
1.144409
1.170635
1.153946
1.287460
1.423955
1.414418
2.125502
10.575652
32.017827
99.507570
189.887881
382.667780
555.749536
765.596628
900.404453
962.405801
914.597511
753.154755
576.099753
346.596837
209.473968
91.015697
41.396618
12.539625
6.776452
5.443692
5.040765
4.702806
4.654527
5.232692
6.929636
11.665821
16.302466
25.104880
32.858849
45.027733
53.007603
60.649514
63.131452
60.854554
54.603815
44.623613
35.829544
25.031567
18.031597
11.205673
##ZVALUE=355
0.456572
0.649691
0.827909
0.656843
0.665784
0.599623
0.547767
0.663996
0.600815
0.563860
0.589490
0.719428
0.707507
0.719428
0.634789
0.559688
0.539422
0.451803
0.612736
0.666976
0.623465
0.597835
0.768900
0.590682
0.883937
0.708699
0.717640
0.554919
0.698566
0.716448
0.561476
0.603795
0.721812
0.802875
0.884533
0.765920
0.732541
0.693798
0.735521
0.722408
0.842810
0.770688
0.819564
0.828505
0.829697
0.899434
0.862479
0.844598
1.040697
1.029968
1.076460
1.118779
1.085997
1.156926
1.319647
1.375675
1.320839
1.441836
1.773834
3.813505
20.352602
56.416988
151.791573
262.139440
465.977788
643.472672
853.860974
950.655937
949.809551
846.953988
636.166930
464.228988
264.139771
146.856904
57.311654
23.892522
7.514954
5.303621
4.848838
4.580617
4.274845
4.508495
4.901886
5.997419
9.233952
13.303757
21.737814
28.797984
39.541721
47.267675
54.435730
56.973696
56.068897
51.103830
42.690635
34.779906
##ZVALUE=360
0.613928
0.528693
0.418425
0.668764
0.691414
0.547767
0.553727
0.615716
0.534654
0.559688
0.643730
0.501871
0.638962
0.598431
0.606775
0.648499
0.704527
0.646710
0.506639
0.553727
0.595450
0.663996
0.644922
0.751615
0.568628
0.700951
0.670552
0.725985
0.811815
0.707507
0.718832
0.613928
0.684857
0.670552
0.616908
0.726581
0.820756
0.716448
0.696778
0.830889
0.688434
0.945926
0.911951
0.876784
0.807643
0.805855
0.833869
0.948906
0.880957
0.984669
0.984669
0.957847
1.088977
1.168847
1.197457
1.127720
1.214743
1.339912
1.472831
1.592636
1.671910
2.267957
8.993745
27.561784
92.059970
180.086493
350.925922
519.438982
744.797587
863.420963
913.180709
858.967900
698.617697
532.870889
316.305757
190.752745
81.543922
35.979748
10.658503
5.768538
4.739761
4.340410
4.169941
3.891587
3.884435
4.126430
5.158782
7.243752
11.489987
16.433597
24.913549
32.450557
41.522980
47.026873
51.426888
51.302910
##ZVALUE=365
0.606775
0.713468
0.639558
0.570416
0.570416
0.600815
0.522733
0.606775
0.494719
0.690818
0.585914
0.607967
0.622869
0.719428
0.577569
0.625849
0.682473
0.557899
0.585914
0.505447
0.704527
0.657439
0.530481
0.516772
0.697970
0.665784
0.773668
0.741482
0.667572
0.693798
0.738502
0.680685
0.701547
0.733733
0.819564
0.666976
0.713468
0.895858
0.779629
0.706911
0.755787
0.763535
0.917912
0.774860
0.860691
0.919700
0.951886
0.952482
0.715852
0.877976
0.891685
0.942945
0.883937
0.899434
1.121759
1.055598
1.104474
1.206994
1.324415
1.326799
1.261830
1.350641
1.561642
1.835823
4.127622
13.973713
53.784847
117.885470
270.015597
425.985456
644.819736
777.224898
883.406997
882.523656
764.006972
621.102452
404.542685
253.049731
112.157464
51.728487
14.805794
6.984472
4.744530
4.442930
4.003644
3.951788
3.561974
3.514886
3.752708
4.241467
6.018877
8.834600
14.327765
19.704700
28.401613
35.021901
##ZVALUE=370
0.634789
0.739694
0.583529
0.670552
0.596642
0.621676
0.582933
0.520945
0.433922
0.501871
0.528693
0.662804
0.665784
0.486970
0.605583
0.571609
0.573993
0.792742
0.484586
0.601411
0.660419
0.452995
0.572801
0.560880
0.645518
0.646710
0.722408
0.659823
0.598431
0.686646
0.744462
0.715852
0.844598
0.684857
0.796914
0.681877
0.743866
0.701547
0.536442
0.724792
0.720620
0.733733
0.744462
0.793934
0.695586
0.789762
0.747442
0.714660
0.810623
0.769496
0.912547
0.761747
0.914931
0.885725
0.946522
0.947714
0.953674
0.957847
1.088977
1.176596
1.097918
1.326799
1.234412
1.395941
1.367927
1.711845
2.003908
9.787679
31.494498
96.810460
186.486840
360.389948
521.996617
734.074712
840.006471
876.267552
811.707973
646.560788
485.218763
279.153585
160.699487
63.772798
28.038621
8.773804
4.950762
4.205704
3.911853
3.436804
3.473759
3.256798
3.126860
3.365874
3.749728
5.308986
7.472634
11.981726
##ZVALUE=375
0.577569
0.505447
0.595450
0.614524
0.552535
0.575781
0.452995
0.442863
0.608563
0.494719
0.641942
0.538826
0.493526
0.418425
0.525713
0.496507
0.641942
0.560880
0.624657
0.554919
0.531673
0.537634
0.652671
0.610948
0.523925
0.682473
0.635982
0.442863
0.741482
0.578761
0.755787
0.542998
0.519753
0.511408
0.586510
0.695586
0.769496
0.697970
0.787973
0.728965
0.719428
0.701547
0.621676
0.731945
0.736713
0.658631
0.579953
0.619888
0.737906
0.655651
0.753999
0.815988
0.694990
0.815988
0.691414
1.013875
0.854731
0.878572
0.940561
0.988841
1.040697
1.100898
0.873804
0.992417
1.244545
1.112819
1.334548
1.545548
1.886487
4.392862
21.847486
54.373741
142.063498
254.368782
452.919006
610.279441
783.654451
859.155655
834.517479
733.104944
529.886484
377.124548
213.751793
121.118426
47.341585
19.610524
6.610751
4.161596
3.786683
3.544688
3.456473
3.183484
3.196597
2.879500
2.908707
2.985597
##ZVALUE=380
0.559688
0.589490
0.595450
0.476837
0.639558
0.505447
0.545979
0.539422
0.554919
0.727773
0.628829
0.613928
0.568628
0.543594
0.566840
0.628829
0.683665
0.541806
0.473857
0.549555
0.558496
0.711679
0.442863
0.704527
0.737906
0.682473
0.494719
0.670552
0.534654
0.638962
0.707507
0.772476
0.672936
0.617504
0.629425
0.621676
0.664592
0.765920
0.639558
0.687838
0.597835
0.687838
0.906587
0.700951
0.643730
0.838637
0.797510
0.742674
0.785589
0.798702
0.715852
0.653863
0.728965
0.855923
0.860691
0.780821
0.787973
0.825524
1.002550
0.963807
0.927448
0.865459
1.052618
0.990629
0.965595
1.185536
1.057982
1.079440
1.318455
1.496673
1.710653
3.001690
9.205937
42.759776
98.407865
231.144428
368.524790
573.721528
723.605752
846.971869
862.523913
760.089755
634.338856
445.340872
301.897526
148.800611
76.173544
26.261806
10.691881
4.525781
3.787875
3.372431
3.444552
3.246665
3.041625
2.854466
##ZVALUE=385
0.254512
0.383854
0.401735
0.313520
0.347495
0.424981
0.550747
0.351667
0.356436
0.362992
0.332594
0.424981
0.477433
0.335574
0.303984
0.335574
0.266433
0.337958
0.384450
0.428557
0.341535
0.305772
0.368953
0.500679
0.464916
0.332594
0.401735
0.422597
0.507832
0.506639
0.472665
0.546575
0.453591
0.599623
0.489950
0.362992
0.510812
0.603795
0.464916
0.469685
0.651479
0.530481
0.545979
0.602603
0.624657
0.505447
0.568628
0.635982
0.609756
0.536442
0.527501
0.416636
0.590682
0.493526
0.570416
0.539422
0.586510
0.588894
0.545979
0.712872
0.537634
0.598431
0.641942
0.580549
0.555515
0.820756
0.757575
0.971556
1.010895
1.023412
1.144409
1.277924
1.395941
1.690984
4.303455
22.966862
60.679913
156.896710
280.120969
491.601825
651.258826
810.596943
852.787495
812.533498
717.227459
532.034636
379.461646
210.751891
121.249557
50.493479
19.993782
5.755424
3.778934
3.240705
3.088713
3.165603
##ZVALUE=390
0.574589
0.518560
0.532866
0.645518
0.440478
0.676513
0.515580
0.453591
0.654459
0.483990
0.554919
0.567436
0.490546
0.634789
0.595450
0.591874
0.692606
0.540614
0.633597
0.664592
0.515580
0.484586
0.499487
0.459552
0.417829
0.516772
0.505447
0.605583
0.637770
0.629425
0.681877
0.754595
0.695586
0.809431
0.861883
0.744462
0.768900
0.565648
0.656843
0.746846
0.564456
0.759959
0.714660
0.709891
0.666976
0.770688
0.706911
0.616908
0.688434
0.785589
0.778437
0.619888
0.679493
0.590682
0.878572
0.859499
0.833869
0.864863
0.642538
0.630617
0.793934
0.796914
0.674725
0.752807
0.919700
0.967979
1.016855
0.907779
1.196861
1.044869
1.210570
1.199841
1.254678
1.393557
1.385808
1.600981
2.633929
13.084412
41.121840
123.465657
231.655836
428.289771
580.390692
748.794675
842.455626
866.192579
801.073909
631.646514
484.440923
295.256972
171.179771
69.612861
31.005740
8.607507
4.267693
3.568530
##ZVALUE=395
0.610948
0.568628
0.496507
0.565648
0.357628
0.588894
0.462532
0.466704
0.351667
0.486970
0.445843
0.640750
0.481606
0.490546
0.478625
0.562668
0.342727
0.497699
0.455976
0.519753
0.537634
0.659823
0.543594
0.549555
0.509620
0.745654
0.578761
0.641942
0.529885
0.632405
0.638962
0.701547
0.675917
0.673532
0.707507
0.779629
0.827909
0.913739
0.815988
0.814795
0.655651
0.709891
0.751615
0.771880
0.730753
0.787973
0.814795
0.729561
0.699759
0.792742
0.712872
0.822544
0.858903
0.785589
0.796914
0.672936
0.659823
0.643730
0.671744
0.905991
0.755787
0.911951
0.894666
0.826716
0.863671
0.989437
0.866652
0.922680
1.029968
1.034737
0.974536
1.281500
1.185536
1.301765
1.432896
1.246929
1.293421
1.517534
1.884699
7.429719
26.659966
94.144940
181.259513
342.072845
502.175689
726.833940
853.790641
928.665996
901.628733
759.953856
594.162941
369.884968
231.451988
100.681782
47.701001
15.015602
##ZVALUE=400
0.634789
0.660419
0.667572
0.483990
0.486970
0.478625
0.429749
0.496507
0.486970
0.489950
0.470877
0.521541
0.368953
0.409484
0.487566
0.656843
0.523925
0.612736
0.671744
0.456572
0.565648
0.655651
0.685453
0.545979
0.531673
0.423789
0.664592
0.544786
0.524521
0.598431
0.529885
0.641942
0.752807
0.562668
0.576973
0.755787
0.697970
0.745654
0.679493
0.875592
0.711679
0.731945
0.708699
0.790954
0.665784
0.778437
0.690818
0.784993
0.780821
0.736713
0.628829
0.729561
0.715852
0.859499
0.781417
0.746846
0.811815
0.668764
0.826716
1.016855
0.812411
0.756979
0.903606
0.874996
0.982881
1.034737
0.912547
1.075864
1.041889
1.181960
1.136661
1.074672
1.230836
1.063943
1.192689
0.952482
1.178980
1.185536
1.218915
1.545548
1.533628
4.972816
16.867518
56.670904
120.655894
265.806913
418.165922
640.577674
786.813498
908.542871
918.330550
806.883574
664.675832
440.237522
290.641785
145.809650
##END
