##TITLE=FQP00601
##FORMAT=SPECTACLE-ASCII V-1.2
##DATA TYPE=ULTRAVIOLET SPECTRUM
##SECOND TYPE=ULTRAVIOLET SPECTRUM
##DATE=02/12/18
##TIME=16:02:48
##SPECTROMETER/DATA SYSTEM=SPECTACLE
##XUNITS=NM EM
##YUNITS=ENERGY
##YFACTOR=1
##FIRSTX=220
##LASTX=410
##NPOINTS=96
##3DDATA=Equidistant
##ZUNITS=NM EX
##FIRSTZ=210
##LASTZ=400
##ZPOINTS=39
##XYDATA=(Y..Y)
##ZVALUE=210
2.506971
2.566576
2.362728
2.397895
3.020763
2.869964
2.796650
3.331900
2.892613
2.332926
2.864599
2.646446
2.539754
2.356768
3.191829
2.531409
2.765656
2.524853
3.174543
2.821684
2.767444
3.305674
2.955794
3.721714
3.435612
3.923774
4.306436
5.291700
5.084872
5.588531
6.189942
6.759763
5.615950
7.171631
6.267428
7.607937
6.831884
6.431937
6.534457
6.319880
6.423593
6.856918
6.160736
6.293654
5.892515
6.717443
5.897880
6.495714
5.598664
6.595850
6.791949
6.430745
7.092953
6.970763
6.623864
6.365776
6.160736
6.819963
6.012917
7.318854
6.713867
7.026792
5.881786
6.394982
7.270575
6.963611
6.754994
7.414818
8.329749
9.386539
11.186600
11.486411
15.247464
16.581416
16.725659
19.000769
18.061996
19.476414
18.874407
18.814802
18.250942
15.932918
15.296936
13.838410
12.263656
12.151599
8.732677
6.869435
6.689429
6.944537
6.743670
6.621480
6.980896
5.890727
6.139874
8.154511
##ZVALUE=215
5.747676
6.061792
5.627871
4.961491
5.273819
4.654527
6.031990
5.609989
5.517602
5.456805
5.319715
4.843473
4.136562
3.675818
3.470778
2.848506
2.871752
2.991557
3.170967
3.161430
3.362894
2.758503
3.859997
4.179478
3.875494
5.169511
4.707575
5.587935
6.816983
6.814599
7.831454
7.917881
9.241700
9.591579
9.470582
9.311438
9.968877
9.385943
9.364486
8.785725
8.674860
9.058714
8.961558
8.764863
9.025931
7.629991
9.663701
7.974505
8.146763
7.623434
7.728934
7.239580
8.146763
6.435513
6.743670
6.833673
6.697774
5.676746
6.185770
6.825924
6.557703
6.557703
6.490946
6.973743
6.498694
6.405711
6.641746
6.808639
8.168817
8.411407
9.106994
11.321902
12.284517
14.276505
14.137626
15.561581
13.554692
15.202761
15.311837
16.058683
12.042522
11.068583
11.713505
9.890795
10.270476
8.451939
7.044673
7.716417
6.109476
5.682707
5.288720
6.252527
5.821586
5.664825
6.175637
5.445480
##ZVALUE=220
18.125772
19.833446
20.635724
21.708608
20.284653
19.133687
14.941692
12.210608
11.422634
11.302829
13.137460
12.694597
12.519956
11.318922
10.480881
9.007454
6.727576
5.536675
4.129410
3.654957
3.469586
3.459454
4.151464
5.240440
5.257726
5.910993
6.407499
7.050633
9.441972
9.849668
11.435747
11.915565
11.980534
13.415813
13.518929
15.391707
14.681816
13.503432
13.668537
13.624430
13.196468
13.373494
12.196898
12.493730
10.340810
11.112690
9.346604
9.947419
10.177493
9.869933
9.029508
9.683967
8.728504
8.340478
8.915663
8.523464
8.063912
7.724762
7.895827
6.761551
7.862449
7.779598
6.339550
8.494854
6.988645
7.215738
8.221865
7.689595
6.977916
9.391904
10.020733
11.624694
11.581779
12.497902
14.656782
14.200807
14.101863
14.393926
14.031529
13.943911
12.543797
12.469888
11.860728
10.898709
9.658933
7.227659
7.859468
7.252693
7.228851
7.364750
6.606579
6.013513
7.440448
6.844997
7.229447
7.483959
##ZVALUE=225
34.655929
34.557581
44.941902
57.566762
64.003468
62.287450
57.272911
47.560930
38.233995
29.063821
23.188591
24.481416
25.606751
27.068853
25.296807
25.868416
18.804669
17.693639
13.743639
9.300709
5.934834
4.832745
3.995895
4.881620
5.441904
5.912781
7.238984
7.980466
8.828640
11.847615
13.618469
15.054941
15.064478
17.248988
16.107559
16.978979
18.529892
17.485619
19.054413
16.713738
17.013550
16.085505
15.557408
13.748407
14.014840
14.220476
13.275743
10.925531
11.277795
11.634827
10.663867
11.276603
9.997487
8.838773
9.467602
10.325909
9.720922
8.911490
8.903742
8.615851
8.808970
7.830858
7.900596
8.837581
9.739995
9.034872
9.082556
9.378791
9.448528
9.313822
11.535883
11.713505
12.800694
14.259815
15.674829
15.475750
12.764931
14.448762
14.671683
12.621880
15.320778
13.811588
13.152957
11.564493
10.960698
12.018681
11.498928
9.552836
9.521842
10.948777
9.945631
9.005666
9.248853
10.076761
10.102987
10.765791
##ZVALUE=230
31.071901
33.571720
52.281618
83.713531
107.983947
134.803653
143.143535
141.985416
126.042962
104.646683
76.325536
56.692958
43.887496
43.320656
44.402480
48.653483
52.663684
49.926639
44.442415
34.387708
28.025508
18.559694
12.276769
8.588433
6.592870
5.588531
7.393956
7.789731
9.029508
9.521842
10.558963
14.006495
13.627410
14.460683
14.009476
16.894937
15.502572
16.290545
16.384721
14.347434
14.956594
14.501810
13.677478
13.597608
11.973977
12.623668
11.855960
10.733604
11.977553
11.211634
9.968877
9.940863
10.081530
10.499954
10.103583
10.642409
9.421706
9.583831
9.537935
11.056662
9.877682
9.819865
11.120439
9.806752
11.743903
11.034608
11.317730
11.638999
12.489557
12.686849
15.476942
14.904737
15.845895
16.509891
17.755628
17.569661
17.601848
17.884970
18.242598
17.575622
17.759800
17.957687
16.157627
16.870499
17.169714
15.287995
15.448928
16.229749
16.678572
14.873743
14.787912
15.684962
14.695525
15.114546
15.961528
14.390945
##ZVALUE=235
9.822845
12.318492
28.410554
54.344535
99.681616
138.525963
197.446942
240.663886
263.641477
261.144638
230.019689
189.128518
147.028565
104.996562
78.473687
70.600510
67.727566
79.118609
86.315870
84.246993
81.581473
67.282915
52.749515
39.518476
24.530888
16.842484
11.092424
9.749532
8.973479
9.309649
10.236502
10.080934
10.578632
11.563897
11.202693
11.567473
11.969805
12.113452
14.296770
12.940764
12.231469
13.362765
12.007952
11.931658
11.778474
11.840463
11.570454
11.280775
11.013746
11.374950
10.555983
9.503961
10.332465
10.837913
10.637641
10.438561
10.994673
10.330677
11.559725
12.422800
11.541843
13.065934
12.896657
13.237000
13.809800
13.020635
14.173985
16.062856
15.998483
17.684698
17.978549
20.052791
21.160841
19.646883
22.700429
22.768974
22.954941
22.660494
23.305416
23.582578
23.768544
23.373961
24.042726
23.532510
22.379756
22.034645
23.129582
24.928451
22.732615
22.154450
22.545457
22.229552
21.665692
21.646619
22.766590
22.947788
##ZVALUE=240
1.705885
1.811981
5.152822
16.127825
33.423901
73.986650
125.881433
207.744837
282.723904
343.036652
406.389832
410.614610
368.748903
310.367942
230.154991
164.980888
116.650462
96.860528
91.307759
100.381970
112.751722
118.995905
115.087628
104.991794
84.758997
62.614679
47.221780
33.545494
23.311973
15.951991
13.010502
11.031628
11.536479
10.921955
11.984706
11.490583
11.610985
11.188984
11.194944
11.584759
11.303425
11.231899
11.371970
10.716915
11.037588
11.327863
11.219978
10.526776
10.527968
11.022687
10.801554
10.820627
10.209680
10.831952
12.000799
10.930896
12.588501
12.006760
12.119412
13.635755
11.898875
12.958646
12.662411
13.034940
15.157461
13.896823
14.808774
16.257763
18.353462
19.119978
21.492839
21.774769
22.524595
23.255944
26.562810
26.190877
26.323795
26.862621
27.208924
26.894808
29.825568
28.912425
28.510690
29.557943
30.375719
29.691458
29.561520
29.333830
30.981898
30.145645
28.305650
30.571818
31.156540
28.802752
28.528571
29.962659
##ZVALUE=245
1.744628
1.738667
1.700521
1.841784
3.985763
9.600520
29.295683
61.566830
135.444999
210.706592
329.617858
405.179858
471.337438
493.581891
473.351479
388.191938
312.128663
220.146775
157.685876
107.857585
95.718503
97.776651
115.959644
128.526688
134.798884
125.743747
114.592910
98.373890
75.156689
57.506561
41.990876
27.080774
21.397471
15.043616
12.925863
14.173985
12.774467
13.005733
12.895465
12.292862
12.232661
11.832714
12.071729
11.440516
11.890531
12.184978
11.989474
11.721849
11.490583
11.860728
11.045933
11.961460
10.943413
11.032820
10.693669
12.054443
12.063980
11.088848
11.755824
12.275577
11.436939
12.803674
12.228489
13.926625
14.861822
15.090704
14.612675
15.223622
15.898943
19.657612
19.922853
20.309687
21.627545
24.453998
23.990870
22.838712
25.642514
26.137829
26.398897
26.804805
27.769804
28.444529
28.625727
29.550791
27.928948
30.819774
30.341744
30.075908
30.166507
28.897524
29.571652
30.609965
29.849410
30.063987
28.396845
31.354427
##ZVALUE=250
1.660585
1.469851
1.710653
1.835823
2.014637
1.784563
2.689958
6.512403
24.079680
49.424767
122.162700
208.355784
321.202874
486.509800
599.734783
702.346563
725.615025
660.808682
566.909909
395.920873
271.721482
176.624656
106.686950
97.185969
106.970668
122.720599
142.117739
145.246983
142.269731
128.960609
112.884641
86.694956
63.975453
44.360757
32.789707
21.573901
19.248724
15.135407
15.686750
16.012788
15.541911
14.556646
14.485717
13.917685
13.889670
13.623834
13.600588
12.843609
14.279485
12.295842
12.946725
12.671947
11.626482
11.802912
11.694431
12.853742
12.102723
11.427999
10.967851
12.328625
11.632442
12.041926
11.911988
12.214780
12.897849
13.848543
14.432669
14.974475
16.351938
16.490817
18.422604
19.407868
20.064712
22.103786
22.657514
22.966862
23.105741
24.341941
25.287867
26.405454
25.386810
25.863647
26.507974
26.403666
27.966499
26.159883
26.736856
28.633475
28.628707
27.530789
27.956963
27.435422
28.652549
27.929544
29.170513
28.934479
##ZVALUE=255
1.557469
1.378655
1.500845
1.410842
1.789927
1.547933
1.613498
2.114773
2.258420
3.531575
16.122460
37.775636
81.937909
197.100639
323.224664
526.407957
670.955777
815.315843
840.778947
777.444839
661.369562
517.492890
313.619971
200.464725
113.833547
91.093779
92.492700
108.282566
134.207606
146.284699
154.232979
150.680542
141.007900
115.038753
92.378855
66.557527
49.526691
34.023523
27.108788
20.739436
18.525720
18.196702
17.961860
17.631650
16.913414
15.544891
16.036630
14.752746
14.539957
14.735460
13.739467
12.933612
12.729764
12.799501
13.059974
11.834502
12.566447
12.185574
11.143684
11.755824
11.042953
11.570454
12.375712
12.443662
12.540817
12.068748
13.668537
13.711452
14.732480
15.835762
16.385913
17.522573
18.334985
19.986629
20.219684
21.552444
21.075606
22.599697
24.351478
22.312999
22.831559
24.569631
25.191903
24.926662
24.205446
25.227666
25.408864
26.624799
26.500821
27.293563
26.245713
27.412772
27.274489
26.843548
27.396679
27.696490
##ZVALUE=260
1.335740
1.528859
1.361966
1.750588
1.710653
1.651645
2.099872
1.975894
1.590848
1.760721
2.084970
2.643466
6.426573
26.197433
59.889555
150.958896
247.277021
413.968563
541.435480
687.101483
753.241777
754.926801
653.153658
531.269908
345.449448
235.270858
142.331719
99.437833
81.361532
93.408823
110.833645
139.009953
156.468749
166.431665
161.829591
146.313906
126.175880
96.883774
76.273680
51.178932
39.276481
29.717684
24.580956
21.734834
20.601749
19.898415
19.026995
17.942786
17.581582
16.532540
16.581416
14.837980
15.090704
14.888644
13.602972
13.641715
12.786984
12.221932
13.016462
12.506843
12.630820
12.360811
11.761785
12.494922
11.649728
12.139678
13.216734
14.027953
13.577938
14.247894
14.755726
15.665889
17.061830
18.077493
18.565655
18.733740
19.207597
19.829869
20.489693
20.850897
21.384954
22.520423
22.168756
23.142695
23.550987
25.031567
23.615956
24.339557
25.312901
23.962855
25.294423
24.783611
25.106668
25.840998
25.808811
26.256442
##ZVALUE=265
1.215935
1.172423
1.209974
1.215935
1.304746
1.294613
1.222491
1.429915
1.248717
1.413822
1.572967
1.589656
1.526475
1.760721
4.399419
13.469458
47.320724
93.826652
163.421631
309.257507
440.122485
608.539581
692.496896
718.557835
678.293705
549.862981
435.554981
282.173753
190.944672
111.633539
84.837675
80.072880
96.723437
126.717687
147.695541
167.657733
173.902512
169.081688
151.167512
123.274922
102.295876
72.387457
56.611896
38.462877
30.135512
23.594499
21.168590
21.009445
18.744469
18.610954
17.401576
16.265512
15.267730
15.297532
14.295578
14.091730
12.971759
13.102889
13.467669
12.157559
12.456775
13.198853
12.208819
11.790991
12.479424
12.384653
12.430549
12.863874
13.495684
13.626814
14.871955
14.982820
16.069412
16.687512
17.468929
17.088652
18.324852
19.357800
19.701719
20.811558
20.726919
20.177960
20.739436
22.033453
21.585822
21.863580
22.697449
22.980571
22.775531
22.610426
23.460984
23.220778
23.090839
24.425983
24.018884
24.946928
##ZVALUE=270
1.092553
0.997782
1.169443
1.083612
1.016855
0.835657
1.057982
1.155734
1.097918
1.176596
1.346469
1.240969
1.323819
1.433492
1.476407
1.687407
2.284646
7.879734
21.457672
69.320798
136.628747
237.393975
414.820910
549.367666
697.289705
749.078989
735.935569
669.052601
519.267917
392.871499
313.848853
160.169601
102.537870
72.734952
77.794790
103.155971
125.504732
155.018568
168.120861
174.343586
173.142552
151.503682
129.190683
97.922683
74.237585
51.391721
37.630796
28.516650
23.507476
19.691586
18.382668
17.443895
15.790462
15.911460
14.792681
14.252663
13.943911
12.842417
12.992620
12.543797
12.044907
12.385845
12.583733
11.637807
12.009740
12.664795
12.783408
12.735724
13.930798
14.336705
13.268590
14.487505
15.310645
16.119480
17.068982
16.456842
17.164946
18.012524
18.176436
19.412637
19.756556
19.436479
20.318627
20.683408
21.055937
21.196604
21.644831
22.285581
21.885633
21.590590
22.054911
21.945834
22.978783
22.163987
21.949410
23.286939
##ZVALUE=275
1.073480
0.875592
1.065731
0.821948
1.032948
1.093745
1.058578
0.924468
1.135468
1.011491
1.051426
1.429915
1.247525
1.269579
1.315475
1.484752
1.521707
1.540780
1.667738
3.357530
12.285709
46.593547
97.462535
217.379928
343.616009
518.010855
640.749931
754.194856
776.098967
725.565553
633.486509
464.204550
334.722996
190.785527
118.875504
71.185827
61.915517
74.394941
93.303919
122.996569
144.493580
163.396597
170.044899
161.466599
144.796968
118.755698
95.362663
67.342520
50.118566
33.697486
25.981665
18.072724
16.185641
15.061498
13.752580
13.196468
12.856722
12.695789
12.715459
12.622476
12.058616
12.429953
12.253523
12.081861
12.708902
11.926889
12.365580
13.008714
13.378859
13.393760
14.329553
14.612675
15.587807
15.651584
16.236901
18.006563
16.582608
18.066764
17.943978
18.867850
19.161701
19.134879
19.211769
20.127892
21.132827
20.919442
20.229816
20.504594
21.314621
21.539927
21.006465
20.787716
21.442771
21.590590
21.453500
21.652579
##ZVALUE=280
0.959635
0.712872
0.943542
0.970960
0.882745
0.867844
1.109838
1.169443
1.047850
1.013875
0.844598
1.061559
0.988841
1.307726
1.270771
1.312494
1.419783
1.292825
1.294613
1.401901
1.501441
2.272725
8.546710
26.756525
83.250999
152.004957
287.550688
415.961742
593.313575
701.889992
779.075027
774.085522
677.395463
553.416014
372.690558
250.075459
132.230520
78.281760
47.450662
47.146678
65.513849
85.218549
113.173723
132.872462
153.016448
157.441497
151.344538
138.062835
109.863877
87.431669
62.383413
45.932531
29.644966
20.905733
14.565587
12.770891
11.394620
11.252761
11.269450
10.999441
11.111498
11.309981
11.834502
11.978745
12.265444
12.172461
12.433529
12.938976
13.458729
13.196468
14.510751
15.043616
15.206933
16.028881
16.337633
16.673803
17.411709
18.023849
18.033981
17.711520
18.621683
19.323826
19.826889
19.887686
19.269586
19.448996
20.423532
19.597411
20.101666
20.688772
20.560622
20.080805
20.728707
21.024942
20.920634
20.934939
##ZVALUE=285
0.949502
0.723600
0.925660
0.916719
0.843406
1.060963
0.911951
0.949502
0.906587
0.910759
1.061559
0.978708
1.004934
0.945926
1.090765
1.128912
1.150966
1.204610
1.390576
1.269579
1.412630
1.446605
1.520514
1.854897
3.863573
16.698837
42.399764
109.564662
189.036727
342.374444
472.617745
642.980933
737.871528
779.147744
736.782551
603.485703
477.821827
296.025872
188.266635
92.865825
51.995516
33.693910
37.533641
56.791902
76.254606
105.389953
125.614405
144.137740
148.925781
144.870877
133.707523
108.667612
89.415908
61.573982
43.551922
27.128458
19.293427
13.744831
11.586547
10.816455
10.941625
10.975599
10.960698
10.918975
11.285543
12.013912
12.338758
12.446642
13.413429
14.081597
14.284849
15.039444
15.633702
15.935898
16.742945
16.751885
16.780496
17.820597
17.386675
17.927885
18.236637
18.429756
19.583702
19.422770
19.787550
20.227432
20.059943
19.920468
19.761920
19.873977
19.772649
19.662976
20.058751
20.346642
20.350814
19.771457
##ZVALUE=290
0.799894
0.762939
0.793934
0.860691
0.773668
0.789762
0.929832
0.864863
0.975728
0.918508
0.930429
0.876784
0.969768
0.799894
0.963807
1.183748
0.945926
0.898838
1.015663
1.090765
0.937581
1.141429
1.225471
1.261830
1.452565
1.642704
2.136827
5.690455
24.988651
61.146617
118.279457
249.558687
380.351543
576.344728
693.909526
781.073570
778.685808
670.086741
550.347567
374.235511
246.440768
126.320720
68.326592
31.684637
25.555491
35.505891
49.806833
72.477460
92.755556
119.650960
132.546425
142.615438
138.462782
127.092004
107.757449
79.639554
60.748458
40.538907
28.531551
18.714666
13.919473
11.720657
11.354685
11.187792
11.098981
11.974573
12.068748
12.769699
13.405681
14.217496
14.735460
15.078783
15.447736
16.345978
16.864538
16.509891
17.157793
17.872453
18.293858
18.758774
19.285679
19.495487
19.527674
19.085407
19.619465
19.644499
20.587444
20.318627
20.440817
19.989610
19.916892
20.200610
20.422935
19.756556
19.945502
20.464659
##ZVALUE=295
0.847578
1.000762
0.894666
0.842810
1.026988
0.935793
0.937581
1.087785
0.895858
1.017451
1.200438
0.973940
0.935793
1.130700
1.010895
0.911951
1.039505
0.907779
1.115799
1.104474
1.106858
1.229644
1.148582
1.282692
1.257658
1.359582
1.693964
1.723766
1.758933
2.853870
9.203553
37.388802
84.734559
196.324587
316.425562
501.363873
630.003810
747.633576
769.618750
714.197755
609.996915
441.242456
309.332609
167.019963
91.839433
38.008690
22.233725
21.817684
29.144883
46.552420
63.761473
90.139508
108.468533
127.584934
135.270953
132.641792
121.230483
99.723935
82.333684
57.265759
42.647719
27.371645
20.469427
14.434457
12.500882
12.500882
12.529492
12.788773
13.413429
14.227629
14.592409
15.385747
15.939474
16.765594
17.011762
18.129945
18.180609
18.581748
18.768907
19.166470
19.256473
19.782782
20.521879
20.451546
20.424724
20.196438
20.460486
20.039678
20.510554
20.067692
20.466447
20.034909
20.842552
19.831657
20.018816
19.766688
##ZVALUE=300
0.766516
0.791550
0.705719
0.972748
0.672936
0.626445
0.767708
0.748634
0.848770
0.704527
0.786781
0.938773
0.781417
0.914931
0.908971
0.865459
0.929832
0.867844
0.979900
0.940561
0.895858
1.066923
0.868440
1.010895
1.105666
1.177788
1.149774
1.371503
1.323819
1.551509
1.560450
1.635551
5.120635
19.465685
65.098405
125.819445
257.912874
390.581489
571.353436
681.269765
759.439468
754.582882
659.781694
539.990664
356.266499
234.434605
117.208958
64.314604
25.868416
16.147494
18.440485
25.055408
41.840672
58.050752
82.175732
102.004409
122.515559
127.975941
127.728581
117.474794
99.015832
80.806613
58.561563
44.169426
29.812455
21.518469
15.959740
14.282465
13.333559
13.545752
15.052557
15.201569
15.560985
16.086698
16.784668
17.729998
18.188953
18.831491
18.772483
19.725561
20.063519
20.125508
20.435452
21.010637
20.649433
20.958781
21.161437
21.308661
21.351576
20.487905
20.747781
20.416975
20.340681
20.510554
20.349622
20.145774
##ZVALUE=305
0.669956
0.756979
0.759959
0.789762
0.714660
0.793934
0.715852
0.754595
0.846982
0.736713
0.752807
0.849962
0.712872
0.690818
0.719428
0.898838
0.849962
0.826716
0.896454
0.792742
0.889897
0.966787
0.852942
0.769496
0.815988
0.994802
0.892878
1.066923
1.214743
1.369715
1.301765
1.341701
1.440644
1.653433
2.471805
13.425946
36.122799
98.989606
179.705620
332.484841
465.878844
630.965829
726.885796
751.591921
709.144473
564.207435
438.870788
279.801488
176.295638
83.800554
41.579604
17.408729
12.529492
16.572475
24.051666
39.722919
56.459904
80.141425
96.286535
115.114450
122.559667
121.639967
113.619566
97.068548
78.324676
57.265759
43.795705
30.376911
23.003817
17.496943
16.370416
15.588999
16.167760
17.045736
17.556548
17.886758
18.150806
18.889904
19.802451
19.539595
20.632744
20.483732
20.747781
21.208525
21.431446
21.792650
21.803975
21.542907
21.749735
21.527410
21.756887
20.294785
20.570755
20.317435
20.429492
20.497441
##ZVALUE=310
0.616908
0.783801
0.608563
0.744462
0.780821
0.696778
0.732541
0.729561
0.745654
0.852942
0.743866
0.520945
0.833869
0.739694
0.801682
0.851750
0.796914
0.800490
0.823736
0.852942
0.688434
0.920892
0.844598
0.987649
0.872612
0.977516
0.884533
0.876784
0.980496
1.099706
1.066923
1.217723
0.923872
1.260638
1.365542
1.483560
1.615882
5.773902
18.274784
61.614513
120.802522
246.454477
372.542739
545.868874
660.511851
739.879608
730.697513
636.624694
526.008010
355.435014
235.058665
119.126439
64.051747
24.674535
13.124943
11.474490
14.791489
23.369789
34.352541
52.411556
68.862438
92.248917
106.460452
116.265416
118.643641
110.636950
96.461773
77.039599
61.268806
43.661594
32.977462
24.509430
20.732880
18.170476
17.733574
17.812848
18.242598
18.940568
18.758774
20.069480
20.052791
20.872951
21.391511
21.468997
21.650791
22.331476
22.247434
21.922588
22.075772
21.918416
21.313429
22.036433
21.191835
20.545721
20.992756
20.874739
##ZVALUE=315
0.675917
0.671744
0.677705
0.645518
0.575781
0.859499
0.597835
0.829697
0.630617
0.648499
0.829697
0.881553
0.768900
0.589490
0.588894
0.882745
0.729561
0.771880
0.708699
0.830889
0.824928
0.787973
0.806451
0.727773
0.904799
0.671744
0.850558
0.936985
0.875592
1.030564
0.981688
1.063943
0.996590
1.026988
1.194477
1.213551
1.160502
1.494884
1.478791
2.756715
9.316802
38.041472
84.719658
192.620754
308.420658
484.157801
599.123836
708.516836
729.785562
676.371455
580.018759
418.568850
296.047926
159.997940
87.735653
34.631491
16.375780
9.821653
11.063814
14.396906
20.158887
34.018755
46.544671
66.843629
83.738565
101.791620
109.531879
112.756491
104.675889
91.598630
77.524781
58.138967
44.651628
32.415986
25.904775
21.711588
20.101666
19.327998
19.671917
20.582676
20.496845
21.304488
21.020770
21.773577
21.846890
22.352934
21.995902
22.066832
22.767782
22.347569
22.172928
21.927953
21.997690
22.243857
21.697879
21.437407
##ZVALUE=320
0.583529
0.752807
0.622869
0.553727
0.591874
0.567436
0.552535
0.555515
0.501871
0.573993
0.596642
0.587702
0.883937
0.835657
0.759959
0.752807
0.863671
0.770688
0.724792
0.687838
0.697970
0.679493
0.853539
0.854731
0.824928
0.775456
0.876784
0.721812
0.952482
0.810623
0.809431
0.937581
0.876784
1.060963
0.976920
0.991821
0.973940
1.140833
1.313686
1.205802
1.406670
1.691580
4.391670
21.370649
53.980947
140.520930
234.496593
387.614965
514.722466
663.944483
725.184679
718.370676
646.069646
491.454005
359.296799
201.749802
116.041899
51.898956
24.898648
11.237860
9.744763
11.119843
13.528466
20.528436
29.899478
47.037601
61.412454
80.842972
94.413757
105.941892
108.716488
102.833509
92.903972
74.993968
60.972571
44.822693
35.494566
27.369857
23.613572
21.470785
20.934939
20.976663
21.094680
21.839738
22.051930
22.000670
22.289753
22.735596
23.006797
22.561550
22.309422
22.121668
22.044778
22.104979
21.988750
21.487474
##ZVALUE=325
0.599623
0.651479
0.586510
0.480413
0.620484
0.518560
0.502467
0.631809
0.713468
0.554919
0.572801
0.615716
0.635982
0.601411
0.556707
0.521541
0.590682
0.494719
0.634789
0.659823
0.645518
0.591874
0.624657
0.664592
0.621676
0.737906
0.602603
0.638962
0.784993
0.786781
0.740886
0.944734
0.825524
0.861883
0.776649
0.967979
0.924468
0.884533
1.123548
1.110435
1.231432
1.188517
1.323819
1.315475
2.583861
13.702512
35.077929
94.361901
170.144439
323.382616
450.256467
609.346032
689.013004
717.858672
667.838454
519.749522
392.893553
241.782665
145.961642
66.712499
33.264756
13.743639
10.168552
9.705424
11.052489
14.961958
20.188689
31.238794
42.736530
63.982606
77.646971
93.176961
101.898909
103.562474
98.814964
85.332990
72.325468
56.855679
45.674443
33.857822
28.214455
24.169683
22.406578
22.194982
21.922588
21.952987
22.019744
21.592975
21.817684
22.112727
22.157431
21.985769
21.517873
21.770597
21.683574
21.513700
##ZVALUE=330
0.496507
0.562668
0.656843
0.667572
0.595450
0.577569
0.494719
0.680685
0.582933
0.623465
0.652671
0.617504
0.708699
0.574589
0.688434
0.638962
0.641942
0.653863
0.816584
0.728965
0.568628
0.792742
0.688434
0.706911
0.717640
0.614524
0.581741
0.767708
0.954866
0.675917
0.747442
0.968575
0.767708
0.700951
0.935793
0.776649
0.806451
0.943542
0.974536
0.864863
1.031756
1.164675
0.978708
1.132488
1.260638
1.372695
1.584888
6.158948
18.923879
62.467456
121.089816
243.633986
358.787775
520.319939
622.748733
683.275461
663.445592
562.981963
448.957682
290.339589
187.281966
89.658499
47.174692
19.881725
11.485815
9.327531
9.990931
11.492968
14.709830
21.554828
29.959679
44.081807
56.877732
76.637864
88.846684
97.699761
98.805428
93.993545
84.066987
68.166852
56.614876
42.067766
34.945607
28.586984
25.481582
23.395419
22.083521
21.600723
21.353960
21.620989
21.300912
21.432638
21.549463
21.203756
21.358728
21.008849
##ZVALUE=335
0.566840
0.539422
0.483990
0.534654
0.406504
0.548959
0.638962
0.545979
0.696778
0.625849
0.549555
0.537634
0.777841
0.625849
0.645518
0.677705
0.463724
0.642538
0.802875
0.694990
0.684857
0.658631
0.683665
0.708699
0.757575
0.709891
0.662804
0.737906
0.709891
0.734925
0.796914
0.583529
0.785589
0.976920
0.716448
0.804663
0.852942
0.653863
0.923872
0.974536
1.007915
0.862479
0.728965
1.059771
1.183748
0.957847
1.405478
1.342893
1.499653
2.924800
9.932518
39.007664
82.570910
183.870792
293.791890
456.460714
565.096736
654.395819
663.244724
591.349006
494.096875
338.515639
230.099559
121.469498
65.640807
25.978684
14.326572
10.107756
10.229945
10.925531
12.187958
15.821457
20.720959
31.240582
42.164922
58.596730
71.559548
84.696412
91.520548
93.456507
89.674592
77.988505
67.751408
54.768920
46.048760
35.461783
29.465556
24.541616
23.092628
21.907687
21.265745
20.679832
20.426512
20.559430
20.442605
20.629764
##ZVALUE=340
0.591874
0.550747
0.669956
0.449419
0.708699
0.493526
0.607967
0.596642
0.557899
0.678897
0.614524
0.602603
0.462532
0.561476
0.585914
0.565648
0.530481
0.727773
0.547767
0.643730
0.725985
0.607967
0.637770
0.715852
0.641942
0.836849
0.724792
0.735521
0.598431
0.489950
0.750422
0.841618
0.643730
0.703931
0.658631
0.719428
0.757575
0.764728
0.680685
0.576973
0.766516
0.731945
0.837445
1.012683
0.951886
0.988841
1.014471
1.099706
1.069903
1.157522
1.333952
1.605749
5.138516
23.930669
58.205724
144.746900
244.074464
396.642685
504.762530
607.531667
642.825961
603.451729
524.918437
388.809443
274.232626
144.179463
82.649589
35.840869
17.940998
10.833740
9.977818
10.792613
11.472702
13.288856
15.680790
21.943450
29.522777
42.190552
54.736733
70.136786
80.661774
88.070631
89.589953
85.143447
77.704787
65.037608
55.916905
43.497682
35.900474
28.495789
24.290681
21.770000
20.752549
20.082593
20.055771
19.805431
##ZVALUE=345
0.632405
0.553727
0.562668
0.525713
0.534654
0.647902
0.528693
0.469685
0.608563
0.554919
0.620484
0.487566
0.490546
0.563860
0.622869
0.434518
0.632405
0.446439
0.627637
0.665784
0.542998
0.608563
0.744462
0.644922
0.560880
0.566840
0.502467
0.596642
0.868440
0.675917
0.785589
0.729561
0.739694
0.692606
0.742674
0.620484
0.595450
0.681877
0.669956
0.600815
0.778437
0.749826
0.779629
0.741482
0.822544
0.866652
0.919700
0.906587
0.907779
0.973940
0.957847
1.031756
1.097918
1.149774
2.920628
10.543466
43.260455
88.567734
185.795426
287.196636
437.572002
538.289547
617.707968
621.619821
547.805429
449.569821
306.009650
202.856660
95.770955
49.349666
19.986629
12.538433
10.069609
10.576844
10.847449
11.641979
12.989640
15.268922
21.183491
28.028488
40.957928
51.311851
64.408779
72.548985
81.989765
82.681775
80.325603
73.888898
62.329769
52.987933
41.974783
34.473538
26.908517
23.493767
20.517707
19.666553
##ZVALUE=350
0.469685
0.456572
0.484586
0.623465
0.417829
0.514984
0.543594
0.353456
0.587702
0.548959
0.464916
0.652671
0.445843
0.480413
0.561476
0.557899
0.467896
0.516772
0.472665
0.611544
0.517964
0.434518
0.470877
0.601411
0.679493
0.416636
0.656843
0.858903
0.767708
0.688434
0.782609
0.869632
0.749826
0.558496
0.785589
0.640750
0.714660
0.834465
0.560880
0.712872
0.656843
0.684857
0.731945
0.784993
0.827909
0.823736
0.923872
0.741482
0.782609
0.984669
0.920892
1.015663
0.920892
0.874996
1.126528
1.302958
1.728535
7.249713
21.215677
65.616965
124.703646
246.433616
352.822542
489.455462
568.154454
609.157681
574.986935
437.231660
337.202549
231.478810
118.737817
68.056583
29.273629
14.725924
10.127425
9.610653
10.243654
10.707974
11.889935
12.942553
15.827417
19.558668
27.577877
35.179853
46.922565
56.510568
66.724420
72.913766
77.371597
75.179935
67.886710
59.616566
47.806501
40.146708
31.897426
26.725531
##ZVALUE=355
0.550747
0.562668
0.578761
0.598431
0.547767
0.546575
0.622869
0.703931
0.620484
0.657439
0.450611
0.562668
0.551939
0.659823
0.734925
0.633597
0.617504
0.668764
0.660419
0.485778
0.575781
0.623465
0.837445
0.639558
0.550747
0.570416
0.483990
0.714660
0.632405
0.551939
0.664592
0.744462
0.701547
0.463724
0.677705
0.635982
0.695586
0.562668
0.733733
0.697970
0.766516
0.626445
0.755787
0.796914
0.769496
0.720620
0.827909
0.849962
0.826716
0.805855
0.909567
0.797510
0.869632
0.868440
1.001954
1.064539
1.122952
1.092553
1.265407
3.524423
11.971593
44.222474
89.017749
184.955001
286.033750
430.989861
520.955920
583.396554
576.908588
488.303900
392.741561
260.692835
167.001486
75.666904
39.124489
16.133785
10.617971
9.429455
9.421706
9.921789
10.503531
11.257529
12.138486
14.419556
17.207861
23.475885
30.417442
40.945411
49.641728
59.719682
65.355897
69.076419
68.221688
63.249469
56.566596
47.273636
##ZVALUE=360
0.563860
0.648499
0.529885
0.472665
0.604987
0.648499
0.644922
0.727773
0.608563
0.709891
0.642538
0.616908
0.681877
0.713468
0.758767
0.644922
0.703931
0.784993
0.786781
0.757575
0.709891
0.677705
0.579953
0.558496
0.722408
0.700951
0.527501
0.664592
0.638962
0.823736
0.985861
0.655651
0.640750
0.642538
0.793934
0.745654
0.766516
0.684857
0.644922
0.615716
0.667572
0.720620
0.815988
0.772476
0.789762
0.979900
0.747442
0.795722
0.881553
0.780821
0.933409
0.866652
0.839829
0.817776
0.930429
1.021624
1.123548
1.199841
1.079440
1.314878
1.494884
2.065897
5.858541
25.187731
58.810711
140.657425
225.554705
356.548429
458.998680
551.740527
566.777587
524.744987
443.736911
299.046636
200.049877
100.484490
54.614544
23.274422
12.549758
9.070635
9.288788
9.302497
9.594560
9.936690
10.363460
11.707544
12.539625
15.468597
19.384623
26.221871
33.244491
43.978691
51.371455
59.180856
62.688589
62.258840
##ZVALUE=365
0.391603
0.523925
0.341535
0.405908
0.342727
0.432730
0.418425
0.488758
0.376701
0.467896
0.476837
0.574589
0.606775
0.456572
0.625849
0.387430
0.392795
0.513792
0.479817
0.547767
0.522733
0.563860
0.529885
0.491738
0.483990
0.551939
0.557899
0.616908
0.637770
0.558496
0.594854
0.576973
0.611544
0.798702
0.691414
0.771880
0.721812
0.727773
0.721812
0.650883
0.551939
0.604987
0.685453
0.809431
0.822544
0.668764
0.745654
0.694990
0.640750
0.750422
0.853539
0.655651
0.688434
0.841618
0.902414
0.898838
0.929832
0.847578
0.953674
0.817776
0.999570
1.170635
1.154542
1.390576
2.928972
15.175939
38.429499
96.441507
173.533559
307.027698
404.876471
508.229733
551.418662
528.766513
464.085937
338.878632
240.586996
135.997534
75.844526
30.348897
15.405416
8.738637
8.322597
8.484721
8.517504
8.858442
9.170771
9.788871
10.169744
11.238456
12.869835
17.365813
21.767616
30.067563
37.016869
46.029687
##ZVALUE=370
0.464916
0.467896
0.580549
0.438690
0.606775
0.463724
0.608563
0.587702
0.541806
0.460744
0.432730
0.687838
0.451803
0.572801
0.589490
0.712872
0.698566
0.503659
0.473857
0.607967
0.614524
0.488758
0.662804
0.591874
0.543594
0.514984
0.426769
0.660419
0.575781
0.591874
0.667572
0.674725
0.619888
0.679493
0.613928
0.658631
0.581741
0.475645
0.693798
0.623465
0.624657
0.484586
0.617504
0.688434
0.623465
0.565648
0.683665
0.742674
0.817776
0.781417
0.569820
0.619888
0.761747
0.614524
0.582933
0.776649
0.764728
0.804663
0.791550
0.667572
0.810623
0.908971
0.857711
1.136661
1.140833
1.382828
1.728535
8.141994
25.151968
76.713562
137.920976
248.898864
350.284576
476.584435
533.320904
536.851883
488.279462
378.542542
279.423594
157.683492
89.966655
37.870407
20.148754
10.048747
7.933974
7.825494
7.767677
8.223653
8.043647
8.675456
8.546710
9.487867
9.908676
12.234449
14.749765
20.108819
##ZVALUE=375
0.521541
0.570416
0.440478
0.584722
0.507832
0.493526
0.441670
0.531673
0.531673
0.610948
0.520945
0.409484
0.654459
0.535846
0.534654
0.723600
0.610948
0.484586
0.582933
0.615716
0.490546
0.421405
0.640750
0.597835
0.542998
0.547767
0.674725
0.567436
0.472665
0.564456
0.555515
0.495911
0.423789
0.616908
0.582933
0.576973
0.607967
0.749826
0.711679
0.529885
0.508428
0.676513
0.654459
0.571609
0.583529
0.707507
0.605583
0.706911
0.596642
0.610948
0.604987
0.511408
0.593662
0.610948
0.693798
0.781417
0.711679
0.846982
0.742674
0.798702
0.644922
0.700951
0.745654
0.948906
0.914931
0.944734
1.127720
1.121759
1.344681
3.688931
13.455749
48.201680
98.209977
203.346610
299.708843
425.696969
490.898490
523.968935
503.654480
412.684679
319.128633
197.113752
126.929879
64.062476
34.662485
13.933778
8.355975
7.062554
7.090569
7.133484
7.530451
7.613897
7.547736
8.215904
8.229613
9.358525
##ZVALUE=380
0.502467
0.408888
0.464916
0.618696
0.520945
0.516772
0.439882
0.524521
0.528693
0.477433
0.495911
0.394583
0.402927
0.450611
0.449419
0.533462
0.513792
0.424981
0.583529
0.519753
0.454783
0.517964
0.542998
0.510812
0.430942
0.536442
0.582933
0.588894
0.336766
0.548959
0.477433
0.522733
0.562668
0.609756
0.529885
0.578761
0.611544
0.624657
0.619888
0.510812
0.482798
0.462532
0.488758
0.449419
0.474453
0.569820
0.533462
0.503659
0.567436
0.621676
0.578761
0.734925
0.781417
0.691414
0.666976
0.661612
0.564456
0.645518
0.589490
0.744462
0.777841
0.680685
0.650883
0.650883
0.852942
0.893474
0.747442
0.908971
1.023412
1.130700
1.382828
1.815557
5.985498
28.700829
65.769553
149.970651
236.454010
357.062817
441.145897
505.836010
504.670739
433.950424
358.521938
250.557661
169.314742
86.151958
45.565963
18.599629
9.962916
6.690621
6.682873
6.662607
6.836653
7.074475
7.159710
7.671714
##ZVALUE=385
0.602603
0.441670
0.630617
0.552535
0.517964
0.412464
0.532866
0.603795
0.662804
0.521541
0.593662
0.642538
0.720620
0.469685
0.530481
0.495911
0.562668
0.445843
0.696778
0.555515
0.585914
0.478625
0.496507
0.524521
0.754595
0.494719
0.652671
0.549555
0.669956
0.478625
0.550747
0.537634
0.545979
0.728965
0.653863
0.591874
0.617504
0.558496
0.670552
0.560880
0.640750
0.654459
0.635982
0.443459
0.438690
0.598431
0.755787
0.476837
0.734925
0.802875
0.627637
0.798702
0.611544
0.647902
0.818968
0.649691
0.655651
0.639558
0.816584
0.732541
0.745654
0.661612
0.812411
0.769496
0.674725
0.729561
0.832677
0.832677
1.039505
1.048446
1.201630
0.943542
1.256466
1.241565
3.318787
10.838509
39.948821
85.952878
181.982517
271.623731
392.388701
456.604958
489.119887
472.678542
397.619605
315.628648
204.235911
130.685568
62.107444
32.440424
13.400912
7.671714
6.145835
6.030798
6.193519
6.079674
##ZVALUE=390
0.559688
0.446439
0.460744
0.547767
0.423789
0.463724
0.399947
0.385642
0.440478
0.375509
0.413656
0.308752
0.634789
0.512600
0.375509
0.558496
0.432730
0.500679
0.544786
0.437498
0.480413
0.503659
0.453591
0.564456
0.579953
0.575781
0.544786
0.485778
0.566840
0.612736
0.656843
0.503659
0.455976
0.578761
0.635982
0.625849
0.500679
0.596642
0.585914
0.559688
0.559688
0.555515
0.596642
0.722408
0.584722
0.572801
0.338554
0.656843
0.531673
0.557899
0.492930
0.471473
0.760555
0.425577
0.538826
0.660419
0.728965
0.629425
0.662804
0.616908
0.667572
0.710487
0.736713
0.624657
0.628829
0.661612
0.658631
0.888705
0.776649
0.851750
0.939965
1.033545
1.027584
0.960827
1.131892
1.164675
1.598597
7.502437
22.912621
69.840550
131.223798
242.208838
328.000784
423.060656
473.746657
486.632586
448.171496
354.032516
272.402763
167.309642
98.503828
41.964650
20.723939
8.289814
5.964637
5.540848
##ZVALUE=395
0.505447
0.491738
0.358820
0.513792
0.324845
0.482798
0.398755
0.560880
0.328422
0.440478
0.412464
0.508428
0.567436
0.578761
0.595450
0.478625
0.501871
0.414848
0.410676
0.687838
0.516772
0.460744
0.516772
0.428557
0.661612
0.610948
0.384450
0.582933
0.509620
0.622869
0.552535
0.534654
0.602603
0.753999
0.649691
0.440478
0.589490
0.741482
0.571609
0.492930
0.570416
0.605583
0.728965
0.571609
0.558496
0.696778
0.665784
0.596642
0.454783
0.537634
0.516772
0.534654
0.690818
0.590682
0.438690
0.511408
0.611544
0.621676
0.480413
0.641942
0.557899
0.642538
0.683665
0.601411
0.709891
0.705719
0.691414
0.771880
0.882745
0.908971
0.873804
0.840425
0.928640
0.650883
0.836849
0.858903
0.790954
1.073480
1.227856
4.217625
14.844537
50.849915
95.792413
180.744529
267.461538
384.666920
453.698635
498.040915
483.518839
409.592986
322.960615
202.350616
126.773715
57.486892
28.799772
11.787415
##ZVALUE=400
0.545979
0.596642
0.580549
0.594854
0.614524
0.678897
0.563860
0.554919
0.538826
0.609756
0.516772
0.713468
0.587702
0.689626
0.792742
0.615716
0.657439
0.639558
0.668764
0.522733
0.641942
0.674725
0.650883
0.581741
0.660419
0.687838
0.670552
0.766516
0.709891
0.691414
0.842810
0.763535
0.776649
0.918508
0.701547
0.651479
0.623465
0.761747
0.803471
0.851750
0.668764
0.752807
0.664592
0.818968
0.783801
0.855923
0.589490
0.737906
0.663996
0.723600
0.869632
0.694990
0.851750
0.635982
0.762939
0.838637
0.756979
0.735521
0.664592
0.699759
0.777841
0.684857
0.725985
0.595450
0.746846
0.796914
0.813603
0.840425
0.929832
1.013875
0.984669
0.844598
0.929832
0.895858
1.052618
1.014471
1.113415
1.041889
1.133680
1.192689
1.178980
2.152920
8.918643
24.542809
68.474412
124.959946
231.376886
320.527554
427.521467
476.002693
481.983423
438.431501
338.025689
251.437426
146.442652
89.240670
##END
