##TITLE=FQP00352
##FORMAT=SPECTACLE-ASCII V-1.2
##DATA TYPE=ULTRAVIOLET SPECTRUM
##SECOND TYPE=ULTRAVIOLET SPECTRUM
##DATE=02/12/18
##TIME=15:51:01
##SPECTROMETER/DATA SYSTEM=SPECTACLE
##XUNITS=NM EM
##YUNITS=ENERGY
##YFACTOR=1
##FIRSTX=220
##LASTX=410
##NPOINTS=96
##3DDATA=Equidistant
##ZUNITS=NM EX
##FIRSTZ=210
##LASTZ=400
##ZPOINTS=39
##XYDATA=(Y..Y)
##ZVALUE=210
3.562570
2.506971
2.374649
2.580881
2.520680
2.563000
3.543496
2.845526
2.247691
2.890825
2.254844
2.945662
2.391934
2.165437
2.429485
2.087951
2.590418
2.984405
2.874732
2.937913
2.838969
2.888441
3.233552
3.872514
3.750920
3.861785
4.294515
4.637837
5.393624
5.815625
6.651878
6.499887
7.089972
6.645918
7.418990
7.228851
6.923676
7.413626
7.598996
6.491542
6.656647
7.040501
6.553531
6.529689
5.837679
6.421804
6.094575
5.735755
5.443692
6.026626
5.707741
5.800724
4.525781
5.059838
4.870892
5.077720
4.567504
5.256534
4.753470
4.910827
4.321933
5.025864
5.085468
4.620552
5.093813
5.156994
5.375743
4.894733
5.162954
7.505417
7.749796
8.039474
10.774732
11.444688
11.739731
12.666583
12.383461
11.302829
12.391806
10.800958
9.243488
8.782744
7.280707
6.296635
5.455613
5.040765
5.015731
4.749894
5.422831
4.513860
4.935861
4.086494
5.102754
5.490780
5.737543
5.466938
##ZVALUE=215
7.543564
7.522702
6.243587
4.919767
5.835891
5.085468
4.859567
5.685687
5.270839
5.227923
4.778504
5.672574
3.965497
3.460646
3.025532
3.367662
2.466440
2.856851
2.775788
3.008842
3.184676
3.437996
3.501773
3.283620
3.487468
4.829764
5.014539
5.306602
6.972551
8.069873
10.211468
10.116696
9.756684
11.250973
10.606647
10.882616
11.275411
11.279583
11.660457
10.786653
10.173917
10.158420
9.118915
9.098649
8.935928
7.856488
7.332563
7.111430
7.269979
6.201863
7.804632
6.038547
6.559491
6.121993
5.527735
6.001592
6.175637
5.922914
5.084872
5.110502
5.496740
5.195737
5.067587
6.019473
4.550815
5.107522
5.402565
5.592704
6.199479
6.282926
7.978678
7.737875
8.293986
9.335876
10.152459
10.279417
11.095405
10.923743
10.376573
11.033416
8.466840
7.998943
7.379651
6.074905
6.898642
5.370975
6.388426
5.073547
4.702806
3.649592
4.510880
4.286766
4.256964
5.288720
4.136562
4.087687
##ZVALUE=220
17.800927
19.830465
21.358728
22.662878
19.265413
15.844703
14.693737
11.689663
10.854602
10.269880
13.015866
13.044477
11.542439
10.730624
9.159446
8.004904
4.763603
4.180670
3.669858
2.861619
3.530979
3.408790
3.733635
3.718734
4.056692
6.169677
7.253885
7.864833
9.385943
11.383891
13.323426
14.429688
16.681552
16.517639
17.169714
17.787814
17.725825
16.307831
16.647577
15.033484
14.024973
13.566613
14.005899
13.929605
12.784600
11.604428
11.001825
9.697676
9.570718
9.817481
8.623600
7.727742
8.177757
7.631779
7.539988
7.034540
6.641746
7.150769
5.789995
6.604791
6.667972
6.119609
6.385446
5.967617
6.352663
5.618930
6.661415
6.307960
7.819533
7.088780
8.264780
8.344650
10.359883
11.372566
11.937618
12.327433
11.524558
12.924671
11.231899
11.514425
11.516809
10.508895
9.149909
8.995533
8.653998
7.147789
6.515980
6.214976
5.245805
5.512834
5.571842
5.637407
5.116463
5.657673
4.928708
5.995631
##ZVALUE=225
33.209920
34.050941
44.743419
55.091977
61.482787
61.271787
58.366656
45.399666
38.616657
30.850768
25.385618
23.100972
23.959875
28.246641
25.589466
22.855997
22.861958
16.763806
12.978911
8.533597
5.979538
4.167557
4.280806
4.827976
4.685521
6.700754
7.184744
9.906888
11.966825
12.684464
15.440583
16.956925
19.012690
20.159483
22.003651
20.816922
20.697713
20.225644
20.407438
18.875599
19.137859
19.533634
17.301440
15.981793
14.001727
15.563965
13.801455
12.156963
12.177825
12.331605
10.739565
9.487867
9.194613
10.265708
9.089708
9.651780
8.932948
8.261800
9.070635
9.894967
9.106994
7.873774
7.349849
7.171631
8.438826
8.703470
8.109808
8.321404
8.372664
7.969737
9.327531
10.294914
10.339618
11.758804
11.232495
11.582971
10.860562
10.914803
10.997653
10.970831
10.278821
9.212494
9.636879
8.862615
7.915497
7.352829
6.346703
7.271767
7.491708
6.233454
7.587671
6.683469
7.025599
6.508827
6.546974
6.517768
##ZVALUE=230
26.840568
30.065775
55.179000
77.227950
96.850991
124.267936
139.703751
140.097737
130.747557
104.458928
77.558756
55.904984
45.673847
44.094920
46.831965
48.063993
51.063895
50.334930
45.365691
35.145879
25.666952
17.884970
10.678768
8.302927
5.010962
5.667806
6.962419
7.778406
10.434985
10.977983
13.302565
14.878511
17.549992
18.535852
18.383861
17.623901
17.449856
18.611550
19.054413
18.342733
17.053485
15.138984
15.846491
14.463663
14.872551
13.307929
12.674928
11.819601
11.427999
12.393594
10.080934
11.390448
10.943413
10.748506
9.683967
9.249449
9.862781
9.312630
11.308789
10.162592
9.088516
8.323789
9.024739
9.179711
10.585785
9.062886
8.888841
9.165406
9.799600
9.974837
10.760427
11.012554
11.914968
11.200905
13.261437
13.882518
13.634562
13.545752
12.976527
10.701418
12.300611
10.812879
10.667443
9.949803
9.402633
10.258555
10.386705
9.304881
9.326935
9.241700
9.957552
9.644628
8.756518
9.441972
8.196831
8.781552
##ZVALUE=235
10.747910
11.191964
23.142695
57.403445
89.913607
140.828490
188.265443
244.208574
265.904665
264.924765
238.410830
198.719501
137.939453
106.773973
78.580976
68.281889
74.117780
76.994896
84.791780
85.517764
74.435472
65.776706
48.602819
38.040876
22.936463
15.909672
12.159944
9.416938
8.992553
9.858608
9.649992
11.410713
11.441708
13.061762
13.631582
11.975765
13.762712
15.061498
13.693571
13.309717
13.847947
13.625622
13.659596
12.207627
12.437701
11.468530
12.000799
10.207891
10.153651
10.961890
10.834932
10.715723
12.128949
9.263754
9.655952
10.272861
10.993481
10.394454
9.997487
10.637641
10.614991
8.899570
10.226965
9.288788
9.694695
10.381937
11.829734
12.648702
11.257529
12.580752
13.319850
12.939572
13.524890
16.536713
15.238523
15.201569
17.444491
16.150475
14.909506
15.793443
16.237497
14.269948
15.591979
13.887882
13.355613
14.651418
12.945533
13.214946
12.097955
13.509989
13.352633
13.387799
13.330579
12.919903
12.410879
10.938644
##ZVALUE=240
1.981854
1.982450
5.273819
13.463497
36.784410
68.251491
132.209659
199.045539
301.676989
361.765623
418.451428
409.955978
382.314920
305.222869
246.774554
161.063671
116.307735
94.919801
94.531775
102.539659
113.541484
118.820667
112.654567
101.503730
84.510446
66.134930
49.153566
36.276579
23.519993
15.185475
13.546944
12.014508
11.243820
13.096929
13.027787
11.127591
12.509823
13.093948
13.373494
12.625456
13.712645
12.935996
13.496876
12.985468
14.159679
12.230873
12.220740
11.112690
11.136532
10.846853
11.696815
12.485981
10.585785
10.368824
10.910630
10.322928
10.064840
9.414554
10.709763
9.667873
11.459589
10.852814
10.917783
12.051463
12.812614
10.914803
11.993647
11.638999
12.356639
14.086962
14.843941
14.520884
16.377568
17.628670
18.121600
18.088818
19.248724
18.750429
17.882586
17.894506
18.773675
17.426610
18.048882
17.648935
16.923547
17.049909
18.399954
16.433597
17.502904
16.334653
16.656518
16.302466
16.175508
15.973449
14.881492
15.616417
##ZVALUE=245
1.617670
1.912713
1.738667
1.980662
2.667904
11.185408
25.720596
70.586801
127.383471
200.988650
321.874619
409.918427
491.746664
505.419970
477.412939
419.795513
306.962729
229.589939
167.740583
110.814571
96.659660
101.144910
117.518902
128.540993
132.066607
131.163597
113.729835
96.574426
78.429580
57.008862
42.801499
27.803779
22.567511
16.794801
16.188622
15.879869
15.952587
15.725493
14.592409
14.528632
14.951825
12.702942
15.387535
15.107989
14.541745
13.829470
13.469458
13.586879
13.382435
13.823509
11.811852
11.357665
11.485815
11.193752
11.117458
10.924935
10.413527
10.398626
10.698438
10.631680
10.478497
9.647608
10.861754
10.992885
10.287762
10.129809
11.583567
12.784600
12.206435
14.326572
15.234947
14.693737
16.577840
16.299486
17.496943
17.722845
17.470717
18.413663
18.646717
17.981529
17.750859
16.789436
19.083619
18.047690
17.796755
18.214583
17.722845
17.776489
17.693639
16.645789
17.782450
17.347932
16.708970
16.750693
17.386675
17.084479
##ZVALUE=250
1.409650
1.669526
1.484752
1.728535
1.344681
1.427531
2.329946
6.725788
25.470853
55.749416
132.730603
217.538476
316.282511
456.748009
532.814860
593.520999
586.413741
512.700677
430.781841
291.946530
202.876925
141.205788
96.955895
92.782974
109.107494
129.676461
140.367746
146.993995
139.355659
132.725835
111.200809
90.693831
70.639849
47.861934
35.492778
25.465488
21.695495
20.247698
20.269752
19.670725
18.695593
17.893910
18.344522
17.611980
17.449856
17.276406
15.043616
15.398860
13.671517
14.323592
12.763739
13.531446
12.344718
12.174845
11.880994
10.192990
10.359883
9.290576
10.441542
9.490848
9.806752
9.533763
10.058880
9.918809
9.362698
9.380579
10.704994
10.246634
11.040568
11.564493
11.760592
12.870431
14.452934
16.277432
15.217662
15.823841
16.136765
16.570687
16.949773
16.919971
15.464425
16.990900
16.576648
16.005635
16.293526
15.904903
16.447902
16.994476
16.910434
17.094612
15.788674
16.866922
16.073585
15.757680
16.047955
16.532540
##ZVALUE=255
1.364946
1.308918
1.289845
1.307726
1.329780
1.357794
1.455545
1.836419
1.832843
4.515648
13.655424
45.373440
90.445876
189.696550
280.110836
386.787653
522.596836
607.193708
643.866658
612.464547
511.972904
403.440595
256.242752
171.612501
104.463696
87.416768
91.848969
111.483932
127.771497
153.510571
158.638954
154.047608
142.884851
118.921995
99.603534
71.124434
55.407882
38.809776
30.625463
26.178956
24.338961
22.477508
22.419691
20.996928
20.106435
18.352866
19.177794
17.498732
16.961694
15.616417
14.943480
14.184713
13.617873
13.375878
13.368726
11.712909
10.940433
11.021495
10.514855
9.852648
10.025501
10.026693
9.949803
9.073615
9.644628
10.236502
9.453893
10.433793
9.993911
10.981560
10.754466
11.788607
12.159944
13.777614
13.059974
13.506413
14.926791
14.944673
14.303923
14.426708
14.418960
14.054775
14.693737
15.438795
14.397502
14.856458
14.450550
15.002489
15.682578
15.147924
15.390515
15.451908
14.400482
14.794469
15.589595
15.253425
##ZVALUE=260
1.305938
1.474619
1.487732
1.121759
1.227856
1.234412
1.358986
1.453757
1.249909
1.565814
1.866817
2.148747
7.137656
27.866960
61.557889
141.004920
230.781436
383.512974
498.117805
643.314719
693.846941
699.145794
616.451502
504.325628
344.065428
237.364769
144.239664
100.162625
83.739758
93.406439
121.671557
144.084692
159.418583
174.809694
167.706609
153.400898
135.322809
101.531744
81.332922
57.524443
45.890808
33.671856
29.107928
26.905537
24.248958
23.155808
22.129416
20.591617
19.666553
17.432570
17.140508
15.997887
15.761852
13.777614
13.141632
12.759566
11.347532
10.911822
11.031628
9.803772
10.206699
9.281635
9.539723
9.243488
8.980632
8.799434
9.191632
9.069443
8.894801
10.109544
10.015965
10.650754
10.699630
11.934638
12.184978
12.336969
12.433529
13.487935
12.594461
13.303757
12.777448
13.131499
13.365746
13.686419
13.865829
13.615489
13.995767
14.595985
14.121532
13.544559
13.335943
13.813972
13.987422
13.418794
14.606714
15.292764
##ZVALUE=265
1.273751
1.011491
1.033545
0.934601
1.127720
1.103878
1.265407
1.246929
1.194477
1.147985
1.535416
1.578927
1.631975
1.872778
3.640652
17.083883
40.777922
106.762648
185.758471
345.398784
480.610728
606.258512
738.361478
756.921768
690.168738
598.578453
442.356467
313.424468
180.425644
121.693611
87.214708
86.145997
102.033615
135.311484
157.059431
177.553892
183.083415
172.206759
158.676505
130.279660
107.037425
80.004930
62.769651
43.356419
35.049915
28.512478
25.030971
21.990538
20.707846
18.861890
19.401908
16.553998
15.710592
14.814734
14.736652
13.473630
12.200475
11.633635
11.033416
10.601878
10.337830
9.999871
9.852648
9.300709
9.489655
9.310842
9.238720
9.184480
9.178519
9.850860
10.052919
10.079741
10.875463
10.878444
10.872483
11.249781
11.942983
11.351705
11.716485
12.251735
12.146831
12.345910
12.559891
12.501478
12.259483
11.955500
13.511777
12.496710
12.391806
12.793541
13.163686
13.455749
12.583733
13.316870
13.062954
13.211966
##ZVALUE=270
1.034737
1.118779
0.989437
0.966787
1.144409
1.068711
0.895858
1.086593
1.150966
1.310706
1.324415
1.381636
1.379848
1.499653
1.564622
1.584888
2.352595
8.314848
23.770928
74.841976
146.897435
251.567960
444.359779
589.572787
741.452575
795.962811
771.579742
698.972940
545.332432
413.076878
295.691490
168.638825
110.068917
82.928538
85.767508
111.089945
133.523941
161.076784
174.684525
177.899003
175.851583
153.566599
132.816434
99.532604
75.830817
53.070784
40.807724
29.699802
23.945570
20.354986
18.766522
16.940832
15.442967
15.195608
14.544725
13.309717
12.298822
11.957884
11.894703
11.811852
10.732412
10.180473
10.672808
9.886622
9.443760
9.322762
9.066463
9.455681
10.157824
9.432435
10.400414
10.330677
10.569692
10.820627
10.791421
11.131763
11.392832
12.030602
11.105537
11.473894
11.735559
11.367798
11.586547
12.206435
11.238456
11.872649
12.071729
12.103915
12.133718
11.311769
11.756420
12.539625
12.275577
11.929870
11.739731
11.316538
##ZVALUE=275
0.975728
1.107454
0.776649
0.832677
1.082420
1.082420
0.965595
1.094937
1.172423
1.123548
1.051426
1.221895
1.043677
1.246929
1.069903
1.279712
1.457930
1.248717
1.900792
3.702641
14.032722
40.224791
115.438700
211.440921
387.328863
527.103543
687.387586
773.484707
812.068582
768.131614
675.000548
503.285527
359.824896
204.160810
129.560828
75.591803
66.250563
77.364445
98.915696
123.413801
144.452453
165.259838
169.911981
159.032941
145.993829
118.644834
96.413493
68.037510
50.996542
33.138990
24.158955
17.738938
14.504790
13.335943
12.258887
11.501908
11.358857
10.628700
10.516644
10.597706
10.854602
10.167956
10.389686
9.911656
9.437799
9.590983
9.669662
9.831786
10.005832
9.937882
10.492802
10.858774
10.901690
10.901690
10.667443
11.242628
10.857582
11.079907
10.807514
10.681748
11.058450
11.437535
10.478497
11.543632
11.522770
11.242628
11.662841
11.559725
10.849833
11.636615
10.710955
11.497736
10.945797
11.565685
11.030436
11.354685
##ZVALUE=280
0.763535
0.766516
0.945926
1.001954
1.099706
0.928640
0.896454
0.998974
1.158714
0.921488
0.980496
0.870824
0.770688
1.102686
1.024604
1.080632
1.226664
1.397729
1.236796
1.430511
1.744628
2.426505
8.117557
34.646988
79.049468
187.950730
297.469497
481.519699
617.058873
763.635635
824.118853
808.152556
723.641515
549.543500
412.127972
238.701701
144.361854
71.924925
49.288869
48.564672
61.240792
88.189840
109.010935
134.520531
148.327947
152.556896
148.756504
131.431818
111.537576
82.817674
63.732862
41.429996
28.849840
17.678738
13.150573
10.740757
9.876490
9.393692
9.321570
9.287000
9.599924
9.584427
9.783506
10.211468
9.733438
9.389520
9.966493
9.795427
9.838939
10.395646
10.288954
10.408759
10.752678
11.058450
10.896921
11.426806
11.089444
11.224747
11.451840
11.110902
12.061596
11.621714
11.319518
11.754632
11.323690
11.238456
11.542439
11.328459
10.962486
11.227727
11.173487
11.374950
10.900497
11.073947
10.778904
11.301637
##ZVALUE=285
0.717640
0.904799
0.857711
0.969768
0.704527
1.155734
0.819564
0.934601
0.847578
0.897646
1.089573
1.119971
0.821948
0.963807
0.726581
1.090765
0.999570
1.107454
1.150966
1.056790
1.324415
1.430511
1.464486
1.975894
4.373789
14.876723
50.026774
105.219483
228.791833
349.841714
532.788634
667.420626
779.147744
830.807686
777.802467
630.562901
491.822958
305.068493
191.811919
92.261434
51.730871
31.816959
35.212636
54.508448
74.823499
102.588534
122.334957
139.366984
146.775842
142.969489
130.080581
107.676983
86.970925
59.032440
42.999983
25.718808
17.965436
12.172461
10.351539
9.230971
9.182692
9.108782
9.455681
9.783506
9.775758
10.142922
10.431409
10.458827
10.874867
11.046529
11.237860
11.593699
11.280775
12.423992
12.012720
12.173653
11.700988
11.569858
11.735559
11.918545
12.194514
11.605620
11.433959
11.627674
11.758804
11.779666
11.285543
11.264682
10.548830
10.923743
11.426806
11.080503
10.167956
10.826588
11.204481
10.963678
##ZVALUE=290
0.838637
0.768900
0.652671
0.792742
0.765920
1.003742
0.824928
0.872612
0.853539
0.924468
0.909567
0.913739
1.063943
0.993609
1.037717
0.869632
0.953674
1.019835
1.199841
1.138449
1.128912
1.243949
1.324415
1.176000
1.412630
1.492500
1.937747
7.823706
24.382472
74.114799
137.813687
283.517838
422.662497
615.552664
731.015801
822.295547
810.042024
694.254637
566.544533
381.609797
248.770714
127.207637
68.809986
30.819774
23.962855
33.855438
48.145652
73.278546
92.001557
117.149949
132.066607
142.527819
139.954686
124.390721
106.553435
78.618526
60.830712
39.249659
27.190447
18.488765
13.640523
10.837913
10.990500
9.961724
9.828806
10.482669
10.905862
10.778904
10.940433
11.295676
11.874437
12.285709
12.752414
12.371540
12.217760
12.803674
12.291670
12.022853
12.169480
12.079477
12.371540
12.236834
12.250543
11.835694
11.987686
11.569858
11.838675
11.664629
11.807680
11.256933
10.838509
10.719895
10.783672
10.570884
10.580420
10.639429
##ZVALUE=295
0.750422
0.649691
0.577569
0.716448
0.722408
0.875592
0.561476
0.789762
0.843406
0.794530
0.825524
0.804663
0.747442
0.868440
0.873804
0.827909
0.917912
1.083612
0.916719
1.085997
0.973940
1.083612
1.011491
1.254678
1.287460
1.057982
1.431704
1.477599
1.692772
2.997518
9.777546
40.595531
89.687705
210.619569
336.173773
532.895923
663.186908
792.346597
821.586847
751.835704
642.095804
453.787446
318.299532
168.692470
91.932416
37.605762
21.576881
20.828843
28.735995
46.544671
63.566566
90.010762
107.416511
126.351714
134.371519
131.540895
120.370984
99.985600
82.206726
58.867931
42.311549
27.494431
19.848943
14.596581
11.909604
11.145473
10.730624
11.633635
11.360645
11.899471
11.852980
12.758970
12.586713
12.537837
12.887716
13.044477
12.641549
12.900829
12.537837
12.623668
12.490749
12.196898
12.351871
11.849999
12.149811
11.643767
12.394786
11.846423
11.985898
11.081696
11.199713
10.819435
10.864735
10.362864
10.822415
10.139942
##ZVALUE=300
0.818968
0.750422
0.856519
0.563860
0.651479
0.575781
0.790954
0.646710
0.927448
0.632405
0.776649
0.694990
0.809431
0.796914
0.650883
0.827909
0.760555
0.933409
0.778437
1.037717
0.783801
0.978708
0.886917
0.870824
0.898838
0.945926
1.145601
1.172423
1.240969
1.307726
1.635551
1.767874
5.829930
20.476580
68.743825
134.112835
272.823572
414.616466
605.755448
724.159479
812.044740
805.965662
696.816444
571.068525
377.212763
243.440866
124.009848
65.068603
26.203990
16.032457
18.919706
26.181936
42.202473
58.303475
82.795620
101.589561
121.102929
128.047466
125.968456
118.482709
99.708438
81.645846
57.566762
43.240786
28.189421
21.355748
15.184879
12.964606
12.009740
11.898875
12.017488
12.040734
12.376904
12.203455
12.645721
12.924671
12.531877
12.908578
12.691617
12.513995
12.439489
12.431741
12.460947
12.286901
12.309551
11.909604
11.713505
11.620522
11.404753
11.196733
11.249781
11.263490
10.745525
10.618567
10.406971
9.951591
##ZVALUE=305
0.599623
0.664592
0.780821
0.698566
0.586510
0.558496
0.751615
0.735521
0.740886
0.753999
0.922680
0.619888
0.613928
0.722408
0.783801
0.822544
0.734925
0.825524
0.806451
0.802875
0.820756
0.849962
0.845790
0.770688
0.965595
1.095533
0.977516
0.996590
0.996590
1.263618
1.148582
1.259446
1.484752
1.548529
2.569556
13.692975
38.875937
109.183788
193.674564
354.535580
496.664643
669.207573
759.308934
790.454745
732.578635
575.498939
443.408489
281.488895
176.242590
81.263781
40.550828
17.225742
13.054609
17.610788
24.920702
41.075945
56.471825
79.881549
96.243620
113.771558
121.871829
119.617581
113.173723
95.018744
77.677965
56.365728
41.658878
28.277636
19.898415
14.667511
13.353825
12.054443
11.582971
11.870861
11.981726
12.039542
12.084842
12.208819
12.345910
12.347698
12.441874
12.230873
12.022853
12.386441
12.039542
12.196898
11.977553
11.691451
11.521578
11.544824
11.194944
11.155605
10.879636
10.428429
10.642409
10.654926
##ZVALUE=310
0.696778
0.596642
0.618696
0.714660
0.686646
0.731945
0.708699
0.788569
0.573993
0.549555
0.547767
0.899434
0.706911
0.716448
0.660419
0.679493
0.661612
0.669956
0.559688
0.790954
0.850558
0.944734
0.843406
0.917912
0.877976
0.830889
0.937581
0.881553
0.796914
1.061559
1.126528
1.121759
1.207590
1.094937
1.370907
1.415610
1.816750
4.830956
24.347901
57.902932
143.025517
241.943598
420.241952
558.050871
711.782575
772.774816
758.591890
684.655905
527.083874
387.899876
220.628977
132.144690
57.310462
28.959513
12.826920
11.169910
16.192794
21.852851
35.454631
48.600435
70.941448
88.316798
106.430650
113.978982
115.947723
108.622909
93.558431
77.829957
55.893660
40.794611
26.917458
20.477772
15.371442
13.100505
11.796951
11.389852
11.454821
11.660457
11.576414
11.542439
11.620522
11.740923
11.399984
11.619925
11.753440
11.679530
11.094809
11.632442
11.370778
11.285543
10.879636
10.997653
10.770559
10.436773
10.363460
10.698438
##ZVALUE=315
0.692606
0.705719
0.560880
0.517964
0.622869
0.588894
0.819564
0.686646
0.621676
0.576973
0.858903
0.675917
0.734925
0.782609
0.714660
0.781417
0.876784
0.718832
0.788569
0.783801
0.752807
0.860691
0.626445
0.807643
0.789762
0.802875
0.748634
0.946522
0.961423
0.922680
0.900626
1.039505
1.135468
1.120567
1.224875
1.375675
1.362562
1.390576
1.458526
2.940893
10.195971
40.847659
90.660453
201.895833
325.723886
520.075560
637.355447
742.617846
770.908594
702.039599
601.296425
432.798862
302.853584
160.779953
88.461637
34.439564
16.497970
10.482669
10.811687
15.018582
20.515919
33.372641
45.767426
65.749884
82.317591
100.548863
108.356476
108.144879
104.096532
86.702704
72.556734
53.826571
40.705800
27.360916
20.007491
14.388561
12.779832
11.549592
10.872483
11.229515
11.034608
10.964870
10.926723
11.334419
11.309981
11.296868
11.176467
10.882616
11.140704
10.779500
11.047721
10.872483
10.751486
10.472536
10.494590
10.260940
##ZVALUE=320
0.672936
0.521541
0.675917
0.621676
0.604987
0.589490
0.615716
0.562668
0.649691
0.579953
0.589490
0.722408
0.664592
0.623465
0.799894
0.602603
0.617504
0.686646
0.752807
0.598431
0.686646
0.776649
0.786781
0.929832
0.823736
0.786781
0.980496
0.837445
0.898838
0.967979
0.944734
0.862479
0.905991
0.933409
1.055598
0.912547
1.052618
0.935793
1.222491
1.259446
1.160502
1.627803
5.761981
19.120574
65.143704
130.008459
261.706710
389.945507
569.062829
680.246949
755.893588
744.302869
644.496679
524.205565
351.172686
225.302577
105.120540
55.481791
22.544861
12.061000
9.109974
9.764433
12.573600
17.852783
29.251575
41.414499
60.514808
75.013638
92.630982
100.955963
103.482604
97.831488
84.289908
70.275664
51.710606
38.873553
26.400685
19.463897
14.010668
12.318492
11.478662
10.781884
10.799766
10.908842
10.415912
11.230707
10.866523
10.921955
10.794997
10.774732
10.354519
10.289550
10.442734
10.284781
10.156631
10.312796
##ZVALUE=325
0.669956
0.641942
0.612736
0.709891
0.569820
0.621676
0.585914
0.676513
0.566840
0.538826
0.698566
0.548959
0.794530
0.806451
0.666976
0.622869
0.594854
0.667572
0.724792
0.617504
0.619888
0.605583
0.770688
0.694990
0.826716
0.807643
0.815988
0.922680
0.849962
0.852942
0.790954
0.779629
0.807643
0.856519
0.906587
0.960827
0.965595
1.077652
1.050830
1.067519
1.035929
1.268983
1.474619
1.500845
2.532601
14.501810
38.362741
102.978945
183.493495
335.312486
464.558005
624.314547
705.547929
732.862949
681.263804
538.283587
406.021476
248.315930
150.550604
67.005754
33.411980
12.960434
8.613467
8.214712
9.148717
12.587905
17.533898
28.055906
40.123463
58.033466
73.067546
88.164806
96.717477
97.052455
91.342926
77.650547
64.898729
48.312545
36.129951
24.040937
17.978549
13.412833
11.791587
10.949969
10.395646
10.381937
10.493994
10.353923
10.612607
10.191798
10.201931
9.816885
9.814501
10.226965
10.035634
10.161996
##ZVALUE=330
0.539422
0.676513
0.550747
0.479817
0.476837
0.620484
0.478625
0.750422
0.606775
0.689626
0.525713
0.661612
0.702739
0.608563
0.596642
0.540614
0.528693
0.531673
0.646710
0.626445
0.791550
0.677705
0.661612
0.664592
0.747442
0.743866
0.676513
0.619888
0.672936
0.655651
0.813603
0.703931
0.786781
0.790954
0.971556
0.927448
0.953674
0.858903
0.923872
1.034737
0.952482
1.002550
1.071692
1.200438
1.187921
1.453757
1.708865
6.268620
20.048618
66.669583
127.930641
255.750418
377.985835
548.103452
651.817918
713.993907
689.663887
580.962896
463.567972
298.561454
192.926526
90.628862
48.057437
18.343925
10.264516
7.675886
8.107424
8.799434
11.601448
18.306971
25.446415
39.278865
52.204728
70.364475
81.862807
90.086460
91.013908
84.215999
74.836612
59.070587
46.155453
32.037497
24.403930
18.202662
14.125705
11.821985
11.046529
10.298491
9.874701
9.811521
9.935498
9.853840
9.745955
9.706616
9.370446
9.586811
##ZVALUE=335
0.596642
0.585914
0.612736
0.610948
0.642538
0.624657
0.627637
0.521541
0.594854
0.719428
0.627637
0.747442
0.623465
0.563860
0.515580
0.561476
0.480413
0.649691
0.755787
0.749826
0.623465
0.608563
0.506639
0.680685
0.647902
0.553727
0.451803
0.568628
0.695586
0.800490
0.681877
0.722408
0.799894
0.583529
0.801682
0.902414
0.924468
0.600815
0.830889
0.777841
0.965595
0.901818
0.953674
1.043677
1.087785
0.954866
1.171827
1.180768
1.476407
2.959967
10.475516
40.593743
85.046887
190.568566
302.840471
475.087762
589.455962
679.734945
689.059496
611.757636
512.712002
349.771976
236.300826
124.176741
66.088438
24.371743
12.275577
7.838607
7.546544
7.806420
8.643866
11.671782
16.054511
25.927424
36.322474
52.970648
64.552426
77.449679
84.065795
84.725618
80.505610
68.060756
58.118701
44.569969
35.049915
24.464726
18.399954
13.868809
11.850595
10.188818
9.897947
9.406805
9.672642
9.277463
9.096861
9.312630
##ZVALUE=340
0.601411
0.436902
0.512600
0.364780
0.531673
0.433922
0.390410
0.512600
0.520945
0.437498
0.614524
0.546575
0.508428
0.618696
0.428557
0.463724
0.531673
0.461936
0.515580
0.428557
0.608563
0.646710
0.646710
0.678897
0.654459
0.682473
0.652671
0.661612
0.507832
0.644922
0.736713
0.577569
0.622869
0.581741
0.588894
0.808835
0.763535
0.734925
0.655651
0.834465
0.825524
0.808835
0.872612
0.792742
0.919700
0.930429
0.907779
1.013875
0.976920
1.022816
1.407862
1.468658
6.435513
20.169616
65.725446
130.652785
262.968540
376.503468
526.690483
615.663528
667.696595
640.859008
535.186529
423.412919
264.164805
165.489912
77.101588
38.489699
13.816953
8.328557
7.337928
7.552505
7.862449
8.688569
11.472702
15.894771
24.510622
34.624934
49.498677
61.525702
74.572563
78.640580
80.157518
76.274872
66.412687
57.274699
43.348670
33.974648
23.529530
17.978549
13.518929
11.468530
9.842515
9.319782
9.230971
8.671880
##ZVALUE=345
0.527501
0.553727
0.406504
0.541806
0.563860
0.619888
0.520945
0.608563
0.505447
0.627637
0.570416
0.509620
0.650883
0.597835
0.654459
0.714660
0.618696
0.660419
0.580549
0.614524
0.537634
0.516772
0.568628
0.637770
0.505447
0.596642
0.682473
0.539422
0.625849
0.631809
0.718832
0.672936
0.683665
0.557899
0.615716
0.666976
0.740886
0.655651
0.737906
0.763535
0.549555
0.683665
0.751615
0.671744
0.648499
0.676513
0.783801
0.953674
0.803471
0.926852
1.080632
0.996590
1.321435
1.302958
2.203584
13.341904
37.505627
102.347732
176.584721
311.411619
428.994894
566.806793
628.117919
637.768507
577.769876
442.212820
329.226851
194.222927
111.374855
45.308471
21.600723
9.604692
7.620454
7.633567
7.420778
7.641912
8.332729
10.869503
14.991760
23.176670
31.798482
45.673847
55.535436
66.324472
71.886778
73.828697
71.812868
63.288808
55.799484
42.739511
33.182502
23.134947
17.779469
12.827516
10.892749
9.410977
##ZVALUE=350
0.583529
0.503659
0.526905
0.591874
0.654459
0.659823
0.403523
0.625849
0.635982
0.542998
0.441670
0.640750
0.367761
0.663996
0.627637
0.583529
0.482798
0.631809
0.577569
0.629425
0.490546
0.595450
0.436902
0.563860
0.685453
0.557899
0.742674
0.650883
0.780821
0.600815
0.588894
0.593662
0.670552
0.662804
0.703931
0.647902
0.685453
0.771880
0.700951
0.761747
0.769496
0.728965
0.690818
0.841618
0.645518
0.806451
0.726581
0.940561
0.918508
0.887513
1.007915
1.028776
0.928640
1.062751
1.176000
1.264811
1.623631
6.662607
21.045804
65.524578
123.564601
244.308710
355.643630
494.358540
578.573942
622.577667
592.204928
487.957001
373.174548
221.045613
136.184692
63.236952
30.639768
11.443496
7.733703
6.978512
6.817579
6.783605
7.043481
8.103848
10.189414
15.677810
20.289421
29.314756
37.884712
50.118566
58.921576
65.633655
67.753792
65.899491
60.317516
49.740672
40.913820
30.230880
23.120642
16.512871
##ZVALUE=355
0.497699
0.540614
0.461936
0.493526
0.567436
0.576973
0.480413
0.468493
0.596642
0.480413
0.613928
0.435710
0.440478
0.488758
0.541806
0.533462
0.536442
0.500679
0.599623
0.634789
0.535846
0.512600
0.460744
0.606775
0.662804
0.445843
0.698566
0.576973
0.763535
0.597835
0.704527
0.720620
0.521541
0.631809
0.774860
0.533462
0.708699
0.717640
0.659823
0.640750
0.648499
0.533462
0.704527
0.740886
0.813603
0.678897
0.872612
0.766516
0.825524
0.779629
0.839829
0.926852
0.878572
0.866652
0.943542
1.074672
1.069903
1.112819
1.181960
3.314614
10.983944
42.580962
86.798668
182.070732
284.704566
435.120463
527.281761
594.535470
591.899753
503.172874
406.937003
267.542601
169.547796
75.982809
38.183928
14.010668
7.946491
6.815791
6.513000
6.517768
6.400943
6.880760
7.532835
9.121895
11.955500
17.831922
24.119616
34.735799
42.908788
52.395463
58.568716
61.766505
60.425997
54.308772
47.495961
38.580894
##ZVALUE=360
0.429749
0.448823
0.412464
0.510812
0.516772
0.496507
0.543594
0.496507
0.536442
0.618696
0.617504
0.517964
0.491738
0.642538
0.486970
0.624657
0.545979
0.582933
0.534654
0.491738
0.303984
0.573993
0.615716
0.436902
0.471473
0.559688
0.399947
0.632405
0.654459
0.776649
0.708699
0.604987
0.716448
0.526905
0.681877
0.554919
0.652671
0.581741
0.613928
0.643730
0.582933
0.661612
0.569820
0.756979
0.681877
0.734925
0.686646
0.700951
0.788569
0.813603
0.787973
0.848770
0.859499
0.759959
0.860691
0.928640
0.825524
0.879765
1.062751
1.091957
1.190901
1.687407
4.839897
21.854639
53.214431
131.054521
215.806961
349.143744
457.272530
557.888746
580.265522
533.979535
452.591777
307.800770
207.022429
102.250576
54.466724
21.281838
10.340810
6.199479
6.271601
6.093979
6.053448
6.148815
6.255507
7.022619
8.015633
10.739565
13.721585
20.152926
26.771426
37.221909
44.466853
51.534772
55.451989
55.526495
##ZVALUE=365
0.418425
0.494719
0.455976
0.359416
0.494719
0.518560
0.584722
0.419617
0.540614
0.544786
0.520945
0.665784
0.569820
0.470877
0.501871
0.381470
0.536442
0.429749
0.559688
0.433922
0.549555
0.533462
0.605583
0.598431
0.482798
0.598431
0.640750
0.577569
0.557899
0.511408
0.543594
0.745654
0.694990
0.715852
0.622869
0.643730
0.627637
0.648499
0.611544
0.641942
0.498891
0.627637
0.485778
0.731945
0.732541
0.678897
0.713468
0.739694
0.831485
0.760555
0.831485
0.823736
0.785589
0.848770
0.698566
0.801682
0.672936
0.853539
0.924468
0.804663
1.140833
1.135468
1.104474
1.304746
2.859831
9.641647
36.156774
77.428818
176.927447
275.345445
404.148698
493.680835
556.995869
545.072556
468.056798
374.995470
239.974856
148.099661
66.300631
32.513738
11.826754
7.032752
5.831718
5.794764
5.473495
5.539656
5.483627
5.759597
5.966425
6.820560
8.708835
11.642575
17.606616
23.282766
32.230616
38.748980
##ZVALUE=370
0.458956
0.472665
0.520945
0.511408
0.508428
0.442863
0.575781
0.569820
0.665784
0.430942
0.614524
0.390410
0.611544
0.410676
0.341535
0.572801
0.440478
0.515580
0.499487
0.583529
0.564456
0.393987
0.558496
0.467896
0.382662
0.542998
0.518560
0.467896
0.542998
0.607967
0.572801
0.591874
0.553727
0.523925
0.678897
0.740886
0.488758
0.410676
0.710487
0.529885
0.599623
0.496507
0.654459
0.638962
0.669956
0.694990
0.676513
0.826716
0.686646
0.653863
0.600815
0.663996
0.620484
0.680685
0.659823
0.769496
0.777841
0.862479
0.935793
0.887513
0.920892
0.999570
1.139641
1.046658
1.130700
1.170635
1.582503
5.030632
24.481416
58.383942
137.777925
219.906569
351.328850
446.770787
530.273914
546.209812
488.514900
403.378606
268.509984
176.360607
82.635880
43.724775
17.917752
8.999705
5.769730
5.309582
5.124807
5.153418
5.058646
5.127788
4.968643
5.567670
6.315708
7.383823
10.757446
14.743805
##ZVALUE=375
0.408888
0.484586
0.645518
0.476837
0.527501
0.554919
0.560880
0.638962
0.394583
0.442863
0.475645
0.591874
0.519753
0.576973
0.323653
0.266433
0.429749
0.496507
0.588894
0.497699
0.583529
0.593662
0.498891
0.724792
0.425577
0.482798
0.458956
0.448823
0.542998
0.569820
0.416636
0.560880
0.658631
0.373721
0.489950
0.707507
0.550747
0.513792
0.675917
0.515580
0.612736
0.656843
0.631809
0.585914
0.601411
0.668764
0.473857
0.598431
0.557899
0.522733
0.567436
0.705719
0.639558
0.804663
0.622869
0.664592
0.560880
0.704527
0.659823
0.700951
0.727773
0.845790
0.816584
0.939965
0.873804
0.943542
1.057982
0.933409
1.143813
2.985597
10.192990
38.388968
80.252886
179.168582
276.680589
408.582687
488.914847
536.676645
520.974994
430.788994
337.498784
208.368897
129.677653
60.247779
32.111406
11.953712
6.537437
5.014539
4.853606
4.692674
4.787445
4.817843
4.497766
4.703999
4.687905
5.541444
##ZVALUE=380
0.457764
0.523925
0.519753
0.473857
0.345707
0.353456
0.526905
0.442863
0.549555
0.487566
0.539422
0.511408
0.449419
0.596642
0.365973
0.629425
0.419617
0.598431
0.607967
0.492930
0.401735
0.375509
0.683665
0.495911
0.557899
0.421405
0.467896
0.557899
0.508428
0.579953
0.495911
0.530481
0.633597
0.594854
0.551939
0.527501
0.568628
0.618696
0.552535
0.473857
0.625849
0.663996
0.575781
0.601411
0.520945
0.656843
0.662804
0.490546
0.564456
0.535846
0.592470
0.504851
0.490546
0.625849
0.504851
0.627637
0.560880
0.632405
0.574589
0.705719
0.802875
0.644922
0.724792
0.625849
0.825524
0.705719
0.773668
1.007915
1.023412
1.091957
1.265407
1.772642
5.601645
26.210546
60.834885
141.985416
228.735805
351.615548
444.527864
520.861745
523.581505
452.755690
372.311473
260.245800
175.116658
86.774826
45.273900
17.367601
8.566976
4.877448
4.599690
4.431605
4.398823
4.341602
4.382730
4.298687
##ZVALUE=385
0.379682
0.451803
0.569820
0.589490
0.323653
0.519753
0.449419
0.566840
0.415444
0.500679
0.528693
0.650883
0.297427
0.408888
0.454783
0.378489
0.474453
0.381470
0.538826
0.583529
0.564456
0.539422
0.677705
0.484586
0.522733
0.528693
0.312924
0.370741
0.629425
0.392795
0.447631
0.412464
0.520945
0.579953
0.422597
0.596642
0.535846
0.625849
0.690818
0.544786
0.384450
0.658631
0.697970
0.623465
0.579953
0.615716
0.701547
0.514984
0.517964
0.427961
0.544786
0.568628
0.555515
0.465512
0.584722
0.519753
0.642538
0.749826
0.610948
0.637770
0.745654
0.567436
0.529885
0.776649
0.682473
0.907779
0.875592
0.838637
0.832677
0.857711
0.861883
1.168847
1.142621
1.325607
3.036857
14.778972
38.597584
97.250938
170.847774
300.718546
398.086905
492.883921
517.558455
490.031838
428.567529
313.874483
222.475529
122.526884
68.853498
29.562712
13.169646
5.344748
4.480481
3.930926
4.029870
3.878474
##ZVALUE=390
0.431538
0.440478
0.489950
0.522733
0.419617
0.500679
0.536442
0.484586
0.496507
0.448823
0.650883
0.383854
0.471473
0.497699
0.493526
0.474453
0.302792
0.433922
0.533462
0.483990
0.530481
0.475645
0.587702
0.533462
0.526905
0.370741
0.403523
0.325441
0.513792
0.481606
0.533462
0.640750
0.532866
0.575781
0.589490
0.639558
0.613928
0.570416
0.619888
0.483990
0.615716
0.588894
0.578761
0.666976
0.599623
0.506639
0.576973
0.669956
0.476837
0.578761
0.505447
0.509620
0.504851
0.375509
0.575781
0.397563
0.654459
0.651479
0.574589
0.621676
0.675917
0.668764
0.593662
0.590682
0.700951
0.699759
0.801682
0.816584
0.843406
0.879765
0.838637
0.976920
1.061559
1.133680
1.060963
1.185536
1.631975
7.909536
23.196936
70.468783
132.176876
247.888565
342.004895
450.284481
501.581430
508.686900
465.376973
366.683006
278.928876
170.643926
100.022554
41.574836
20.275712
7.952452
4.428625
4.049540
##ZVALUE=395
0.390410
0.367761
0.403523
0.398755
0.448823
0.458956
0.388622
0.442863
0.425577
0.452995
0.521541
0.338554
0.468493
0.572801
0.507832
0.589490
0.543594
0.539422
0.450611
0.399947
0.349879
0.325441
0.524521
0.488758
0.460744
0.482798
0.534654
0.512600
0.548959
0.528693
0.562668
0.678897
0.702739
0.657439
0.816584
0.686646
0.696778
0.546575
0.616908
0.591874
0.595450
0.577569
0.638962
0.522733
0.541806
0.681877
0.631809
0.592470
0.589490
0.521541
0.693798
0.597835
0.685453
0.561476
0.513792
0.647902
0.555515
0.563860
0.653863
0.474453
0.689626
0.716448
0.665784
0.558496
0.539422
0.738502
0.689626
0.756979
0.763535
0.720620
0.805855
0.738502
0.953674
0.980496
0.880957
0.920892
0.853539
1.093745
1.349449
4.198551
14.618635
50.828457
99.492669
196.179748
286.548734
409.392715
479.773879
522.135496
504.476428
426.184535
334.554911
207.685828
131.965876
62.918663
30.747652
11.214614
##ZVALUE=400
0.545979
0.392795
0.346899
0.600815
0.372529
0.507832
0.447631
0.494719
0.291467
0.447631
0.530481
0.438690
0.627637
0.573993
0.470877
0.493526
0.386834
0.594854
0.522733
0.550747
0.507832
0.615716
0.479817
0.531673
0.383854
0.603795
0.520945
0.448823
0.541806
0.497699
0.618696
0.633597
0.610948
0.675917
0.625849
0.767708
0.772476
0.716448
0.537634
0.425577
0.473857
0.703931
0.607967
0.682473
0.654459
0.466704
0.436902
0.613928
0.476837
0.551939
0.533462
0.564456
0.571609
0.546575
0.586510
0.667572
0.731945
0.638962
0.578761
0.633597
0.604987
0.604987
0.517964
0.603795
0.649691
0.627637
0.532866
0.786781
0.738502
0.956655
0.854731
0.870824
0.862479
0.915527
0.841618
0.926852
0.703931
0.911951
0.831485
0.999570
1.095533
2.342463
7.937551
31.422973
66.152811
145.363808
228.351951
350.470543
432.919860
499.664545
506.441593
444.714427
370.257497
253.782868
169.390440
85.881948
##END
