##TITLE=FQP00302
##FORMAT=SPECTACLE-ASCII V-1.2
##DATA TYPE=ULTRAVIOLET SPECTRUM
##SECOND TYPE=ULTRAVIOLET SPECTRUM
##DATE=02/12/18
##TIME=15:22:03
##SPECTROMETER/DATA SYSTEM=SPECTACLE
##XUNITS=NM EM
##YUNITS=ENERGY
##YFACTOR=1
##FIRSTX=220
##LASTX=410
##NPOINTS=96
##3DDATA=Equidistant
##ZUNITS=NM EX
##FIRSTZ=210
##LASTZ=400
##ZPOINTS=39
##XYDATA=(Y..Y)
##ZVALUE=210
2.716780
2.871752
2.727509
2.098680
2.396703
2.621412
2.222657
2.399683
2.827644
2.731681
2.420545
2.569556
2.389550
2.177954
2.721548
2.654791
2.852678
2.886653
2.789497
3.242493
3.464818
3.418922
3.646612
3.832579
5.059838
5.398989
6.076694
5.889535
7.413626
7.986426
7.575750
8.997917
9.431839
9.366870
9.721518
9.146929
10.060668
9.869933
10.335445
9.500980
9.738803
9.349585
9.343624
8.804798
8.580685
9.403825
7.359982
8.063912
7.817745
8.611679
8.260608
7.478595
7.794499
7.127523
6.802678
7.428527
6.942749
7.424951
6.680489
6.454587
7.392764
6.725788
6.519556
6.612539
6.735921
6.671548
6.720424
8.268952
8.734465
9.768605
11.409521
14.121532
13.681650
14.829636
15.298724
17.050505
17.534494
16.344786
16.199946
14.161468
14.886856
14.198422
10.826588
10.511875
9.399652
7.743835
7.260442
6.107688
6.228685
5.603433
5.853772
5.564690
5.970597
6.552935
6.071925
7.054806
##ZVALUE=215
7.238984
7.064939
7.181764
5.406737
5.046725
4.649758
4.887581
4.900694
5.591512
6.553531
4.981756
5.076528
4.354715
3.226995
3.060699
3.340840
2.928972
2.730489
3.394485
3.016591
3.099442
3.271699
3.798604
4.740953
4.850626
5.601645
6.938577
7.890463
10.036826
10.634661
12.085438
12.669563
15.391707
15.607476
15.518665
17.045736
15.818477
17.827749
17.099977
15.487671
14.698505
14.371872
14.126897
11.756420
12.196898
10.963678
11.135936
11.029840
11.025667
8.898973
9.112954
8.689761
8.971691
8.818507
8.661747
6.506443
7.577538
7.585883
7.200837
7.057786
7.037520
6.450415
6.643534
7.011890
6.083846
7.182956
7.238984
7.715821
8.544922
9.429455
9.623766
11.538863
11.929870
13.813972
13.070703
14.387965
14.081597
13.846755
13.240576
12.929440
11.814833
10.420680
10.254979
8.841753
7.129908
7.150769
6.442666
6.027818
6.444454
5.626678
6.235838
6.572604
6.001592
5.140901
6.145835
5.984902
##ZVALUE=220
23.794770
24.835467
25.575757
25.721788
23.333430
18.878579
16.063452
12.281537
11.115670
11.080503
12.751818
13.365746
12.512803
11.020899
9.638667
7.178783
6.277561
4.502535
3.635883
4.437566
3.481507
3.412962
3.942847
4.576445
5.316734
6.557703
8.167624
11.876822
13.786554
17.718673
19.377470
23.070574
23.596883
24.429560
26.298761
25.966763
27.327538
25.371909
24.939775
23.570657
22.872686
23.074746
21.297932
18.800497
19.155741
17.943978
15.517473
17.022491
15.240908
13.806820
12.065768
11.516809
11.727810
11.506677
11.354685
10.375977
9.920597
9.879470
8.434653
8.982420
8.648634
7.758737
8.234978
8.198619
8.034706
6.976724
8.675456
8.474588
8.342862
9.920597
10.576844
11.661649
12.061000
11.239648
12.699962
13.111830
13.001561
13.019443
13.069510
12.255907
10.424852
11.446476
10.402799
8.806586
8.189678
7.943511
7.744431
7.720590
6.855726
7.486939
7.857680
8.016825
6.484985
7.244945
7.326603
6.708503
##ZVALUE=225
43.892860
44.066906
53.147674
69.518685
70.612431
68.596005
59.600472
48.743486
36.682487
29.736757
22.782683
22.860765
26.010871
27.231574
26.111603
24.385452
23.087859
17.344952
12.989640
8.097887
6.562471
4.717708
4.152656
5.259514
5.217791
7.690787
9.689927
12.099743
16.682744
20.148754
22.345781
25.513768
27.904510
29.394627
30.200481
32.730699
31.646490
32.905936
33.193827
31.096935
30.077696
28.583407
27.823448
25.567412
22.838712
22.497773
22.354722
19.792914
17.800927
16.459823
18.791556
16.460419
14.754534
14.335513
13.347864
14.300942
13.380647
12.882948
12.639761
11.921525
10.713935
10.426641
11.200905
9.646416
9.623766
9.546876
10.867715
11.069775
12.284517
11.969805
11.737943
11.891723
13.938546
13.938546
14.014840
14.409423
13.198853
13.749599
12.523532
14.642477
13.092756
12.474656
12.308955
10.857582
12.083650
12.467504
11.470914
11.329651
10.763407
11.309981
10.768771
8.889437
10.762811
10.604858
10.545850
9.942651
##ZVALUE=230
33.154488
37.313700
55.702925
91.089606
114.384890
141.437650
147.826672
151.003003
132.223964
114.734769
80.128908
60.302615
48.401952
43.919683
47.408938
52.029490
53.011775
50.105453
44.465661
37.551522
28.339624
17.602444
12.468696
7.730722
7.147789
7.409453
8.812547
10.881424
12.663603
16.041994
19.618869
22.571683
23.249984
25.988817
27.186871
28.897524
29.067993
27.897954
26.193857
27.635694
26.041865
24.953485
23.891926
22.931695
22.131801
21.521449
19.613504
19.759536
18.252730
17.802715
17.167926
15.246868
16.100407
14.278889
14.969707
13.930798
12.065768
13.790727
14.632940
13.305545
13.270974
12.633801
13.302565
13.915896
13.695955
13.976693
14.319420
13.853908
15.558600
16.502738
16.380548
16.935468
16.878843
18.379688
17.725825
18.629432
19.630790
20.152926
19.290447
18.010736
17.274618
19.688606
18.725991
18.987656
18.377900
17.786622
17.756820
17.909408
17.533898
16.540885
18.241405
16.793609
16.186833
17.390847
17.883778
16.084909
##ZVALUE=235
11.071563
12.045503
30.388832
54.203868
100.012422
148.653984
203.930736
246.460438
269.303918
264.876485
229.876637
189.688802
152.368546
102.214813
78.325868
68.326592
69.172978
82.987547
83.971620
84.111691
80.199838
70.674419
53.118467
41.261911
25.243759
18.211603
11.967421
10.569692
10.249615
11.590719
14.560819
15.732646
16.058683
16.504526
17.499924
18.488765
19.779801
19.251704
18.688440
19.779801
19.510984
20.631552
19.504428
18.576980
18.025637
16.956925
15.632510
17.051697
15.795827
16.011000
15.125871
15.212893
15.392900
16.437769
14.965534
15.458465
16.356707
16.169548
15.711784
14.915466
16.376972
16.672611
17.169714
16.400814
16.453862
18.503666
19.267797
21.168590
18.985868
20.040870
21.126866
22.653937
23.173690
25.709867
26.478767
26.322603
24.739504
26.564598
25.263429
26.602745
26.511550
26.911497
26.981831
26.507974
27.197599
27.709603
27.597547
25.741458
26.602745
24.604797
26.111603
27.120709
25.192499
26.499629
23.867488
25.764704
##ZVALUE=240
1.541972
1.415610
4.592538
13.198853
33.987761
68.970919
129.947662
194.995999
291.744471
346.639752
391.623974
400.292873
367.578864
293.805599
231.360793
154.570937
113.458633
92.069507
89.353919
94.596744
111.825466
111.225843
108.083487
101.005435
81.025958
66.012740
45.526624
33.088923
22.918582
16.963482
13.679862
12.463927
13.313890
14.916658
14.073849
15.599728
15.156865
16.507506
15.690923
16.922951
16.075969
16.088486
16.024709
17.895699
16.055703
15.279651
15.761852
15.170574
14.058948
15.279651
15.217662
13.246536
14.061928
14.229417
15.926957
15.589595
14.509559
15.372634
14.453530
15.650988
14.670491
15.649796
17.228723
16.736984
17.344952
17.653704
17.283559
19.433498
20.777583
21.716952
22.940636
23.837686
23.932457
26.957989
28.289557
28.922558
29.236674
30.394793
29.525757
31.796694
30.815601
30.365586
32.079816
31.233430
31.501651
32.415986
32.756925
30.864477
32.272935
30.218959
29.568672
31.320453
30.686855
30.627847
30.728579
30.371547
##ZVALUE=245
1.523495
1.674891
1.630783
1.856685
2.996922
10.986924
27.123690
70.628524
122.814775
194.367766
311.123729
390.476584
467.773676
484.619737
459.632874
403.216481
304.026008
226.172805
170.878768
110.987425
94.066858
99.808574
111.790895
124.331713
129.091740
131.177902
115.649700
96.670985
77.429414
57.330728
42.800903
30.593872
23.576617
19.383430
19.548535
19.064546
19.282699
17.998815
18.305779
19.618869
20.310879
18.109679
17.506480
19.277930
19.291639
16.463995
16.484857
18.516779
17.553568
16.032457
15.842915
16.942620
14.763474
16.489625
14.325976
15.326738
14.399886
14.299750
14.896989
14.847517
14.387965
15.349984
14.916658
16.055703
16.213655
17.561913
18.392801
18.447638
18.938780
20.866990
21.559000
22.966862
22.778511
24.219751
25.220513
27.582645
28.595924
27.670860
30.130744
29.460788
30.296445
29.935837
30.115843
32.816529
31.552911
30.705929
33.396482
32.037497
32.018423
31.907558
32.970905
32.751560
31.850934
30.944943
31.203628
30.776858
##ZVALUE=250
1.399517
1.418591
1.505613
1.511574
1.407862
1.606941
2.236962
5.933642
22.312403
47.997832
117.578506
199.187994
285.634995
407.697558
483.420491
548.690557
542.582870
474.219918
395.831466
283.265710
194.588900
138.358474
98.121762
90.825558
106.709003
119.735003
138.563514
140.541792
141.301751
129.148960
114.951730
91.591477
72.928667
51.283836
40.219426
29.462576
25.816560
25.873780
25.541782
24.814606
25.252700
25.106668
23.709536
22.909641
23.128986
22.134781
20.637512
21.363497
20.800829
19.559860
18.213987
17.729998
17.798543
17.364621
16.546845
16.538501
16.113520
15.933514
15.290976
16.519427
15.203953
15.909672
16.243458
16.684532
16.163588
16.767979
16.957521
17.569661
17.432570
19.638538
21.341443
21.187663
22.194982
23.003817
24.599433
24.811625
25.514960
26.336908
26.497841
26.080608
28.043985
27.613640
28.916597
28.883815
29.958487
30.176640
28.265715
31.224489
29.768944
30.502677
30.450821
29.717684
30.699968
31.713843
29.558539
30.071735
##ZVALUE=255
0.905991
1.297593
0.981688
1.098514
1.257658
1.369715
1.200438
1.507998
1.715422
3.526807
15.407801
37.796497
77.969432
166.986585
254.946947
394.876599
486.253500
581.429601
612.699986
578.767657
494.466424
397.851467
248.760581
167.209506
101.642609
88.375807
91.967583
108.380914
135.185719
150.421858
158.451796
157.518983
148.583651
122.950673
103.843808
77.171922
62.412620
46.746731
41.115880
33.919811
33.243895
32.778978
30.551553
28.447509
28.365850
28.475523
26.484728
25.943518
24.807453
24.128556
22.236705
21.812916
20.654798
21.333694
19.211769
18.715858
17.574430
16.904473
17.125607
16.234517
17.270446
16.062856
15.842915
16.096830
16.242862
16.577840
16.630888
16.132593
18.574595
19.289851
18.727779
20.417571
20.953417
21.641850
21.718740
23.441911
22.777915
24.442673
25.626421
24.450421
25.167465
26.406646
26.741624
26.726723
27.055740
27.937889
27.266741
27.238727
28.000474
29.046535
28.686523
28.893948
28.879642
28.449893
29.440522
28.891563
##ZVALUE=260
1.048446
1.249909
1.011491
1.016855
1.243949
1.096725
1.311898
1.174808
1.639724
1.519918
1.615882
2.082586
5.720854
23.791790
53.440928
130.302906
213.131905
350.655913
466.535687
601.065755
660.202503
669.827461
587.890744
474.767685
319.187641
223.241448
137.327909
99.285841
85.858703
97.534657
120.989680
149.026513
169.844627
182.762742
175.670981
163.219571
145.157576
114.077926
94.514489
73.357821
60.010552
47.351718
42.484999
37.978888
37.571788
35.627484
32.729506
31.346679
30.671954
28.775930
27.190447
26.498437
24.023652
22.668839
21.948814
21.116734
20.651817
19.299984
18.869638
18.463731
18.390417
17.575622
17.583966
17.129779
16.305447
16.273856
16.810894
17.185807
18.237829
18.257499
17.981529
17.442703
19.444823
20.780563
20.663738
20.197630
21.579862
21.353960
22.623539
22.226572
23.767948
24.119616
23.950934
24.225712
24.735928
24.964809
25.659800
26.368499
26.118755
26.271939
26.655793
25.950670
26.914477
26.448965
27.717948
27.135611
##ZVALUE=265
0.844598
0.877976
0.916719
0.919700
0.879765
0.772476
0.873804
0.973940
1.046658
1.223683
1.139641
1.166463
1.364946
1.657605
3.329515
14.906526
37.577748
99.306703
175.816417
315.367579
443.655849
559.903979
668.861866
699.469447
634.470582
547.956824
410.925746
299.190879
180.157423
124.730468
98.944902
94.387531
112.192631
145.666003
166.397691
188.525915
193.354487
189.391971
174.664855
147.549510
125.516653
95.691681
77.315569
59.657693
49.572587
42.157769
39.386749
35.325885
34.065843
31.702518
30.068755
29.402971
27.084947
25.833845
24.075508
22.059679
21.634698
19.972920
19.292831
19.289851
17.687678
18.255711
17.348528
16.996861
16.728640
16.537905
16.821623
16.358495
17.032623
18.181801
17.647743
18.518567
18.719435
19.021630
19.330978
20.273924
20.597577
20.888448
21.291971
21.121502
22.504926
21.749735
22.979975
23.663640
23.420453
24.315715
23.900867
25.042892
24.180412
25.179982
25.638938
25.273561
25.460720
25.380850
25.722980
26.087761
##ZVALUE=270
1.002550
0.872612
1.003742
0.790954
0.908971
0.913739
1.111627
0.937581
1.222491
1.365542
1.010895
1.291633
1.319647
1.336932
1.382828
1.772642
2.415776
6.042719
19.007921
62.394738
125.600696
258.087516
385.171771
554.220676
662.765503
727.568865
716.411471
627.838969
525.366664
369.789600
262.695551
160.772800
114.667416
95.238686
98.376870
126.730800
148.729682
175.328851
187.837481
196.358562
189.196467
170.426965
148.426890
117.268562
94.841719
68.777800
54.449439
43.658614
37.835836
33.495426
30.842423
29.289722
27.474761
25.824904
23.382902
23.306608
22.048950
20.658970
19.854903
19.283891
18.403530
17.712712
17.523766
17.263889
16.772747
16.275644
17.470717
17.276406
16.795993
17.727613
17.005801
17.783642
18.659830
18.946528
20.304918
19.765496
20.343661
20.832419
20.582676
21.408796
21.461844
22.348762
21.988750
23.252964
23.276806
23.745894
23.527741
23.600459
22.209883
23.375750
23.853779
23.930669
24.075508
23.712516
25.341511
24.702549
##ZVALUE=275
0.992417
1.155734
1.071692
1.097918
0.945926
1.210570
1.077652
1.060963
1.177788
1.088977
1.197457
1.112819
1.028776
1.171827
1.276731
1.356602
1.202822
1.509786
1.740456
3.643632
12.634993
34.562945
101.981759
190.438628
353.758931
481.269956
628.480911
708.045959
744.639635
705.393553
629.546642
475.788713
348.627567
203.848481
132.774711
85.754991
77.563524
91.006756
109.077692
138.356686
155.903697
176.073909
180.710554
172.378421
158.490539
130.373836
109.072924
80.198646
62.518716
44.653416
36.092997
28.907657
25.183558
22.572875
21.574497
19.683838
19.864440
18.444657
18.345714
18.173456
17.705560
17.094612
17.203689
16.773939
16.134977
16.079545
16.636848
16.304851
16.405582
17.276406
17.307997
17.555952
18.969774
18.964410
19.139647
19.721985
20.718575
20.485520
20.427704
21.591783
21.516681
21.408796
21.754503
21.864772
21.993518
22.722483
22.425652
23.224950
22.170544
23.019910
22.946596
22.836924
23.334622
23.101568
22.737980
22.984743
##ZVALUE=280
0.903606
0.826716
0.843406
0.731945
0.915527
0.750422
0.847578
0.887513
0.828505
1.058578
0.948906
1.067519
0.933409
1.082420
1.178980
1.218915
1.029968
1.140833
1.201630
1.391768
1.550913
1.943707
6.841421
30.908585
71.588755
165.481567
263.209939
427.350998
544.250011
681.300759
747.735500
734.236836
666.100979
510.100722
381.687880
230.153799
145.899653
77.411532
56.683421
55.432916
69.991946
95.569491
115.664601
141.638517
154.377818
159.333944
155.385733
135.794878
117.186904
90.785623
70.263743
48.611760
35.460591
25.350451
20.440817
17.600656
16.031861
15.517473
15.678406
14.972687
14.992952
15.263557
15.381575
15.481710
15.232563
15.258789
15.678406
15.522838
16.260743
15.986562
16.992688
18.170476
17.626882
18.393993
18.948913
18.600821
19.599795
20.050406
20.040870
20.662546
20.946860
21.899939
21.450520
21.600723
21.011829
22.000670
22.405982
21.772981
21.939874
22.627711
22.405982
21.643639
21.818876
22.092462
22.486448
21.875501
##ZVALUE=285
0.650883
0.779629
0.714660
0.814795
0.845790
0.635982
0.860691
0.959635
0.782609
0.989437
0.737906
0.913739
0.870824
0.938773
0.823736
0.859499
0.977516
0.983477
0.971556
1.154542
1.240969
1.400709
1.398921
1.337528
4.128814
13.647676
44.884682
92.494488
196.643472
307.319760
441.184640
604.140759
698.089004
745.194554
711.542964
576.772690
456.753969
285.477638
182.657838
91.996789
52.970648
35.296679
39.124489
56.888461
76.589584
103.954673
121.040940
139.094591
145.226717
142.267942
130.422711
107.866526
88.016987
62.466860
45.658946
29.195547
21.780729
16.627908
14.036894
13.202429
13.403893
13.100505
13.094544
13.598800
14.415979
14.587641
14.530420
15.001893
15.605688
16.430616
16.358495
16.942620
17.733574
18.022656
18.402934
18.707514
19.044876
19.930601
19.827485
20.117760
20.948648
20.864606
21.465421
20.918846
21.791458
21.176934
21.681786
22.570491
22.118688
21.734834
21.373630
22.008419
21.615624
21.969676
21.526814
21.783710
##ZVALUE=290
0.587702
0.836849
0.655651
0.571609
0.763535
0.751615
0.817776
0.720620
0.866652
0.703931
0.809431
0.810623
0.907779
0.926852
0.894666
0.997782
0.791550
1.011491
0.999570
0.991821
0.955462
1.135468
1.133680
1.366735
1.376867
1.422763
1.963973
5.408525
24.439692
58.609843
114.838481
240.607858
368.771553
554.458499
667.004585
747.931004
734.815598
637.902617
524.410009
351.364017
233.339667
120.115876
66.402555
31.593442
25.491714
35.263896
48.241615
69.311857
88.690519
115.771890
129.109621
138.812661
134.079456
124.339461
105.205774
79.473853
61.140656
40.580630
29.496551
20.058751
15.636683
12.906790
13.181567
12.694597
13.328791
13.641715
14.070868
14.675856
14.922619
16.197562
16.691685
17.074943
17.206669
18.417835
18.860698
19.086599
19.363761
20.160675
20.065904
20.399690
20.865798
21.383762
21.579862
21.484494
21.703839
21.649599
22.412539
21.359921
22.298694
21.661520
22.377968
21.869540
21.780729
21.724701
22.224784
21.770597
##ZVALUE=295
0.723600
0.755787
0.741482
0.842810
0.720620
0.684857
0.794530
0.620484
0.896454
0.833869
0.891685
0.771880
0.906587
0.672936
0.772476
0.768900
0.719428
0.820756
0.783801
0.925660
1.029968
0.910759
1.054406
1.032948
1.248717
1.365542
1.442432
1.540780
1.691580
2.651811
8.125901
35.640597
82.277656
190.369487
306.986570
483.560562
605.869889
719.819665
741.657615
677.057505
582.376719
416.278839
291.135907
154.763460
86.354613
36.262870
21.642447
20.915866
28.259754
45.492649
62.085986
86.892843
104.689598
122.305751
129.959583
127.579570
117.732882
96.951723
79.905987
56.606531
42.156577
27.975440
20.547509
15.739799
14.119744
13.507605
13.922453
14.317632
14.478564
15.440583
16.547441
16.763806
16.982555
18.092990
18.755794
19.046664
19.927621
20.218492
20.650625
20.755529
21.466613
21.526814
21.694899
21.751523
22.284985
21.896958
22.818446
22.629499
22.304654
22.395849
22.316575
21.897554
22.177696
22.336841
21.936893
21.959543
##ZVALUE=300
0.694990
0.782609
0.656843
0.844598
0.734925
0.662804
0.764728
0.819564
0.697970
0.604987
0.837445
0.679493
0.824928
0.817776
0.666976
0.723600
0.770688
0.803471
0.808835
0.893474
0.867844
0.836849
0.888705
0.893474
1.073480
0.934601
1.348853
1.302958
1.219511
1.308918
1.450777
1.785755
5.665421
18.895864
62.106848
124.628544
254.359841
380.441546
554.534793
657.187700
729.829669
719.588995
617.312789
509.471893
338.926911
223.437548
114.073753
63.493848
27.013421
15.839934
18.691421
24.746656
40.620565
56.346655
79.251528
98.235607
118.117929
124.236941
124.223828
115.683675
97.126961
81.122518
59.334636
44.655800
29.569864
22.503734
17.530918
15.616417
14.735460
15.228987
16.235709
16.834736
17.134547
17.857552
18.574595
18.907785
19.877553
20.272732
20.891428
21.304488
22.427440
22.088885
22.281408
22.663474
23.016930
22.875667
22.885799
22.618771
22.424459
22.951961
22.663474
22.498965
22.296906
21.791458
22.037625
21.837950
##ZVALUE=305
0.614524
0.664592
0.652671
0.805855
0.787973
0.635982
0.519753
0.651479
0.662804
0.693798
0.677705
0.754595
0.686646
0.553727
0.715852
0.602603
0.612736
0.856519
0.718832
0.796914
0.683665
0.730753
0.994802
0.989437
0.780821
0.930429
0.895858
0.852942
1.210570
1.010895
1.242757
1.311898
1.291633
1.595616
2.335906
12.293458
33.460855
96.264482
174.336433
322.817564
449.098945
604.596734
684.191585
709.875822
663.598776
527.412891
411.685705
263.548493
164.750814
76.514482
39.724708
16.357899
12.635589
16.668439
23.442507
39.006472
53.931475
76.054931
93.980432
110.937953
117.673874
117.281675
109.911561
94.484687
78.695416
57.783723
43.079853
29.804707
23.777485
18.698573
17.620921
16.720891
17.460585
18.687844
18.747449
19.644499
19.681454
20.216703
20.961761
21.506548
22.409558
22.759438
23.230910
22.904873
23.779869
24.092793
23.068786
24.220943
23.338795
23.123622
23.786426
23.247600
22.190809
22.749901
22.415519
22.204518
##ZVALUE=310
0.607967
0.644922
0.708699
0.558496
0.480413
0.553727
0.603795
0.539422
0.639558
0.698566
0.580549
0.712872
0.775456
0.726581
0.624657
0.600815
0.661612
0.718832
0.733733
0.712872
0.772476
0.790954
0.886917
0.807643
0.685453
0.849962
0.918508
0.835657
0.981688
0.987649
1.197457
1.140833
1.231432
1.262426
1.374483
1.257658
1.607537
4.383922
21.194816
52.137971
128.750801
220.534801
385.824442
512.353778
653.630495
710.994601
694.199800
624.294877
475.888848
351.918936
205.418468
123.536587
54.911971
26.761889
12.404919
10.782480
15.223622
21.106601
34.266710
47.559738
68.603754
84.536672
101.715922
111.169815
114.357471
107.323527
92.513561
78.715682
56.852698
44.834614
30.967593
25.424957
21.251440
19.743443
18.814802
19.134879
20.024776
20.485520
20.922422
22.090673
22.553802
22.974610
22.970438
23.881793
23.598671
23.626685
24.506450
24.014711
23.866892
24.225712
23.834705
23.292899
23.572445
23.562908
22.956729
22.730827
##ZVALUE=315
0.449419
0.638962
0.548959
0.530481
0.654459
0.464916
0.560880
0.670552
0.668764
0.820756
0.510812
0.634789
0.729561
0.705719
0.533462
0.713468
0.703931
0.748634
0.757575
0.853539
0.670552
0.723600
0.632405
0.689626
0.754595
0.676513
0.858903
0.746846
0.959635
0.952482
0.931621
0.966787
1.077652
0.968575
1.086593
1.160502
1.192689
1.262426
1.420975
2.507567
8.961558
35.351515
77.054501
180.268884
293.202996
469.885468
581.929684
681.561828
705.032945
644.811988
553.889871
396.359563
282.323956
151.077509
84.070563
33.700466
16.215444
10.064840
10.483861
14.819503
20.144582
33.198595
44.701695
65.035820
81.690550
97.391605
106.331706
109.108686
104.569793
89.105964
76.481700
58.569908
46.193600
33.570528
27.264953
22.666454
21.106601
21.261573
21.045804
21.920800
22.518635
23.304820
23.116469
23.645759
23.573637
24.447441
24.673939
24.719834
24.086833
24.577975
23.811460
23.633838
23.919940
23.385882
23.632646
23.369789
##ZVALUE=320
0.532866
0.597835
0.618696
0.603795
0.671744
0.626445
0.619888
0.646710
0.560880
0.655651
0.630617
0.663996
0.379682
0.631809
0.592470
0.575781
0.716448
0.652671
0.702739
0.629425
0.660419
0.701547
0.718832
0.786781
0.735521
0.702739
0.894666
0.720620
1.033545
0.954866
0.782609
0.990629
0.929832
0.835657
0.965595
1.003742
0.981688
1.061559
1.233816
1.164675
1.401901
1.762509
3.845692
20.048618
51.418543
131.987929
219.391584
364.588499
484.508872
620.503426
676.392913
667.835474
600.768924
459.828973
337.962508
188.990831
110.311508
48.629642
24.455786
10.975599
9.585619
10.931492
13.307929
20.548701
28.826594
44.948459
59.818625
78.169703
92.101693
103.295445
105.758905
99.719763
90.125799
72.353482
59.979558
44.713616
36.226511
28.424859
25.031567
23.245811
22.450686
23.121834
23.280978
23.376942
23.192763
24.269819
24.446845
24.584532
24.373531
24.134517
24.764538
23.948550
23.959875
24.020672
23.587942
23.733974
##ZVALUE=325
0.512600
0.502467
0.514984
0.600815
0.442863
0.520945
0.596642
0.608563
0.704527
0.594854
0.563860
0.634789
0.728965
0.554919
0.657439
0.718832
0.613928
0.508428
0.706911
0.762939
0.906587
0.656843
0.608563
0.628829
0.686646
0.595450
0.755787
0.769496
0.609756
0.778437
0.823736
0.745654
0.790954
0.717640
0.857711
1.057982
0.923872
1.123548
0.979900
1.003742
1.135468
1.075864
1.185536
1.130700
2.380610
13.124943
33.729672
89.873672
160.500407
298.538804
416.176915
560.496449
631.766915
657.375455
612.983704
487.513542
372.529626
228.513479
139.243603
63.164830
32.445788
13.551712
9.755492
9.853840
11.373758
14.839768
20.206571
30.492544
43.076873
62.430501
75.213909
90.553761
98.720789
100.897551
95.406771
83.487630
71.464777
56.456923
45.364499
34.504533
29.761791
25.887489
24.658442
24.353862
24.036765
23.675561
23.718476
23.338795
24.284720
23.930669
23.986697
24.103522
23.589730
23.648739
23.991466
23.363829
##ZVALUE=330
0.619888
0.455976
0.517964
0.475645
0.399947
0.526905
0.474453
0.457764
0.629425
0.741482
0.700951
0.470877
0.679493
0.655651
0.534654
0.472665
0.501871
0.503659
0.680685
0.571609
0.729561
0.728965
0.572801
0.609756
0.600815
0.707507
0.662804
0.723600
0.644922
0.748634
0.815988
0.782609
0.729561
0.749826
0.618696
0.847578
0.809431
0.903606
0.804663
0.808835
0.746846
0.868440
1.109838
1.165867
1.271963
1.263618
1.513958
5.454421
17.438531
58.635473
113.526583
227.091908
336.892009
483.819842
576.456785
637.524724
622.810721
529.325008
425.808430
274.584889
178.699493
85.930824
45.791864
19.154549
11.778474
9.335876
10.114908
12.010932
14.358759
21.515489
28.888583
42.537451
56.529641
74.783564
86.429715
95.223784
95.534921
90.330839
82.413554
67.664981
57.002902
43.790936
36.394596
29.834509
26.447773
24.615526
23.751855
23.195744
23.372769
23.329854
23.406744
23.155808
23.273826
23.201704
23.072958
22.738576
##ZVALUE=335
0.404716
0.577569
0.505447
0.548959
0.521541
0.513792
0.597835
0.560880
0.521541
0.569820
0.650883
0.506639
0.643730
0.415444
0.549555
0.473857
0.613928
0.558496
0.511408
0.523925
0.571609
0.487566
0.575781
0.555515
0.574589
0.653863
0.627637
0.624657
0.476837
0.610948
0.701547
0.753999
0.710487
0.696778
0.626445
0.688434
0.783801
0.721812
0.823736
0.950694
0.730753
0.852942
0.907779
0.952482
0.894666
1.022816
1.187921
1.034737
1.332760
3.454685
11.891723
42.070746
83.868504
177.733898
277.927518
426.985621
525.832772
608.921647
616.053939
554.122925
465.891957
319.784880
219.557881
116.042495
63.411593
25.582910
13.556480
9.935498
10.161996
11.239648
12.579560
15.763640
20.607710
31.232834
41.534901
57.256818
69.568753
82.879663
89.054704
91.651678
87.469816
77.493787
67.492723
55.399537
46.215653
36.536455
30.583739
26.188493
24.258494
23.127794
22.602677
22.930503
23.031831
22.572875
22.425652
22.638440
##ZVALUE=340
0.341535
0.424981
0.490546
0.299811
0.400543
0.250936
0.552535
0.300407
0.420809
0.414848
0.483990
0.344515
0.270605
0.320673
0.406504
0.362992
0.392795
0.263453
0.386834
0.482798
0.386834
0.551939
0.405908
0.456572
0.326633
0.474453
0.495911
0.547767
0.586510
0.338554
0.522733
0.415444
0.461936
0.467896
0.471473
0.407696
0.502467
0.580549
0.570416
0.594854
0.656843
0.651479
0.804663
0.598431
0.708699
0.954866
0.887513
0.887513
0.909567
0.961423
1.003742
1.864433
7.038713
32.393932
69.975853
152.323842
240.758657
372.206569
468.401909
567.263961
601.250529
570.323467
498.162508
367.245674
260.334611
138.050914
78.389645
35.078526
17.343760
10.076761
10.138750
10.343790
11.547804
13.174415
16.009808
22.278428
29.052496
41.621923
53.094625
68.715811
78.622699
86.342692
87.350607
83.128810
76.239705
64.192414
54.869652
43.208599
36.449432
29.424429
25.825500
22.655725
21.978617
20.890832
21.352768
20.998716
##ZVALUE=345
0.610948
0.606775
0.470877
0.525713
0.613928
0.670552
0.434518
0.583529
0.579953
0.557899
0.554919
0.395775
0.413656
0.496507
0.567436
0.523925
0.479817
0.626445
0.456572
0.443459
0.521541
0.613928
0.591874
0.634789
0.595450
0.409484
0.595450
0.652671
0.712872
0.686646
0.739694
0.672936
0.661612
0.759959
0.696778
0.560880
0.723600
0.445843
0.656843
0.803471
0.579953
0.651479
0.714660
0.714660
0.775456
0.882745
0.901818
0.851750
0.978708
1.047850
1.005530
0.993609
0.964999
1.161695
2.361536
17.656684
45.349598
107.897520
180.011988
305.629969
403.169990
517.375469
567.551851
573.010445
523.277521
403.533578
302.452445
181.908607
105.163455
44.484735
23.016930
12.289882
10.130405
10.727644
11.098981
11.924505
12.911558
16.112924
20.520687
29.480457
39.017797
52.544475
62.593818
72.952509
79.285502
81.331730
79.465508
71.926713
63.425899
51.608682
43.175817
33.608675
28.063655
24.379492
21.895766
20.616651
##ZVALUE=350
0.482798
0.419617
0.428557
0.495911
0.439882
0.449419
0.519753
0.378489
0.388622
0.438690
0.429749
0.507832
0.411868
0.582933
0.446439
0.575781
0.644922
0.440478
0.476837
0.505447
0.356436
0.578761
0.655651
0.500679
0.513792
0.493526
0.452995
0.466704
0.521541
0.693798
0.619888
0.552535
0.497699
0.518560
0.582933
0.607967
0.487566
0.863671
0.545979
0.647902
0.631809
0.786781
0.664592
0.749826
0.667572
0.849962
0.709891
0.743866
0.836849
0.801682
0.899434
0.879765
0.901818
0.874996
0.864863
1.173615
1.318455
6.061792
18.243790
58.524609
111.322999
221.009851
318.584442
444.004536
518.685579
558.153987
529.634953
440.041423
338.176489
203.701854
127.324462
61.631799
31.203628
13.277531
9.988546
10.152459
10.772943
11.195540
11.488795
13.317466
15.479922
20.862818
26.119947
35.620928
44.565797
55.713654
64.490438
72.077513
74.006915
72.360635
67.662001
57.550669
49.655437
39.914846
33.220649
26.965737
##ZVALUE=355
0.435710
0.568628
0.567436
0.576973
0.589490
0.375509
0.554919
0.350475
0.548959
0.407696
0.450611
0.597835
0.491738
0.444651
0.585914
0.518560
0.574589
0.475645
0.581741
0.553727
0.588894
0.447631
0.508428
0.502467
0.635982
0.742674
0.500679
0.575781
0.557899
0.484586
0.574589
0.478625
0.514984
0.599623
0.565648
0.568628
0.549555
0.563860
0.692606
0.568628
0.626445
0.734925
0.591874
0.656843
0.651479
0.746846
0.713468
0.648499
0.724792
0.681877
0.791550
0.683665
0.687838
0.921488
0.864863
0.918508
1.030564
1.129508
1.338720
2.898574
10.001659
37.913918
77.654719
163.632631
254.018903
382.621884
471.658707
533.932447
529.906750
456.852913
369.537473
247.691870
158.355832
75.438619
38.303733
15.675426
10.070801
9.581447
9.631515
10.218620
10.668635
11.562705
12.496710
14.627576
18.133521
24.026632
30.440688
40.820837
48.517585
58.334470
64.368844
68.090558
67.073703
62.159896
56.053996
46.956539
##ZVALUE=360
0.465512
0.554919
0.463724
0.532866
0.393987
0.418425
0.649691
0.556707
0.486970
0.546575
0.453591
0.491738
0.302792
0.556707
0.505447
0.397563
0.518560
0.564456
0.566840
0.692606
0.532866
0.694990
0.616908
0.624657
0.482798
0.561476
0.626445
0.496507
0.422597
0.542998
0.543594
0.503659
0.603795
0.715852
0.702739
0.644922
0.550747
0.585914
0.622869
0.506639
0.469685
0.619888
0.493526
0.531673
0.594854
0.589490
0.718832
0.633597
0.712872
0.644922
0.742674
0.861883
0.775456
0.908971
0.861883
0.895858
0.926852
0.946522
0.957847
1.181960
1.181960
1.574755
4.487634
20.081997
49.915910
121.744871
200.378895
320.245624
415.691733
506.423712
521.269441
481.637716
409.530997
279.544592
189.995766
95.431805
51.938891
22.247434
12.043715
9.180903
9.064674
9.424686
9.534955
10.129809
10.455847
11.262894
12.683868
15.596747
19.011497
25.386810
32.763481
42.788982
49.553514
57.003498
61.215758
61.638951
##ZVALUE=365
0.360608
0.422597
0.289679
0.255704
0.238419
0.411868
0.354648
0.424981
0.493526
0.433922
0.477433
0.334978
0.365973
0.338554
0.429749
0.386834
0.335574
0.378489
0.394583
0.350475
0.358820
0.426769
0.331998
0.329614
0.405908
0.445843
0.441670
0.407696
0.449419
0.419617
0.383854
0.615716
0.435710
0.450611
0.449419
0.490546
0.456572
0.342727
0.455976
0.465512
0.467896
0.500679
0.661612
0.523925
0.398755
0.396967
0.680685
0.601411
0.643730
0.614524
0.570416
0.583529
0.680685
0.456572
0.601411
0.584722
0.645518
0.767708
0.738502
0.744462
0.842810
0.673532
1.027584
1.010895
2.594590
8.333921
34.156442
74.762702
170.050859
264.417529
388.798714
462.756753
510.318875
500.227809
422.902703
341.650844
220.706463
137.522817
63.541532
32.294989
13.175607
8.857846
8.175969
8.364916
8.558631
8.637905
9.254813
9.801984
10.268688
11.073947
13.263822
16.271472
21.996498
27.856827
36.750436
43.086410
##ZVALUE=370
0.417829
0.359416
0.564456
0.469685
0.429749
0.330806
0.397563
0.449419
0.484586
0.366569
0.414848
0.646710
0.351667
0.365973
0.505447
0.487566
0.607967
0.432730
0.517964
0.611544
0.488758
0.580549
0.542998
0.475645
0.390410
0.451803
0.355840
0.455976
0.520945
0.508428
0.383854
0.540614
0.551939
0.794530
0.458956
0.494719
0.693798
0.622869
0.574589
0.589490
0.457764
0.612736
0.626445
0.581741
0.479817
0.749826
0.549555
0.680685
0.780821
0.866652
0.724792
0.540614
0.646710
0.542998
0.582933
0.516772
0.534654
0.784993
0.763535
0.945926
0.779629
0.813603
1.077652
0.988841
1.197457
1.132488
1.332760
5.741715
18.830895
59.644580
116.421580
224.295855
321.397781
442.705750
497.818589
503.864884
458.572507
357.864499
265.401006
154.454708
89.752674
38.594604
19.655824
9.433627
8.098483
7.506609
7.961988
8.244514
8.200407
8.531809
8.739829
9.491444
10.182858
12.071729
14.447570
19.666553
##ZVALUE=375
0.483990
0.466704
0.488758
0.393987
0.404716
0.245571
0.431538
0.592470
0.594854
0.404716
0.466704
0.387430
0.381470
0.505447
0.420809
0.465512
0.655651
0.436902
0.478625
0.355840
0.408888
0.452995
0.643730
0.518560
0.549555
0.482798
0.540614
0.481606
0.549555
0.463724
0.539422
0.543594
0.446439
0.499487
0.467896
0.558496
0.574589
0.586510
0.638962
0.548959
0.756979
0.637770
0.505447
0.576973
0.679493
0.626445
0.644922
0.516772
0.718832
0.562668
0.575781
0.524521
0.694990
0.524521
0.763535
0.737906
0.675917
0.866652
0.686646
0.760555
0.724792
0.919700
0.721812
0.827909
0.873804
0.783801
1.008511
1.040697
1.285672
3.108978
9.223819
34.309626
75.443983
169.335604
260.351896
385.150909
457.746983
497.284532
477.854609
390.645862
303.281546
186.008811
120.424628
61.499476
32.326579
13.270974
8.555651
7.142425
7.017851
7.329583
7.554889
7.702708
8.082986
8.250475
8.558631
9.166598
##ZVALUE=380
0.406504
0.462532
0.346899
0.462532
0.313520
0.320673
0.313520
0.454783
0.461936
0.433922
0.405908
0.436902
0.337958
0.484586
0.454783
0.471473
0.463724
0.592470
0.301600
0.408888
0.469685
0.223517
0.515580
0.352859
0.452995
0.428557
0.568628
0.470877
0.465512
0.458956
0.468493
0.447631
0.536442
0.568628
0.531673
0.564456
0.430942
0.549555
0.544786
0.448823
0.486970
0.443459
0.503659
0.400543
0.601411
0.591874
0.735521
0.577569
0.578761
0.621676
0.567436
0.534654
0.587702
0.599623
0.595450
0.547767
0.723600
0.795722
0.717640
0.791550
0.615716
0.705719
0.592470
0.761747
0.723600
0.807643
0.901818
0.915527
0.915527
0.931621
1.025796
1.627803
5.503893
25.452971
59.279799
136.389732
216.814876
331.561565
412.737727
475.228429
477.977991
416.463017
342.251658
230.804682
155.998468
78.228712
43.469667
19.222498
9.871721
6.735921
6.345510
6.587505
6.777644
6.888509
7.420778
7.601976
##ZVALUE=385
0.466704
0.366569
0.523925
0.433922
0.339746
0.424981
0.354648
0.459552
0.486970
0.402927
0.439882
0.414848
0.407696
0.414848
0.443459
0.505447
0.411868
0.428557
0.400543
0.505447
0.625849
0.503659
0.571609
0.706911
0.513792
0.438690
0.482798
0.371933
0.454783
0.437498
0.616908
0.471473
0.583529
0.628829
0.570416
0.552535
0.641942
0.606775
0.581741
0.537634
0.485778
0.453591
0.405908
0.465512
0.436902
0.614524
0.573993
0.582933
0.585914
0.463724
0.651479
0.599623
0.566840
0.557899
0.669956
0.618696
0.645518
0.529885
0.632405
0.518560
0.680685
0.670552
0.654459
0.673532
0.711679
0.789762
0.875592
0.812411
0.796914
1.018643
0.988841
0.779629
1.023412
1.278520
2.559423
13.306737
34.432411
86.352825
153.041482
267.315507
352.428555
439.274907
461.032987
439.858437
387.769938
285.624862
203.944445
113.758445
66.732764
29.142499
13.999939
6.820560
5.835891
5.865693
6.093979
6.302595
##ZVALUE=390
0.388622
0.385642
0.223517
0.385642
0.363588
0.288486
0.303984
0.379682
0.439882
0.512600
0.419617
0.297427
0.398755
0.504851
0.371933
0.420809
0.338554
0.430942
0.505447
0.438690
0.374913
0.364780
0.392795
0.441670
0.466704
0.498891
0.313520
0.289679
0.482798
0.535846
0.536442
0.551939
0.509620
0.595450
0.584722
0.567436
0.514984
0.613928
0.547767
0.557899
0.564456
0.556707
0.485778
0.561476
0.462532
0.478625
0.430942
0.588894
0.628829
0.562668
0.525713
0.324845
0.512600
0.413656
0.523925
0.526905
0.515580
0.601411
0.505447
0.610948
0.601411
0.556707
0.559688
0.613928
0.623465
0.628829
0.749826
0.754595
0.710487
0.898838
0.770688
0.918508
0.890493
0.781417
0.954866
0.858903
1.624823
5.562901
25.697947
57.683587
133.809447
208.173990
314.427614
389.480591
453.472733
463.731885
417.370796
351.843834
243.443847
165.535808
86.683631
46.032667
18.061996
9.058714
6.011724
5.544424
##ZVALUE=395
0.304580
0.386834
0.357628
0.488758
0.361800
0.380874
0.425577
0.316501
0.409484
0.479817
0.348687
0.434518
0.451803
0.455976
0.492930
0.421405
0.517964
0.468493
0.515580
0.394583
0.455976
0.572801
0.616908
0.482798
0.386834
0.588894
0.520945
0.419617
0.551939
0.534654
0.657439
0.629425
0.781417
0.674725
0.570416
0.699759
0.679493
0.654459
0.698566
0.628829
0.591874
0.755787
0.582933
0.566840
0.618696
0.557899
0.605583
0.484586
0.558496
0.555515
0.497699
0.548959
0.660419
0.587702
0.655651
0.694990
0.576973
0.643730
0.540614
0.602603
0.541806
0.501871
0.463724
0.533462
0.617504
0.859499
0.775456
0.790954
0.767708
0.840425
0.736713
0.864863
0.875592
0.842810
0.923872
0.863671
0.826716
0.830889
1.177788
4.045963
14.009476
47.600865
89.172721
168.350935
250.247717
362.889767
429.802537
469.780564
458.228588
388.449430
305.538774
192.689896
121.699572
55.014491
28.169751
11.263490
##ZVALUE=400
0.317693
0.526905
0.374913
0.442863
0.604987
0.366569
0.399947
0.370741
0.509620
0.360608
0.414848
0.372529
0.495911
0.372529
0.267625
0.342727
0.433922
0.318885
0.420809
0.424981
0.418425
0.416636
0.264645
0.404716
0.415444
0.498891
0.512600
0.477433
0.552535
0.399947
0.603795
0.468493
0.657439
0.740886
0.681877
0.706911
0.642538
0.748634
0.575781
0.610948
0.563860
0.452995
0.562668
0.747442
0.556707
0.524521
0.617504
0.569820
0.473857
0.542998
0.605583
0.545979
0.526905
0.672936
0.626445
0.631809
0.606775
0.569820
0.473857
0.457764
0.430942
0.471473
0.484586
0.531673
0.563860
0.642538
0.686646
0.683665
0.593662
0.717640
0.769496
0.752807
0.820756
0.676513
0.746846
0.708699
0.549555
0.555515
0.682473
0.725985
1.018643
1.793504
8.275509
23.039579
63.969493
117.341876
217.110515
298.518538
400.244594
446.115732
452.835560
414.532423
319.858789
237.425566
137.968659
83.826780
##END
