##TITLE=FQP00652
##FORMAT=SPECTACLE-ASCII V-1.2
##DATA TYPE=ULTRAVIOLET SPECTRUM
##SECOND TYPE=ULTRAVIOLET SPECTRUM
##DATE=02/12/18
##TIME=15:37:14
##SPECTROMETER/DATA SYSTEM=SPECTACLE
##XUNITS=NM EM
##YUNITS=ENERGY
##YFACTOR=1
##FIRSTX=220
##LASTX=410
##NPOINTS=96
##3DDATA=Equidistant
##ZUNITS=NM EX
##FIRSTZ=210
##LASTZ=400
##ZPOINTS=39
##XYDATA=(Y..Y)
##ZVALUE=210
2.326965
2.638698
3.052950
2.796650
2.538562
2.965927
2.824664
2.641678
2.924800
2.383590
2.282858
2.553463
1.833439
2.183914
2.641678
2.218485
2.823472
2.464652
2.285838
2.413988
2.592802
3.308654
3.237724
3.402829
2.932549
3.360510
4.030466
4.340410
4.687905
5.116463
5.242825
5.561709
6.227493
5.996823
6.196499
5.723834
5.876422
5.901456
6.703734
6.921887
5.206466
5.418658
5.392432
6.075501
5.964637
5.530715
4.890561
5.518794
4.909635
4.623532
4.778504
5.368590
4.991889
4.703999
4.562736
4.380941
5.251765
4.563928
5.136728
5.175471
4.181862
4.895926
4.465580
4.548430
3.818870
4.960895
5.441904
5.248785
5.084872
5.702972
6.714463
7.937551
7.656813
8.023977
9.029508
8.856654
8.993745
9.855628
8.588433
9.040833
7.990599
7.315874
7.627606
6.047487
5.624890
4.983544
3.824830
4.206896
3.553629
4.229546
4.058480
3.790855
4.649758
5.077720
4.353523
4.658699
##ZVALUE=215
6.201863
6.473660
5.658865
5.763769
5.108714
5.345941
4.961491
5.337596
5.880594
5.151629
5.654693
5.221963
4.507899
3.594756
3.366470
3.164411
3.074408
2.991557
2.842546
3.270507
3.526807
3.338456
3.647804
3.825426
4.344583
4.392862
5.151629
6.048679
5.917549
7.279515
7.134676
8.193851
8.325577
8.589625
10.385513
9.645820
10.600686
9.315610
9.663701
8.574724
8.977652
7.840991
7.988811
7.766485
7.308722
8.156896
7.953644
7.045865
6.819963
7.097721
6.494522
6.794930
5.937815
5.478859
5.745888
5.300641
5.781651
5.764961
5.212426
5.213618
5.246997
5.089641
5.258918
5.385876
6.085634
5.476475
5.991459
6.706715
6.487966
7.149577
7.727742
7.972717
9.266734
10.151863
10.221601
11.665821
10.737777
11.036992
10.545850
10.273457
9.041429
6.947517
6.835461
6.468892
6.468892
5.610585
4.885793
4.078746
4.826784
4.607439
4.982948
4.569888
4.539490
4.592538
4.385710
5.629659
##ZVALUE=220
22.378564
22.572875
26.297569
26.423931
24.382472
22.077560
17.685890
13.815761
11.674762
11.722445
11.984706
12.449622
12.392998
10.506511
10.578632
7.241964
5.844831
5.754828
3.903508
3.837943
3.447533
3.439784
3.508925
4.503727
4.803538
5.638599
6.940961
7.046461
9.982586
10.815859
11.741519
12.314916
13.843775
14.089942
14.993548
14.732480
15.317798
14.151931
15.274882
13.848543
13.940930
13.050437
11.925697
11.793971
11.559725
10.094643
10.426641
9.631515
9.865761
9.224415
8.175969
7.907748
7.459521
8.420944
8.208752
7.592440
6.547570
6.920695
7.199645
7.021427
6.472468
5.828738
7.222891
6.631613
6.938577
6.638765
8.313656
6.863475
8.095503
8.286834
9.590983
10.079741
12.087822
12.365580
12.893677
14.016628
14.613867
14.234781
13.809800
11.521578
12.121797
10.155439
9.338856
8.504987
7.490516
7.634759
6.200671
6.854534
5.981922
5.778670
5.479455
5.887747
5.688667
6.600618
5.876422
5.102754
##ZVALUE=225
46.535730
51.408410
66.782832
83.927512
88.043809
92.708468
82.432628
61.189532
46.123862
31.015873
24.370551
23.338795
26.235580
27.067661
26.139617
25.632977
21.277666
17.654896
12.319684
9.139776
6.353855
5.469918
4.161596
4.872680
6.098747
6.870627
7.552505
10.651946
10.150671
12.311935
13.741851
15.091896
15.871525
18.381476
18.395782
19.142628
18.815994
18.237829
17.318726
15.853643
15.558600
16.278625
15.821457
14.923811
13.535619
11.641979
12.072921
11.650920
12.688637
10.542870
10.948777
10.734797
9.318590
11.075735
9.462833
8.873940
9.221435
8.673668
8.920431
8.015633
8.819699
9.075999
8.123517
7.732511
8.275509
9.381771
8.117557
8.814931
9.543896
10.316968
12.169480
11.473894
14.323592
15.878677
14.706850
16.761422
15.522838
15.148520
15.249848
13.318658
13.533831
11.851788
10.800958
10.363460
10.470748
9.463429
9.521842
8.784533
8.017421
8.556843
8.753538
8.051991
8.305907
7.908940
7.854700
8.438826
##ZVALUE=230
37.460923
42.075515
66.768527
105.162859
135.983825
170.123577
183.086991
181.155801
154.006481
129.387975
86.230636
66.165924
48.089623
42.630434
45.730472
47.654510
53.880811
50.483942
44.347644
36.063790
26.382804
17.741919
12.050867
7.826686
6.050467
5.941987
6.602407
8.112788
8.428693
10.842681
11.591911
13.597608
15.208721
14.229417
14.273524
14.223456
14.687777
15.206933
14.628768
14.891624
13.458729
14.250875
14.536977
13.180971
13.024807
11.969805
10.579824
10.284781
11.062622
9.610653
10.185838
10.635853
9.006858
9.997487
8.998513
9.606481
8.660555
10.154843
8.708835
8.594990
9.854436
8.911490
9.100437
10.726452
7.914901
9.361506
9.138584
10.105968
10.494590
10.758638
10.963678
12.707710
13.150573
14.593601
13.204813
12.212992
13.146996
13.554692
14.082789
13.657808
12.992620
11.910796
12.110472
10.701418
11.170506
10.323524
10.340810
9.782910
11.358857
11.320710
9.776950
11.215806
9.127855
10.102987
8.871555
10.512471
##ZVALUE=235
9.917617
11.791587
24.824739
61.061978
98.706484
155.433416
205.229521
257.836580
288.297534
289.291739
253.443718
208.376646
150.662661
110.261440
82.227588
70.761442
73.409677
77.538490
80.906749
88.357925
80.088973
64.190626
53.460598
36.386847
27.203560
16.569495
12.574792
8.759499
8.563995
9.378791
10.066628
11.570454
11.516809
11.529922
11.618733
11.281967
11.932850
11.332631
12.029409
12.945533
11.502504
13.168454
12.898445
12.112856
11.260509
12.442470
11.061430
10.972619
10.595918
10.588765
10.878444
11.352897
9.897947
10.793805
10.003448
9.702444
10.239482
9.797812
10.578632
9.732842
10.166764
10.192990
10.109544
10.237694
10.740757
10.441542
11.027455
11.563897
11.847615
12.771487
15.110970
15.170574
14.034510
15.395880
16.208887
17.345548
17.493963
17.187595
16.194582
17.579794
15.570521
16.372800
16.276836
16.700625
14.963746
15.537739
14.195442
14.461875
15.592575
14.497638
14.026761
15.146732
15.218854
13.669729
14.097691
14.322996
##ZVALUE=240
1.801848
1.731515
5.616546
13.388991
35.521984
70.358515
132.407546
205.652714
298.361778
369.168520
417.510867
417.673588
386.053920
317.131877
245.954990
176.556706
119.455457
99.827647
91.862679
96.153617
113.372803
114.092827
111.594796
101.177692
86.502433
64.478517
49.423575
31.187534
22.279620
15.992522
12.732744
12.306571
12.731552
13.228655
12.709498
12.184978
13.428926
12.994409
13.758540
11.396408
13.718605
13.146996
12.740493
13.491511
13.429523
12.615919
13.204813
12.194514
12.306571
11.614561
11.139512
11.153817
11.796951
11.378527
11.811852
10.578632
10.501742
11.310577
9.859800
9.573698
10.921955
10.235906
10.838509
11.804700
11.466742
11.513829
13.193488
12.954473
13.691783
14.386773
14.836788
17.113686
17.203689
18.080473
17.003417
19.181967
20.228624
18.366575
20.927787
18.475652
18.490553
19.400716
19.601583
19.545555
18.728971
18.303990
18.877983
17.854571
17.906427
17.840862
17.761588
16.675591
17.457604
18.508434
17.104745
17.181635
##ZVALUE=245
1.642704
1.817942
1.622438
1.499653
3.993511
9.818673
31.255484
66.595674
147.763491
236.734748
381.813645
497.305989
597.808957
670.629740
659.188032
570.054650
466.130972
314.644575
215.054750
129.918456
106.417537
101.694465
116.183758
125.931501
133.737922
130.066872
115.453601
99.111795
77.494979
59.180856
45.427680
29.361844
22.464991
16.786456
16.956925
14.757514
16.522408
15.765429
15.860796
16.212463
15.478730
14.532804
16.158819
15.497804
14.747977
14.644861
14.285445
13.299584
14.076829
12.412667
14.073849
11.864901
12.361407
12.130737
11.402965
11.090636
11.598468
11.105537
10.675788
11.326671
10.853410
11.527538
11.456609
10.874867
10.767579
12.934804
11.819601
12.656450
11.903644
13.831854
15.767813
16.057491
18.637776
18.347502
19.475818
18.500686
19.050837
20.193458
20.552874
17.721653
20.755529
18.540621
19.755960
20.228624
19.021630
18.658638
19.470453
18.766522
17.693639
17.699599
19.700527
18.102527
18.444657
18.197894
18.015504
17.937422
##ZVALUE=250
1.159906
1.633763
1.494884
1.685619
1.917481
1.707673
2.217889
7.228851
20.222664
63.410997
134.278536
284.690857
423.160791
621.481538
731.021762
821.840763
795.080662
679.301023
557.680726
373.677611
253.256559
172.710419
105.499625
98.238587
106.865764
124.357939
141.433477
144.288540
140.720606
126.600862
108.809471
86.443424
68.793893
47.392845
32.992959
25.093555
20.451546
19.070506
18.443465
18.716455
18.098950
17.398596
18.687844
16.959906
17.071962
15.868545
15.985966
15.922785
15.223622
14.451742
14.117956
14.239550
13.656616
12.120605
12.089610
11.925697
11.679530
10.564923
10.568500
9.341836
10.306835
10.435581
10.220408
9.545684
11.032820
10.678768
10.900497
11.975765
12.049675
13.228655
14.595985
14.565587
15.532970
16.381741
17.588735
17.491579
18.350482
16.531944
17.480850
18.560886
17.121434
17.365813
16.439557
17.556548
18.761754
18.469691
17.514825
17.514825
19.034743
17.345548
18.599629
16.888976
17.471910
16.616583
16.995668
16.996861
##ZVALUE=255
1.157522
1.298785
1.269579
1.292825
0.992417
1.226664
1.614690
1.536608
1.816750
3.808737
17.055869
42.417645
88.236928
190.569758
292.986631
450.728536
556.119680
650.776625
681.760907
628.762841
547.212958
436.973572
275.316834
181.658864
106.606483
88.157654
90.771914
109.966993
131.614804
143.274665
153.640509
152.071714
138.391852
116.931796
94.552636
68.025589
53.082705
36.670566
28.546453
22.779703
20.730495
20.269752
18.682480
19.135475
18.450618
17.303824
17.294884
15.879869
14.874935
14.396906
14.333725
13.419986
13.255477
12.442470
11.423826
10.681748
10.530949
10.112524
9.977818
10.037422
9.636879
8.841753
9.043813
8.825660
8.293986
9.886622
9.262562
10.444522
10.245442
11.452436
11.168718
11.948943
13.017654
13.833642
12.773871
13.921857
14.415979
14.324784
14.880896
14.339685
15.037656
14.734864
15.074611
16.222596
16.159415
15.884638
15.442967
15.572906
15.698671
16.285777
15.424490
15.919805
16.254783
15.647411
16.821623
16.635656
##ZVALUE=260
1.193881
1.235604
1.294613
1.096725
1.173615
1.157522
1.294613
1.126528
1.391768
1.491904
1.841784
2.027750
8.457899
21.785498
64.902902
126.670599
251.851678
365.978479
483.696461
635.126829
709.352493
700.166821
637.194514
498.529673
368.703604
221.442580
148.900747
95.188618
82.020760
94.131827
112.375617
138.754845
157.340765
163.123608
162.051916
145.650506
127.101541
96.811652
77.328682
52.787662
41.049719
28.632879
24.588704
21.907687
19.566417
19.490719
18.685460
18.107891
16.656518
15.612841
15.150905
14.006495
13.659000
13.559461
12.334585
11.843443
10.290742
10.574460
10.650754
9.758472
9.405613
9.896755
9.625554
9.740591
9.798408
8.863807
9.267926
8.937716
9.823442
10.832548
10.433793
10.942817
11.469722
11.745691
12.205839
13.265610
12.529492
12.745857
12.967587
13.351440
13.610721
14.523864
13.772845
13.961792
14.104843
14.518499
13.951659
15.334487
14.553666
15.121698
15.336871
15.467405
14.542937
14.602542
15.348792
15.827417
##ZVALUE=265
1.174808
1.058578
1.170635
1.048446
1.210570
1.161695
1.387596
1.308918
1.277924
1.264811
1.386404
1.549721
1.578927
1.758933
3.379583
16.852617
41.431785
106.803775
187.890530
348.161459
485.326648
615.673661
744.393468
767.444968
706.870556
612.937808
453.020930
324.378610
186.131597
124.023557
85.275769
81.335902
95.670819
126.499534
148.395896
166.284442
171.960592
164.182782
151.211619
122.752786
99.920630
72.065592
53.603649
37.281513
28.357506
21.743774
19.826889
18.596649
17.050505
16.938448
15.815496
14.044642
13.274550
12.682676
12.460947
11.094809
11.049509
10.783672
10.338426
9.933710
9.976625
9.207726
8.981824
9.881854
8.635521
9.027719
9.210706
9.440780
9.592772
9.509921
10.528564
10.959506
10.674596
11.583567
12.014508
12.072921
12.343526
13.074875
12.548566
12.887716
12.470484
11.980534
12.317896
13.157725
13.047457
13.936758
13.368726
13.674498
13.591647
13.663769
14.174581
13.819933
13.844967
14.153719
13.575554
14.213920
##ZVALUE=270
0.990629
0.884533
1.082420
0.959635
0.988841
1.118779
1.188517
1.213551
1.208782
1.088977
1.308918
1.070499
1.419783
1.630783
1.285672
1.845956
2.192855
7.821918
23.322701
75.180531
148.964524
259.500742
447.830558
597.965717
754.848719
812.533498
796.191692
716.164708
562.894940
425.145626
298.234820
166.851878
105.489492
72.604418
77.982545
101.882815
122.440457
147.022605
164.356828
168.546438
164.306760
145.572424
124.299526
93.708634
72.823763
47.183633
34.720898
25.441647
20.759702
17.488599
15.714765
14.586449
13.433695
12.902617
12.101531
11.598468
11.481643
10.822415
11.115670
10.413527
9.323955
9.866953
9.634495
9.571910
9.353757
9.600520
9.282827
9.717941
9.519458
10.088682
11.268854
10.675788
10.863543
10.959506
11.224747
11.266470
11.533499
12.140870
11.950731
12.047887
12.307763
12.028813
12.470484
11.935830
12.950897
12.696981
12.598634
13.220906
13.675690
13.170838
12.896657
12.479424
13.145804
12.815595
13.533831
13.618469
##ZVALUE=275
0.930429
0.856519
0.905991
0.984669
0.975728
1.018643
1.093745
1.078844
1.132488
1.132488
0.818968
1.001954
1.270771
1.306534
1.311898
1.408458
1.550913
1.614690
2.007484
4.936457
16.142726
42.425990
120.581985
223.607421
402.453542
545.820594
709.588528
810.236931
841.171741
793.136954
660.438538
523.249507
372.280478
206.170678
126.550794
69.612861
59.982538
70.968866
87.760687
118.264556
135.917664
156.359673
161.284804
152.936578
139.865875
111.714602
90.732574
63.416958
47.313571
30.746460
22.139549
15.862584
13.296604
11.926889
10.977983
11.029840
10.428429
10.483861
10.454655
10.110736
9.969473
10.366440
10.394454
9.707808
10.018945
10.003448
9.840727
9.902716
10.522604
10.743737
10.583997
11.104941
11.414886
11.701584
11.357665
11.598468
11.689663
12.021661
12.213588
11.827946
12.332797
12.307763
12.223721
12.735724
11.928678
12.671947
12.381673
12.110472
12.217760
12.311935
11.944771
13.046861
12.800694
12.294650
12.192726
12.907982
##ZVALUE=280
0.827909
0.759959
0.793934
0.849962
0.948906
0.852942
0.831485
0.815988
0.972748
0.998974
0.987649
1.017451
1.036525
1.116991
1.083612
1.039505
1.093745
1.370907
1.325607
1.445413
1.651645
2.194643
10.769963
34.321547
102.147460
180.088878
326.802731
470.829606
658.032894
782.881975
856.689811
851.934552
765.694976
580.748916
428.107977
249.167681
150.658488
73.336959
47.941804
45.620799
58.644414
82.469583
105.289817
132.109523
144.426823
151.930451
144.468546
127.471685
110.824704
81.685781
62.823892
40.227771
27.859807
18.153787
13.240576
10.410547
9.802580
9.156466
9.347796
9.571910
9.685755
9.728670
10.123849
10.207891
10.368824
10.036826
10.360479
10.483861
10.627508
10.691881
11.207461
10.945797
11.419654
11.750460
12.315512
12.147427
12.122989
12.038946
11.447668
12.401938
11.978745
12.201667
12.132525
11.814833
12.244582
12.486577
11.808872
12.260675
12.780428
12.100935
11.832714
12.026429
11.498928
11.929870
12.061000
12.037754
##ZVALUE=285
0.831485
0.719428
0.916719
0.945926
0.798702
0.743866
0.957847
0.837445
0.984669
0.903606
1.069903
0.937581
0.984669
1.111627
1.038909
1.148582
1.095533
1.211762
1.511574
1.284480
1.199841
1.251698
1.670718
1.828671
3.876686
18.703938
45.479536
118.399858
206.368566
377.698541
525.602698
725.726485
835.096836
885.704756
836.088657
686.977506
536.196828
325.113535
204.698443
96.719861
53.634644
31.554699
35.435557
52.169561
72.865486
100.256801
120.444894
137.560964
144.586563
139.725804
129.422545
104.846954
86.163878
59.940815
42.003989
26.103854
18.316507
12.773871
10.035634
10.507703
10.062456
9.785891
10.225773
10.439754
10.553598
11.002421
10.706782
11.551976
11.648536
11.672974
11.978745
12.190938
12.434721
13.091564
12.875795
13.009906
12.695789
13.382435
13.075471
12.877584
12.423992
12.352467
12.785792
12.575984
11.929870
13.211966
12.664795
12.770891
12.656450
12.947917
12.284517
12.415648
11.865497
11.727810
11.996627
12.065768
##ZVALUE=290
0.791550
0.826716
0.963807
0.878572
0.869632
1.031756
0.945926
1.011491
0.921488
1.021624
1.034737
0.896454
0.823736
1.078844
1.078844
1.082420
1.050830
1.060963
0.912547
1.101494
1.120567
1.304746
1.491904
1.468658
1.760721
1.615882
2.177954
5.822778
26.636720
64.447522
128.446817
268.716812
415.845513
640.923977
782.079697
895.133018
895.064473
780.558586
634.364486
422.802567
277.861953
136.676431
71.386695
31.808615
24.461746
34.183860
47.279596
70.432425
90.872645
115.648508
129.444003
140.338540
138.192773
124.300718
106.608868
78.778863
59.758425
40.022731
28.501749
18.435717
14.045835
11.510849
10.823607
11.176467
11.215806
11.027455
11.235476
11.815429
12.118816
12.256503
12.795925
12.467504
13.293624
13.152957
13.060570
13.353825
13.275743
13.818741
13.313890
13.268590
13.240576
13.224483
13.015866
13.193488
13.240576
12.561679
12.572408
12.524724
12.898445
12.529492
12.812614
12.045503
11.891723
11.749864
11.746883
11.917949
##ZVALUE=295
0.731945
0.835657
0.752807
0.770688
0.741482
0.586510
0.660419
0.800490
0.791550
0.886917
0.877976
0.565648
0.848770
0.648499
0.906587
0.950694
1.020432
0.903606
1.083612
1.128912
1.108646
1.163483
1.207590
1.359582
1.236796
1.461506
1.405478
1.362562
1.667738
2.811551
9.081960
39.927959
90.601444
211.794972
340.785980
552.071929
703.727007
849.959850
886.744857
825.984478
717.187524
514.843464
359.330773
188.484788
102.270842
39.528608
22.012591
20.785928
29.102564
46.124458
63.291788
88.756680
107.037425
124.550462
133.385658
131.269693
119.927526
99.596977
81.102848
57.601929
42.936802
27.390718
19.706488
14.439821
12.575984
11.767745
11.882782
11.732578
12.379885
12.455583
12.408495
12.873411
13.049841
13.378859
13.496876
13.217926
13.266802
13.613701
13.274550
13.144612
13.075471
13.516545
13.081431
13.139844
12.920499
12.957454
12.726784
12.649894
12.854934
12.889504
12.376904
11.805892
11.800528
11.623502
11.623502
12.077689
##ZVALUE=300
0.688434
0.644922
0.710487
0.727773
0.798702
0.661612
0.877976
0.642538
0.707507
0.728965
0.822544
0.693798
0.865459
0.854731
0.868440
0.820756
0.845790
0.973940
0.815988
1.086593
1.003742
0.892878
1.112819
1.093745
0.956655
1.229644
1.289845
1.147985
1.321435
1.526475
1.622438
1.845956
5.466938
19.709468
68.997741
135.115981
277.521014
424.614549
627.179742
752.071738
844.791532
846.433640
737.383962
604.354739
402.286649
262.314677
133.667588
69.412589
27.226806
16.342998
18.388629
25.297999
40.654540
56.926608
80.629587
100.576878
118.929744
125.957727
125.956535
118.035674
99.302530
80.787539
57.973862
43.563843
28.463602
21.190643
15.461445
13.648868
12.165904
12.176633
12.558699
12.710690
12.858510
13.151765
13.213754
12.815595
12.985468
13.132691
13.610721
13.659000
13.339520
13.263822
13.248920
13.496876
13.152957
13.259649
13.154745
13.170838
12.298822
12.855530
12.494922
12.073517
11.728406
12.085438
11.870861
12.099743
##ZVALUE=305
0.712872
0.780821
0.851750
0.784993
0.707507
0.824928
0.619888
0.687838
0.879765
0.801682
0.648499
0.535846
0.728965
0.732541
0.687838
0.845790
0.791550
0.831485
0.807643
0.753999
0.835657
0.951886
0.938773
1.015663
0.960827
0.898838
0.974536
1.017451
1.218915
1.318455
1.125932
1.278520
1.529455
1.545548
2.634525
13.547540
37.690997
107.815862
196.647644
362.921953
511.017442
694.548488
796.347857
827.145576
772.032738
614.944696
478.560925
305.129886
191.137791
86.796880
43.962598
17.613769
12.870431
17.096996
24.476647
40.445924
56.257844
77.761412
95.438957
113.256574
120.340586
119.995475
111.583471
94.026923
78.547001
55.561662
41.419864
28.259754
20.703673
15.159845
13.139844
12.897849
12.814999
12.427568
12.427568
12.594461
13.172626
13.026595
13.308525
13.302565
13.621449
13.469458
13.598800
12.955666
13.397932
13.406873
12.891889
13.626814
12.579560
12.834668
12.351871
12.194514
12.135506
11.897683
11.882782
11.728406
##ZVALUE=310
0.686646
0.690818
0.709891
0.740886
0.695586
0.827909
0.679493
0.711679
0.523925
0.730753
0.667572
0.737906
0.717640
0.874996
0.725985
0.679493
0.856519
0.775456
0.793934
0.688434
0.825524
0.878572
0.908971
0.809431
0.776649
0.945926
0.891685
0.994802
1.101494
0.937581
1.233816
1.174808
1.233816
1.179576
1.410842
1.615882
1.816750
5.907416
20.047426
65.705776
130.642653
269.963741
408.761501
600.874424
725.437999
816.972852
804.000497
704.339743
577.737689
385.312438
255.635977
129.118562
68.652630
26.422739
13.914704
11.991858
14.685988
23.501515
32.796860
50.846934
67.023635
89.145899
101.318955
112.817883
113.871694
105.296969
94.345808
74.365735
58.230758
40.761828
29.430985
20.273924
16.467571
14.022589
12.853742
12.778640
12.392998
12.248755
12.523532
12.515783
12.946725
12.985468
13.083816
12.978911
13.230443
13.298988
13.013482
13.042688
12.547970
12.739897
12.390614
12.272596
12.449622
11.764765
12.019873
11.820793
##ZVALUE=315
0.652671
0.656843
0.606775
0.688434
0.768900
0.634789
0.712872
0.632405
0.520945
0.724792
0.767708
0.565648
0.702739
0.796914
0.816584
0.780821
0.877976
0.896454
0.679493
0.684857
0.851750
0.667572
0.930429
0.887513
0.826716
0.900626
0.992417
0.959635
0.873804
1.036525
0.905991
1.054406
1.033545
1.001954
1.186728
1.134872
1.399517
1.333952
1.636744
2.965927
9.821653
40.282607
91.092587
210.877657
335.271955
530.791879
658.521652
773.692727
804.541707
734.742880
635.414720
457.854867
320.314765
170.444846
93.006492
36.380887
17.106533
10.260940
10.924935
14.806986
20.391941
32.777786
45.945644
65.122843
80.204606
98.383427
106.197596
107.645988
102.058649
86.641908
71.422458
53.617954
40.702820
27.264953
20.651817
15.959740
13.631582
12.599826
12.310743
12.086630
12.397766
12.751818
13.044477
12.764931
12.829900
12.834668
12.668967
12.187958
12.663603
12.627840
12.573600
12.207627
12.132525
12.324452
12.204647
11.996627
##ZVALUE=320
0.639558
0.708699
0.632405
0.587702
0.634789
0.602603
0.706911
0.616908
0.600815
0.676513
0.766516
0.627637
0.639558
0.764728
0.677705
0.655651
0.695586
0.800490
0.759959
0.573993
0.686646
0.694990
0.737906
0.631809
0.788569
0.741482
0.986457
0.687838
0.816584
0.905991
0.709891
0.930429
0.959635
0.990629
0.834465
1.105666
1.090765
1.031756
1.158714
1.444817
1.444817
1.643896
4.451871
22.307634
57.086945
151.154995
250.183940
415.195823
554.083586
712.877512
776.096582
763.729811
693.641901
531.415939
387.359858
216.246843
124.471784
53.654909
25.777817
11.415482
8.691549
10.212660
12.760758
18.914938
27.434826
43.630600
57.880878
76.541901
89.527965
100.805759
102.968812
96.591711
86.043477
67.989826
53.345561
36.656857
27.685761
19.703507
15.463829
13.151765
12.311935
12.408495
12.469888
12.391806
12.210608
12.420416
12.417436
12.216568
12.318492
12.116432
12.296438
11.965632
11.948943
11.851788
11.689663
11.861920
##ZVALUE=325
0.527501
0.544786
0.556707
0.549555
0.591874
0.726581
0.581741
0.570416
0.477433
0.647902
0.497699
0.586510
0.560880
0.588894
0.656843
0.618696
0.663996
0.655651
0.724792
0.790954
0.733733
0.689626
0.791550
0.768900
0.822544
0.789762
0.686646
0.784993
0.675917
0.780821
0.847578
1.018643
0.973940
0.958443
0.951886
0.897646
0.924468
0.900626
0.997782
1.114607
1.259446
1.240969
1.655817
1.631975
2.347827
14.247894
37.442446
101.653934
184.391737
342.217684
476.761460
644.956827
729.081035
761.189461
708.602667
562.801957
424.403548
253.790021
155.129433
70.871711
35.739541
13.092756
8.976460
8.588433
9.251833
12.472868
17.295480
27.744770
39.612651
58.518648
72.592497
87.062716
94.619989
96.198916
89.493990
76.688528
64.173937
48.249960
36.452413
25.325418
19.453764
15.010834
13.181567
12.591481
12.547970
12.178421
12.043715
11.805892
12.056828
11.532903
11.993647
11.819601
11.639595
11.781454
11.236668
11.567473
##ZVALUE=330
0.650883
0.500679
0.610948
0.516772
0.746846
0.662804
0.686646
0.677705
0.735521
0.518560
0.340939
0.476837
0.561476
0.582933
0.682473
0.598431
0.645518
0.557899
0.582933
0.660419
0.587702
0.576973
0.576973
0.639558
0.638962
0.832677
0.762939
0.662804
0.846982
0.700951
0.610948
0.814795
0.835657
0.699759
0.770688
0.909567
0.732541
0.967979
0.987649
0.987649
0.997782
1.202822
1.070499
1.055598
1.064539
1.402497
1.654625
6.411672
19.988418
66.523552
129.442811
261.510611
387.871861
565.782785
674.903989
747.302771
725.647807
614.031553
490.526557
317.395926
202.559829
95.986724
49.860477
18.834472
10.134578
7.822514
8.207560
9.168983
11.700988
18.398762
25.373697
39.305687
52.262545
70.845485
80.698729
89.958906
90.155602
84.372759
76.039433
59.445500
48.728585
34.214854
26.234984
18.892884
15.962720
13.043880
12.385845
11.721849
11.514425
11.413693
11.524558
11.565685
11.196733
11.372566
11.293888
11.482835
##ZVALUE=335
0.697970
0.556707
0.551939
0.653863
0.566840
0.680685
0.571609
0.558496
0.344515
0.473857
0.570416
0.585914
0.574589
0.571609
0.556707
0.621676
0.487566
0.588894
0.618696
0.558496
0.724792
0.799894
0.682473
0.742674
0.670552
0.768900
0.796914
0.713468
0.578761
0.666976
0.758767
0.663996
0.799894
0.694990
0.838637
0.734925
0.686646
0.734925
0.687838
0.979900
0.898838
0.824928
0.908971
1.110435
1.116991
1.005530
1.249909
1.418591
1.397729
2.498627
12.571812
34.637451
97.988844
178.703666
329.443812
465.787649
629.943013
703.959465
718.872547
663.944483
524.638891
398.443937
238.390565
144.048929
62.430501
30.242801
11.804700
8.602738
7.838607
8.135438
9.355545
11.974573
17.694831
24.794936
37.366748
49.024820
65.571666
75.992942
84.724426
85.218549
79.496503
70.707798
57.938695
47.253966
34.625530
26.700497
19.455552
15.840530
13.082623
11.808872
11.509657
11.343956
10.943413
10.788441
11.077523
10.959506
##ZVALUE=340
0.438690
0.498891
0.480413
0.558496
0.513792
0.570416
0.500679
0.534654
0.672936
0.512600
0.477433
0.626445
0.536442
0.466704
0.477433
0.626445
0.505447
0.583529
0.642538
0.469685
0.494719
0.528693
0.456572
0.539422
0.702739
0.704527
0.624657
0.785589
0.692606
0.650883
0.748634
0.672936
0.520945
0.650883
0.616908
0.674725
0.691414
0.681877
0.779629
0.766516
0.728965
0.869632
0.842810
0.908971
0.917912
1.043677
1.073480
1.191497
1.275539
1.170635
1.472831
1.850724
5.061626
24.493933
60.725808
153.441429
259.201527
423.408747
551.241636
679.415464
715.360641
672.661662
584.617853
430.103540
299.109817
156.840682
87.986588
37.239790
16.552806
8.899570
7.975698
7.933974
8.548498
9.505749
11.608601
17.576814
24.481416
36.200881
46.841502
63.291788
72.718859
79.816580
80.250502
75.670481
68.596601
56.089759
46.065450
33.222437
26.209950
19.097924
15.594959
12.462735
11.415482
10.865927
11.226535
10.450482
##ZVALUE=345
0.576973
0.417829
0.482798
0.496507
0.638962
0.567436
0.642538
0.570416
0.800490
0.573993
0.593662
0.523925
0.684857
0.587702
0.586510
0.453591
0.641942
0.536442
0.713468
0.579953
0.482798
0.591874
0.622869
0.436902
0.664592
0.564456
0.735521
0.569820
0.760555
0.594854
0.652671
0.645518
0.689626
0.810623
0.714660
0.721812
0.742674
0.817776
0.674725
0.723600
0.754595
0.724792
0.684857
0.649691
0.914931
0.885725
0.733733
0.933409
0.953674
1.048446
0.944734
1.123548
1.257658
1.506805
2.488494
13.844967
38.574934
105.885863
192.692876
353.034735
482.336879
633.697510
700.497031
698.489547
631.122589
477.929711
352.310538
205.425620
117.158890
47.265887
22.881627
10.487437
8.155704
8.003712
7.903576
8.387566
8.862615
11.779666
15.483499
23.973584
32.767653
46.436787
55.921674
66.224933
71.001649
73.931813
72.093606
64.565539
56.067705
43.982863
34.314990
24.349689
19.193888
14.433861
12.324452
11.187792
##ZVALUE=350
0.390410
0.517964
0.430942
0.507832
0.606775
0.575781
0.442863
0.464916
0.579953
0.566840
0.588894
0.432730
0.564456
0.565648
0.476837
0.616908
0.574589
0.548959
0.337958
0.588894
0.559688
0.573993
0.557899
0.754595
0.594854
0.542998
0.554919
0.515580
0.605583
0.722408
0.740886
0.691414
0.545979
0.602603
0.818968
0.663996
0.736713
0.634789
0.775456
0.664592
0.723600
0.561476
0.772476
0.786781
0.826716
0.845790
0.749826
0.910759
0.933409
0.912547
0.918508
0.932813
1.091957
1.111627
0.958443
1.264811
1.522899
6.652474
21.511912
70.729852
136.996508
277.693868
405.311584
565.688610
660.296679
701.777935
657.269955
532.435775
403.079987
237.200856
145.046711
68.172812
32.361746
12.328625
8.524656
7.290840
7.597804
7.437468
7.735491
8.779764
10.721684
15.911460
20.668507
29.323697
38.256645
50.155520
57.884455
65.876842
68.016648
65.707564
60.508847
50.352812
42.354465
32.390952
25.203824
18.533468
##ZVALUE=355
0.423789
0.442863
0.520945
0.568628
0.527501
0.535846
0.494719
0.452995
0.574589
0.572801
0.572801
0.461936
0.503659
0.460744
0.442863
0.595450
0.484586
0.416636
0.593662
0.362992
0.531673
0.508428
0.682473
0.611544
0.483990
0.619888
0.479817
0.570416
0.425577
0.512600
0.649691
0.712872
0.564456
0.593662
0.678897
0.521541
0.503659
0.675917
0.579953
0.724792
0.722408
0.723600
0.802875
0.763535
0.726581
0.665784
0.754595
0.619888
0.699759
0.787973
0.750422
0.596642
0.777841
0.922680
0.952482
0.938773
1.093745
1.311898
1.311898
3.191829
11.190772
44.621825
93.922615
200.572610
318.581462
492.835641
597.184896
671.126842
662.280917
558.285713
447.074771
291.526914
182.995796
82.267523
40.760636
14.868975
8.698702
7.164478
7.151961
7.020831
7.191896
7.510781
8.246899
10.057688
12.681484
18.546581
24.726987
35.365820
43.078661
52.701831
58.196783
62.224865
61.009526
54.898858
48.388839
39.073825
##ZVALUE=360
0.511408
0.503659
0.658631
0.527501
0.494719
0.451803
0.508428
0.606775
0.526905
0.614524
0.501871
0.582933
0.410676
0.515580
0.476837
0.554919
0.542998
0.462532
0.543594
0.374913
0.562668
0.448823
0.556707
0.556707
0.651479
0.560880
0.499487
0.585914
0.640750
0.708699
0.533462
0.679493
0.573993
0.770688
0.653863
0.792742
0.641942
0.551939
0.780821
0.555515
0.598431
0.639558
0.714660
0.760555
0.756979
0.881553
0.827909
0.685453
0.745654
0.836849
0.553727
0.788569
0.849962
0.926852
0.897646
0.910759
0.958443
1.119971
1.127720
1.407862
1.335740
1.905560
5.064607
22.744536
56.596994
146.261454
245.554447
406.758785
535.559654
650.070906
676.109791
616.742969
515.346527
344.671607
226.887465
110.280514
58.026910
22.215843
11.104941
6.970763
6.673932
6.852746
6.684661
6.719828
6.901622
7.497668
8.600950
11.098981
14.416575
20.926595
27.848482
37.860870
44.806600
52.589774
56.113601
55.908561
##ZVALUE=365
0.545979
0.441670
0.479817
0.437498
0.501871
0.490546
0.581741
0.559688
0.493526
0.501871
0.494719
0.360608
0.728965
0.513792
0.547767
0.543594
0.509620
0.533462
0.555515
0.519753
0.597835
0.468493
0.483990
0.638962
0.481606
0.587702
0.603795
0.489950
0.633597
0.600815
0.577569
0.592470
0.673532
0.744462
0.638962
0.676513
0.647902
0.675917
0.708699
0.762939
0.830889
0.673532
0.593662
0.761747
0.731945
0.679493
0.719428
0.746846
0.786781
0.691414
0.766516
0.630617
0.864863
0.763535
0.953674
0.746846
0.981688
0.922680
1.072884
1.084805
1.124740
1.184940
1.321435
1.412630
2.593994
12.861490
33.600926
93.841553
178.992748
343.334675
471.300483
610.050559
672.215819
651.587844
563.911796
402.881503
280.902982
150.848627
82.356930
31.389594
14.784932
7.023811
6.014705
6.409883
6.243587
6.025434
6.148815
6.362796
6.654859
7.543564
9.268522
13.024807
17.288923
24.179816
31.067729
39.899945
##ZVALUE=370
0.412464
0.536442
0.538826
0.582933
0.437498
0.564456
0.508428
0.694990
0.530481
0.450611
0.444651
0.478625
0.355840
0.535846
0.415444
0.592470
0.467896
0.468493
0.548959
0.547767
0.600815
0.468493
0.572801
0.621676
0.574589
0.471473
0.458956
0.555515
0.593662
0.469685
0.406504
0.617504
0.671744
0.540614
0.702739
0.609756
0.640750
0.620484
0.574589
0.663996
0.622869
0.618696
0.592470
0.639558
0.629425
0.743866
0.722408
0.784993
0.749826
0.836849
0.722408
0.736713
0.795722
0.749826
0.931621
0.766516
0.850558
0.772476
1.012683
0.853539
1.028776
0.947714
1.149774
0.997782
1.187921
1.079440
1.918674
7.734895
24.035573
73.738694
141.647458
277.493596
409.734845
578.465462
665.524602
679.176450
614.233017
471.764803
341.196656
187.493563
105.542541
41.851997
20.219684
8.328557
5.935431
5.768538
6.046891
5.711913
5.612969
5.529523
5.758405
6.081462
6.620884
8.156896
10.494590
15.468597
##ZVALUE=375
0.475645
0.347495
0.576973
0.554919
0.550747
0.469685
0.462532
0.451803
0.555515
0.356436
0.490546
0.331998
0.526905
0.473857
0.623465
0.640750
0.462532
0.510812
0.529885
0.386834
0.657439
0.578761
0.334978
0.593662
0.637770
0.553727
0.517964
0.519753
0.605583
0.476837
0.648499
0.566840
0.539422
0.762939
0.701547
0.545979
0.712872
0.588894
0.691414
0.523925
0.575781
0.586510
0.628829
0.775456
0.684857
0.625849
0.588894
0.572801
0.651479
0.680685
0.780821
0.826716
0.773668
0.783801
0.590682
0.680685
0.700951
0.713468
0.830889
0.798702
0.871420
0.813603
0.819564
0.846982
1.044869
1.054406
1.195669
1.414418
1.441836
4.191995
14.478564
48.601627
100.957751
227.319002
363.017917
557.819009
686.152577
772.041678
749.356747
610.663891
457.575917
263.613462
161.638856
75.308681
37.070513
13.237596
7.228851
5.617738
5.369782
5.437732
5.365610
5.486608
5.367994
5.341768
5.457997
6.059408
##ZVALUE=380
0.530481
0.638962
0.653863
0.571609
0.745654
0.366569
0.581741
0.598431
0.657439
0.723600
0.664592
0.529885
0.593662
0.571609
0.655651
0.703931
0.514984
0.664592
0.629425
0.542998
0.537634
0.687838
0.655651
0.757575
0.683665
0.604987
0.695586
0.705719
0.718832
0.714660
0.740886
0.789762
0.626445
0.727773
0.708699
0.713468
0.671744
0.857711
0.750422
0.690818
0.679493
0.778437
0.729561
0.623465
0.556707
0.743866
0.753999
0.711679
0.860691
0.782609
0.730753
0.675917
0.743866
0.900626
0.798702
0.837445
0.889897
0.729561
0.858903
0.930429
0.799894
0.868440
0.896454
0.923872
0.976920
1.022816
1.187921
1.167655
1.104474
1.409650
1.511574
2.146959
8.666515
26.176572
79.785585
148.811936
289.366841
429.286957
606.721640
704.973936
725.581646
660.951734
512.274504
377.740860
212.294459
119.736791
48.007965
21.742582
8.049607
5.521774
5.110502
5.089641
5.159974
4.966855
5.190969
5.254745
##ZVALUE=385
0.445843
0.413656
0.585914
0.347495
0.544786
0.446439
0.454783
0.511408
0.420809
0.344515
0.535846
0.328422
0.525713
0.497699
0.436902
0.388622
0.414848
0.572801
0.433922
0.404716
0.382662
0.438690
0.581741
0.616908
0.533462
0.469685
0.489950
0.679493
0.624657
0.677705
0.516772
0.520945
0.678897
0.615716
0.653863
0.515580
0.515580
0.404716
0.498891
0.440478
0.536442
0.554919
0.437498
0.471473
0.541806
0.476837
0.473857
0.566840
0.443459
0.641942
0.645518
0.574589
0.656843
0.534654
0.546575
0.570416
0.648499
0.712872
0.602603
0.616908
0.597835
0.788569
0.754595
0.796914
0.736713
0.827909
0.880957
0.909567
0.885725
1.055598
0.951886
1.070499
1.146793
1.471639
2.958775
15.691519
42.805672
108.709931
195.400715
353.596807
481.715798
617.910624
668.053627
646.619797
571.527481
418.421626
290.625691
154.210925
85.937977
35.041571
14.536977
5.835891
4.832745
4.225969
4.430413
4.424453
##ZVALUE=390
0.441670
0.430942
0.571609
0.385642
0.477433
0.637770
0.624657
0.462532
0.466704
0.488758
0.523925
0.585914
0.506639
0.630617
0.573993
0.531673
0.540614
0.288486
0.511408
0.505447
0.550747
0.500679
0.613928
0.579953
0.547767
0.598431
0.594854
0.599623
0.599623
0.607967
0.527501
0.722408
0.738502
0.715852
0.711679
0.549555
0.584722
0.546575
0.586510
0.641942
0.665784
0.677705
0.619888
0.645518
0.523925
0.686646
0.618696
0.641942
0.541806
0.648499
0.499487
0.626445
0.611544
0.656843
0.665784
0.624657
0.609756
0.591874
0.697970
0.734925
0.657439
0.755787
0.697970
0.620484
0.560880
0.769496
0.630617
0.762939
0.797510
0.946522
0.997782
0.996590
1.083612
1.096725
1.186728
1.282692
1.776814
8.013844
24.912953
80.310702
155.700445
294.052958
402.922630
526.796579
596.243739
618.776679
574.383736
454.654694
349.331498
210.168958
122.334957
49.952865
22.902489
7.828474
4.918575
4.261732
##ZVALUE=395
0.553727
0.337958
0.529885
0.539422
0.552535
0.649691
0.467896
0.453591
0.581741
0.542998
0.319481
0.477433
0.541806
0.421405
0.523925
0.385642
0.471473
0.441670
0.564456
0.352859
0.483990
0.347495
0.421405
0.483990
0.473857
0.549555
0.432730
0.442863
0.626445
0.468493
0.614524
0.630617
0.598431
0.615716
0.600815
0.713468
0.608563
0.625849
0.490546
0.567436
0.562668
0.574589
0.584722
0.627637
0.643730
0.568628
0.669956
0.621676
0.559688
0.505447
0.484586
0.599623
0.557899
0.607967
0.541806
0.678897
0.631809
0.497699
0.638962
0.638962
0.478625
0.707507
0.713468
0.683665
0.642538
0.837445
0.894666
0.791550
0.779629
0.980496
0.889897
0.881553
0.901818
1.073480
0.858903
0.968575
1.099706
1.127720
1.335740
4.191995
14.755726
54.277778
110.300779
223.545432
330.213904
474.937558
558.483005
606.928468
585.495830
490.006804
382.524729
236.575007
149.187446
70.544481
34.750700
12.243986
##ZVALUE=400
0.478625
0.477433
0.462532
0.343919
0.474453
0.396967
0.431538
0.454783
0.394583
0.482798
0.526905
0.498891
0.522733
0.451803
0.400543
0.364780
0.484586
0.420809
0.342727
0.440478
0.489950
0.381470
0.383854
0.479817
0.436902
0.470877
0.460744
0.689626
0.664592
0.539422
0.664592
0.718832
0.593662
0.682473
0.549555
0.456572
0.603795
0.629425
0.606775
0.598431
0.640750
0.724792
0.594854
0.590682
0.539422
0.620484
0.587702
0.601411
0.613928
0.518560
0.525713
0.578761
0.639558
0.624657
0.541806
0.401735
0.553727
0.625849
0.627637
0.746846
0.587702
0.561476
0.467896
0.505447
0.776649
0.668764
0.730753
0.804663
0.835657
0.741482
0.787973
0.857711
0.837445
0.873804
0.844598
0.747442
0.885725
0.788569
1.027584
1.089573
1.254678
1.971722
9.237528
26.190877
76.296926
143.618584
274.247527
385.492444
520.716906
581.851602
583.685637
526.070595
399.830937
290.749669
165.251493
98.236799
##END
