##TITLE=FQP00301
##FORMAT=SPECTACLE-ASCII V-1.2
##DATA TYPE=ULTRAVIOLET SPECTRUM
##SECOND TYPE=ULTRAVIOLET SPECTRUM
##DATE=02/12/18
##TIME=15:18:52
##SPECTROMETER/DATA SYSTEM=SPECTACLE
##XUNITS=NM EM
##YUNITS=ENERGY
##YFACTOR=1
##FIRSTX=220
##LASTX=410
##NPOINTS=96
##3DDATA=Equidistant
##ZUNITS=NM EX
##FIRSTZ=210
##LASTZ=400
##ZPOINTS=39
##XYDATA=(Y..Y)
##ZVALUE=210
2.558827
2.072453
1.995564
2.220869
1.803637
2.175570
2.594590
2.442598
2.423525
1.795888
2.411604
2.132654
2.074838
1.961589
2.285838
2.253652
1.932979
2.100468
1.936555
2.394915
2.378821
2.066493
2.839565
2.854466
2.862811
3.018975
3.366470
3.833771
3.726482
4.067421
5.039573
4.546642
4.801750
5.457997
4.785657
5.704761
5.453825
5.302429
5.143881
4.934669
5.486608
4.817843
5.263686
4.728436
4.446507
4.727840
4.277825
4.348755
3.850460
4.413724
4.007816
4.656911
4.121661
3.651977
4.622936
3.884435
4.066825
3.493428
3.783703
3.614426
3.726482
3.457665
4.402995
3.670454
4.751682
4.047751
4.430413
4.504919
5.337000
4.770756
6.835461
6.937981
6.636977
7.285476
7.171631
7.357597
7.626414
8.426905
8.092523
7.284880
6.867647
5.838871
5.930662
5.312562
4.480481
4.031658
3.914833
3.881454
3.399849
3.568530
4.204512
4.194975
3.923774
4.398823
4.689693
5.373955
##ZVALUE=215
5.413890
5.345941
4.729629
4.540682
4.063845
4.604459
3.930926
4.928708
5.034804
4.501939
4.832745
4.284978
3.204942
3.415942
2.762675
2.178550
2.301931
2.243519
2.646446
2.405643
2.695918
2.503991
2.730489
3.213882
3.177524
3.986955
4.360676
4.833937
6.446838
6.492734
6.486773
8.247495
9.134412
8.127689
7.972717
8.449554
8.835793
8.076429
7.800460
8.452535
7.852912
6.864667
6.943941
6.885529
6.791949
6.984472
6.030798
6.073713
5.992651
5.527735
5.604625
5.437732
5.742908
4.938841
4.523993
5.871654
4.564524
4.897714
5.052686
4.780889
4.580617
4.686713
4.716516
4.550815
4.464984
4.642606
5.036592
4.448891
5.047917
5.168915
6.456971
7.095933
7.766485
7.516742
8.190870
8.534789
8.511543
8.020997
7.664561
6.775856
6.212592
5.578995
5.677938
5.365610
5.696416
4.454851
4.575849
4.751682
4.719496
4.502535
4.280806
3.769994
4.260540
4.073977
3.720522
4.807711
##ZVALUE=220
16.322732
15.479922
17.296672
17.528534
16.307831
16.144514
13.342500
10.579824
10.793805
11.126995
11.594892
11.294484
11.074543
10.627508
10.786653
6.481409
5.597472
3.925562
3.324747
2.489686
2.236962
2.756715
3.026724
3.384948
4.232526
4.441738
5.420446
7.123947
7.996559
9.088516
11.060834
12.165904
13.042688
12.776852
13.888478
13.707876
13.972521
13.634562
13.630986
13.243556
11.966825
10.734797
11.728406
10.233521
10.086894
10.137558
9.519458
7.712841
7.621646
7.856488
7.444620
7.291436
6.270409
5.818605
6.598830
6.405711
5.285740
5.770922
6.342530
5.703568
4.957914
5.583763
5.296469
5.822778
5.891919
5.327463
5.599856
6.155968
5.933642
6.744862
6.893873
7.612705
8.368492
8.202791
8.798838
9.847879
9.395480
8.438826
9.257793
8.935928
7.791519
7.954836
7.522702
7.786751
6.987453
6.660819
6.683469
5.569458
6.217957
6.504655
5.920529
6.236434
5.004406
5.508661
5.689859
5.849600
##ZVALUE=225
27.782917
27.364492
35.072565
50.258636
53.528547
52.866936
50.133467
40.575862
33.047795
27.668476
24.169683
21.559596
24.589896
24.694800
26.792884
23.562908
20.091534
16.469955
11.357665
8.297563
6.365776
5.129576
3.513694
3.603697
3.466606
4.915595
6.722808
8.118749
8.914471
10.264516
11.979938
13.920665
16.308427
16.706586
16.445518
16.346574
17.251968
16.535521
16.250610
15.121698
14.544725
14.010668
13.197660
13.565421
12.719631
11.433959
11.474490
11.292696
10.369420
10.376573
9.021759
9.464622
8.267760
8.313656
8.899570
8.064508
8.193851
7.572770
7.613897
8.208752
7.611513
7.921457
7.403493
7.292628
7.985830
8.704662
7.209778
8.042455
9.504557
8.950830
9.328723
9.860992
9.992719
10.839701
11.227727
10.625720
10.572672
11.688471
12.847781
11.593699
11.310577
11.486411
11.434555
9.362698
10.184646
9.361506
10.367632
9.639859
9.307861
8.902550
10.221601
9.339452
9.333491
8.765459
8.438826
9.188652
##ZVALUE=230
23.770928
26.106834
40.845871
69.700480
96.347928
114.419460
129.812956
131.892562
119.542480
103.215575
77.134967
59.565902
44.265985
43.846965
46.878457
52.678585
53.016543
53.242445
46.469569
36.044717
26.538968
16.178489
11.067986
6.767511
5.614758
5.091429
6.008744
8.058548
9.697676
10.091662
13.275743
13.702512
13.769865
14.673471
14.895797
15.417933
15.921593
15.561581
14.472604
15.046000
15.802979
13.806820
13.918877
12.569427
13.232827
13.041496
12.325644
11.076927
11.363626
10.202527
10.231733
9.735823
9.148717
9.709597
9.252429
8.233786
10.429621
9.249449
9.729862
9.690523
8.946657
9.553432
11.106730
9.994507
10.659695
12.080669
10.712743
11.605620
12.480617
13.050437
13.962984
13.782978
14.989972
16.199946
16.385913
15.999675
16.980767
15.919805
17.358661
16.925931
16.442537
16.317964
16.947985
16.313791
16.399622
16.208887
16.290545
16.573668
15.654564
15.539527
14.947653
15.387535
14.600754
15.199780
15.649796
15.738606
##ZVALUE=235
9.200573
10.412931
26.500821
49.860477
91.330409
132.598877
186.959505
223.158598
256.516933
250.576735
220.049620
187.525749
149.925947
104.702711
79.677701
69.304705
74.776411
82.661510
86.783767
87.824464
80.864429
71.751475
53.008795
42.598844
22.621751
17.251968
11.389852
9.231567
8.282661
9.390712
10.818839
10.577440
11.148453
10.516644
11.531711
12.446642
11.623502
11.302829
11.137724
12.146831
12.580752
10.761619
10.637641
11.316538
10.936856
10.686517
11.000633
10.763407
11.023879
10.326505
10.393858
9.687543
9.954572
9.857416
11.056662
10.868907
10.102987
10.895729
10.567904
12.530684
12.046695
12.895465
11.185408
12.483597
13.662577
14.678836
13.945699
15.224814
15.895963
18.219948
17.031431
19.932985
19.560456
19.086599
22.705793
23.194551
22.022724
22.111535
22.663474
23.264885
22.290945
23.787618
21.848679
21.165609
21.244884
24.142861
22.899508
23.992658
21.726489
23.305416
25.754571
22.391677
22.357702
23.273826
22.591949
23.384690
##ZVALUE=240
2.112985
2.003908
3.631711
13.384819
28.820634
65.592527
108.627677
182.123780
252.519846
322.834849
369.695425
370.895863
342.170596
276.998878
216.335654
162.527561
109.067559
92.671514
86.826682
94.022751
107.539892
113.973618
111.245513
100.228786
76.872706
63.554645
49.159527
29.236674
22.879839
14.347434
11.459589
10.848641
9.761453
9.128451
10.385513
9.676814
10.332465
10.042787
11.153817
10.035634
10.269880
10.279417
10.222793
9.967685
10.372996
9.438992
10.506511
9.309649
9.151697
8.989573
9.447932
10.395646
9.995699
10.072589
9.400845
10.063648
10.149479
11.180639
11.126995
12.604594
11.797547
12.255907
11.464953
13.476610
13.863444
13.490915
14.941692
16.505718
17.038584
19.369721
19.105673
21.019578
20.838976
23.622513
23.994446
23.824573
23.845434
26.002526
25.046468
27.830601
26.338696
28.038621
28.600693
25.929809
26.512742
26.842952
27.035475
27.296543
28.167963
29.372573
27.561784
28.898716
27.805567
26.194453
27.038455
29.741526
##ZVALUE=245
1.403689
1.312494
1.253486
1.392961
2.723932
7.596612
26.297569
54.780841
124.564767
188.953876
295.588970
365.865827
425.449610
454.428792
438.763499
362.036824
301.510692
209.615827
152.151585
105.393529
92.364550
95.094442
112.267733
122.421980
126.184821
122.351646
109.961629
94.430447
73.445439
56.267977
41.141510
25.516748
19.259453
14.429688
11.819601
11.713505
11.566877
11.594892
12.904406
10.990500
10.841489
10.811687
11.293888
12.353659
10.377765
11.576414
9.965897
10.538697
10.144711
9.270906
9.825826
10.078549
9.387732
9.848475
9.603500
9.374619
9.871721
9.522438
9.983778
11.044741
11.274815
11.717677
11.508465
13.100505
12.951493
12.670755
14.638901
14.537573
14.974475
16.259551
17.569661
18.245578
19.663572
21.298528
22.715926
22.289753
24.920702
23.770928
24.631619
25.446415
25.614500
25.833845
26.904941
26.969910
28.146505
26.929975
27.243495
26.527643
28.589964
27.715564
27.689934
27.276874
27.115941
27.107000
27.751923
27.853847
##ZVALUE=250
1.326799
1.185536
1.261830
1.421571
1.537800
1.576543
2.000928
5.252957
20.848513
44.913888
107.555985
179.710984
257.898569
379.861593
450.658798
506.744981
513.965487
452.534556
388.267636
276.610851
194.500685
132.272840
92.337728
88.805556
104.308724
116.938949
133.680701
140.433908
135.069489
121.168494
106.462836
82.724690
62.514544
40.497780
29.878616
21.108985
17.015934
14.069676
14.738441
13.938546
13.574958
13.573766
12.841821
11.442900
12.756586
11.394620
11.896491
11.278987
11.889935
11.061430
11.219978
10.431409
10.329485
10.027885
9.848475
9.722710
9.601712
9.459853
9.747744
10.239482
10.657907
10.611415
11.049509
10.494590
12.119412
12.204647
12.405515
13.689995
14.527440
15.664697
15.173554
17.682910
18.069744
19.634962
21.316409
20.939708
19.887686
22.676587
22.914410
23.111701
24.508834
24.615526
25.075674
25.322437
24.764538
24.718642
25.647879
26.917458
26.314855
27.039647
24.544001
27.217865
26.549697
26.897788
27.183890
26.471615
##ZVALUE=255
1.088977
1.211762
1.000762
1.253486
1.339912
1.349449
1.215935
1.343489
1.838803
2.540946
12.598634
30.334592
83.477497
144.011974
248.786807
345.965624
471.217632
532.264709
564.653873
540.729761
472.669005
350.755453
256.152749
148.792863
106.838942
80.738664
87.028742
107.346773
121.929646
142.095685
150.554776
145.565867
133.608580
109.790564
87.389946
63.848495
46.924949
30.773878
23.234487
18.781424
16.967654
16.606450
16.112924
15.162826
14.654994
14.491677
14.598966
13.019443
13.224483
13.382435
11.859536
12.020469
11.118650
11.056662
10.330677
10.936856
10.398626
9.455681
10.439754
10.984540
9.553432
10.337830
10.369420
11.015534
10.551810
11.699796
12.135506
12.203455
13.389587
13.434887
14.836788
15.171766
15.576482
17.267466
17.536879
17.758608
18.989444
20.442605
19.386411
20.899773
22.169948
22.270679
22.741556
22.857785
23.598671
24.812818
24.522543
22.731423
24.691820
24.979711
23.905635
24.721622
24.511814
24.345517
25.871992
25.114417
##ZVALUE=260
1.044869
1.299977
1.183748
1.073480
1.014471
1.084805
1.401901
1.302958
1.093745
1.446605
1.414418
2.399683
6.489754
25.767684
52.812696
122.096539
201.509595
330.856442
430.611968
560.305715
616.095662
613.086820
550.743937
460.467935
310.267806
216.521621
132.826567
90.324879
76.506734
86.632967
112.768412
132.204890
151.791573
158.215761
153.232813
143.153667
117.487907
96.744895
69.071651
51.563978
35.627484
27.686954
22.050738
20.109415
19.512773
17.633438
16.898513
15.010834
15.716553
14.144778
14.087558
12.987852
13.134480
12.559891
11.749864
12.019873
11.213422
11.283755
11.295676
10.631680
10.581613
9.401441
10.559559
11.082888
11.084676
10.680556
11.171699
12.209415
12.443662
12.319684
14.139414
14.330745
14.993548
15.272498
16.513467
17.534494
18.309951
19.344687
18.627644
19.476414
20.274520
20.698905
20.249486
20.888448
21.797419
22.214651
22.072792
23.019910
22.282600
22.602677
23.471713
23.870468
23.476481
22.955537
23.720860
23.689866
##ZVALUE=265
1.138449
0.917912
0.879765
1.115799
0.931621
1.369715
0.922680
1.032948
1.192689
1.103878
1.408458
1.266599
1.356602
1.670718
3.205538
15.760660
38.935542
93.816519
165.010691
303.655863
420.009494
541.373491
654.017925
674.094558
625.694990
536.052585
400.087833
288.257599
166.450739
110.457540
81.281662
76.877475
90.066791
119.919777
143.525004
159.457922
166.933537
158.668756
142.520666
120.307803
94.907880
69.252849
51.786900
36.517978
27.141571
21.372437
19.521713
18.006563
17.475486
16.011000
15.707612
14.654994
13.837814
13.402700
12.797713
12.116432
11.936426
11.385679
10.961890
10.504723
10.878444
10.056496
10.648966
10.524988
10.189414
10.345578
10.919571
11.419654
11.295676
12.212992
12.722611
14.507771
14.073849
14.764667
15.347600
15.354753
16.606450
17.279983
17.361641
18.543601
18.049479
18.859506
18.949509
20.266771
19.701719
20.418763
21.561980
21.986961
21.999478
21.724701
22.275448
21.591783
21.375418
22.656918
21.711588
22.360682
##ZVALUE=270
0.933409
1.109838
0.955462
1.112819
0.946522
0.983477
0.788569
1.058578
0.914931
1.251698
0.901818
1.293421
1.195669
1.151562
1.234412
1.520514
1.813769
7.723570
21.519661
68.982840
129.517913
220.399499
384.836793
518.606901
662.750006
707.861781
705.098510
634.045005
498.871803
377.800465
237.800479
151.074529
96.307993
69.403648
72.943568
95.892549
117.064714
145.130754
157.833695
165.416598
161.661506
143.259764
122.627616
92.823505
71.124434
48.103929
35.175681
25.640726
21.054745
17.666817
16.913414
14.977455
14.434457
13.908744
13.309717
12.463927
12.265444
11.801720
11.611581
11.311769
10.995865
11.133552
10.434985
11.168718
11.343956
10.764599
11.324883
11.744499
12.670755
12.777448
12.705922
13.662577
14.559627
14.658570
15.067458
15.328526
16.694665
16.325712
17.157793
17.589927
18.012524
17.990470
18.260479
19.289851
18.873811
19.855499
19.649863
20.148754
20.528436
20.615458
21.541715
20.781755
21.096468
20.620823
21.359921
21.188855
##ZVALUE=275
0.986457
0.983477
0.924468
0.979900
0.847578
0.972748
1.005530
0.947714
1.032948
1.060963
1.090765
1.137853
0.984669
1.181960
1.354814
1.374483
1.409650
1.439452
1.570582
3.379583
12.023449
35.278797
100.755692
189.375877
348.129869
470.470786
616.336465
704.366565
733.962655
700.677037
613.799691
461.138487
331.826806
186.833739
115.087628
67.262650
57.118535
70.376992
90.046525
116.833448
134.836435
152.744651
158.137679
153.599977
136.959553
111.416578
90.514421
64.599514
47.997832
31.146407
23.005605
17.652512
15.018582
12.423992
12.645721
12.001991
11.662841
11.576414
11.203885
11.312962
10.741949
10.650754
11.196733
10.295510
11.256933
11.309981
11.388659
11.683702
12.105703
12.380481
12.477636
13.885498
13.982654
15.179515
15.005469
15.373826
16.150475
16.425848
17.085671
17.592907
17.484426
17.675757
17.840862
18.434525
19.507408
19.201636
19.826889
19.991994
20.070672
19.931793
19.811988
19.847751
20.547509
19.788742
20.236969
20.384789
##ZVALUE=280
0.823736
0.866652
0.877976
0.845790
0.808835
0.694990
0.711679
0.746846
0.913739
0.848770
0.855923
0.852942
0.988841
1.301765
1.166463
1.087785
1.101494
1.252890
1.037717
1.401901
1.527667
2.044439
6.576777
29.915571
70.335865
163.001418
259.325504
418.339968
536.863804
667.002797
730.620623
718.296766
648.295879
502.015948
376.897454
225.147605
138.029456
67.719817
46.918988
45.740604
58.466792
84.248781
103.964806
130.153894
141.119957
148.660541
143.798590
124.486685
107.368827
81.624985
63.686967
41.415691
29.052496
17.913580
13.592839
11.626482
10.577440
10.459423
10.438561
9.924769
10.543466
10.764599
10.611415
10.394454
10.642409
11.423826
11.385679
12.228489
12.642741
12.943745
13.797879
13.270974
13.948679
14.449954
15.488863
15.566945
15.857816
16.973615
17.011762
16.918778
18.581748
17.938614
18.167496
18.701553
18.976927
18.489957
19.261837
19.074678
19.304752
19.424558
19.443631
19.684434
19.651651
18.961430
19.665956
19.853711
##ZVALUE=285
0.982881
0.842810
0.985861
0.910759
0.924468
0.904799
0.910759
1.030564
1.021624
0.999570
1.013875
1.096725
1.083612
1.071692
1.078844
1.086593
1.120567
1.236796
1.229644
1.300573
1.190901
1.372695
1.715422
1.643896
4.236698
12.273788
43.884516
90.215802
194.925666
310.279727
433.232784
602.266788
699.265599
740.057826
701.795816
573.973656
453.611612
282.122493
182.536840
90.499520
50.968528
32.165647
34.754872
52.643418
72.818995
99.712610
116.713643
135.308504
141.102672
137.344003
126.066804
102.858543
85.282922
59.126616
42.478442
25.810599
17.749667
12.949705
10.832548
10.066628
9.186864
10.245442
10.567904
11.262894
11.231899
10.990500
11.797547
11.989474
12.877584
13.075471
13.670921
13.913512
14.599562
15.399456
16.334653
15.922785
16.842484
16.275644
17.606616
17.788410
17.748475
18.413663
18.790960
18.863678
19.260645
19.123554
19.455552
19.240975
20.042658
18.928647
19.727945
19.329786
19.409657
19.875765
19.642711
19.811988
##ZVALUE=290
0.736713
0.685453
0.738502
0.760555
0.679493
0.618696
0.776649
0.845790
0.727773
0.709891
0.979900
0.625849
0.760555
0.913739
0.778437
0.844598
0.864863
0.890493
0.958443
1.101494
1.158714
1.120567
1.289845
1.368523
1.095533
1.659989
1.928806
5.151629
22.583604
55.172443
110.301971
234.131813
365.716815
547.006726
660.849810
744.529963
741.310716
636.310577
522.531867
355.454683
236.564875
120.689869
67.137480
31.206608
23.853779
33.501983
46.106577
68.008900
87.376833
112.779737
126.689672
135.597587
133.796930
117.853880
102.556944
76.627731
58.375001
39.166808
26.541948
17.455816
13.635755
11.076927
10.744929
10.575652
10.380745
11.485815
11.461973
12.195706
13.315678
13.848543
13.725758
14.477968
15.102625
15.458465
16.270876
16.319752
16.919971
17.268658
17.653704
18.403530
18.107891
18.794537
18.926859
19.488931
19.355416
19.997954
19.736886
19.292831
19.656420
20.116568
19.545555
19.632578
19.110441
19.058585
19.145608
19.224882
##ZVALUE=295
0.578761
0.797510
0.663996
0.709891
0.823736
0.773668
0.610948
0.735521
0.718832
0.810623
0.835657
0.719428
0.578761
0.830889
0.876784
0.880957
0.818968
0.833869
0.828505
0.985861
0.989437
0.998974
1.094937
1.146793
1.156926
1.305938
1.289845
1.249909
1.533628
2.364516
7.587671
33.101439
76.071620
181.722641
296.782851
480.091572
602.595806
724.498034
752.183795
693.104863
589.834452
426.446795
295.557976
158.067942
88.598728
35.988688
21.239519
19.948483
27.599931
44.243932
59.860945
85.197687
102.687478
121.283531
128.678679
124.800801
115.299821
95.228553
78.486800
55.674911
40.882826
25.968552
19.376874
14.031529
11.708736
11.751652
11.819601
12.405515
12.688637
13.305545
14.440417
14.915466
15.304685
16.167760
16.789436
16.798973
17.295480
17.682910
17.854571
18.486977
18.534660
19.673705
19.254684
19.422770
20.012856
19.389987
19.998550
19.480586
19.928813
20.254850
19.982457
19.699931
19.634962
19.567609
19.654632
20.045638
##ZVALUE=300
0.778437
0.604987
0.646710
0.610948
0.684857
0.647902
0.715852
0.660419
0.734925
0.804663
0.879765
0.785589
0.811815
0.680685
0.655651
0.614524
0.826716
0.747442
0.615716
0.787973
0.875592
0.580549
0.919700
1.039505
1.110435
0.982881
1.128912
1.163483
1.217723
1.210570
1.432896
1.750588
5.383492
16.834736
58.244467
115.546584
242.643952
371.536613
555.894971
662.208796
744.260550
738.676786
638.078451
526.367426
346.942544
227.752924
115.178823
64.808726
26.388764
15.964508
17.554760
23.952723
39.585829
55.735707
78.134537
95.917583
115.062594
122.176409
120.133758
113.344789
94.249845
77.533722
56.864619
42.531490
27.621984
20.529628
15.379786
14.272928
13.077855
13.856888
14.290810
14.680624
15.704632
16.168952
16.653538
16.722679
18.245578
18.085837
18.847585
19.055605
19.737482
19.917488
19.993782
20.104647
20.446777
20.208955
20.431876
20.560622
20.420551
20.554662
20.477772
19.870996
19.952655
20.129681
19.963980
19.994974
##ZVALUE=305
0.548959
0.482798
0.648499
0.640750
0.540614
0.730753
0.667572
0.606775
0.878572
0.799894
0.666976
0.667572
0.743866
0.640750
0.790954
0.748634
0.751615
0.794530
0.615716
0.944734
0.789762
0.823736
0.698566
0.745654
0.920892
1.032948
1.006722
1.125932
1.029968
1.152754
1.118779
1.260638
1.234412
1.482964
2.340674
11.274815
31.582713
90.894699
166.188478
314.158797
441.418886
607.515574
698.012710
732.353926
683.954954
543.147922
421.726704
271.124840
169.947743
78.429580
40.614605
16.435981
12.040734
15.992522
23.187995
38.215518
52.978992
75.829625
92.342496
109.177828
116.853714
117.897987
108.332634
91.983676
76.258779
55.349469
41.975975
28.131604
21.351576
16.936660
15.881658
15.489459
16.013980
16.387701
16.557574
17.529726
18.190742
18.659830
18.844604
19.783974
20.101666
20.734668
20.502806
20.961761
21.114945
21.262765
21.130443
21.199584
21.110773
21.461844
20.869970
20.681620
19.948483
20.717978
20.455718
20.311475
##ZVALUE=310
0.551939
0.547767
0.614524
0.612736
0.593662
0.722408
0.580549
0.744462
0.605583
0.498891
0.705719
0.352859
0.798702
0.622869
0.699759
0.727773
0.716448
0.922680
0.916719
0.663996
0.656843
0.898838
0.937581
0.815988
0.797510
0.771880
0.849962
0.862479
0.916719
0.956655
0.890493
0.931621
1.039505
0.911951
1.146793
1.291633
1.516938
4.828572
15.612841
53.024888
105.324984
223.847628
348.577499
525.563955
640.493035
728.075504
721.856952
632.429719
520.251989
349.282622
232.107639
116.909742
63.615441
24.475455
12.679696
10.420680
13.925433
22.126436
31.787753
49.567819
65.328479
87.127686
100.089908
110.486746
112.122893
103.973746
92.223883
74.122548
59.154630
41.430593
30.890703
23.915768
19.818544
17.864704
17.881989
17.819405
18.089414
18.564463
18.843412
19.927621
20.483732
20.778775
20.816922
21.681786
22.033453
22.242665
21.515489
21.996498
21.576881
21.594763
21.673441
21.018982
20.803809
20.615458
20.934939
20.749569
##ZVALUE=315
0.596642
0.671744
0.608563
0.622869
0.717640
0.500679
0.614524
0.572801
0.595450
0.560880
0.709891
0.634789
0.580549
0.554919
0.733733
0.613928
0.536442
0.697970
0.595450
0.638962
0.711679
0.827909
0.758767
0.749826
0.806451
0.838637
0.754595
0.875592
0.688434
0.948906
0.871420
0.919700
0.960827
0.984669
1.057982
1.067519
1.159906
1.369715
1.352429
2.442598
8.111596
33.437610
72.765946
167.551637
275.701880
447.030663
560.027957
665.373802
698.082447
650.888681
562.303662
404.881835
287.038684
155.909657
86.344481
33.573508
16.198754
10.038614
10.431409
14.182925
19.621849
33.037663
44.923425
64.317584
78.978539
96.171498
104.357600
106.522441
100.860000
87.898970
73.850751
56.076646
44.475794
31.857491
25.808811
21.430850
19.838810
19.336939
19.412637
19.853711
20.434856
21.077991
21.579862
21.454692
21.427870
21.705627
22.557974
21.750927
22.604465
21.730661
21.918416
21.673441
20.965934
21.487474
21.659732
21.012425
##ZVALUE=320
0.682473
0.594854
0.626445
0.624657
0.506639
0.630617
0.615716
0.527501
0.691414
0.529885
0.580549
0.520945
0.690818
0.662804
0.561476
0.448823
0.525713
0.525713
0.694990
0.576973
0.613928
0.638962
0.820756
0.745654
0.985861
0.839829
0.681877
0.843406
0.765920
0.951886
0.857711
0.993609
0.747442
1.020432
0.977516
1.021624
1.037717
1.022816
1.104474
1.126528
1.137853
1.545548
3.845692
19.058585
47.784448
121.323466
204.593539
351.422429
470.417738
609.761477
672.931671
673.363805
615.549684
472.113490
346.435905
196.334720
113.332868
48.236847
23.907423
11.044741
9.522438
10.393858
13.126731
19.230843
27.755499
43.901801
57.631731
77.493787
90.041757
100.181699
103.240609
99.341869
89.669824
71.771741
58.635473
42.608976
33.888817
26.669502
23.470521
20.899773
21.043420
21.417737
21.197796
21.777749
21.622777
21.925569
21.504760
22.154450
22.102594
21.680593
21.642447
21.780729
22.005439
21.447539
21.896958
21.678805
##ZVALUE=325
0.526905
0.373721
0.480413
0.413656
0.620484
0.528693
0.637770
0.614524
0.495911
0.659823
0.635982
0.665784
0.732541
0.425577
0.610948
0.636578
0.542998
0.474453
0.618696
0.713468
0.709891
0.564456
0.658631
0.704527
0.727773
0.664592
0.763535
0.665784
0.753999
0.905991
0.679493
0.751615
0.805855
0.974536
0.883937
1.035929
0.855923
0.759959
1.038909
0.860691
1.139641
1.046658
1.284480
1.409650
2.393723
11.525750
30.736923
82.901716
148.728490
282.089710
396.667719
549.495816
633.652806
674.577951
634.841919
510.284901
390.166640
240.432620
147.567987
67.898631
33.721924
14.239550
9.318590
9.392500
10.473728
14.157891
19.219518
30.181408
41.270852
59.492588
73.607564
88.997483
97.389817
98.193884
94.493628
80.857873
69.859624
54.291487
44.060946
33.095479
27.873516
23.637414
22.045970
21.552444
21.738410
21.551847
21.821856
21.751523
21.685958
21.774769
21.737814
21.608472
21.553636
21.211505
21.057725
21.180511
##ZVALUE=330
0.526905
0.608563
0.625849
0.595450
0.523925
0.514984
0.687838
0.575781
0.531673
0.569820
0.435710
0.573993
0.397563
0.507832
0.483990
0.458956
0.627637
0.669956
0.561476
0.628829
0.702739
0.677705
0.532866
0.545979
0.705719
0.665784
0.582933
0.758767
0.639558
0.729561
0.657439
0.620484
0.641942
0.753999
0.793934
0.644922
0.859499
0.803471
0.825524
0.867844
0.934601
1.120567
1.081824
1.073480
1.107454
1.310706
1.518726
4.947782
16.401410
53.352714
103.751421
212.448835
317.746997
469.012856
569.159985
646.579862
636.417866
553.546548
449.026823
295.491815
193.039775
92.355609
48.057437
19.863844
11.001825
9.222627
9.638667
11.266470
14.020801
20.718575
28.273463
42.212605
54.948926
72.846413
83.822608
93.410611
94.630718
89.751482
81.508756
65.924525
54.971576
42.143464
34.249425
27.738810
24.404526
22.667646
21.926761
21.426678
21.728873
21.288991
20.855665
21.323562
21.363497
20.962954
21.139979
21.075606
##ZVALUE=335
0.458956
0.535846
0.406504
0.483990
0.557899
0.475645
0.608563
0.457764
0.619888
0.402927
0.570416
0.470877
0.561476
0.529885
0.603795
0.459552
0.465512
0.585914
0.544786
0.556707
0.517964
0.480413
0.651479
0.663996
0.736713
0.593662
0.510812
0.544786
0.684857
0.557899
0.632405
0.652671
0.823736
0.668764
0.758767
0.544786
0.707507
0.633597
0.711679
0.763535
0.809431
0.873804
0.796914
0.815988
0.938773
1.081824
1.130700
1.067519
1.180768
2.629757
8.518696
32.576919
69.102645
155.235529
252.832770
405.540466
514.991879
617.782474
646.556020
601.230860
516.869426
367.305875
254.040956
135.893822
72.156787
26.202798
13.595819
9.914637
9.380579
10.390878
11.932850
15.059710
19.505620
30.011535
40.351748
56.211948
68.239570
81.150532
88.193417
91.167688
86.086988
74.703693
65.441728
52.679777
43.814778
34.058690
28.387904
24.306774
22.750497
21.579862
20.891428
20.735860
20.383596
20.411611
20.436645
20.441413
##ZVALUE=340
0.616908
0.611544
0.677705
0.631809
0.570416
0.640750
0.600815
0.635982
0.646710
0.477433
0.641942
0.556707
0.573993
0.644922
0.664592
0.698566
0.749826
0.707507
0.691414
0.686646
0.720620
0.617504
0.700951
0.650883
0.619888
0.661612
0.664592
0.757575
0.825524
0.727773
0.624657
0.768900
0.769496
0.773668
0.807643
0.850558
0.760555
1.065731
0.932813
0.980496
0.857711
0.850558
0.869632
0.922680
0.992417
1.177788
0.954866
1.030564
1.171827
1.313686
1.289845
1.756549
4.433990
19.811988
49.324632
121.230483
204.804540
338.123441
447.603464
568.879843
622.276664
615.168810
557.279587
431.925654
311.765671
167.277455
92.816949
38.692951
18.387437
10.585785
9.846687
10.222793
11.194944
13.027787
15.522838
21.576881
28.334856
40.645599
51.913857
67.392588
76.970458
84.804893
85.290670
81.101656
74.849725
62.578917
52.836537
41.038990
34.497976
27.861595
24.053454
21.431446
20.445585
19.722581
19.589663
19.783974
##ZVALUE=345
0.598431
0.774860
0.637770
0.696778
0.632405
0.688434
0.763535
0.655651
0.635982
0.696778
0.694990
0.663996
0.565648
0.666976
0.781417
0.759959
0.563860
0.653863
0.769496
0.807643
0.733733
0.630617
0.852942
0.711679
0.600815
0.756979
0.822544
0.717640
0.590682
0.702739
0.843406
0.825524
0.794530
0.814795
0.721812
0.842810
0.703931
0.919700
0.788569
0.830889
0.840425
0.849962
0.817776
0.900626
1.017451
0.867844
1.065731
1.016855
1.061559
1.140833
1.108646
1.353621
1.251698
1.466870
2.319813
11.106730
30.253530
81.083775
146.486759
265.998840
367.934704
495.254397
563.650727
593.185425
561.127663
454.371572
354.555845
220.444798
131.838918
54.310560
25.621653
12.293458
10.166764
10.573864
10.745525
11.305809
12.687445
15.466809
19.754767
28.356910
37.694573
51.176548
60.936809
71.132779
76.623559
79.358816
77.582598
69.927573
61.651468
50.769448
41.403770
31.635761
26.684999
22.240877
20.681620
19.469857
##ZVALUE=350
0.449419
0.540614
0.645518
0.408888
0.561476
0.481606
0.509620
0.623465
0.525713
0.480413
0.614524
0.486970
0.654459
0.486970
0.513792
0.448823
0.516772
0.503659
0.745654
0.637770
0.611544
0.654459
0.518560
0.460744
0.707507
0.523925
0.648499
0.734925
0.625849
0.661612
0.641942
0.803471
0.648499
0.588894
0.644922
0.757575
0.630617
0.776649
0.640750
0.812411
0.759959
0.683665
0.690818
0.680685
0.571609
0.774860
0.747442
0.873804
0.853539
0.834465
0.856519
1.105666
0.978708
0.889897
1.148582
1.189709
1.501441
5.612969
17.220974
53.713918
102.930665
205.996633
298.398733
422.323942
503.165722
559.616685
546.000004
473.334789
382.315516
245.404840
155.304670
74.537992
35.154819
13.715625
9.981990
9.472966
10.071993
10.397434
10.997653
12.497902
14.818907
19.909739
24.999976
34.260750
42.164922
54.963827
63.083768
70.275664
72.078705
70.757866
65.949559
56.434870
48.284531
37.816763
31.297803
25.484562
##ZVALUE=355
0.390410
0.334978
0.457764
0.326633
0.492930
0.379682
0.337958
0.393987
0.611544
0.549555
0.446439
0.562668
0.372529
0.718832
0.383854
0.686646
0.614524
0.581741
0.601411
0.655651
0.589490
0.529885
0.519753
0.359416
0.528693
0.502467
0.485778
0.413656
0.441670
0.617504
0.570416
0.579953
0.529885
0.620484
0.585914
0.651479
0.537634
0.785589
0.592470
0.702739
0.600815
0.730753
0.617504
0.579953
0.624657
0.574589
0.562668
0.729561
0.756979
0.662804
0.839829
0.775456
0.837445
0.957847
0.823736
0.723600
0.787973
1.080632
1.081824
2.752542
9.158850
34.566522
71.424842
150.284767
239.269733
369.255543
453.771949
519.783497
526.365638
459.176898
380.448699
260.223746
168.091655
78.498721
40.804744
15.978813
10.360479
9.035468
9.211898
9.592772
9.978414
10.773540
11.590719
13.759732
16.958714
22.721887
29.094815
39.158463
46.987534
56.818724
62.697530
66.286922
65.613985
59.530735
54.022670
44.247508
##ZVALUE=360
0.544786
0.462532
0.490546
0.503659
0.483990
0.471473
0.439882
0.529885
0.571609
0.526905
0.458956
0.506639
0.520945
0.573993
0.624657
0.455976
0.517964
0.431538
0.504851
0.431538
0.428557
0.613928
0.435710
0.460744
0.528693
0.627637
0.685453
0.528693
0.625849
0.494719
0.540614
0.557899
0.505447
0.491738
0.556707
0.485778
0.603795
0.599623
0.582933
0.588894
0.642538
0.531673
0.640750
0.714660
0.611544
0.617504
0.757575
0.764728
0.777841
0.697970
0.622869
0.639558
0.635982
0.759959
0.671744
0.844598
0.779629
0.819564
1.076460
0.924468
1.131892
1.442432
3.909469
17.754436
43.075681
107.262731
180.103779
293.428898
387.405753
477.863550
503.599644
477.809906
410.731435
289.290547
198.286772
101.713538
55.304766
23.238659
12.371540
8.537769
8.867979
8.779764
9.104609
9.278655
9.620786
10.674596
11.941791
14.773607
18.196702
24.755597
31.404495
41.413903
48.239827
56.136847
58.984756
59.912801
##ZVALUE=365
0.372529
0.380874
0.440478
0.451803
0.486970
0.452995
0.398755
0.586510
0.364780
0.506639
0.439882
0.531673
0.459552
0.495911
0.468493
0.500679
0.421405
0.455976
0.648499
0.573993
0.583529
0.434518
0.481606
0.531673
0.569820
0.542998
0.509620
0.466704
0.541806
0.480413
0.391603
0.492930
0.483990
0.550747
0.458956
0.591874
0.559688
0.589490
0.540614
0.564456
0.532866
0.689626
0.535846
0.597835
0.648499
0.639558
0.648499
0.574589
0.528693
0.726581
0.570416
0.741482
0.614524
0.688434
0.649691
0.710487
0.805855
0.739694
0.813603
0.837445
0.987649
0.893474
1.117587
1.182556
1.911521
9.772778
26.601553
70.616603
131.246448
243.181586
329.620838
430.516601
478.668809
478.856564
430.412889
325.652957
240.075588
138.580799
79.808831
32.691956
15.487671
8.314848
7.891655
8.020997
8.204579
8.676648
8.772612
9.161830
9.298921
10.335445
12.657642
16.644597
20.750761
28.602481
35.150647
43.681860
##ZVALUE=370
0.522733
0.434518
0.348687
0.348687
0.297427
0.466704
0.463724
0.449419
0.407696
0.376701
0.458956
0.467896
0.526905
0.509620
0.319481
0.426769
0.497699
0.403523
0.368953
0.490546
0.388622
0.383854
0.471473
0.427961
0.523925
0.428557
0.323653
0.360608
0.557899
0.423789
0.511408
0.530481
0.463724
0.613928
0.502467
0.600815
0.584722
0.638962
0.520945
0.547767
0.391603
0.553727
0.663996
0.586510
0.589490
0.678897
0.543594
0.570416
0.489950
0.626445
0.534654
0.567436
0.535846
0.536442
0.551939
0.689626
0.647902
0.777841
0.610948
0.688434
0.761747
0.733733
0.892878
0.988841
0.882745
1.003742
1.271963
4.938841
16.349554
52.954555
99.206567
189.017653
279.380679
393.798947
454.039574
477.524996
445.815921
357.794762
280.648470
163.764954
98.121762
43.357611
22.557974
10.076761
7.628798
7.181764
7.324815
7.634759
7.744431
7.938743
8.295774
8.666515
9.394884
11.603832
14.242530
19.059777
##ZVALUE=375
0.449419
0.457764
0.366569
0.387430
0.518560
0.442863
0.436902
0.497699
0.586510
0.546575
0.411868
0.438690
0.393987
0.384450
0.407696
0.464916
0.334978
0.506639
0.404716
0.547767
0.524521
0.308752
0.458956
0.431538
0.645518
0.597835
0.412464
0.481606
0.556707
0.601411
0.651479
0.487566
0.482798
0.398755
0.524521
0.603795
0.514984
0.422597
0.527501
0.570416
0.562668
0.535846
0.403523
0.454783
0.563860
0.660419
0.553727
0.559688
0.520945
0.515580
0.541806
0.408888
0.632405
0.514984
0.700951
0.572801
0.573993
0.651479
0.699759
0.630617
0.603795
0.670552
0.794530
0.701547
0.719428
0.965595
0.935793
0.881553
1.201630
2.522469
8.497834
30.863881
66.166520
148.207545
229.567885
345.471501
416.847467
463.948846
457.976460
391.529799
312.664509
200.865865
130.935907
65.066814
35.901666
13.851523
8.102655
6.714463
6.671548
6.914735
7.106662
7.253885
7.416606
7.779598
7.864833
8.595586
##ZVALUE=380
0.489950
0.472665
0.470877
0.422597
0.441670
0.496507
0.455976
0.366569
0.241995
0.320673
0.303984
0.614524
0.430942
0.523925
0.430942
0.413656
0.423789
0.330806
0.331998
0.372529
0.418425
0.497699
0.452995
0.340939
0.442863
0.484586
0.464916
0.539422
0.580549
0.495911
0.574589
0.515580
0.414848
0.304580
0.403523
0.468493
0.383854
0.418425
0.371933
0.538826
0.490546
0.476837
0.503659
0.592470
0.565648
0.545979
0.516772
0.698566
0.509620
0.567436
0.481606
0.570416
0.436902
0.417829
0.471473
0.403523
0.404716
0.549555
0.544786
0.470877
0.663996
0.682473
0.570416
0.767708
0.778437
0.651479
0.665784
0.679493
0.816584
0.953674
0.975728
1.704693
4.880428
21.828413
50.025582
116.635561
189.604759
299.654603
380.621552
452.747941
462.308526
410.612822
342.952609
237.819552
164.058805
84.698796
47.490597
20.969510
10.523796
6.390810
5.912781
6.315708
6.255507
6.440878
6.801486
7.162690
##ZVALUE=385
0.380874
0.439882
0.444651
0.452995
0.279546
0.434518
0.457764
0.349879
0.451803
0.457764
0.617504
0.381470
0.468493
0.607967
0.373721
0.443459
0.536442
0.512600
0.380874
0.368953
0.378489
0.546575
0.393987
0.374913
0.375509
0.317693
0.513792
0.461936
0.482798
0.503659
0.490546
0.551939
0.544786
0.535846
0.514984
0.509620
0.555515
0.455976
0.510812
0.445843
0.545979
0.400543
0.486970
0.507832
0.525713
0.486970
0.304580
0.594854
0.488758
0.513792
0.487566
0.500679
0.482798
0.383854
0.520945
0.503659
0.409484
0.563860
0.670552
0.500679
0.576973
0.674725
0.769496
0.531673
0.650883
0.743866
0.713468
0.602603
0.722408
0.848770
0.936985
0.932813
0.860691
1.172423
2.190471
11.870861
30.669570
78.771710
138.839483
245.366693
329.277515
418.175459
447.656512
433.421731
383.522511
288.479924
210.337639
121.482611
72.831511
33.271909
15.482903
6.792545
5.484819
5.517602
5.739927
5.965829
##ZVALUE=390
0.346899
0.373721
0.534654
0.348687
0.473857
0.421405
0.405908
0.440478
0.441670
0.423789
0.383854
0.334978
0.539422
0.472665
0.256896
0.443459
0.464916
0.466704
0.393987
0.458956
0.440478
0.448823
0.561476
0.419617
0.362992
0.372529
0.489950
0.505447
0.561476
0.441670
0.752807
0.521541
0.544786
0.452995
0.505447
0.514984
0.524521
0.607967
0.448823
0.385642
0.551939
0.466704
0.634789
0.531673
0.494719
0.672936
0.393987
0.395775
0.478625
0.490546
0.679493
0.583529
0.508428
0.576973
0.554919
0.515580
0.540614
0.574589
0.569820
0.554919
0.642538
0.520945
0.578761
0.517964
0.515580
0.558496
0.706911
0.537634
0.636578
0.736713
0.720620
0.772476
0.829697
0.941753
0.921488
0.949502
1.444817
6.277561
19.613504
59.775710
111.961961
210.055709
287.550688
376.086831
428.957939
447.734594
417.875648
336.202979
259.884596
162.996650
97.682476
42.872429
21.560788
8.545518
5.917549
5.145669
##ZVALUE=395
0.325441
0.481606
0.425577
0.265837
0.453591
0.473857
0.358820
0.427961
0.395775
0.390410
0.362992
0.324845
0.381470
0.342727
0.469685
0.336766
0.388622
0.355840
0.360608
0.401735
0.505447
0.284910
0.326633
0.390410
0.378489
0.302792
0.391603
0.496507
0.507832
0.452995
0.525713
0.516772
0.499487
0.592470
0.669956
0.557899
0.415444
0.574589
0.546575
0.535846
0.436902
0.370741
0.517964
0.544786
0.549555
0.536442
0.533462
0.411868
0.465512
0.493526
0.586510
0.407696
0.503659
0.708699
0.513792
0.576973
0.435710
0.677705
0.668764
0.584722
0.441670
0.556707
0.386834
0.678897
0.699759
0.595450
0.599623
0.596642
0.689626
0.757575
0.642538
0.679493
0.921488
0.992417
0.919700
0.855923
1.028776
1.006722
1.052618
3.606677
12.664795
42.841434
81.499815
155.683756
231.417418
339.552760
409.297943
454.597473
447.163582
386.051536
306.998491
195.853710
124.311447
56.838989
28.757453
11.340976
##ZVALUE=400
0.357628
0.430942
0.512600
0.486970
0.465512
0.580549
0.570416
0.419617
0.442863
0.406504
0.450611
0.306964
0.442863
0.401735
0.482798
0.539422
0.461936
0.468493
0.400543
0.536442
0.402927
0.339746
0.475645
0.414848
0.347495
0.585914
0.464916
0.506639
0.502467
0.406504
0.479817
0.459552
0.571609
0.346899
0.439882
0.516772
0.397563
0.555515
0.597835
0.581741
0.657439
0.604987
0.555515
0.739694
0.664592
0.580549
0.494719
0.480413
0.498891
0.516772
0.485778
0.407696
0.436902
0.473857
0.506639
0.450611
0.356436
0.507832
0.603795
0.465512
0.518560
0.684857
0.559688
0.637770
0.703931
0.612736
0.507832
0.682473
0.734925
0.633597
0.728965
0.783801
0.848770
0.793934
0.757575
0.644922
0.739694
0.911951
0.791550
1.021624
1.002550
2.061725
7.016659
26.295781
55.087805
121.301413
192.361474
300.313830
370.956659
432.071686
442.447662
397.308469
334.096551
234.370828
159.144998
81.961751
##END
