##TITLE=FQP00351
##FORMAT=SPECTACLE-ASCII V-1.2
##DATA TYPE=ULTRAVIOLET SPECTRUM
##SECOND TYPE=ULTRAVIOLET SPECTRUM
##DATE=02/12/18
##TIME=15:47:49
##SPECTROMETER/DATA SYSTEM=SPECTACLE
##XUNITS=NM EM
##YUNITS=ENERGY
##YFACTOR=1
##FIRSTX=220
##LASTX=410
##NPOINTS=96
##3DDATA=Equidistant
##ZUNITS=NM EX
##FIRSTZ=210
##LASTZ=400
##ZPOINTS=39
##XYDATA=(Y..Y)
##ZVALUE=210
2.561808
2.420545
1.894832
2.012849
3.055930
2.470613
2.593994
3.117919
2.607703
2.837777
2.344847
2.876520
2.741814
2.591610
3.025532
3.198981
2.934933
3.273487
3.859997
3.969669
4.255772
3.791451
4.015565
3.866553
4.987717
5.012751
5.436540
5.151629
5.253553
5.507469
6.503463
6.833673
6.597638
7.290840
6.528497
7.566810
6.491542
7.570982
6.748438
7.843971
6.231666
6.697774
7.156730
7.633567
7.006526
6.101727
7.060766
6.088614
6.157756
6.495714
7.104874
6.858706
7.046461
5.995631
5.805492
6.369948
5.943775
6.333590
6.105900
6.441474
7.130504
5.859733
6.607771
6.085634
6.419420
7.298589
7.368922
7.265806
8.376837
9.939671
11.100769
12.561679
14.147758
14.677644
17.165542
19.083619
20.338893
18.928647
19.950867
19.819736
20.178556
16.799569
16.274452
13.593435
11.962652
9.761453
8.613467
5.920529
6.432533
6.493926
5.646944
5.993843
5.506873
6.235838
5.854964
5.311966
##ZVALUE=215
7.319450
6.127954
7.275939
5.909801
5.202889
4.915595
4.910827
4.800558
5.362630
5.851984
5.067587
4.785657
4.433990
3.709793
3.492832
2.322793
3.014803
3.281832
2.974868
3.370643
3.607869
2.994537
3.727674
3.887415
3.798604
5.351901
4.990697
5.682707
6.394982
7.087588
6.130934
7.184744
7.259846
7.652640
8.136630
8.559823
7.817745
7.948875
7.809997
7.643700
8.390546
6.946921
7.470846
6.778836
6.486773
7.015467
7.549524
6.845593
6.954670
6.706715
6.800890
5.688667
6.898642
6.219745
6.534457
6.015897
6.449819
5.741715
6.351471
6.526709
6.375909
7.204413
6.189942
6.354451
6.398559
5.364418
6.145835
5.786419
6.878972
9.285808
9.769797
11.611581
11.553764
13.042688
14.205575
14.706850
14.849901
15.649796
16.634464
17.260909
15.834570
13.789535
12.610555
10.906458
10.121465
7.976890
7.632971
6.678700
5.723834
4.749894
5.564690
5.183816
5.400777
5.061626
5.872846
5.783439
##ZVALUE=220
18.056631
20.453930
20.073652
21.292567
21.219850
16.648769
14.332533
10.975599
11.026859
10.120869
11.507869
11.521578
11.851788
10.392666
8.975863
7.758737
5.922914
4.689693
4.075766
3.606677
3.411770
3.241897
3.755689
4.102588
4.080534
4.232526
5.350709
6.195903
7.790923
9.195805
9.506941
10.834932
10.946989
11.650920
10.637641
11.891723
11.555552
11.471510
11.208653
10.526776
11.277795
10.610819
9.845495
9.453893
9.051561
8.465648
7.640719
8.379817
9.097457
7.465482
7.571578
6.390810
6.655455
6.595850
7.292628
6.722808
7.035732
7.660985
7.192492
5.710721
6.254911
6.751418
6.316900
6.136894
6.791949
7.335544
6.371737
7.582903
7.199645
8.073449
8.415580
10.307431
12.028813
12.666583
13.642907
14.681816
14.316440
15.748739
15.208721
14.253855
14.376640
13.845563
11.201501
10.626912
8.543730
7.136464
7.362962
6.371737
7.152557
6.087422
5.288720
5.866885
6.245971
5.937815
6.043911
5.723834
##ZVALUE=225
39.460659
39.186478
54.215789
69.642663
74.720979
81.768632
75.497627
58.235526
46.513677
35.327673
25.915504
23.846626
26.094913
25.829673
26.805997
23.696423
20.744801
17.365813
13.472438
9.621978
6.807446
4.711747
4.868507
4.308820
4.875660
5.950928
6.787777
7.820725
9.502769
10.626912
11.611581
11.397600
13.649464
13.429523
14.910698
14.910698
14.201999
14.969707
14.667511
13.198853
12.376904
13.508797
12.051463
11.199713
12.025833
11.109710
10.733604
10.265708
9.779930
9.252429
9.154677
8.003712
8.856654
8.849502
8.494854
7.883906
7.978678
7.584691
7.700920
7.530451
7.015467
8.185506
8.174777
7.255673
7.161498
7.181764
7.462502
8.727908
8.021593
10.746717
10.909438
12.751818
13.128519
14.222860
14.998913
15.796423
17.042756
17.272830
15.241504
16.256571
14.737844
12.963414
12.599826
11.293888
10.406971
9.401441
8.482933
8.755922
7.984638
8.008480
7.366538
7.730722
6.529689
7.179976
7.360578
7.012486
##ZVALUE=230
32.841563
35.917759
59.298873
103.828907
138.641596
169.835687
182.974935
185.320973
168.592930
143.643618
98.225474
72.726607
51.866770
47.464967
44.483542
48.330426
49.470663
49.704909
44.878721
38.316846
27.486682
18.366575
12.377501
7.975698
6.438494
6.665587
7.515550
8.305907
8.693933
10.356903
9.899735
12.362599
12.255907
12.901425
13.902783
14.247894
14.339685
13.600588
15.550852
13.748407
14.195442
11.709929
12.158751
13.129711
12.426972
11.995435
10.591745
10.972619
10.231733
9.874701
10.253787
9.318590
9.191632
8.999705
9.845495
9.207726
8.537769
9.189844
9.924769
9.674430
9.518862
8.900762
10.182858
10.793805
9.233952
9.486675
10.498762
10.986924
11.355877
12.767911
12.736917
13.919473
15.797615
15.472770
16.743541
18.371940
16.775727
17.412901
18.616915
15.907884
16.251802
14.355779
13.228655
12.432933
12.408495
11.558533
10.320544
11.000633
10.754466
9.826422
9.881854
10.035634
8.779764
9.656549
10.232925
9.901524
##ZVALUE=235
11.501908
12.004972
32.775998
59.853792
118.213892
181.170702
262.417793
305.969715
349.704623
337.814689
293.296576
240.154862
181.945562
116.130710
89.625716
71.396828
69.871545
76.995492
81.210732
80.337524
77.695847
66.170692
48.848987
37.783980
23.756623
17.249584
10.921955
10.040998
9.495616
9.007454
9.644628
10.498762
10.658503
11.139512
12.347698
11.878610
12.032986
13.020635
11.926889
11.420846
11.531711
10.800958
11.786819
10.658503
10.370612
10.085702
10.106564
10.584593
9.492636
9.188652
9.676814
9.424686
9.368658
8.860826
10.294914
9.869933
9.897947
8.904934
8.446574
8.822680
8.817911
9.811521
10.496974
10.039806
10.393858
9.569526
11.545420
10.988712
11.747479
13.075471
14.434457
13.749599
14.463663
16.991496
16.064644
16.172528
17.212629
16.674995
15.977621
15.796423
15.827417
17.388463
13.833642
14.363527
13.318658
13.254881
13.131499
12.688637
13.230443
12.266636
12.837648
13.529658
13.287663
12.391806
12.848973
12.555718
##ZVALUE=240
2.104640
2.127886
6.658435
13.802648
38.856864
73.457956
149.953961
225.420594
337.132812
410.105586
472.392440
469.416976
430.333614
339.742899
262.287855
170.044899
126.372576
97.096562
90.482831
100.204945
110.384822
116.865635
112.539530
102.301836
82.706809
65.959692
46.901703
34.487844
21.457672
16.384721
13.095737
11.015534
10.292530
10.635853
10.818839
11.302829
11.615753
12.347698
11.755824
11.822581
11.104941
10.340810
10.219812
10.127425
10.270476
11.221766
10.784864
10.044575
10.201931
8.990765
9.246469
9.467602
9.770989
10.597706
8.567572
9.599924
9.798408
9.241700
9.953976
9.434819
10.056496
10.516644
10.187626
11.372566
10.929704
11.260509
11.431575
12.828708
12.887716
13.509989
13.898611
16.495585
16.189814
17.429590
16.746521
18.531680
16.999841
17.822981
17.985702
18.278956
17.710924
17.133951
16.783476
16.993880
17.291903
16.736984
15.705824
16.607642
15.088916
16.717911
15.954971
15.172958
15.686750
15.921593
15.127659
15.482903
##ZVALUE=245
1.640916
1.455545
1.701713
1.955628
4.013777
10.286570
34.048557
72.770715
160.830617
233.913660
372.835994
461.192727
523.985624
551.162958
516.707897
429.054499
348.976851
236.601830
172.465444
115.114450
96.368790
97.907782
112.747550
125.801563
134.170651
127.598643
116.600990
94.695687
76.073408
57.505965
41.405559
26.606917
19.942522
14.817715
13.357997
12.161732
12.750626
12.841821
11.487603
11.418462
11.955500
11.513829
11.472702
12.270808
11.930466
11.885762
10.484457
10.402799
10.679960
9.397864
9.886622
9.502769
9.354949
9.615421
9.117723
8.283854
8.911490
8.381605
8.448958
8.981824
9.134412
8.991957
8.592606
8.860826
9.902716
10.763407
10.803938
10.879636
11.944771
12.202859
13.874769
14.194846
16.213655
15.505552
16.197562
17.294884
16.701818
17.225742
17.230511
16.354918
16.427636
15.322566
15.986562
15.650988
16.204715
16.628504
17.115474
17.144680
17.026663
17.108917
16.424656
16.585588
16.857982
15.613437
15.215874
15.944839
##ZVALUE=250
1.427531
1.406670
1.566410
1.324415
1.759529
1.703501
2.404451
7.279515
28.529763
60.348511
152.687430
262.692571
379.540920
556.723475
664.694905
743.427873
722.489953
630.989671
515.962839
346.999764
228.577852
156.908631
103.415847
93.246698
109.615922
125.726461
140.274763
146.328807
138.554573
129.139423
112.746954
86.089969
65.926909
41.214824
30.081868
20.486712
16.436577
13.807416
13.667941
13.471842
13.496876
13.624430
14.320612
12.033582
12.814999
11.190772
12.142658
12.143850
11.391640
10.265708
10.992885
10.438561
9.908676
10.074973
9.873509
9.564757
8.896589
8.838773
9.000897
8.023977
8.059740
8.617640
8.975863
9.039640
8.361936
9.104609
10.263920
10.612607
10.849833
12.314916
12.255907
14.798641
13.957620
15.191436
16.521811
15.409589
16.982555
16.198754
16.231537
16.973615
16.378760
15.411973
15.930533
16.029477
15.854836
15.842915
15.786886
15.469790
16.051531
16.513467
15.432835
14.914870
15.344620
15.275478
17.059445
16.193986
##ZVALUE=255
1.445413
1.264811
1.508594
1.100898
1.339912
1.292825
1.623631
1.700521
2.380610
3.975630
19.886494
48.866868
100.138783
235.553980
388.098955
613.799691
767.786503
916.673541
947.288871
853.828788
713.243484
547.716618
325.340629
209.171772
121.351480
96.058846
94.294548
110.010505
131.420493
148.380995
151.854753
148.557425
134.894848
111.848712
91.598630
61.786771
45.779943
30.266643
22.690892
18.010736
16.646981
14.920831
14.630556
14.535785
15.384555
12.935996
12.603998
12.139678
11.754632
11.912584
11.392832
10.452867
10.068417
9.724498
9.427667
10.583997
9.956956
8.903742
8.236766
8.372664
8.770823
8.120537
8.267760
8.643866
8.601546
8.581877
8.542538
9.916425
9.414554
10.746717
10.513663
11.888742
13.558865
13.366938
13.967752
13.966560
14.567971
15.005469
15.168786
15.029907
14.794469
14.663935
15.511513
14.926791
15.228987
14.345646
15.289783
15.916824
14.903545
14.080405
14.759898
15.978813
14.797449
15.200973
14.794469
15.482903
##ZVALUE=260
1.256466
1.287460
1.080632
1.101494
1.362562
1.327991
1.397729
1.381636
1.603961
1.625419
1.928806
2.534986
9.555817
27.982593
79.912543
160.865784
348.863602
519.683957
699.765682
925.921798
1012.043953
995.100737
878.573656
660.658479
474.366546
279.712677
185.224414
107.651949
86.569786
93.668699
108.439922
136.108994
154.112577
160.263777
157.251954
140.142441
120.452642
89.378953
69.773793
48.139691
34.571886
24.203658
19.152761
16.369820
16.076565
14.469624
14.768839
13.481975
13.192892
12.533665
12.165904
11.438727
10.901690
10.281801
9.704828
9.878874
9.592772
8.943677
8.387566
9.279847
8.204579
8.164644
8.299947
8.706450
8.457899
8.133650
8.408427
9.114742
8.938909
10.370612
10.779500
11.426806
11.427999
12.159944
12.583733
12.911558
13.080835
13.063550
13.132691
13.416409
12.844801
13.927817
13.877749
14.109612
13.611913
13.839602
14.139414
13.584495
14.325976
13.722777
13.923645
14.064908
13.615489
13.850927
13.530850
14.332533
##ZVALUE=265
1.207590
1.235604
1.328588
1.088977
1.352429
1.100898
1.230836
1.390576
1.174808
1.475811
1.510978
1.756549
1.681447
2.190471
4.431605
20.235777
51.106811
134.345889
247.191787
465.064645
653.066635
826.750994
1000.735760
1015.774608
915.822983
784.597993
568.255782
401.452780
228.773952
146.294832
88.762641
79.243779
90.651512
121.333599
145.598650
160.650611
168.641806
161.186457
143.421888
118.839741
93.779564
66.751838
48.360825
30.331612
22.694468
16.751885
15.555620
14.402866
13.769865
12.588501
12.131929
11.193752
10.804534
10.404587
10.173917
9.822845
9.613633
9.070635
8.722544
8.233786
8.129478
7.583499
7.648468
7.719994
8.248687
7.666945
8.007884
8.400679
8.810759
9.837747
9.582639
10.788441
10.989904
11.529922
11.451840
13.103485
11.898875
11.847615
11.917949
12.377501
12.585521
12.410879
12.266636
11.770725
13.030767
12.012720
12.020469
12.810826
12.224913
12.088418
12.432933
13.030767
12.658834
13.081431
12.611747
12.102723
##ZVALUE=270
0.957847
0.775456
0.909567
1.036525
0.973940
1.087785
1.036525
1.141429
1.119971
1.107454
1.210570
1.144409
1.256466
1.301765
1.500845
1.796484
2.147555
8.225441
27.301908
85.565448
171.979666
302.573442
530.527830
716.878772
900.141001
968.830585
943.540931
851.987600
648.507476
491.598845
345.541835
190.929770
115.307570
71.426630
72.248578
95.232725
118.646622
145.195723
157.734752
164.605975
159.539580
142.430663
118.046999
89.916587
68.497658
43.627620
30.963421
21.087527
14.948845
12.878776
11.832714
11.302829
10.589957
9.718537
9.846687
8.924603
8.859634
8.711815
8.731484
8.293986
7.857680
7.973909
7.482767
7.608533
7.750988
7.952452
7.493496
8.131862
7.969737
8.588433
9.227991
9.581447
9.103417
9.631515
10.250807
10.586977
10.555983
10.730624
10.828972
11.163950
10.363460
10.804534
11.024475
10.850430
10.839701
11.176467
11.009574
10.412931
10.825992
11.033416
10.871887
11.222959
11.576414
11.679530
11.753440
11.553764
##ZVALUE=275
0.905991
0.813603
1.159906
0.903606
1.063943
0.853539
0.979900
1.015663
1.138449
1.146793
1.194477
1.079440
1.306534
1.292825
1.147985
1.336932
1.436472
1.797676
1.794696
3.991723
15.000701
43.943524
123.874545
233.911872
425.271988
568.961501
741.923451
840.620995
867.992640
816.316009
677.019954
529.060960
375.066996
202.884674
121.107697
65.502524
53.210855
66.109896
85.871816
114.806890
133.103728
153.856874
157.699585
151.459575
137.214661
110.253692
87.319613
60.943961
44.107437
28.022528
19.456744
12.788773
11.040568
9.124875
9.153485
8.504987
8.065701
8.547902
7.836819
7.681847
7.886887
7.901788
7.847548
8.231997
7.995963
8.091927
8.041859
8.413792
7.968545
8.993745
8.736849
8.855462
8.925796
9.973645
9.623766
10.487437
10.424852
10.437965
10.370612
10.348558
11.224747
10.355711
10.459423
10.338426
10.451674
10.387897
10.584593
10.557771
10.565519
10.312796
10.557771
10.821819
10.777712
10.466576
10.671616
10.835528
##ZVALUE=280
0.940561
0.831485
0.823736
0.972748
0.837445
1.056790
0.986457
1.031756
1.036525
0.776649
1.122952
1.054406
1.124740
1.208782
1.275539
1.251698
1.176596
1.314878
1.292825
1.486540
1.595616
2.279878
9.310842
31.479001
94.636679
175.213814
322.620869
471.600890
668.902993
783.763528
871.881843
857.827663
743.519664
608.362556
400.952697
264.156461
135.013461
75.391531
42.960644
41.877627
58.203936
79.126954
107.095838
125.072002
148.914456
150.035620
145.998001
131.587982
105.995536
84.391832
56.406856
39.357543
24.241805
16.580820
11.020899
8.817911
7.663965
7.704496
7.608533
7.523894
8.068681
7.881522
8.088946
8.049607
7.986426
8.067489
8.937716
8.298755
9.086728
9.239912
9.308457
9.712577
9.402633
9.475946
10.078549
10.707974
10.567904
10.211468
9.698868
10.599494
10.549426
10.805726
10.555983
10.704994
9.784698
10.379553
10.217428
10.590553
10.308623
9.823442
10.126829
10.619760
9.810925
9.872913
10.052919
10.402799
##ZVALUE=285
0.736713
0.765920
0.907779
0.826716
0.843406
0.884533
0.948906
0.917912
0.932813
1.001954
0.892878
0.956655
1.011491
0.984669
1.049638
1.005530
0.896454
1.099706
1.319647
1.188517
1.168847
1.489520
1.513958
1.774430
3.846884
19.073486
47.850609
121.896863
212.991834
385.556817
530.486703
724.192858
826.333761
870.224833
819.690824
671.345592
519.612432
320.606828
199.095607
95.111728
52.657723
31.800866
34.598708
53.209662
72.724819
101.967454
120.186806
136.739612
145.452619
139.339566
129.197836
104.443431
84.896684
58.269501
41.664839
24.627447
16.421676
10.823607
8.894801
7.978678
7.593632
7.997751
8.100867
8.722544
8.196831
8.721948
8.434653
8.784533
9.121895
9.238720
10.376573
10.030866
10.455847
10.629892
10.717511
10.812879
10.417700
10.552406
10.379553
10.572672
10.736585
10.567904
10.389686
10.616779
10.625720
10.871887
10.828972
10.347962
10.480881
10.575652
10.312796
10.416508
10.025501
9.566545
9.561777
10.104775
##ZVALUE=290
0.907779
0.786781
0.703931
0.827909
0.791550
0.857711
0.858903
0.681877
0.802875
0.865459
0.653863
0.833869
0.865459
0.921488
0.931621
1.034737
0.987649
1.039505
1.083612
1.148582
1.113415
1.079440
1.266599
1.311898
1.678467
1.522899
2.019405
6.469488
29.966831
68.106651
159.505606
268.904567
463.706851
626.379848
801.832676
868.297815
852.209926
763.159990
574.413538
427.615643
250.211954
147.748590
64.383745
34.248829
24.120808
30.965805
48.558712
67.168474
92.481971
113.915801
133.741498
140.071511
138.931870
125.364661
103.911757
81.615448
56.120753
40.617585
25.532842
18.674731
12.067556
10.283589
8.643866
8.975863
9.212494
9.228587
9.498000
9.907484
9.677410
10.839701
10.752678
10.292530
10.839701
10.829568
11.096597
11.108518
11.134744
10.426641
11.048913
10.846853
10.976791
11.335611
10.963678
10.974407
11.027455
10.765791
10.399818
10.367632
10.415912
10.033846
10.312796
10.294914
10.251999
9.701848
9.696484
9.954572
##ZVALUE=295
0.680685
0.699759
0.586510
0.774860
0.835657
0.863671
0.927448
0.594854
0.694990
0.726581
0.827909
0.931621
0.679493
0.775456
0.913739
0.952482
0.947714
0.820756
1.083612
0.875592
1.099706
1.181960
1.269579
1.332760
1.117587
1.278520
1.273751
1.565814
1.729727
3.848672
11.545420
47.412515
101.222992
227.336884
360.590816
567.455888
714.519620
850.102901
877.075791
800.803900
681.317449
478.258729
330.988765
174.253583
96.243620
38.191676
21.834970
21.137595
28.366446
45.475960
62.309504
88.363886
106.965899
126.580596
133.373737
129.802823
119.540691
99.473596
80.589652
57.237744
41.453838
25.720596
18.125772
13.134480
11.071563
9.882450
10.139942
10.285974
10.478497
10.323524
10.391474
11.264682
11.114478
11.179447
11.714697
11.651516
11.481643
11.837482
11.429787
11.355877
11.674762
11.518598
11.198521
11.188984
10.694861
10.867715
10.594726
11.008978
10.890961
10.733604
10.247827
10.542870
9.957552
10.256767
9.967685
9.789467
##ZVALUE=300
0.668764
0.693798
0.709891
0.863671
0.775456
0.812411
0.770688
0.668764
0.758767
0.687838
0.658631
0.741482
0.756979
0.807643
0.740886
0.967979
0.906587
0.815988
1.021624
0.961423
0.944734
0.923872
0.874996
1.091957
1.042485
1.270771
1.205802
1.273751
1.335740
1.494884
1.337528
1.968741
4.293919
24.579763
61.702728
157.807469
269.445777
464.641452
617.336631
783.659816
854.377747
837.434530
748.925805
568.574667
411.272645
225.708485
135.107636
62.166452
30.226707
15.666485
17.051697
27.056932
39.257407
60.774684
78.587532
104.269981
117.933750
127.287507
126.899481
114.642978
99.522471
76.516867
59.514642
40.231943
28.944612
18.612742
13.568997
11.756420
10.771751
10.262728
10.840893
11.226535
11.386871
11.254549
11.147857
11.804700
11.618733
11.813641
11.170506
11.846423
11.329651
11.603832
11.498928
11.256933
11.511445
11.114478
11.080503
11.063814
10.332465
10.370612
10.259748
9.760857
10.116696
9.877682
10.148883
9.871721
##ZVALUE=305
0.748634
0.632405
0.777841
0.668764
0.680685
0.644922
0.738502
0.723600
0.792742
0.854731
0.861883
0.843406
0.670552
0.810623
0.672936
1.019835
0.846982
0.729561
0.760555
0.731945
0.695586
0.881553
0.816584
0.907779
0.981688
1.076460
1.007915
1.096725
1.130700
1.147985
1.367927
1.441836
1.503825
1.594424
2.478957
14.088750
40.050745
111.829638
203.457475
376.576781
526.951551
711.326003
807.382464
840.588808
779.200792
622.252822
481.365919
298.570991
186.455846
85.572004
42.854548
17.534494
13.009906
16.972423
24.224520
39.774776
56.963563
79.632998
97.958446
114.354491
120.484829
120.435953
113.345981
94.868541
77.519417
54.729581
41.474700
27.404428
19.093752
13.669729
12.364984
11.705756
11.220574
11.442900
11.535883
11.003613
11.227727
11.254549
11.069775
11.045933
11.440516
11.164546
11.385679
11.547804
11.314750
11.130571
11.176467
11.107922
10.711551
10.345578
10.444522
10.723472
10.204911
10.170937
10.217428
9.722710
##ZVALUE=310
0.575781
0.721812
0.568628
0.683665
0.669956
0.672936
0.666976
0.794530
0.578761
0.739694
0.624657
0.575781
0.853539
0.758767
0.785589
0.893474
0.923872
0.757575
0.765920
0.723600
0.790954
0.932813
0.799894
0.946522
0.774860
1.078844
1.026988
0.954866
0.923872
1.055598
1.207590
1.055598
1.189709
1.243949
1.267791
1.664758
1.666546
6.217957
19.757748
67.826509
133.634806
278.903842
421.018600
614.531636
743.601918
827.288628
816.193819
705.522895
579.942465
386.412740
255.585909
127.657652
68.663955
26.071668
13.485551
11.659861
14.795661
23.389459
34.270883
52.008629
67.965984
89.805722
103.505850
113.794804
115.604997
106.910467
94.419718
73.451996
57.552457
39.045811
28.147697
19.436479
15.118718
11.937618
10.957718
10.491610
10.676980
10.897517
10.760427
11.191964
10.783672
10.547638
10.878444
11.036992
10.877848
11.002421
10.888577
10.809898
10.283589
10.586977
10.111928
10.252595
9.725690
10.040998
9.908676
9.778738
##ZVALUE=315
0.667572
0.566840
0.763535
0.624657
0.695586
0.514984
0.615716
0.618696
0.567436
0.736713
0.747442
0.665784
0.576973
0.784993
0.632405
0.593662
0.689626
0.702739
0.678897
0.721812
0.698566
0.774860
0.820756
0.888705
0.807643
0.839829
0.899434
0.941753
0.951886
1.027584
0.821948
0.888705
1.061559
1.123548
1.105666
0.979900
1.254678
1.369715
1.571774
2.996922
10.509491
41.943789
92.309713
208.738446
339.583755
544.206500
672.749877
787.590742
814.725757
747.277737
638.790727
459.364653
322.641730
170.917511
93.256831
35.235882
16.636848
10.215640
10.674000
14.330745
20.344853
33.805966
46.067834
65.418482
81.671476
99.821687
106.487870
107.542872
101.629496
86.560845
72.176456
53.192973
40.082932
26.306510
18.812418
13.962984
11.401772
10.633469
10.695457
10.397434
10.457635
10.473728
10.597706
10.457635
10.372996
10.003448
10.237694
10.380745
10.406971
9.818673
9.728670
10.130405
10.044575
9.313822
9.780526
9.567738
##ZVALUE=320
0.545979
0.588894
0.554919
0.584722
0.648499
0.461936
0.661612
0.670552
0.712872
0.590682
0.603795
0.551939
0.502467
0.708699
0.695586
0.797510
0.808835
0.768900
0.698566
0.663996
0.787973
0.721812
0.808835
0.693798
0.813603
0.951886
0.890493
0.868440
0.828505
0.918508
0.960827
0.982881
0.911951
0.947714
0.904799
0.930429
1.076460
1.300573
1.204610
1.394749
1.395941
1.768470
4.687905
24.541616
60.189962
151.841640
253.518820
426.712632
564.677715
719.859004
783.501863
775.213838
703.548789
537.456870
389.989018
215.789676
123.787522
53.038597
25.142431
10.888577
9.118915
9.994507
12.414455
18.788576
27.336478
43.602586
58.500767
76.860785
91.096759
102.203488
103.596449
96.468925
84.785819
66.879988
52.105784
36.104918
26.064515
18.106699
13.995767
11.346936
10.410547
9.908676
9.845495
10.125637
10.265708
9.968877
10.057688
9.891987
10.001659
9.965897
10.057688
9.492636
9.628534
9.490848
9.416938
9.079576
##ZVALUE=325
0.643730
0.544786
0.433922
0.601411
0.570416
0.601411
0.582933
0.427961
0.545979
0.624657
0.613928
0.705719
0.519753
0.629425
0.585914
0.708699
0.698566
0.608563
0.636578
0.656843
0.755787
0.694990
0.648499
0.637770
0.620484
0.579953
0.892878
0.681877
0.753999
0.648499
0.617504
0.922680
0.970960
0.869632
0.997782
0.782609
0.881553
1.125932
1.125932
1.086593
1.236796
1.219511
1.336932
1.516938
2.583861
14.788508
38.936734
102.322698
185.288787
348.820686
485.967994
656.819940
741.982460
776.828527
724.130869
568.784475
430.159569
261.358619
158.896446
70.027709
34.302473
13.095737
8.693933
7.913709
8.987784
12.548566
17.457604
27.729869
39.693713
59.107542
72.870851
87.049603
95.120668
95.184445
89.867711
76.290965
64.223409
47.192574
35.338998
23.187995
17.431974
13.026595
11.073947
10.160804
9.974837
9.468794
9.392500
9.476542
9.682775
9.258986
9.618998
9.108782
9.168983
9.230971
9.358525
9.378791
##ZVALUE=330
0.430942
0.391603
0.434518
0.687838
0.535846
0.522733
0.519753
0.547767
0.362992
0.351667
0.588894
0.494719
0.541806
0.645518
0.556707
0.508428
0.662804
0.545979
0.567436
0.551939
0.566840
0.586510
0.608563
0.479817
0.614524
0.650883
0.705719
0.717640
0.770688
0.702739
0.587702
0.586510
0.712872
0.815988
0.828505
0.589490
0.819564
0.874996
0.834465
1.047850
0.964999
1.033545
1.091957
1.179576
1.164675
1.374483
1.533628
6.376505
20.174980
68.310499
132.706761
266.241431
391.902924
571.575761
684.164762
757.533908
729.153752
607.662797
487.254858
314.999819
204.181671
95.310807
49.015880
19.186735
9.678602
7.678866
7.644892
8.827448
11.271834
17.863512
25.275946
39.357543
51.756501
69.036484
80.594420
88.619590
89.654922
84.221959
73.915720
57.644844
45.420527
31.303763
23.805499
17.390847
14.101863
10.779500
10.292530
9.803772
9.437799
9.416938
8.970499
8.809566
8.841753
8.962750
8.862615
8.649826
##ZVALUE=335
0.604987
0.557899
0.358820
0.502467
0.480413
0.587702
0.437498
0.511408
0.570416
0.515580
0.518560
0.585914
0.524521
0.616908
0.475645
0.418425
0.560880
0.615716
0.594854
0.507832
0.441670
0.627637
0.641942
0.548959
0.692606
0.641942
0.564456
0.730753
0.593662
0.701547
0.684857
0.750422
0.724792
0.633597
0.566840
0.774860
0.777841
0.693798
0.681877
0.741482
0.873804
0.947714
0.772476
1.209974
1.075864
1.134872
1.250505
1.260638
1.322627
3.182888
10.879636
41.964650
87.583661
196.145773
314.889550
496.096015
617.104769
715.499520
727.345943
649.984479
543.098450
372.308493
251.119733
130.803585
69.311857
24.831891
12.381673
7.784963
7.244945
7.927418
8.747578
11.523962
15.951991
25.431514
36.128759
52.021742
63.546896
77.311993
82.851648
84.047914
79.653859
67.030787
57.334900
44.286847
33.895969
23.709536
18.362999
12.941957
10.669827
9.567738
9.075999
8.954406
8.491874
8.368492
8.821487
8.489490
##ZVALUE=340
0.563860
0.552535
0.423789
0.504851
0.526905
0.509620
0.555515
0.467896
0.469685
0.449419
0.472665
0.606775
0.574589
0.528693
0.653863
0.419617
0.531673
0.556707
0.486970
0.482798
0.568628
0.542998
0.537634
0.484586
0.717640
0.544786
0.665784
0.727773
0.472665
0.721812
0.826716
0.714660
0.548959
0.585914
0.805855
0.700951
0.743866
0.679493
0.892878
0.822544
0.790954
0.896454
0.663996
0.896454
0.905991
0.835657
1.035929
1.018643
1.091957
1.272559
1.442432
1.584888
6.295443
20.860434
68.303943
135.665536
277.412534
399.807692
556.623936
648.770928
703.874826
677.400827
565.684438
445.500016
278.752446
174.276829
80.675483
40.120482
13.923645
8.196831
7.248521
7.460713
7.501841
8.403659
11.457801
15.191436
24.045706
33.775568
49.176812
60.484409
73.039532
77.756643
79.510808
75.563788
65.674782
56.214929
42.872429
33.325553
23.087859
17.369986
12.770891
10.499954
9.251833
8.565784
8.631945
8.427501
##ZVALUE=345
0.528693
0.431538
0.504851
0.486970
0.487566
0.476837
0.475645
0.460744
0.429749
0.516772
0.488758
0.609756
0.375509
0.414848
0.582933
0.575781
0.612736
0.628829
0.490546
0.482798
0.589490
0.678897
0.721812
0.571609
0.592470
0.483990
0.660419
0.781417
0.684857
0.618696
0.718832
0.631809
0.677705
0.634789
0.668764
0.557899
0.669956
0.685453
0.767708
0.672936
0.821948
0.850558
0.812411
0.770688
0.705719
0.819564
0.877976
1.028776
0.912547
0.904799
1.025796
1.017451
1.238585
1.398921
2.808571
10.850430
44.943690
92.725754
197.083950
304.423571
470.994711
582.375526
675.352812
680.318475
599.481463
493.064523
334.658623
220.063925
101.912618
51.132441
18.448830
9.779930
7.302761
6.779432
7.094741
7.273555
8.190870
10.107756
15.056729
21.284819
33.362508
42.967796
55.696964
63.867569
72.522759
73.593855
70.535541
64.216852
51.961541
43.245554
31.167865
23.843646
16.229749
12.831688
9.799600
9.087920
##ZVALUE=350
0.341535
0.482798
0.469685
0.597835
0.502467
0.437498
0.437498
0.546575
0.470877
0.531673
0.625849
0.401735
0.491738
0.765920
0.623465
0.611544
0.491738
0.473857
0.561476
0.511408
0.580549
0.700951
0.584722
0.570416
0.666976
0.521541
0.441670
0.472665
0.653863
0.705719
0.701547
0.663996
0.480413
0.744462
0.668764
0.622869
0.684857
0.541806
0.653863
0.592470
0.623465
0.816584
0.717640
0.789762
0.874996
0.922680
0.799894
0.919700
0.796914
0.772476
0.834465
1.018643
1.002550
1.083612
1.142621
1.318455
1.667738
6.965995
21.860003
68.877935
130.304694
257.885456
373.142958
522.691011
613.291860
662.264824
626.817942
516.777635
393.379927
233.374834
141.643882
66.371560
32.516718
11.747479
7.531643
6.366968
6.551743
7.022619
6.814599
7.981658
9.564757
14.434457
20.099878
28.567910
37.304759
49.579740
58.181882
65.679550
66.922903
65.064430
59.728622
49.680471
40.292740
30.539632
22.776723
15.781522
##ZVALUE=355
0.474453
0.434518
0.441670
0.539422
0.498891
0.445843
0.595450
0.555515
0.543594
0.574589
0.458956
0.473857
0.512600
0.495911
0.486970
0.457764
0.600815
0.485778
0.490546
0.579953
0.570416
0.649691
0.604987
0.525713
0.490546
0.572801
0.709891
0.450611
0.489950
0.597835
0.617504
0.612736
0.689626
0.612736
0.780821
0.618696
0.701547
0.732541
0.639558
0.696778
0.703931
0.616908
0.622869
0.791550
0.826716
0.667572
0.730753
0.541806
0.690818
0.885725
0.960827
0.935793
0.871420
0.937581
1.028776
1.089573
1.022816
1.124740
1.320839
3.386736
12.075901
45.536757
93.890429
195.816755
305.012465
465.659499
562.119484
631.316900
627.687573
533.841848
430.436730
285.209417
179.891586
80.202818
39.950609
14.218688
7.894635
6.356835
6.082654
6.072521
6.251931
6.535649
7.056594
9.130836
11.793971
17.449856
23.346543
33.509731
41.869879
51.049590
57.885647
60.184598
59.944987
54.673553
45.486689
38.381815
##ZVALUE=360
0.369549
0.389814
0.416636
0.384450
0.396967
0.486970
0.358820
0.496507
0.313520
0.434518
0.345707
0.338554
0.382662
0.287890
0.371933
0.490546
0.403523
0.534654
0.348687
0.309944
0.362992
0.463724
0.455976
0.532866
0.455976
0.409484
0.414848
0.464916
0.449419
0.488758
0.450611
0.454783
0.541806
0.549555
0.514984
0.387430
0.525713
0.605583
0.612736
0.668764
0.641942
0.581741
0.647902
0.677705
0.446439
0.499487
0.549555
0.609756
0.867844
0.514984
0.695586
0.674725
0.728965
0.882745
0.790954
0.813603
0.590682
0.978708
0.926852
1.008511
1.160502
1.438856
6.353855
19.238591
64.286590
121.428967
239.499807
351.811647
504.554510
583.702922
612.396002
569.983721
457.381010
345.412493
203.149915
121.992826
53.241849
24.849772
8.946657
6.146431
5.920529
5.703568
5.826950
5.590916
5.751848
6.241798
7.345676
9.662509
14.300942
19.426942
27.589798
35.361648
44.659972
50.461888
54.943562
55.174828
##ZVALUE=365
0.492930
0.507832
0.434518
0.407696
0.568628
0.509620
0.517964
0.609756
0.432730
0.529885
0.535846
0.543594
0.509620
0.430942
0.527501
0.613928
0.439882
0.410676
0.668764
0.483990
0.605583
0.684857
0.507832
0.537634
0.430942
0.588894
0.515580
0.598431
0.719428
0.601411
0.639558
0.557899
0.684857
0.589490
0.615716
0.611544
0.532866
0.903606
0.605583
0.729561
0.680685
0.509620
0.667572
0.864863
0.572801
0.719428
0.601411
0.967979
0.694990
0.763535
0.569820
0.590682
0.709891
0.921488
0.703931
0.817776
0.773668
0.810623
1.034737
1.080632
1.114607
1.072884
1.296997
1.355410
2.653599
12.541413
34.138560
90.825558
167.597532
308.363438
415.608883
531.340837
586.082935
571.011901
503.264666
366.025567
260.034800
144.269466
79.407692
30.000806
13.425946
6.583929
5.624890
5.446672
5.462766
5.349517
5.365610
5.482435
5.550981
6.530881
8.047819
12.193918
16.015768
24.259686
30.555725
38.986802
##ZVALUE=370
0.311732
0.360608
0.418425
0.477433
0.403523
0.316501
0.231862
0.278950
0.262856
0.301600
0.513792
0.437498
0.445843
0.502467
0.407696
0.409484
0.353456
0.352859
0.342727
0.318885
0.305772
0.446439
0.418425
0.354648
0.448823
0.451803
0.439882
0.410676
0.326633
0.462532
0.310540
0.341535
0.384450
0.502467
0.459552
0.344515
0.409484
0.383854
0.460744
0.589490
0.540614
0.437498
0.435710
0.453591
0.547767
0.585914
0.655651
0.619888
0.597835
0.623465
0.583529
0.676513
0.541806
0.559688
0.628829
0.709891
0.630617
0.559688
0.688434
0.529885
0.726581
0.788569
0.866652
0.819564
1.010895
1.015663
1.664758
4.805923
25.749803
62.108636
146.605968
233.007669
369.805694
471.838713
560.433865
575.739741
519.027710
428.057909
284.669995
186.097622
86.595416
45.598745
17.980933
9.037852
5.340576
4.983544
4.903674
4.688501
4.791617
4.847646
4.877448
4.939437
5.712509
7.233620
9.885430
13.797879
##ZVALUE=375
0.334978
0.359416
0.360608
0.382662
0.595450
0.518560
0.526905
0.435710
0.331998
0.487566
0.490546
0.578761
0.452995
0.624657
0.527501
0.523925
0.542998
0.408888
0.636578
0.555515
0.651479
0.628829
0.420809
0.446439
0.445843
0.442863
0.648499
0.428557
0.462532
0.480413
0.625849
0.489950
0.446439
0.500679
0.580549
0.519753
0.380874
0.589490
0.520945
0.460744
0.379682
0.704527
0.574589
0.634789
0.718832
0.707507
0.568628
0.653863
0.631809
0.623465
0.648499
0.806451
0.692606
0.527501
0.696778
0.694990
0.591874
0.710487
0.624657
0.640750
0.754595
0.742674
0.772476
0.838637
0.882745
0.964999
1.047850
1.092553
1.328588
3.282428
11.055470
39.420724
85.863471
190.385580
291.966796
433.196425
517.670512
564.773679
546.793938
452.768803
348.732471
212.273598
134.493709
66.675544
34.596920
12.332797
6.539822
4.915595
4.756451
4.387498
4.463792
4.653931
4.398823
4.500747
4.644990
5.084872
##ZVALUE=380
0.449419
0.325441
0.450611
0.393987
0.358820
0.617504
0.526905
0.315905
0.532866
0.535846
0.455976
0.449419
0.343919
0.509620
0.393987
0.472665
0.361800
0.520945
0.252724
0.258684
0.626445
0.481606
0.465512
0.521541
0.645518
0.367761
0.603795
0.417829
0.593662
0.550747
0.428557
0.674725
0.589490
0.546575
0.534654
0.498891
0.493526
0.614524
0.563860
0.628829
0.549555
0.627637
0.674725
0.586510
0.548959
0.522733
0.530481
0.582933
0.553727
0.548959
0.476837
0.697970
0.729561
0.548959
0.607967
0.611544
0.610948
0.723600
0.572801
0.654459
0.711679
0.824928
0.758767
0.642538
0.742674
0.732541
0.844598
0.920892
0.990629
1.183748
1.224875
1.744628
6.046891
27.816892
65.573454
153.145790
245.597959
378.547907
550.237894
556.232929
556.082726
481.804609
395.941734
276.952982
186.564922
92.588663
48.498511
18.250942
8.381605
5.010962
4.303455
4.423857
4.148483
4.090667
4.156828
4.211664
##ZVALUE=385
0.531673
0.465512
0.537634
0.526905
0.450611
0.481606
0.495911
0.426769
0.404716
0.545979
0.473857
0.339746
0.270605
0.376701
0.422597
0.353456
0.590682
0.363588
0.637770
0.516772
0.598431
0.558496
0.474453
0.567436
0.512600
0.542998
0.524521
0.519753
0.306964
0.472665
0.526905
0.369549
0.533462
0.434518
0.435710
0.577569
0.560880
0.551939
0.539422
0.507832
0.519753
0.701547
0.544786
0.493526
0.508428
0.544786
0.583529
0.446439
0.519753
0.657439
0.503659
0.620484
0.476837
0.372529
0.595450
0.527501
0.573993
0.773668
0.515580
0.535846
0.674725
0.730753
0.674725
0.730753
0.673532
0.814795
0.701547
0.782609
0.828505
0.910759
1.088977
1.234412
1.025796
1.336932
2.988577
16.139746
42.855740
108.700991
190.328956
329.418778
432.004929
524.896979
547.226667
516.813993
450.606942
329.579711
233.781934
128.468871
73.516965
30.944943
13.689995
5.422831
4.352927
4.073977
3.784895
3.721714
##ZVALUE=390
0.469685
0.560880
0.516772
0.384450
0.421405
0.371933
0.503659
0.528693
0.539422
0.474453
0.619888
0.417829
0.422597
0.339746
0.453591
0.440478
0.510812
0.391603
0.384450
0.575781
0.619888
0.425577
0.486970
0.579953
0.467896
0.504851
0.621676
0.538826
0.426769
0.548959
0.542998
0.461936
0.565648
0.551939
0.538826
0.447631
0.434518
0.646710
0.484586
0.476837
0.603795
0.653863
0.512600
0.542998
0.528693
0.465512
0.582933
0.545979
0.624657
0.640750
0.617504
0.472665
0.572801
0.527501
0.587702
0.551939
0.568628
0.558496
0.493526
0.511408
0.561476
0.587702
0.727773
0.571609
0.627637
0.735521
0.539422
0.766516
0.917912
1.008511
0.986457
1.039505
1.222491
1.205802
0.890493
1.037717
1.825690
8.395910
27.485490
88.275671
165.587664
299.971700
396.348834
495.764613
545.848012
548.803806
497.823954
391.052961
297.506452
182.693601
107.386708
44.802427
21.221638
7.109642
4.505515
3.834963
##ZVALUE=395
0.404716
0.349879
0.423789
0.364780
0.442863
0.470877
0.461936
0.316501
0.549555
0.522733
0.365973
0.582933
0.440478
0.564456
0.443459
0.610948
0.493526
0.427961
0.290871
0.392795
0.449419
0.467896
0.524521
0.295639
0.601411
0.610948
0.559688
0.604987
0.644922
0.676513
0.256896
0.510812
0.542998
0.522733
0.504851
0.530481
0.622869
0.512600
0.575781
0.546575
0.568628
0.391603
0.504851
0.542998
0.578761
0.551939
0.574589
0.565648
0.569820
0.595450
0.555515
0.597835
0.478625
0.565648
0.516772
0.536442
0.508428
0.479817
0.696778
0.813603
0.675917
0.508428
0.621676
0.637770
0.736713
0.891685
0.674725
0.845790
0.697970
0.873804
0.932813
0.939965
0.878572
0.888705
0.768900
0.941753
1.066923
0.926852
1.137853
4.747510
18.584728
66.304803
123.607516
224.468708
322.539806
451.307893
522.565842
560.174584
538.975596
453.177691
353.963971
219.176412
136.905909
59.984922
29.537678
10.634661
##ZVALUE=400
0.437498
0.436902
0.401735
0.473857
0.404716
0.534654
0.315905
0.425577
0.395775
0.398755
0.492930
0.520945
0.264645
0.380874
0.478625
0.504851
0.390410
0.302792
0.479817
0.408888
0.468493
0.445843
0.358820
0.476837
0.308752
0.641942
0.510812
0.545979
0.634789
0.519753
0.582933
0.440478
0.575781
0.551939
0.621676
0.579953
0.496507
0.503659
0.559688
0.593662
0.596642
0.488758
0.602603
0.645518
0.640750
0.518560
0.514984
0.599623
0.656843
0.651479
0.598431
0.580549
0.409484
0.456572
0.751615
0.561476
0.556707
0.450611
0.613928
0.624657
0.657439
0.636578
0.681877
0.733733
0.731945
0.712872
0.687838
0.824928
0.769496
0.972748
0.857711
0.830889
0.773668
0.765920
0.852942
0.873804
0.879765
0.871420
0.932813
1.013875
1.048446
2.554655
8.970499
34.806728
76.914430
168.153644
263.025761
393.249989
474.617481
538.346767
542.084575
470.366478
391.548872
267.327428
177.413821
89.513659
##END
