##TITLE=FQP00602
##FORMAT=SPECTACLE-ASCII V-1.2
##DATA TYPE=ULTRAVIOLET SPECTRUM
##SECOND TYPE=ULTRAVIOLET SPECTRUM
##DATE=02/12/18
##TIME=16:06:22
##SPECTROMETER/DATA SYSTEM=SPECTACLE
##XUNITS=NM EM
##YUNITS=ENERGY
##YFACTOR=1
##FIRSTX=220
##LASTX=410
##NPOINTS=96
##3DDATA=Equidistant
##ZUNITS=NM EX
##FIRSTZ=210
##LASTZ=400
##ZPOINTS=39
##XYDATA=(Y..Y)
##ZVALUE=210
3.018975
2.593994
2.297759
2.907515
2.711415
2.649426
3.058910
3.157854
3.149509
2.924800
2.572536
2.531409
2.998710
2.975464
2.756715
2.892613
2.684593
3.044605
2.776980
2.595782
2.868772
3.495812
3.581643
3.574491
4.173517
4.485846
4.604459
5.072951
5.976558
7.096529
6.087422
7.332563
6.988645
8.926988
8.177757
8.440614
7.622838
7.435679
8.446574
7.576942
7.438660
8.198619
7.281899
7.125735
7.427931
5.776882
6.057620
6.707907
6.422997
5.374551
5.925894
5.287528
6.434917
5.146861
5.225539
5.669594
5.623698
5.377531
5.425811
5.527735
4.817843
5.663633
5.361438
5.036592
5.467534
5.485415
5.979538
6.028414
6.227493
6.160736
7.220507
8.351803
9.034872
10.110736
10.711551
12.224913
12.218952
12.124777
11.458993
11.812449
10.496974
10.082722
9.241700
8.109808
6.836653
5.765557
5.659461
4.381537
4.005432
4.554987
3.942847
4.541874
5.503893
5.271435
4.991889
5.061626
##ZVALUE=215
7.442832
7.053614
6.907582
5.661845
5.015731
4.022717
4.981756
5.172491
5.302429
5.796552
5.084872
4.238486
4.756451
4.374981
3.670454
3.416538
2.884865
3.209710
3.163815
3.373623
3.532767
2.956986
3.316998
3.616810
3.786683
5.339980
5.455613
6.619692
7.681847
9.558797
10.428429
12.374520
12.768507
12.788773
13.364553
13.800859
13.945699
13.415813
13.072491
13.132691
12.458563
12.298822
12.128949
10.683537
9.899735
10.193586
9.115934
9.022951
9.148717
9.651780
8.909702
8.386970
8.332729
8.415580
7.096529
7.132888
6.399751
6.957650
6.981492
5.946755
5.387664
6.126761
6.243587
7.039905
6.332994
6.930828
6.352663
6.528497
7.901788
7.128716
8.371472
8.208752
9.494424
9.610653
11.021495
13.090968
12.957454
12.664795
11.488795
11.279583
10.216832
10.472536
9.137988
8.373857
7.897615
6.509423
6.534457
5.339980
5.020499
5.847812
5.110502
4.494786
5.570650
5.296469
6.118417
6.481409
##ZVALUE=220
21.429658
19.978881
19.541979
23.887753
19.346476
16.194582
14.089942
12.031794
12.266636
10.971427
11.615753
12.290478
12.493730
10.804534
8.827448
6.944537
5.592704
5.143881
3.407598
3.769994
3.075600
3.201962
3.493428
4.122853
4.702806
6.041527
7.531643
8.863807
10.814667
12.527704
15.621781
15.193820
19.284487
19.474626
21.564960
21.899939
20.650625
20.891428
19.961596
21.322966
19.967556
19.899607
17.991662
16.978979
16.273856
13.699532
14.651418
13.534427
13.109446
10.602474
11.024475
11.106730
11.008978
9.887815
10.138750
9.153485
9.079576
8.760691
9.227991
8.848906
7.426739
7.450581
8.016825
7.183552
7.201433
7.292628
7.745624
7.870793
7.877946
7.417798
8.813739
9.824634
10.893941
12.877584
12.409687
14.057755
14.966726
14.267564
14.893413
13.499856
14.263988
12.287498
11.721849
11.854768
9.814501
10.063648
8.549690
8.320808
7.002950
7.292628
7.415414
6.843805
6.566644
7.227659
6.423593
6.529689
##ZVALUE=225
32.843947
32.847524
43.788552
57.301521
60.511827
60.324669
56.054592
45.423508
35.651922
28.548837
23.420453
22.601485
24.397969
26.835799
27.157664
24.499893
20.643473
15.940666
13.327599
8.385777
6.231666
4.066825
4.448891
4.237890
4.539490
5.826950
7.964969
10.963678
12.047887
15.738606
18.566847
20.259619
21.187663
25.250912
24.400949
24.766922
26.132464
25.462508
25.535822
24.194717
24.675727
23.548603
22.067428
20.978451
19.292831
18.420815
17.356873
17.180443
16.125441
14.663935
13.374686
13.467669
12.959838
12.653470
11.890531
11.870861
11.055470
9.500980
10.449886
10.420680
10.926723
9.803772
10.502934
9.873509
10.361671
9.405613
9.862781
9.551644
11.056662
11.105537
10.946989
12.119412
12.518764
14.149547
14.375448
15.298724
14.201999
15.513897
15.712976
14.488697
13.114810
14.113784
12.749434
14.317632
12.466908
13.210773
11.621714
10.509491
10.520816
10.729432
10.124445
10.532737
9.647608
9.417534
10.052919
10.333657
##ZVALUE=230
25.915504
30.959845
46.887994
77.351928
102.449656
119.210482
134.096742
136.595964
124.544501
98.817945
77.057481
56.247711
46.348572
43.015480
45.070648
48.724413
53.316951
51.137805
46.176910
34.889579
24.786592
18.502474
10.277629
8.259416
5.996823
6.294847
7.491708
9.724498
11.226535
13.333559
14.360547
17.777681
18.160939
19.148588
20.533800
21.814704
23.607612
23.155808
22.380948
21.837950
19.359589
19.746423
19.433498
19.454956
16.933680
18.013716
16.312599
15.243888
15.051961
15.258789
14.713407
14.960766
13.586879
13.480783
13.306737
12.496710
13.111830
11.583567
11.648536
12.155771
11.979938
13.082623
13.107657
11.816621
13.102889
12.260675
12.615919
12.907982
14.099479
14.050603
14.276505
15.054941
17.030835
17.060637
17.913580
18.539429
17.617941
18.636584
16.991496
18.587708
18.404722
17.846823
18.632412
17.831922
16.343594
16.753674
17.515421
17.029643
15.594959
15.698671
15.141964
15.815496
16.138554
15.324950
15.540719
16.302466
##ZVALUE=235
9.843707
10.851622
23.548603
52.305460
85.502863
138.689876
181.268454
239.045620
261.693001
269.443989
238.540769
197.837949
144.323707
104.810596
80.647469
69.872737
69.234967
78.340769
81.565976
84.284544
81.028938
65.708756
53.505898
37.406683
24.149418
15.789866
12.173653
10.301471
9.354949
11.013746
12.601614
11.226535
13.758540
13.895631
12.868643
15.983582
14.855862
14.566779
15.607476
15.545487
14.841557
16.144514
13.907552
15.465617
13.893843
14.245510
12.824535
12.858510
13.600588
13.435483
12.172461
12.903810
12.646914
12.517571
12.259483
13.287663
11.821985
13.015866
13.270974
12.489557
14.191866
13.326406
14.854670
14.839768
13.865829
15.284419
15.673637
15.398860
18.743873
18.593669
18.082857
20.086765
22.018552
23.193955
21.616817
25.308728
24.091601
23.902655
24.676919
23.190975
23.773909
25.825500
23.800731
23.245811
24.253726
22.926927
24.578571
22.163987
22.229552
22.501945
23.648739
23.234487
24.234653
22.911429
21.193624
22.581816
##ZVALUE=240
2.384782
2.591610
6.885529
14.355779
39.109588
72.362423
143.042803
212.774873
322.467685
378.201008
421.310663
418.432951
386.736989
311.644673
236.467719
157.170892
121.455789
97.371936
93.788505
104.251504
114.396811
120.162964
117.683411
101.717710
80.149770
67.105889
46.111941
35.322905
22.501945
17.981529
14.393926
13.370514
13.924837
12.965798
13.449788
13.814569
14.043450
14.534593
14.959574
14.651418
13.919473
14.583468
14.988780
14.473796
13.696551
13.790727
14.592409
14.053583
13.091564
13.708472
13.079643
12.412667
13.626814
13.647676
12.991428
13.177991
12.254715
14.851689
14.161468
14.163852
14.223456
15.441775
14.593601
15.426874
17.640591
16.739964
18.154979
19.572973
19.881725
21.870732
22.614598
24.067760
23.621917
26.347637
27.042627
28.097630
29.391646
27.554631
28.818846
31.321645
30.472875
29.540658
28.823614
30.125976
29.949546
30.025840
32.444000
29.908419
31.446815
31.184554
30.789971
29.246807
29.979944
31.044483
30.818582
29.622912
##ZVALUE=245
1.733899
2.278686
1.877546
2.021790
4.931688
14.489889
44.965744
81.768632
166.630745
244.638920
356.060863
441.577435
494.736433
507.607460
477.216840
395.887494
329.280496
217.957497
160.460472
106.233954
97.258687
97.686648
116.973519
127.921700
136.674643
129.261613
118.365884
102.021694
77.492595
60.113668
45.138597
30.283928
24.496913
18.722415
16.675591
16.909838
16.851425
17.662644
15.910864
16.605854
15.367866
16.407967
15.330911
15.918612
14.799833
13.644695
14.979839
13.821721
14.135838
14.169812
14.132857
13.260841
13.992786
12.353659
13.253689
13.178587
14.042854
12.427568
13.091564
13.245940
13.491511
13.287663
13.731718
15.409589
14.879704
15.156865
16.581416
18.238425
18.312931
19.456744
20.058751
21.520853
21.936893
25.256872
24.964809
25.626421
25.581717
26.937723
27.619600
30.577779
27.654767
29.533505
28.663874
28.693676
27.930737
29.597878
29.619932
29.347539
29.105544
29.761791
29.380918
30.627847
29.157996
28.817654
29.975772
29.532909
##ZVALUE=250
1.875758
1.854897
1.678467
1.463890
1.558661
1.661777
2.955794
10.975599
37.407875
73.533654
152.275562
237.569809
323.023796
445.050001
519.774556
570.865870
569.652915
497.915745
421.336889
292.346478
207.244754
140.843987
100.786686
93.582869
110.522509
124.737620
138.739944
144.601464
144.004822
133.148432
117.180943
90.776682
70.092678
49.204826
38.828850
27.861595
25.851727
21.812916
22.497773
22.457838
20.267963
20.783544
20.640492
19.562840
19.164681
18.804669
18.411875
17.381907
17.244816
16.645789
16.683936
15.834570
15.494823
14.902949
14.597774
13.836622
14.432669
13.788939
14.405847
13.193488
12.988448
13.040900
14.950633
14.330745
14.461875
14.842749
15.639663
15.565753
17.264485
17.550588
18.840432
20.181537
21.139979
22.268891
23.235679
24.083853
23.270845
25.116801
25.191903
26.158690
26.597977
26.753545
26.786923
26.613474
27.353764
27.334690
28.387904
29.563904
27.993917
28.538704
28.772950
29.804707
28.935671
29.457808
28.053522
28.225780
##ZVALUE=255
1.393557
1.267791
1.518726
1.525879
1.342893
1.220703
1.364946
1.789927
2.024770
5.797744
23.756623
52.893758
99.516511
196.801424
291.177630
424.592495
511.913896
602.515936
623.174906
581.443906
505.162477
408.263803
259.539485
174.239874
106.160641
87.106824
95.799565
113.521814
133.254528
153.200626
163.251758
163.386464
146.788955
123.889446
102.857947
77.112913
62.073469
45.175552
36.178827
30.443668
28.913617
27.003884
25.808811
24.925470
25.199652
23.737550
24.868846
22.159815
22.679567
20.395517
20.450950
19.381642
18.762946
17.949939
18.192530
16.042590
15.797615
15.694499
15.840530
14.637709
14.406443
15.622973
14.033914
13.560653
15.263557
14.982820
14.430881
15.327930
15.447736
17.111897
17.927885
18.285513
18.812418
19.891858
21.061897
22.341609
21.749735
22.979975
23.376942
23.018718
23.919940
24.341941
24.509430
24.746656
26.518703
25.385618
26.017427
26.201606
26.500821
27.063489
26.758909
26.418567
25.898814
26.143789
28.009415
28.063655
##ZVALUE=260
1.113415
1.420975
1.026988
1.253486
1.318455
1.216531
1.608729
1.617670
1.407862
1.745820
1.910925
2.593994
9.841919
25.682449
66.236854
126.142502
248.514414
348.131657
457.105637
590.929985
657.909513
654.571652
593.991876
460.178852
343.137980
212.807655
143.887997
96.810460
87.314844
102.759600
122.497678
154.867768
171.972513
180.803537
175.690651
163.837671
144.555569
111.987591
91.921687
68.852901
52.528977
42.579770
38.315654
34.782887
33.862591
31.280518
29.465556
27.485490
27.574897
25.375485
24.156570
23.245811
21.330714
21.004677
19.867420
18.140674
18.728971
17.675757
17.210841
16.262531
16.408563
15.711784
14.873743
15.474558
14.993548
15.110970
14.325976
15.666485
16.278625
16.621947
15.994906
17.365813
18.413663
18.501878
19.389987
19.179583
20.940900
20.963550
21.184683
22.044778
21.915436
23.053885
23.791790
24.333000
23.219585
24.375916
24.103522
24.255514
25.312901
24.499893
24.647713
25.065541
25.106668
26.268959
27.210712
25.559664
##ZVALUE=265
1.338720
1.271963
1.203418
1.307726
1.281500
1.341701
1.204610
1.155734
1.388788
1.391768
1.211762
1.532435
1.657605
1.924634
4.377961
21.472573
48.684478
116.241574
194.911957
340.781808
468.633771
573.029518
684.486628
721.829534
656.283498
570.323467
425.175428
307.019949
184.879899
127.020478
95.364451
94.369650
112.202764
146.172643
169.995427
188.290477
195.385814
186.394453
172.849894
146.620870
121.740699
93.968511
73.447824
55.640936
46.529770
38.770437
35.940409
32.778978
31.563640
29.039979
28.246641
25.952458
24.985671
22.961497
22.465587
20.336509
19.523501
18.449426
17.944574
17.171502
17.253757
15.821457
16.537905
16.092658
15.091896
15.175939
15.013814
15.558600
16.008615
16.684532
16.990900
16.594529
17.427802
18.497705
18.097758
19.294620
19.605756
19.378662
20.648837
20.266771
21.035671
21.340847
22.084713
21.982789
22.873878
23.766756
24.496913
23.244619
23.627877
23.190975
24.619699
24.828911
24.870634
24.875998
24.415851
24.366975
##ZVALUE=270
1.098514
0.961423
1.057982
1.112819
0.866652
1.100898
1.141429
0.910759
1.100898
1.154542
1.357794
1.363754
1.555681
1.239777
1.417994
1.791716
2.171993
9.466410
27.515888
79.327822
150.444508
251.833797
420.942903
550.051928
692.173839
744.063854
737.271905
666.815639
522.290468
403.847694
289.853811
173.460841
120.847821
93.303919
96.619725
124.031901
146.114826
173.925757
188.522935
195.193887
189.889669
171.320438
151.380897
115.865469
92.605948
65.650940
53.201914
42.007565
36.239624
30.581951
28.616786
26.493669
24.799705
23.956895
22.036433
21.180511
20.027757
18.968582
18.365979
17.196536
16.292930
16.412735
15.747547
15.538931
14.810562
15.012622
15.159845
15.535951
15.307665
15.602708
15.684962
16.959906
17.041564
17.482638
18.158555
18.589497
18.482804
19.497871
19.102693
19.801855
19.608736
21.035671
21.115541
20.794868
21.449924
22.202730
22.211671
22.653937
22.110939
23.400784
22.293925
23.749471
22.814870
23.590922
23.290515
23.226738
##ZVALUE=275
1.100898
0.851750
0.949502
1.030564
0.955462
1.045465
1.053810
1.093745
0.839829
1.114607
1.103878
1.293421
1.018643
1.186728
1.440644
1.553893
1.375675
1.869798
1.723766
4.213452
15.960932
40.926933
112.268925
204.917789
369.977951
495.853424
648.488998
735.850930
771.436691
731.548667
618.641973
493.227839
362.398624
208.351612
134.781599
86.033940
76.141953
91.098547
110.336542
139.285922
160.481930
178.181529
181.440711
177.447796
160.862803
131.497979
109.650493
80.327988
60.032606
43.010712
33.244491
26.032925
23.351908
21.136999
19.793510
18.910766
17.603636
16.974807
16.830564
16.255975
16.073585
15.769601
15.452504
15.211701
14.699697
15.338659
14.724731
14.915466
15.592575
15.907884
17.081499
16.307831
16.789436
17.546415
17.941594
18.147826
18.738508
18.567443
19.489527
19.740462
20.560622
19.825697
20.660758
21.061897
20.909905
20.685792
21.679997
21.552444
21.587610
22.122860
21.764636
21.733642
22.018552
21.810532
22.444725
22.250414
##ZVALUE=280
0.840425
1.022816
0.930429
1.162887
0.968575
0.983477
1.086593
1.108646
1.107454
1.110435
1.042485
1.065731
1.096725
1.145601
1.211762
1.130700
1.225471
1.344681
1.519918
1.479983
1.762509
1.987815
8.437634
27.397871
85.224509
150.260925
278.929472
410.974622
580.154657
688.900948
760.802031
766.053796
695.848465
538.481474
403.407812
236.601830
148.461461
78.822970
56.432486
56.253672
69.192648
96.818805
118.944645
144.698620
158.008933
166.241527
159.086585
140.582919
122.116804
93.910694
71.258545
48.191547
36.153793
24.105906
19.723773
15.532970
15.242696
14.077425
13.985634
13.649464
14.139414
14.349818
14.153719
14.111996
13.821721
14.535785
14.444590
14.665723
15.216470
15.615821
15.932918
15.891790
16.815662
17.588735
17.794967
17.947555
18.402934
18.314719
19.712448
19.041896
20.124912
20.129681
20.725727
20.481944
21.251440
20.507574
20.824671
21.946430
20.728707
20.802617
20.909905
21.369457
20.906925
21.794438
22.085905
21.431446
##ZVALUE=285
0.781417
0.636578
0.720620
0.935793
0.851750
0.733733
0.938773
0.924468
0.917912
0.962615
1.007915
0.880957
1.026988
1.020432
0.984669
1.105666
1.319647
1.211762
1.090765
1.253486
1.410842
1.278520
1.344681
1.697540
4.149675
13.027787
45.827627
92.616677
198.403597
313.863754
448.701978
615.696907
721.831918
774.903893
739.713907
602.792501
476.673841
300.406814
191.410780
96.029639
55.457950
37.033558
40.224791
58.907866
78.849792
109.514594
128.331780
146.164894
150.981545
147.296786
137.846470
111.441612
90.342760
65.538883
46.589971
29.897690
21.362901
14.969707
13.617873
12.281537
12.117624
12.764931
13.207793
13.020635
13.150573
13.980865
13.944507
14.891624
15.162826
15.251637
16.214848
16.720891
16.967654
17.127991
17.620921
18.789768
18.286705
18.596649
19.048452
19.497871
19.565821
20.204782
20.375848
20.886660
20.701885
21.144748
21.624565
20.895600
21.367669
20.931959
21.153688
21.270514
21.515489
20.127892
21.251440
20.861626
##ZVALUE=290
0.744462
0.836849
0.856519
0.808835
0.714660
0.817776
0.837445
0.795722
0.849962
0.865459
0.711679
0.935793
0.924468
1.053810
0.987649
0.985861
0.926852
0.913739
1.090765
1.126528
1.221895
1.073480
1.286864
1.168847
1.342893
1.746416
2.212524
5.879998
26.408434
59.210658
75.793862
243.158937
374.778509
563.858747
682.597756
774.152875
765.172839
666.098595
544.984937
368.231535
248.381495
127.399564
68.611503
32.469630
26.099682
37.012696
50.859451
75.032711
93.935728
120.673776
134.982467
144.659877
143.932700
128.730536
110.823512
83.916783
61.838627
41.166544
29.313564
19.157529
15.577674
12.649894
12.090802
12.595654
12.416840
12.973547
13.428926
13.918877
14.432669
15.198588
15.584826
16.519427
17.463565
18.056631
18.259883
18.432736
19.421577
19.092560
19.795895
19.734502
20.398498
20.658970
20.376444
21.046996
20.234585
21.473765
20.800829
20.663738
21.046996
21.397471
21.143556
20.931959
20.841956
21.041632
20.667911
21.143556
##ZVALUE=295
0.708699
0.770688
0.664592
0.749826
0.888705
0.788569
0.596642
0.662804
0.665784
0.804663
0.846982
0.692606
0.837445
0.754595
0.821948
0.813603
0.963807
0.880957
1.014471
0.965595
1.066923
1.005530
1.163483
1.165867
1.201630
1.201630
1.281500
1.570582
1.699924
2.907515
8.493662
36.393404
82.085729
190.975666
308.633447
489.867926
617.633462
733.678937
764.721036
701.834559
606.879592
434.880853
305.208564
165.329576
91.018677
37.081838
22.718906
21.684766
29.317737
47.545433
65.490603
90.054870
109.789968
129.450560
136.109591
133.053660
122.657418
102.530718
83.088875
57.864785
43.762922
27.947426
20.575523
15.750527
13.719797
12.844801
13.208985
13.604760
14.139414
14.639497
15.594959
16.270876
16.163588
17.749667
18.028617
18.596649
19.200444
19.712448
19.756556
20.108819
19.861460
20.458698
20.892620
21.451712
22.093654
21.174550
21.463633
21.709800
21.833777
21.331906
21.432638
20.997524
21.291971
20.626783
21.123886
20.685792
##ZVALUE=300
0.828505
0.681877
0.734925
0.672936
0.699759
0.663996
0.698566
0.717640
0.811815
0.880957
0.828505
0.873804
1.085997
0.861883
0.884533
0.985861
0.815988
0.787973
0.995994
0.789762
0.957847
0.940561
1.017451
0.997782
1.125932
1.178980
1.182556
1.296997
1.457930
1.504421
1.523495
1.703501
5.440712
18.575788
63.752532
123.443604
253.439546
383.486748
560.720563
669.783950
748.102665
739.235878
643.472672
529.080629
356.500745
233.375430
118.263960
64.064860
25.903583
16.641617
18.634796
25.935769
42.759776
58.758855
81.615448
102.275610
122.595429
129.698515
127.946734
121.069551
101.398826
83.743930
60.858727
46.210885
30.345917
22.705793
16.734600
15.028715
14.698505
14.344454
15.464425
15.704632
16.430616
17.420650
18.084645
18.343925
19.108653
19.003749
20.295978
20.732880
20.087957
21.164417
21.854639
21.607876
21.380782
21.380782
22.270679
22.166967
21.956563
21.709800
21.504760
21.414757
21.890998
21.215677
21.531582
21.196604
##ZVALUE=305
0.746846
0.687838
0.533462
0.628829
0.635982
0.677705
0.630617
0.700951
0.693798
0.680685
0.868440
0.852942
0.810623
0.707507
0.729561
0.776649
0.870824
0.729561
0.842810
0.812411
0.785589
0.849962
0.980496
0.972748
1.061559
0.839829
1.093745
1.197457
1.041889
1.166463
1.180768
1.219511
1.550913
1.584888
2.394915
12.738705
34.814477
99.257827
178.042650
330.874920
460.847616
621.897578
711.149573
738.325715
689.654946
548.488498
428.043604
274.060965
171.465874
79.362988
40.273666
17.122626
13.169646
17.524958
24.574995
41.639805
57.640672
80.046654
98.506808
115.996003
122.945905
123.426914
114.785433
96.824765
80.788732
58.416724
44.558644
30.932426
23.462772
17.853975
16.813874
16.238689
16.648769
17.478466
17.999411
18.862486
19.290447
19.756556
20.427704
20.287633
21.205544
21.879673
22.097826
22.295713
22.692680
22.291541
22.836924
22.511482
22.188425
22.659898
22.260547
22.076964
21.492839
21.860600
22.249818
20.559430
##ZVALUE=310
0.673532
0.687838
0.551939
0.679493
0.592470
0.721812
0.757575
0.666976
0.676513
0.650883
0.671744
0.819564
0.634789
0.646710
0.742674
0.759959
0.682473
0.655651
0.765920
0.720620
0.755787
0.889897
0.698566
0.854731
0.913739
0.921488
0.942945
1.050830
0.937581
1.038909
1.054406
1.103878
1.097918
1.394749
1.405478
1.368523
1.515746
5.597472
18.072724
59.474707
119.013786
241.295695
368.897915
534.199476
647.657514
727.040768
715.132952
631.061792
517.394543
348.461866
233.989954
117.450953
64.443946
24.964809
13.246536
11.522770
14.935732
23.417473
34.208894
53.203702
69.606900
92.415810
106.193423
117.232800
117.960572
110.947490
98.812580
78.204870
62.377453
44.593811
33.906698
24.753809
21.387935
18.833876
18.913746
18.499494
19.434690
20.140409
20.385981
21.237731
21.442771
21.730661
22.877455
22.903681
22.807717
22.785664
23.371577
22.912621
23.573637
22.929907
23.115873
22.720695
22.450686
22.515655
22.122860
21.938682
##ZVALUE=315
0.659823
0.798702
0.588894
0.650883
0.711679
0.628829
0.676513
0.536442
0.651479
0.599623
0.766516
0.750422
0.678897
0.693798
0.663996
0.724792
0.764728
0.666976
0.676513
0.591874
0.708699
0.859499
0.838637
0.726581
1.018643
0.834465
0.936985
0.713468
1.035929
0.864863
1.030564
0.962615
0.955462
0.954866
1.006722
1.022816
1.093745
1.322627
1.610518
2.764463
9.293556
37.406683
81.455708
184.417963
298.862457
478.057861
592.670441
692.027807
716.615915
665.463805
568.682551
410.331488
292.012691
156.225562
85.782409
34.089684
16.169548
9.954572
10.800958
14.898777
21.126866
34.970641
47.513843
67.792535
84.485412
103.292465
112.105608
113.101602
107.252598
93.164444
78.629851
60.078502
46.941638
33.562779
27.281642
22.362471
21.239519
20.505786
20.697713
21.528602
21.449924
22.330880
22.695661
23.088455
23.009777
22.894740
23.243427
23.784637
23.388863
23.811460
23.126602
22.908449
22.340417
22.793412
22.419691
22.551417
##ZVALUE=320
0.647902
0.648499
0.559688
0.590682
0.629425
0.661612
0.689626
0.798702
0.742674
0.576973
0.622869
0.568628
0.590682
0.729561
0.758767
0.599623
0.747442
0.663996
0.612736
0.699759
0.795722
0.934601
0.860691
0.739694
0.816584
0.696778
0.769496
0.813603
0.794530
0.841618
0.965595
0.859499
1.092553
1.160502
1.034737
1.036525
1.148582
1.153946
1.156926
1.157522
1.409650
1.566410
5.494952
17.517805
58.848858
118.400455
236.692429
348.110795
509.685874
617.159605
698.482990
688.566566
598.359704
493.745804
333.732963
219.558477
102.808475
56.156516
22.889972
12.679696
9.791851
10.604858
14.389753
19.964576
31.990409
44.178963
63.270926
78.602433
97.156763
106.688738
108.435750
104.049444
92.577934
78.468919
59.948564
48.268437
35.321712
29.081702
24.743676
22.600889
21.658540
22.172928
22.666454
22.764802
22.854805
22.946000
23.605824
23.200512
23.998618
23.372769
23.784637
23.690462
23.360848
23.198724
23.519993
22.508502
##ZVALUE=325
0.762939
0.839829
0.745654
0.732541
0.678897
0.752807
0.776649
0.723600
0.823736
0.682473
0.713468
0.677705
0.744462
0.694990
0.918508
0.772476
0.755787
0.696778
0.843406
1.010895
0.894666
0.747442
0.637770
0.812411
0.864863
0.886917
0.885725
0.875592
0.850558
1.001954
0.991821
1.016855
0.981688
0.960827
1.039505
1.055598
1.051426
1.139641
1.058578
1.261830
1.245737
1.235604
1.410842
1.660585
2.820492
13.682842
35.235882
91.099739
163.746476
305.495858
427.179933
577.315688
655.107498
684.080720
638.731718
504.655838
384.910703
237.542987
144.648552
65.521002
33.688545
13.986826
10.186434
10.003448
11.416674
15.449524
20.686984
31.389594
43.875575
63.600540
79.555511
94.147921
102.887750
104.564428
99.172592
86.060762
73.232651
57.735443
46.140552
34.607649
29.257536
25.299788
23.507476
23.180842
23.188591
23.167729
23.357868
23.695827
23.256540
23.133755
23.254752
23.187995
23.056865
22.991896
22.677779
22.959709
##ZVALUE=330
0.649691
0.588894
0.548959
0.544786
0.533462
0.584722
0.513792
0.525713
0.706911
0.538826
0.540614
0.463724
0.485778
0.745654
0.658631
0.646710
0.520945
0.738502
0.623465
0.608563
0.606775
0.656843
0.736713
0.621676
0.784993
0.580549
0.723600
0.746846
0.664592
0.812411
0.948906
0.738502
0.805855
0.814795
0.813603
0.945926
0.973940
0.940561
0.942945
1.260638
1.100898
0.992417
0.984669
1.102686
1.126528
1.369715
1.600981
5.613565
18.308759
59.369802
115.110874
231.926441
342.682600
498.773456
595.704913
662.169456
643.979907
546.699762
440.948606
284.996629
185.161829
90.071559
47.249794
20.225644
11.408925
9.759665
10.377765
11.919737
14.464855
22.608638
30.060410
44.770837
58.397651
77.971816
89.342594
97.985864
99.616647
94.696879
85.542798
69.447756
57.177544
43.412447
35.990477
29.987693
26.581883
23.870468
22.914410
22.348762
22.978783
22.449493
22.538900
22.369623
22.804737
22.319555
22.343993
22.433996
##ZVALUE=335
0.474453
0.541806
0.466704
0.541806
0.673532
0.645518
0.591874
0.585914
0.541806
0.522733
0.589490
0.623465
0.470877
0.630617
0.703931
0.734925
0.560880
0.369549
0.572801
0.737906
0.572801
0.592470
0.633597
0.585914
0.655651
0.573993
0.706911
0.683665
0.610948
0.764728
0.708699
0.722408
0.716448
0.736713
0.680685
0.715852
0.774860
0.854731
0.739694
0.868440
0.799894
0.908971
0.871420
0.988841
1.002550
1.011491
1.124740
1.044869
1.256466
2.726912
9.700656
36.573410
76.560974
174.051523
279.298425
435.946584
541.947484
626.295805
639.736652
576.636791
485.204458
331.537724
226.031542
122.064948
66.804886
26.875734
14.044642
10.247827
10.188818
11.079907
12.319684
16.150475
21.421909
32.087564
43.208599
60.230494
72.199702
85.654855
92.724562
94.310641
90.162754
79.794526
69.021583
54.837465
45.685768
35.704970
30.920506
26.144981
24.125576
22.440553
22.153854
21.705627
21.764636
22.014976
21.733642
21.648407
##ZVALUE=340
0.528693
0.560880
0.509620
0.684857
0.389814
0.318885
0.519753
0.554919
0.637770
0.602603
0.594854
0.538826
0.575781
0.744462
0.699759
0.633597
0.568628
0.573993
0.574589
0.517964
0.600815
0.755787
0.662804
0.532866
0.438690
0.526905
0.589490
0.676513
0.625849
0.488758
0.616908
0.621676
0.704527
0.786781
0.747442
0.721812
0.915527
0.631809
0.955462
0.777841
0.736713
0.935793
0.661612
0.778437
1.115799
0.981688
0.956655
1.018643
1.079440
1.118779
1.189709
1.617670
6.257892
18.617511
59.616566
117.523670
241.656899
345.560908
485.431552
567.491651
619.019866
596.427917
499.831438
400.187969
255.229473
161.554813
77.566504
39.550662
15.717745
10.832548
10.205507
10.928512
11.806488
13.010502
16.532540
21.338463
31.027794
41.823983
57.395697
70.121884
82.677603
89.230537
90.386868
86.694956
77.693462
68.088770
54.187775
44.880509
36.011934
29.694438
24.911761
22.706985
21.424890
20.981431
21.359921
21.369457
##ZVALUE=345
0.715852
0.662804
0.657439
0.542998
0.584722
0.469685
0.564456
0.586510
0.440478
0.458956
0.639558
0.588894
0.530481
0.400543
0.654459
0.592470
0.418425
0.507832
0.550747
0.682473
0.558496
0.652671
0.627637
0.552535
0.526905
0.622869
0.633597
0.620484
0.664592
0.638962
0.728965
0.518560
0.813603
0.683665
0.680685
0.665784
0.740886
0.623465
0.616908
0.766516
0.639558
0.823736
0.718832
0.749826
0.983477
0.777841
0.802875
0.792742
0.878572
0.794530
0.890493
1.015663
1.083612
1.413822
2.563596
9.751916
39.578676
81.093907
169.741511
264.455676
407.693982
503.556728
583.865643
591.435432
524.751544
439.841747
301.030874
199.357867
94.958544
49.055815
20.000935
12.690425
10.418892
10.828972
11.060834
12.000799
13.495684
16.064644
21.936893
28.721690
41.484833
52.110553
64.866543
74.560642
81.397891
83.898902
81.263781
75.647831
63.964725
53.805709
42.606592
35.070777
28.222799
24.498701
21.859407
20.653605
##ZVALUE=350
0.581741
0.554919
0.582933
0.585914
0.385642
0.400543
0.441670
0.568628
0.457764
0.533462
0.549555
0.634789
0.474453
0.569820
0.625849
0.549555
0.417829
0.512600
0.580549
0.581741
0.550747
0.537634
0.628829
0.523925
0.572801
0.500679
0.474453
0.673532
0.684857
0.476837
0.857711
0.502467
0.660419
0.601411
0.653863
0.595450
0.461936
0.776649
0.622869
0.745654
0.615716
0.554919
0.652671
0.649691
0.709891
0.775456
0.880957
0.675917
0.804663
0.867844
0.671744
1.009703
0.897646
0.858903
1.010895
1.143813
1.612902
5.995631
18.783808
58.967471
112.373829
223.418474
321.710706
449.055433
531.964898
573.301911
547.968745
456.291437
352.584720
212.653875
132.209659
63.771605
32.271743
13.734698
10.397434
10.111928
10.442734
10.901690
11.715889
13.004541
15.805960
21.242499
26.953816
36.701560
45.783520
58.474541
66.908002
74.629784
77.147484
75.334907
69.682002
59.242845
51.074624
39.706826
33.029914
26.723742
##ZVALUE=355
0.617504
0.445843
0.517964
0.545979
0.487566
0.589490
0.472665
0.572801
0.604987
0.543594
0.537634
0.506639
0.615716
0.632405
0.500679
0.579953
0.487566
0.641942
0.608563
0.595450
0.581741
0.608563
0.606775
0.487566
0.670552
0.643730
0.656843
0.623465
0.657439
0.825524
0.552535
0.736713
0.541806
0.461936
0.558496
0.687838
0.620484
0.812411
0.582933
0.722408
0.656843
0.708699
0.778437
0.668764
0.858903
0.804663
0.727773
0.834465
0.746846
0.844598
0.874996
0.880957
0.962615
0.861883
0.957847
0.945926
1.064539
1.166463
1.167655
3.239512
10.376573
38.478971
78.291893
163.787007
256.852508
397.247672
482.271910
545.210838
546.783805
468.160510
380.631685
254.989862
162.434578
75.912476
38.750768
16.185641
10.737777
9.579659
10.037422
10.463595
10.797977
11.477470
13.066530
15.017986
18.229485
24.391413
31.091571
41.596889
50.725937
60.751438
66.904426
70.844889
69.839954
62.998533
57.032704
47.372580
##ZVALUE=360
0.494719
0.497699
0.424981
0.428557
0.522733
0.453591
0.616908
0.498891
0.454783
0.588894
0.599623
0.375509
0.347495
0.501871
0.466704
0.446439
0.399947
0.541806
0.463724
0.468493
0.504851
0.501871
0.476837
0.562668
0.607967
0.492930
0.554919
0.426769
0.588894
0.526905
0.635982
0.560880
0.591874
0.654459
0.605583
0.304580
0.525713
0.489950
0.593662
0.430942
0.493526
0.576973
0.642538
0.692606
0.623465
0.621676
0.638962
0.617504
0.549555
0.688434
0.652671
0.655651
0.765920
0.766516
0.740886
0.846982
0.991821
0.921488
0.937581
0.964999
1.156926
1.657605
4.565716
19.960999
48.002601
118.760467
195.696950
316.734910
417.484641
511.271954
535.534620
496.261716
423.296690
292.633772
196.832418
98.599792
53.254962
22.751689
12.674928
9.207726
8.991957
9.473562
9.688735
10.346770
10.591745
11.791587
13.024807
15.608668
19.994974
26.178956
33.848882
44.506788
51.617622
59.580803
63.325763
63.519478
##ZVALUE=365
0.481606
0.396967
0.553727
0.436902
0.451803
0.369549
0.374913
0.546575
0.418425
0.446439
0.527501
0.437498
0.203848
0.400543
0.465512
0.554919
0.389814
0.423789
0.410676
0.504851
0.506639
0.478625
0.564456
0.436902
0.472665
0.578761
0.500679
0.483990
0.449419
0.454783
0.413656
0.552535
0.519753
0.589490
0.558496
0.555515
0.555515
0.562668
0.678897
0.444651
0.532866
0.518560
0.620484
0.567436
0.609756
0.638962
0.479817
0.604987
0.612736
0.666976
0.648499
0.690818
0.788569
0.592470
0.601411
0.754595
0.732541
0.706911
0.732541
0.916719
0.885725
0.985861
0.940561
1.276731
2.103448
10.933876
29.024482
76.940656
142.779946
262.956619
356.577635
456.798673
505.928993
498.416424
441.866517
325.961709
234.560966
131.335855
73.328614
29.780865
14.924407
8.578897
8.252859
8.574724
8.769631
9.091496
9.268522
9.677410
10.251999
11.484623
13.160706
17.459989
22.025704
30.192733
37.340522
46.269894
##ZVALUE=370
0.537634
0.558496
0.499487
0.470877
0.497699
0.474453
0.506639
0.525713
0.464916
0.454783
0.441670
0.387430
0.456572
0.520945
0.409484
0.392795
0.460744
0.528693
0.493526
0.494719
0.519753
0.586510
0.395775
0.432730
0.385642
0.319481
0.625849
0.464916
0.552535
0.574589
0.523925
0.644922
0.698566
0.628829
0.615716
0.546575
0.574589
0.514984
0.682473
0.627637
0.579953
0.707507
0.586510
0.540614
0.536442
0.675917
0.561476
0.681877
0.613928
0.524521
0.710487
0.672936
0.665784
0.595450
0.616908
0.777841
0.709891
0.786781
0.822544
0.799894
0.889897
0.677705
0.757575
0.858903
0.910759
1.039505
1.443624
5.587935
18.006563
57.818890
108.120441
205.312967
299.908519
420.257449
481.224656
498.234630
459.109545
365.962982
272.908807
155.773759
89.704990
37.901998
19.768476
10.078549
7.898808
7.761717
8.066893
8.102655
8.610487
8.542538
8.889437
9.650588
10.534525
12.641549
14.903545
20.342469
##ZVALUE=375
0.293851
0.478625
0.598431
0.415444
0.430942
0.454783
0.481606
0.544786
0.394583
0.548959
0.505447
0.390410
0.404716
0.402927
0.392795
0.536442
0.414848
0.521541
0.482798
0.538826
0.460744
0.472665
0.553727
0.570416
0.528693
0.500679
0.414848
0.502467
0.496507
0.373721
0.521541
0.491738
0.514984
0.533462
0.600815
0.588894
0.606775
0.507832
0.696778
0.651479
0.654459
0.481606
0.455976
0.655651
0.603795
0.601411
0.566840
0.660419
0.586510
0.681877
0.525713
0.600815
0.599623
0.660419
0.716448
0.676513
0.560880
0.733733
0.681877
0.649691
0.745654
0.734925
0.749826
0.726581
0.856519
0.758767
0.945926
1.088977
1.182556
2.916455
9.633899
34.368634
73.115826
161.720514
248.360634
371.028781
445.149541
491.719842
478.246808
400.141478
312.609673
194.029808
125.287771
63.544512
33.804774
13.912916
8.384585
7.186532
7.525682
7.433891
7.692575
7.705688
8.033514
8.462667
8.843541
9.400845
##ZVALUE=380
0.393987
0.401735
0.418425
0.459552
0.478625
0.385642
0.438690
0.600815
0.404716
0.456572
0.341535
0.414848
0.467896
0.500679
0.530481
0.466704
0.443459
0.417829
0.354648
0.592470
0.590682
0.612736
0.400543
0.465512
0.466704
0.506639
0.461936
0.567436
0.650883
0.579953
0.523925
0.581741
0.703931
0.496507
0.653863
0.664592
0.449419
0.682473
0.420809
0.551939
0.499487
0.553727
0.609756
0.595450
0.469685
0.539422
0.688434
0.495911
0.476837
0.682473
0.458956
0.583529
0.657439
0.529885
0.507832
0.501871
0.656843
0.673532
0.502467
0.687838
0.613928
0.669956
0.688434
0.737906
0.722408
0.831485
0.875592
0.764728
0.903606
0.933409
1.220703
1.702905
5.054474
23.231506
54.185987
127.342939
203.903913
320.862532
404.371619
476.456881
482.671857
423.847437
350.961685
237.190723
162.683725
82.006454
44.828653
17.987490
9.853840
6.921887
6.728768
6.722808
6.727576
6.960630
7.407665
7.573962
##ZVALUE=385
0.530481
0.424981
0.569820
0.463724
0.435710
0.510812
0.380874
0.603795
0.562668
0.470877
0.463724
0.544786
0.439882
0.427961
0.403523
0.517964
0.364780
0.491738
0.442863
0.507832
0.512600
0.515580
0.443459
0.307560
0.344515
0.473857
0.426769
0.307560
0.502467
0.662804
0.468493
0.696778
0.571609
0.613928
0.623465
0.605583
0.587702
0.668764
0.617504
0.297427
0.518560
0.519753
0.592470
0.612736
0.577569
0.502467
0.624657
0.610948
0.587702
0.515580
0.524521
0.707507
0.508428
0.531673
0.535846
0.701547
0.612736
0.656843
0.643730
0.609756
0.595450
0.643730
0.628829
0.689626
0.776649
0.784993
0.770688
0.830889
0.771880
1.080632
0.918508
0.916719
1.055598
1.322627
2.716780
12.339950
32.648444
88.084936
154.072642
270.343423
359.734893
446.501970
471.464992
453.293920
398.573875
294.832587
211.553574
117.529631
68.447590
30.244589
14.735460
6.892681
5.989671
5.962849
6.154776
6.550550
##ZVALUE=390
0.477433
0.499487
0.516772
0.568628
0.525713
0.418425
0.610948
0.369549
0.432730
0.538826
0.424981
0.361800
0.342727
0.495911
0.363588
0.359416
0.276566
0.329614
0.462532
0.434518
0.333786
0.732541
0.433922
0.505447
0.476837
0.595450
0.401735
0.402927
0.587702
0.469685
0.700951
0.582933
0.656843
0.439882
0.527501
0.515580
0.591874
0.594854
0.612736
0.579953
0.622869
0.671744
0.373721
0.505447
0.572801
0.568628
0.552535
0.506639
0.640750
0.633597
0.516772
0.579953
0.578761
0.777841
0.688434
0.547767
0.491738
0.503659
0.597835
0.580549
0.432730
0.555515
0.801682
0.741482
0.569820
0.676513
0.607967
0.766516
0.807643
0.687838
0.904799
0.886917
0.895858
0.865459
1.049638
0.912547
1.740456
5.946755
25.209785
58.092475
133.964419
209.492445
315.869451
391.484499
461.203456
472.023487
426.652431
358.974934
246.761441
168.010592
87.936521
47.500730
18.672943
9.581447
5.709529
5.748868
##ZVALUE=395
0.351667
0.336766
0.545979
0.457764
0.473857
0.457764
0.288486
0.409484
0.507832
0.478625
0.487566
0.490546
0.596642
0.469685
0.307560
0.228882
0.598431
0.388622
0.764728
0.327826
0.433922
0.381470
0.594854
0.560880
0.409484
0.562668
0.590682
0.434518
0.530481
0.613928
0.717640
0.616908
0.544786
0.613928
0.549555
0.695586
0.580549
0.578761
0.760555
0.692606
0.677705
0.586510
0.482798
0.624657
0.599623
0.570416
0.512600
0.670552
0.684857
0.620484
0.710487
0.607967
0.595450
0.531673
0.597835
0.589490
0.582933
0.768900
0.632405
0.438690
0.670552
0.637770
0.571609
0.741482
0.631809
0.709891
0.659823
0.653863
0.724792
0.859499
0.849962
0.740886
0.846982
0.923872
0.884533
0.830889
0.891685
0.928640
1.139641
3.884435
13.455749
46.285987
89.824796
177.569985
257.231593
370.481610
434.926748
476.902723
469.046831
391.881466
308.935642
193.709731
124.607682
61.118603
30.613542
12.118816
##ZVALUE=400
0.479817
0.443459
0.409484
0.347495
0.452995
0.504851
0.514984
0.565648
0.437498
0.437498
0.501871
0.515580
0.358820
0.374913
0.408888
0.500679
0.447631
0.454783
0.438690
0.460744
0.535846
0.421405
0.514984
0.390410
0.502467
0.734925
0.641942
0.599623
0.590682
0.598431
0.737906
0.494719
0.640750
0.427961
0.632405
0.601411
0.600815
0.502467
0.608563
0.745654
0.547767
0.707507
0.613928
0.664592
0.594854
0.530481
0.537634
0.632405
0.548959
0.610948
0.546575
0.452995
0.547767
0.771880
0.661612
0.515580
0.574589
0.652671
0.597835
0.666976
0.602603
0.764728
0.777841
0.692606
0.650883
0.670552
0.666976
0.710487
0.894666
0.680685
0.624657
0.782609
0.853539
1.059771
0.869632
0.796914
0.840425
0.972748
1.125932
0.942945
1.057982
2.347827
7.707477
26.854873
58.015585
128.219724
204.984546
315.848589
390.326977
454.201698
462.412834
409.586430
343.471766
238.142610
160.121918
82.421899
##END
