##TITLE=QP00602
##FORMAT=SPECTACLE-ASCII V-1.2
##DATA TYPE=ULTRAVIOLET SPECTRUM
##SECOND TYPE=ULTRAVIOLET SPECTRUM
##DATE=02/12/18
##TIME=15:58:37
##SPECTROMETER/DATA SYSTEM=SPECTACLE
##XUNITS=NM EM
##YUNITS=ENERGY
##YFACTOR=1
##FIRSTX=220
##LASTX=410
##NPOINTS=96
##3DDATA=Equidistant
##ZUNITS=NM EX
##FIRSTZ=210
##LASTZ=400
##ZPOINTS=39
##XYDATA=(Y..Y)
##ZVALUE=210
2.208948
2.678633
2.521873
2.482533
2.908707
3.092885
3.202558
3.502965
3.121495
2.718568
3.159642
2.487898
2.970695
2.364516
2.942681
2.710819
2.858639
3.342628
3.954768
4.092455
4.169941
4.867911
5.071759
4.604459
4.646778
4.612803
5.303621
4.665852
5.884767
4.807711
5.235672
4.992485
5.660653
5.314946
6.392598
7.253885
6.660819
6.417632
6.649494
7.243752
6.532669
7.272959
7.297993
6.923676
6.974936
7.582903
8.000731
8.220673
8.372664
9.278655
8.563995
9.448528
9.089708
8.168817
8.984804
8.942485
10.152459
10.210872
9.755492
9.330511
10.003448
10.283589
10.274649
11.566877
11.393428
11.212826
12.133718
14.009476
15.722513
18.182993
22.195578
25.410652
30.560493
35.215616
40.808916
39.951801
41.566491
38.193464
36.429763
33.438802
29.608607
27.212501
23.503900
22.121668
20.364523
16.130805
13.205409
12.955666
12.942553
11.900663
11.081696
11.766553
11.854768
11.497736
12.978911
12.506843
##ZVALUE=215
7.618666
7.582903
6.114841
5.869865
5.481839
5.210638
5.283952
5.364418
5.920529
5.482435
5.405545
4.410744
4.769564
3.637671
3.574491
3.554821
2.970695
2.912879
3.824830
4.406571
4.055500
4.815459
4.341602
4.697442
4.954934
5.192757
4.782677
5.956888
6.253719
6.033778
6.439686
6.558895
6.260872
6.791949
7.457733
7.081628
7.946491
7.469654
6.793737
7.500648
8.378625
7.936954
8.987784
9.579659
9.037852
9.342432
8.800626
10.103583
10.492802
10.382533
10.075569
9.699464
10.512471
11.226535
10.925531
11.429787
11.163950
10.439754
10.230541
10.773540
10.651946
13.342500
13.328791
13.525486
13.319850
13.124943
13.367534
13.331771
16.765594
18.923879
21.949410
24.068952
32.265782
35.890937
38.957000
39.567947
40.802956
40.357709
39.260983
34.811497
31.927824
27.561784
25.560856
21.170974
18.523932
16.992688
16.646981
15.371442
12.482405
12.728572
13.300776
11.992455
12.890697
11.812449
12.670755
12.720823
##ZVALUE=220
24.635792
24.049878
25.673509
25.541782
25.598407
22.674799
17.237663
17.015934
13.218522
11.309981
13.185740
13.023615
12.332797
10.760427
10.563731
8.126497
6.102920
6.289482
4.403591
5.042553
4.843473
5.056858
4.352927
5.163550
5.183816
5.801916
5.750656
6.083846
6.892681
6.465912
6.921887
7.261634
7.779598
7.261634
7.764697
8.543730
8.044839
9.423494
8.048415
7.919669
8.382797
8.743405
8.405447
8.092523
9.699464
8.738637
9.411573
8.889437
9.153485
9.792447
10.304451
10.767579
10.452867
10.914803
11.062622
11.387467
10.924935
10.363460
10.442734
12.273788
11.842847
12.326837
12.139678
12.516975
11.304617
12.442470
12.677908
13.666749
14.568567
16.796589
20.698905
23.950934
26.659966
32.911897
32.870770
38.150549
38.862824
37.159920
37.428737
34.544468
30.403733
28.610826
26.499629
21.778941
19.479990
16.892552
15.554428
14.721751
14.314651
12.704730
11.654496
12.346506
12.999773
12.840629
12.411475
12.845993
##ZVALUE=225
40.725470
43.312907
57.666898
76.248646
83.012581
87.533593
80.632567
65.346956
51.690936
39.081573
30.360818
25.523901
26.277900
25.959611
27.274489
25.915504
22.864938
16.695857
13.345480
9.786487
6.220937
5.443692
4.906654
5.756617
5.415678
6.033778
6.300807
6.466508
5.670786
5.902648
6.297827
6.820560
6.967783
7.622838
8.118749
7.415414
7.964969
8.146763
7.678866
7.446408
9.043813
9.512901
8.621812
8.235574
8.438826
9.187460
9.238720
9.867549
9.470582
10.259748
9.699464
9.194613
11.377931
12.096763
10.505915
11.341572
11.208653
11.640787
12.382865
12.732744
11.432767
11.337996
12.970567
12.159944
12.467504
13.377666
14.157891
15.609860
16.459823
18.634796
19.042492
23.801923
25.799870
31.418800
30.572414
32.584667
32.684803
33.570528
33.117533
30.263662
28.447509
27.248859
23.897886
22.769570
21.150708
20.841956
19.839406
17.235875
16.555786
16.561747
16.069412
15.748739
15.102625
15.416741
16.309619
15.683770
##ZVALUE=230
38.618445
42.718649
69.517493
117.638707
152.561665
186.390877
205.356479
206.256509
182.756782
151.216984
108.249784
73.955655
53.560734
42.644739
46.506524
49.054623
52.133799
50.755739
44.928789
35.489798
28.626919
18.190742
13.502836
9.037852
6.899834
7.472634
6.334782
7.567406
6.569624
6.554723
7.497668
7.363558
7.929802
8.365512
7.054806
7.564425
8.228421
8.764863
8.681417
8.272529
8.604527
8.297563
8.385777
9.136796
9.211898
10.137558
9.574890
10.671616
9.829998
10.654926
11.251569
11.123419
11.294484
10.921955
11.863708
11.221766
11.752844
12.364984
12.611747
12.127757
13.389587
14.616847
13.673902
14.636517
16.063452
15.487671
17.921925
18.321872
20.957589
23.668408
25.763512
30.756593
30.581951
34.184456
34.946799
35.700798
36.401749
36.720634
37.083626
33.923984
34.525990
28.406978
29.190779
25.947690
25.605559
25.631785
22.217631
21.533966
21.262765
20.747781
22.236705
22.312999
22.318959
20.350814
20.955801
22.234917
##ZVALUE=235
13.955832
16.879439
34.839511
79.148412
130.629539
204.158425
268.144608
349.135995
385.462642
393.259525
351.653695
274.360776
203.684568
129.784942
99.596977
80.727935
73.071718
77.891946
82.401633
85.227489
76.596737
68.073869
51.136613
39.354563
23.710728
17.061830
13.441443
9.992719
8.572936
8.462667
7.823706
8.075833
9.259582
7.904768
7.915497
9.388924
10.005832
7.733703
9.436607
8.087754
8.580685
8.857846
8.818507
10.171533
8.979440
9.702444
9.348989
10.113716
10.201931
10.704994
10.544658
11.416674
11.277795
11.366606
12.189746
12.254715
12.964606
13.978481
12.975931
14.377832
14.920831
15.307665
16.086698
17.781854
15.987754
18.446445
19.324422
20.060539
22.870898
24.961829
27.734637
31.597614
32.666922
36.036968
37.851930
37.379861
39.374828
38.227439
39.509535
37.045479
35.384893
34.169555
32.900572
31.121969
30.823946
28.679967
26.539564
29.648542
28.012991
26.951432
27.666688
27.374625
26.657581
26.201606
26.769638
27.646422
##ZVALUE=240
2.481937
2.831817
5.429983
19.304752
42.532682
102.698803
163.334608
283.352733
389.475822
494.098663
563.217998
568.656921
511.457920
436.526537
321.785808
226.897597
145.207644
112.016797
95.189810
104.697943
113.950968
116.136670
115.063787
99.801421
88.676810
65.164566
49.727559
31.732917
22.262931
15.717745
12.759566
10.374784
10.818839
9.877682
9.595752
10.207891
9.414554
8.881688
9.430647
7.977486
9.109974
9.338856
8.795857
8.850694
8.011460
9.591579
9.247661
8.662939
9.226799
9.665489
9.510517
9.391904
9.591579
11.520982
11.696815
11.450648
12.554526
12.755990
13.812780
13.923645
13.230443
13.383627
15.085936
15.749931
15.980601
16.073585
19.388795
20.352602
20.814538
23.693442
25.729537
29.142499
34.537911
34.125447
35.935640
37.201643
38.627982
37.381649
35.932660
34.750700
36.270618
35.629869
34.255981
32.725930
30.990839
29.975772
31.796694
31.057596
32.252669
31.198859
31.546950
31.528473
31.062961
33.000708
31.376481
31.593442
##ZVALUE=245
1.847744
2.000928
1.955628
2.125502
4.019737
13.883710
34.108758
93.521476
170.887709
266.950727
438.103676
557.721853
671.534538
684.386492
642.676950
564.145446
416.494012
311.983824
215.742588
136.461854
105.872750
105.754733
113.004446
129.857659
132.620931
127.363801
117.148757
92.690587
76.946616
54.465532
40.167570
24.809837
19.287467
12.981892
11.469722
9.515882
9.835958
10.179877
9.235740
8.225441
7.807612
7.770658
8.189678
8.511543
8.215904
7.676482
7.086992
7.704496
7.696748
7.839799
6.849766
7.436872
8.634925
7.866621
8.766651
9.601712
9.455681
9.826422
10.052919
10.343790
9.824634
12.251735
11.571646
12.436509
13.613701
15.006661
16.375780
17.197728
18.709898
18.625855
21.737814
25.156736
27.041435
28.621554
30.525923
30.418634
31.047463
32.850504
31.788945
30.274987
31.616688
32.352805
32.748580
29.773712
30.352473
29.549599
29.272437
30.583739
29.432774
28.950572
29.149652
29.853582
29.980540
29.903650
29.206872
28.121471
##ZVALUE=250
1.720786
2.277493
1.824498
1.632571
1.641512
2.010465
2.719760
7.674694
31.916499
70.920587
166.708827
277.286768
407.284498
588.161945
702.198744
783.416629
775.151849
685.510635
575.915575
398.082733
277.545452
185.571909
112.715960
96.768737
107.907653
125.087500
139.833689
142.326951
135.287642
126.074553
110.647678
82.103610
62.600970
39.857626
26.749969
16.768575
11.541843
8.739829
8.590817
8.287430
8.311868
8.107424
7.187724
7.412434
7.527471
7.152557
6.924868
7.251501
6.477833
6.979704
6.710887
6.962419
7.397532
7.470846
8.558631
7.481575
8.096695
8.918643
8.176565
8.888841
8.890629
9.698868
10.402799
11.199713
12.489557
12.819767
13.432503
14.232993
14.852881
17.243624
18.324852
21.180511
22.588968
24.462938
25.958419
26.927590
27.403831
28.738976
28.048754
26.638508
26.306510
26.595592
26.584864
27.033687
27.182698
27.011633
27.925968
28.235912
27.835965
26.742816
25.966763
26.403666
28.379560
26.217699
28.006434
28.859973
##ZVALUE=255
1.512766
1.516938
1.432896
1.636744
1.433492
1.597404
1.850724
2.053976
2.171993
4.321933
22.901893
54.164529
114.533901
240.530968
377.193689
573.554635
710.274577
850.617886
883.328915
833.059549
708.999634
569.244623
362.669826
237.546563
130.675435
98.576546
93.397498
105.432868
133.460760
144.115686
151.716471
144.023895
131.312609
106.814504
84.341764
56.485534
40.502548
22.176504
14.652610
9.039640
7.710457
7.064939
6.937981
7.157922
7.122755
7.302761
6.716847
6.920695
6.174445
5.908608
6.666780
6.226897
6.732941
6.315708
6.741881
7.295609
6.839633
6.854534
7.300973
8.439422
8.057952
8.628964
9.351969
9.299517
10.443926
10.896921
12.425780
13.154745
13.481975
16.191602
16.430616
18.190742
20.172000
21.649599
21.882653
23.202896
24.917722
24.743676
23.768544
24.918914
24.737716
24.291873
25.539994
25.513768
26.420951
26.510954
26.365519
25.438666
25.706887
25.575757
25.887489
26.480556
26.826859
26.380420
27.382970
27.046800
##ZVALUE=260
1.307726
1.122952
1.218915
1.281500
1.194477
1.368523
1.569986
1.688600
1.576543
1.678467
1.933575
2.817512
7.751584
34.719706
80.472827
190.048814
314.531922
516.205430
681.524873
879.714489
965.929627
984.752774
861.883759
713.589787
479.043722
325.044990
192.558765
121.075511
82.972646
83.767772
101.700425
129.628778
143.263936
153.909922
148.409605
131.411552
111.756921
81.172585
61.601996
36.403537
24.554729
13.928413
9.473562
6.842613
6.475449
6.304979
6.282926
6.366968
6.259680
5.876422
6.855726
6.256700
6.683469
6.149411
6.697774
6.303787
7.058978
6.717443
7.084608
7.376671
8.093715
8.484721
8.537769
9.191632
9.166598
9.642839
10.521412
11.738539
13.266802
14.460683
14.803410
16.187429
17.893910
18.551946
19.078851
20.720959
21.495819
20.904541
21.877885
21.557808
21.864772
22.671819
22.482872
23.419857
22.580624
23.248792
23.438931
23.456812
23.767948
23.811460
24.136901
23.426414
24.717450
25.917888
24.422407
25.633574
##ZVALUE=265
1.359582
1.187921
1.273751
1.498461
1.404881
1.268983
1.431704
1.411438
1.480579
1.761913
1.909733
1.604557
1.762509
2.361536
4.880428
23.192763
60.907602
152.986646
266.797543
495.268703
691.403747
881.706476
1015.774012
1015.774012
998.712778
864.536762
644.662976
462.918878
266.043544
159.770846
97.739697
72.822571
82.421899
110.703707
131.684542
150.418878
153.469443
148.564577
133.130550
105.984807
84.003806
56.290627
37.078857
22.053719
14.413595
8.569956
7.084608
6.521940
6.437898
6.494522
6.829500
6.810427
6.580949
6.760955
7.125735
6.917715
6.632805
7.734895
7.168651
8.265972
7.725954
7.920861
8.322597
8.303523
9.177923
9.677410
10.672808
10.968447
11.545420
13.403893
14.233589
15.477538
17.146468
16.638637
17.609000
18.674731
19.208789
20.183921
19.578934
20.562410
20.190477
20.718575
21.231771
21.415949
20.688772
21.602511
22.025704
22.662878
22.266507
23.183823
23.135543
22.554994
23.419857
22.692680
22.677779
23.041964
##ZVALUE=270
1.161695
1.246929
1.404881
1.338720
1.405478
1.208782
1.284480
1.270771
1.371503
1.522899
1.652837
1.540780
1.721978
1.709461
1.665950
2.009869
2.650619
12.213588
34.784675
112.210512
211.560726
356.720686
625.209808
847.410560
1015.774012
1015.774012
1015.774012
1015.774012
841.532946
639.531612
390.785933
236.249566
136.040449
68.695545
63.758492
83.601475
107.979774
132.937431
147.562623
156.551003
152.938962
130.861998
110.407472
79.515576
57.129860
36.031604
24.386644
14.052987
10.060668
7.875562
7.012486
7.029772
7.229447
7.088780
6.990433
7.112622
7.351637
7.481575
7.942915
7.820725
7.480979
8.535981
8.752942
9.024739
9.364486
10.084510
10.112524
10.704994
11.359453
12.822747
13.255477
13.786554
15.698671
16.243458
17.446876
17.937422
18.204451
18.272996
19.098520
18.584728
19.696951
19.555688
19.692779
19.542575
20.338893
20.973682
20.619631
21.455884
20.898581
21.644831
20.549893
21.097660
22.383928
21.543503
22.580624
21.956563
##ZVALUE=275
1.087785
1.252890
1.106858
1.181960
1.216531
1.140833
1.243949
1.178980
1.031756
1.186728
1.424551
1.353621
1.428723
1.418591
1.617670
1.592636
1.696944
1.939535
2.114773
5.550981
19.865632
57.943463
168.108940
316.853523
586.642623
801.785588
1012.870669
1015.774012
1015.774012
1015.774012
1015.774012
800.012946
573.122501
307.372808
179.900527
81.950426
54.670572
59.435964
79.637766
108.389854
127.540827
145.682693
154.925585
148.498416
133.414865
105.799437
82.501769
58.127642
40.426850
23.694634
15.814900
10.557771
8.142591
6.927848
7.107854
7.366538
7.768869
7.920861
7.404685
7.925630
7.910728
8.630753
9.144545
9.356737
9.425879
9.948611
10.231733
11.248589
11.383891
12.838840
13.870597
14.433861
15.364885
15.882850
17.013550
17.642975
18.239617
18.503666
18.659830
19.009709
18.921494
18.526912
19.487739
19.055605
20.249486
19.801855
19.644499
19.735694
20.022988
20.196438
19.969940
19.727945
20.702481
20.906925
20.929575
21.099448
##ZVALUE=280
1.118779
0.940561
1.107454
1.017451
1.006722
1.201630
1.079440
1.128912
1.005530
1.192689
1.358986
1.188517
1.072884
1.320839
1.524687
1.448989
1.555681
1.612902
1.570582
1.741648
2.013445
2.400875
12.471676
43.282509
139.314532
247.945786
462.179780
684.970021
981.163979
1015.774608
1015.774608
1015.774608
1015.774608
929.136872
693.936944
396.108627
238.255858
107.278824
58.244467
43.484569
55.558681
80.831647
103.099942
128.550529
140.505433
148.687959
143.770576
127.303004
109.589696
79.849958
58.757663
38.707852
25.891662
15.696883
10.927916
8.259416
8.208752
8.009672
8.250475
8.614659
8.435845
8.861423
8.881688
9.448528
9.759665
10.517836
10.765791
10.969639
12.037754
13.103485
14.230609
14.643669
16.000867
16.213655
16.224980
17.027855
18.140674
18.148422
17.449856
18.047690
18.100739
18.891692
18.732548
19.123554
19.117594
18.939972
19.367933
19.257665
19.333959
19.913912
19.421577
18.941760
19.703507
20.266771
19.451976
20.413995
##ZVALUE=285
1.008511
1.048446
1.021624
1.198649
0.966787
1.163483
1.121759
0.929832
1.008511
1.067519
1.328588
1.242757
1.268983
1.187921
1.326799
1.416802
1.373887
1.543760
1.624823
1.667738
1.656413
1.754761
1.794696
2.209544
6.403923
22.094846
76.311827
158.281922
345.949531
538.993478
772.705674
1015.774012
1015.774012
1015.774012
1015.774012
1015.774012
843.380690
523.889661
332.939625
157.241821
80.265999
37.448406
36.829710
54.730773
74.390769
102.488995
120.245814
140.937567
148.261786
138.927698
130.169988
105.475783
83.195567
57.581663
42.841434
24.609566
17.474890
11.427999
9.460449
8.399487
8.787513
8.942485
9.012818
9.581447
9.925961
10.802746
10.952950
11.517406
12.521744
12.885928
13.881922
14.358759
15.213490
16.108751
16.810894
16.881824
17.451644
16.887784
17.637610
18.018484
18.596649
18.168688
17.900467
19.139647
18.837452
18.896461
18.716455
18.733740
18.934608
19.084811
18.903613
19.102693
18.720627
19.400716
19.457936
19.071698
##ZVALUE=290
1.029968
1.073480
0.886917
0.909567
0.913739
0.897646
1.194477
1.018643
0.921488
1.158714
1.082420
1.065731
1.055598
1.157522
1.053810
1.237988
1.059771
1.260638
1.101494
1.214743
1.362562
1.548529
1.561642
1.768470
1.997948
2.258420
3.285408
8.871555
41.980743
101.062655
200.659633
417.455435
647.170544
979.746580
1015.774012
1015.774012
1015.774012
1015.774012
985.952020
673.032999
450.272560
229.896903
122.674704
47.926903
27.902722
34.874678
48.909783
70.758462
91.169477
117.704868
132.696629
141.988993
138.175488
125.148892
106.334686
79.283714
60.087442
39.284825
27.247667
16.838908
12.518764
10.405779
9.671450
9.714961
10.238886
10.836720
11.398792
11.851788
12.345910
13.133883
14.139414
15.047789
15.447736
16.187429
16.465783
16.814470
17.606616
17.554760
17.785430
17.836690
18.104911
18.466711
18.620491
18.720627
18.386841
19.069910
19.431710
18.827915
18.516779
19.040704
18.488765
18.859506
19.090772
18.668771
18.541813
19.201636
##ZVALUE=295
1.123548
0.796914
0.938773
0.851750
0.835657
0.976920
1.138449
0.908971
0.906587
0.878572
1.002550
1.075864
1.100898
1.090765
1.122952
1.034737
1.130700
1.124740
1.262426
1.440644
1.195669
1.211762
1.333952
1.722574
1.544952
1.690984
1.994967
1.827478
2.338886
4.079938
13.993979
61.771870
142.584443
335.748792
542.109609
874.570608
1015.774012
1015.774012
1015.774012
1015.774012
1015.774012
800.452828
564.679503
297.903419
162.943602
60.876608
30.108690
21.957755
29.462576
46.634674
64.530969
88.791847
106.850863
127.872825
133.869648
131.617785
120.749474
100.131631
81.156492
56.014657
42.228699
25.701523
19.105673
13.855696
12.025833
10.926723
11.331439
11.884570
12.568831
13.084412
14.076829
14.778972
15.477538
16.650558
16.145706
17.360449
17.614961
17.627478
18.348694
17.781854
18.399954
18.987656
18.699765
19.226670
19.000769
19.341707
18.955469
19.150972
19.419789
18.969774
18.954873
19.482970
18.410683
19.057989
18.793941
18.561482
##ZVALUE=300
0.956655
0.875592
1.081824
0.985861
0.958443
0.867844
0.777841
0.909567
0.935793
0.702739
0.906587
0.727773
1.059771
1.074672
1.098514
0.985861
1.080632
1.083612
0.923872
1.103878
1.139641
1.478791
1.147985
1.345873
1.452565
1.429915
1.520514
1.595616
1.749992
2.009869
2.001524
2.510548
9.413958
33.191442
114.367008
224.852562
465.784669
709.993839
1012.846828
1015.774608
1015.774608
1015.774608
1015.774608
1011.388898
706.400871
461.259484
234.572887
125.841498
45.312643
20.847917
19.378662
26.495457
41.371584
57.797432
82.733631
102.940798
122.215748
128.219724
127.147436
118.609667
99.981427
81.882477
58.708787
44.009686
28.238893
21.267533
15.831590
13.800859
13.357997
13.607740
14.627576
14.873743
15.588999
16.331673
16.858578
17.925501
18.047690
18.163919
18.835664
18.699765
19.402504
18.997788
19.102693
19.378662
19.641519
19.481778
19.254684
19.799471
19.403696
19.715428
18.986464
19.392967
18.973947
19.259453
19.270778
18.691421
##ZVALUE=305
0.967979
0.825524
0.882745
0.933409
0.885725
0.881553
0.935793
0.774860
0.704527
0.740886
1.017451
0.930429
0.896454
1.008511
0.980496
0.943542
0.915527
0.980496
1.103878
1.140833
0.986457
1.237988
1.284480
1.279712
1.314878
1.349449
1.461506
1.464486
1.511574
1.528859
1.576543
1.931787
2.009869
2.347827
3.698468
21.111965
61.720610
181.829929
326.235890
604.953766
854.197741
1015.774012
1015.774012
1015.774012
1015.774012
1015.774012
891.433954
574.927926
378.729701
171.881914
83.826780
27.443767
15.117526
18.247962
25.560856
41.396618
55.455565
79.225898
97.222924
114.605427
121.997595
122.375488
113.026500
96.635818
79.680681
57.320595
43.525696
28.717518
21.807551
17.728806
16.158819
15.861988
16.080737
16.531944
17.154813
17.513633
18.168688
18.475652
18.293858
18.689632
19.712448
19.867420
19.964576
19.916892
20.493865
19.943714
20.223856
20.107627
20.231605
19.851923
19.799471
19.740462
19.719601
19.589663
18.978715
19.622445
##ZVALUE=310
0.695586
0.863671
0.812411
0.828505
0.778437
0.939965
0.816584
0.905991
0.822544
0.835657
0.861883
0.943542
0.786781
1.010895
1.044869
0.938773
0.845790
1.096725
1.019835
1.068711
0.926852
1.036525
1.249909
0.983477
1.084805
1.122952
1.316667
1.386404
1.243949
1.457930
1.359582
1.392961
1.785755
1.865625
1.833439
2.035499
2.400875
10.082722
32.776594
113.186836
229.572654
475.889444
717.508793
1015.774012
1015.774012
1015.774012
1015.774012
1015.774012
1015.774012
782.141685
527.308583
263.032913
137.002468
46.682954
18.277764
13.035536
15.655756
24.712682
34.976602
53.446889
69.966912
92.603564
104.746819
115.150809
117.011666
108.887553
96.816421
77.492595
61.683655
43.668747
33.815503
25.040507
20.656586
18.282533
17.607808
17.870665
18.079877
17.899871
18.518567
19.370914
19.225478
20.383596
20.791888
20.526648
19.819736
20.277500
20.743608
20.842552
20.372868
20.801425
20.668507
20.320415
19.685626
20.150542
19.864440
19.600987
##ZVALUE=315
0.678897
0.893474
0.756979
0.588894
0.724792
0.759959
0.811815
0.874996
0.843406
0.713468
0.992417
0.892878
0.970960
0.791550
0.838637
0.762939
0.972748
0.828505
0.878572
1.029968
1.052618
0.926852
1.029968
0.954866
1.086593
1.104474
1.158714
1.187921
1.245737
1.138449
1.128912
1.459718
1.461506
1.529455
1.557469
1.589656
1.876950
1.969934
2.317429
4.327893
16.019940
69.005489
151.808858
352.426767
577.124953
944.129825
1015.775800
1015.775800
1015.775800
1015.775800
1015.775800
891.698003
646.907687
359.717607
198.045969
71.625710
28.614998
12.186766
11.816621
15.801787
21.471977
34.295917
47.267675
67.586899
83.527565
101.468563
109.880567
112.694502
107.661486
92.892647
78.443885
59.086680
46.245456
32.912493
26.422739
21.239519
20.098686
18.907785
18.684864
19.385815
19.419789
19.917488
20.438433
20.967722
21.012425
20.929575
21.213889
21.092892
20.671487
21.370649
20.849705
20.543933
20.625591
19.803643
19.758940
19.978881
##ZVALUE=320
0.807643
0.960827
0.678897
0.602603
0.833869
0.737906
0.837445
0.746846
0.866652
0.873804
0.897646
0.859499
0.934601
0.815988
0.866652
0.891685
0.976920
0.762939
0.911951
1.086593
0.859499
0.762939
0.949502
0.960827
0.913739
1.009703
0.993609
0.990629
1.112819
1.025796
1.146793
1.189709
1.252890
1.279712
1.524687
1.285672
1.511574
1.829863
1.717806
1.921654
2.045631
2.675653
7.086992
39.168000
103.998780
271.151662
452.109575
748.520494
985.545516
1015.784740
1015.784740
1015.784740
1015.784740
1013.371944
797.296762
475.091934
290.145874
130.158663
58.288574
16.410947
10.879636
11.922717
14.588833
21.534562
30.597448
47.254562
61.819553
80.832839
95.865726
106.977820
108.792782
101.872683
92.722774
74.661970
60.217977
44.576526
34.911633
26.790500
23.022890
21.029711
20.165443
19.828677
19.817948
20.713806
20.479560
20.668507
21.099448
21.287799
21.244884
20.858645
21.067858
20.651817
21.161437
20.645857
20.438433
20.406842
##ZVALUE=325
0.698566
0.907779
0.632405
0.814795
0.715852
0.790954
0.790954
0.798702
0.763535
0.795722
0.728965
0.893474
0.791550
0.717640
0.824928
0.779629
1.039505
0.852942
0.927448
0.947714
0.922680
0.859499
0.981688
1.063943
1.164675
1.051426
1.151562
1.146793
0.989437
1.087785
1.244545
1.073480
1.015663
1.136661
1.199841
1.279712
1.334548
1.366735
1.527667
1.736879
1.732707
1.892447
2.224445
2.204776
4.182458
26.549697
72.136521
191.359520
348.698497
651.346445
905.971527
1015.814543
1015.814543
1015.814543
1015.814543
1015.814543
927.852988
581.162572
361.746550
163.634419
79.064965
23.971796
12.019873
11.057854
11.902452
15.660524
21.314621
31.717420
44.168830
63.921809
78.494549
93.121529
101.967454
104.349852
98.593831
84.843636
72.980523
55.864453
44.307709
33.439994
27.314425
23.444891
21.541715
21.128654
20.792484
21.200776
21.379590
20.977855
20.976663
20.840764
20.928979
20.673871
20.417571
20.367503
20.510554
20.261407
##ZVALUE=330
0.662804
0.626445
0.784993
0.496507
0.712872
0.771880
0.669956
0.529885
0.778437
0.599623
0.678897
0.756979
0.828505
0.855923
0.848770
0.883937
0.820756
0.773668
0.734925
0.768900
0.822544
0.765920
0.742674
0.780821
0.874996
0.924468
0.894666
0.934601
1.052618
0.995994
1.150966
1.007915
1.032948
0.915527
1.255870
1.061559
1.260638
1.370907
1.133680
1.342893
1.304746
1.629591
1.503825
1.788735
2.059937
2.129674
2.664924
12.416840
39.941669
134.975910
258.509517
512.843728
760.530829
1015.771031
1015.771031
1015.771031
1015.771031
1015.771031
1015.771031
694.808960
445.363522
206.191540
103.504658
36.602616
16.142726
10.995865
10.952950
12.596846
15.312433
22.491813
31.111836
44.760704
58.346987
77.072978
87.985992
97.253919
98.058581
92.379451
84.142685
67.617893
56.081414
41.518807
34.289956
27.544498
24.260879
21.796823
21.068454
20.438433
20.892620
20.334721
20.275712
20.191669
20.374656
19.914508
20.225644
19.888878
##ZVALUE=335
0.632405
0.713468
0.794530
0.592470
0.776649
0.823736
0.703931
0.612736
0.728965
0.828505
0.743866
0.681877
0.821948
0.655651
0.837445
0.862479
0.666976
0.713468
0.718832
0.713468
0.777841
0.732541
0.686646
0.830889
0.800490
0.778437
0.898838
0.898838
0.788569
0.986457
0.812411
0.790954
0.799894
0.974536
1.017451
1.061559
1.094937
1.014471
1.000762
1.186728
1.151562
1.328588
1.371503
1.424551
1.451969
1.666546
1.961589
2.128482
2.223849
5.959868
22.874475
90.928674
190.324783
422.188640
670.594573
1001.801491
1015.774608
1015.774608
1015.774608
1015.774608
1015.774608
802.835822
543.326735
281.254649
145.165920
49.331784
21.559000
11.780858
11.519790
12.030602
13.438463
16.504526
21.758676
31.582713
42.298436
58.517456
71.554780
84.358454
92.029572
93.336701
89.529753
77.103972
67.151785
54.332614
44.644475
34.131408
28.645992
23.940802
21.859407
20.725727
20.341873
19.725561
19.839406
19.427538
19.511580
19.827485
##ZVALUE=340
0.825524
0.638962
0.739694
0.739694
0.763535
0.733733
0.668764
0.813603
0.732541
0.810623
0.819564
0.719428
0.839829
0.833869
0.908971
0.702739
0.837445
0.602603
0.723600
0.683665
0.767708
0.719428
0.835657
0.813603
0.880957
0.842810
0.932813
1.075864
1.034737
0.880957
0.948906
0.930429
0.941753
1.005530
0.851750
1.045465
1.067519
1.093745
1.239777
1.147985
1.209974
1.187921
1.271963
1.319647
1.403689
1.573563
1.531839
1.681447
1.797676
1.961589
2.238750
3.279448
10.226965
53.993464
134.974718
337.247849
562.727451
913.456678
1015.833020
1015.833020
1015.833020
1015.833020
1015.833020
953.195691
679.656863
359.517932
203.797817
85.112453
34.027696
13.277531
11.771917
11.813641
12.427568
14.381409
17.007589
22.600889
30.405521
42.353868
53.738952
70.405602
79.304576
86.900592
88.201761
83.803535
76.797605
64.096451
54.176450
41.854978
34.530759
27.488470
23.499727
20.352602
19.732714
19.034743
19.058585
18.907785
##ZVALUE=345
0.705719
0.703931
0.737906
0.669956
0.613928
0.648499
0.658631
0.654459
0.587702
0.724792
0.636578
0.813603
0.552535
0.755787
0.784993
0.743866
0.624657
0.708699
0.753999
0.710487
0.944734
0.793934
0.851750
0.681877
0.773668
0.787973
0.854731
0.878572
0.751615
0.717640
0.810623
0.862479
0.861883
0.886917
0.733733
0.932813
0.953674
1.109838
0.985861
1.040697
1.000762
1.161695
1.110435
1.166463
1.282692
1.275539
1.180768
1.209974
1.394749
1.463890
1.635551
1.834631
1.892447
2.364516
4.736781
29.670000
86.326599
235.524774
423.789620
761.129856
1011.469960
1015.774608
1015.774608
1015.774608
1015.774608
999.923944
747.089982
432.233810
243.388414
98.003745
44.940710
17.008781
12.045503
11.661649
12.076497
12.469888
13.525486
16.644597
20.517707
29.159784
38.682818
52.442551
63.122511
73.660612
79.499483
82.022548
80.153942
72.495937
64.105988
52.225590
42.449832
32.415986
26.520491
21.550655
20.109415
18.905997
##ZVALUE=350
0.825524
0.653863
0.665784
0.777841
0.765920
0.701547
0.735521
0.692606
0.625849
0.738502
0.674725
0.696778
0.744462
0.709891
0.734925
0.771880
0.763535
0.867844
0.753999
0.650883
0.844598
0.888705
0.767708
0.816584
0.866652
0.836849
0.874996
0.908971
0.813603
0.873804
0.692606
0.802875
0.908971
0.849962
0.934601
0.917912
0.944734
0.881553
0.935793
1.065731
1.052618
1.124740
1.078844
1.210570
1.247525
1.276731
1.215935
1.279712
1.264811
1.369715
1.468658
1.726747
1.700521
1.785755
1.963973
2.310872
3.040433
14.928579
50.902963
169.398785
322.825909
638.551712
919.578671
1015.818715
1015.818715
1015.818715
1015.818715
1015.818715
962.625742
571.726561
344.336629
156.362653
72.023869
22.975802
12.940764
11.514425
11.398792
11.934638
12.346506
13.819933
15.865564
21.002889
26.211739
35.565495
45.010448
57.822466
65.821409
74.165463
76.270700
73.441863
69.089532
57.920814
49.157739
38.332939
32.388568
25.405884
##ZVALUE=355
0.603795
0.758767
0.739694
0.585914
0.727773
0.643730
0.652671
0.691414
0.656843
0.544786
0.813603
0.648499
0.655651
0.731945
0.765920
0.743866
0.781417
0.835657
0.717640
0.714660
0.726581
0.799894
0.746846
0.715852
0.795722
0.802875
0.805855
0.911951
0.870824
0.877976
1.041889
0.916719
0.864863
0.858903
0.903606
0.933409
0.881553
1.074672
0.855923
0.919700
1.026988
1.012683
1.013875
0.841618
0.882745
1.069903
1.154542
1.107454
1.191497
1.216531
1.191497
1.425743
1.392961
1.567602
1.570582
1.843572
1.832843
1.980662
2.302527
7.054806
27.813911
111.809969
230.756998
483.666658
755.400658
1015.766859
1015.766859
1015.766859
1015.766859
1015.766859
971.149802
626.497865
390.315652
173.033476
81.949830
26.547909
13.788939
10.632873
10.471940
10.906458
11.110902
11.765957
12.587905
14.594793
17.393827
23.723841
30.106902
41.285753
50.072670
59.488416
65.496564
68.839788
67.715645
61.941743
55.625439
45.973659
##ZVALUE=360
0.675917
0.468493
0.721812
0.617504
0.644922
0.585914
0.646710
0.612736
0.736713
0.524521
0.580549
0.652671
0.623465
0.705719
0.708699
0.600815
0.644922
0.609756
0.832677
0.599623
0.697970
0.707507
0.667572
0.711679
0.745654
0.623465
0.813603
0.777841
0.854731
0.850558
0.788569
0.794530
0.746846
0.876784
0.757575
0.885725
0.899434
0.800490
0.809431
1.035929
0.858903
1.010895
0.876784
0.931621
1.061559
1.041889
1.073480
1.129508
1.099706
1.269579
1.217723
1.328588
1.295805
1.440644
1.426935
1.588464
1.778603
1.732707
2.041459
2.185702
2.371669
3.118515
13.054609
43.734908
150.970817
297.448039
593.107939
885.190964
1015.748978
1015.748978
1015.748978
1015.748978
1015.748978
907.521844
526.803732
309.993625
127.099752
54.732561
17.376542
10.989904
10.260940
10.338426
10.338426
10.762811
10.825992
11.513829
13.388991
15.496612
20.163655
25.356412
34.138560
41.626692
51.448941
57.594776
61.824918
61.815977
##ZVALUE=365
0.567436
0.720620
0.647902
0.728965
0.627637
0.755787
0.651479
0.744462
0.822544
0.832677
0.672936
0.598431
0.726581
0.691414
0.822544
0.862479
0.774860
0.710487
0.748634
0.741482
0.714660
0.686646
0.737906
0.748634
0.782609
0.600815
0.616908
0.741482
0.772476
0.760555
0.778437
0.771880
0.876784
0.933409
0.730753
0.858903
0.831485
0.756979
0.856519
0.900626
0.969768
0.980496
0.904799
0.979900
1.126528
1.110435
0.999570
1.112819
1.121759
1.130700
1.010895
1.115799
1.274943
1.387596
1.257658
1.305938
1.361966
1.449585
1.569986
1.654625
1.567602
1.973510
2.234578
2.464652
4.772544
27.546883
80.607533
228.528976
414.842963
726.755857
980.544686
1015.774012
1015.774012
1015.774012
1015.774012
856.522918
599.887967
320.637822
175.262690
65.222979
26.506782
11.119843
9.280443
9.297729
9.376407
9.420514
9.865761
9.837747
10.382533
11.131763
13.204813
17.090440
21.461844
28.965473
35.642982
44.762492
##ZVALUE=370
0.697970
0.509620
0.670552
0.737906
0.711679
0.574589
0.747442
0.741482
0.661612
0.734925
0.747442
0.672936
0.585914
0.713468
0.597835
0.634789
0.504851
0.660419
0.703931
0.836849
0.757575
0.742674
0.782609
0.852942
0.885725
0.812411
0.735521
0.758767
0.757575
0.765920
0.569820
0.734925
0.854731
0.867844
0.729561
0.817776
0.852942
0.949502
0.901818
0.786781
0.905991
0.784993
0.878572
0.895858
0.937581
1.116991
1.083612
0.958443
0.944734
0.986457
1.045465
1.065731
1.003742
1.148582
1.036525
1.112819
1.314878
1.312494
1.322627
1.334548
1.575947
1.754761
1.885891
1.994967
2.071857
2.443790
3.160834
15.743971
54.357648
177.157521
329.243541
609.871745
885.559916
1015.789509
1015.789509
1015.789509
1015.789509
1015.789509
795.647502
438.627005
243.944526
91.328621
40.434599
14.776587
9.469986
8.626580
8.681417
8.458495
8.690953
8.829832
9.106994
9.320974
10.303855
12.240410
14.818907
20.141602
##ZVALUE=375
0.627637
0.627637
0.699759
0.530481
0.622869
0.691414
0.841618
0.521541
0.659823
0.621676
0.792742
0.719428
0.572801
0.568628
0.549555
0.644922
0.660419
0.728965
0.556707
0.703931
0.650883
0.717640
0.597835
0.644922
0.546575
0.695586
0.694990
0.539422
0.689626
0.651479
0.794530
0.648499
0.740886
0.789762
0.735521
0.764728
0.735521
0.803471
0.781417
0.786781
0.786781
0.868440
0.762939
0.865459
0.889897
0.818968
0.916719
0.899434
0.861883
0.998974
0.973940
0.939965
0.857711
0.968575
0.934601
1.064539
1.091957
0.971556
1.141429
1.181960
1.237988
1.339912
1.321435
1.469851
1.679659
1.704693
1.773834
2.146959
2.404451
7.830858
28.107762
100.383759
217.659473
491.896868
747.008920
1015.774012
1015.774012
1015.774012
1015.774012
1015.774012
931.341648
565.557480
344.679952
154.974461
73.436499
23.574829
10.999441
7.903576
8.010864
7.944703
8.000731
7.921457
8.425713
8.343458
8.421540
9.355545
##ZVALUE=380
0.618696
0.586510
0.508428
0.454783
0.585914
0.538826
0.544786
0.577569
0.451803
0.723600
0.611544
0.499487
0.584722
0.574589
0.648499
0.614524
0.726581
0.714660
0.767708
0.640750
0.666976
0.619888
0.608563
0.626445
0.559688
0.587702
0.665784
0.738502
0.735521
0.517964
0.562668
0.709891
0.706911
0.684857
0.681877
0.754595
0.724792
0.732541
0.611544
0.662804
0.899434
0.806451
0.777841
0.750422
0.806451
0.770688
0.601411
0.695586
0.654459
0.784993
0.921488
0.921488
0.736713
0.873804
0.834465
1.003742
0.867844
0.859499
1.032948
1.032948
1.086593
1.047850
1.108646
1.243949
1.202822
1.392961
1.451969
1.485944
1.806617
2.064705
2.500415
3.756881
20.151734
64.160824
194.553733
354.516506
649.870634
921.512842
1015.774608
1015.774608
1015.774608
1015.774608
992.476940
756.499767
433.636904
252.754688
101.866722
46.025515
13.692975
8.263588
7.345676
7.223487
7.033944
7.201433
7.507801
7.561445
##ZVALUE=385
0.515580
0.512600
0.512600
0.516772
0.589490
0.687838
0.550747
0.606775
0.526905
0.527501
0.549555
0.737906
0.592470
0.547767
0.653863
0.645518
0.415444
0.416636
0.594854
0.672936
0.628829
0.655651
0.609756
0.670552
0.760555
0.629425
0.505447
0.722408
0.819564
0.627637
0.673532
0.565648
0.522733
0.638962
0.702739
0.603795
0.694990
0.669956
0.803471
0.644922
0.750422
0.728965
0.711679
0.642538
0.725985
0.777841
0.756979
0.849962
0.703931
0.726581
0.815988
0.680685
0.708699
0.744462
0.963807
0.858903
0.992417
0.832677
1.082420
0.895858
0.917912
1.049638
1.055598
1.233816
1.204610
1.218915
1.261830
1.409650
1.694560
1.804829
1.931787
2.073646
2.361536
2.623796
7.388592
46.545863
125.674605
318.755507
554.327965
934.959650
1015.774012
1015.774012
1015.774012
1015.774012
1015.774012
972.232819
687.416792
372.315645
205.801725
79.989433
31.794906
9.863973
7.256866
6.856918
6.823540
6.986856
##ZVALUE=390
0.575781
0.530481
0.645518
0.544786
0.486970
0.640750
0.611544
0.654459
0.482798
0.550747
0.527501
0.604987
0.526905
0.590682
0.520945
0.641942
0.691414
0.586510
0.534654
0.637770
0.765920
0.759959
0.584722
0.735521
0.455976
0.570416
0.602603
0.608563
0.468493
0.562668
0.622869
0.496507
0.609756
0.576973
0.663996
0.503659
0.756979
0.702739
0.668764
0.666976
0.661612
0.833869
0.664592
0.680685
0.600815
0.768900
0.880957
0.657439
0.759959
0.815988
0.860691
0.873804
0.668764
0.944734
0.816584
0.905991
0.676513
0.970960
0.972748
0.987649
0.931621
1.090765
0.830889
1.009703
1.387596
1.328588
1.330972
1.377463
1.413822
1.757741
1.654625
1.857877
1.821518
2.129674
2.245903
2.356768
3.685951
22.799969
76.590776
239.341855
451.574922
825.992823
1015.774012
1015.774012
1015.774012
1015.774012
1015.774012
1015.773416
911.932588
559.358597
320.170522
126.399994
54.123998
14.380813
7.611513
6.347895
##ZVALUE=395
0.509620
0.555515
0.496507
0.581741
0.494719
0.608563
0.544786
0.655651
0.563860
0.698566
0.642538
0.681877
0.555515
0.415444
0.631809
0.543594
0.709891
0.706911
0.598431
0.653863
0.559688
0.737906
0.659823
0.517964
0.575781
0.602603
0.710487
0.652671
0.639558
0.599623
0.681877
0.820756
0.690818
0.655651
0.789762
0.778437
0.705719
0.462532
0.738502
0.540614
0.754595
0.838637
0.805855
0.713468
0.681877
0.758767
0.769496
0.752807
0.760555
0.679493
0.709891
0.751615
0.807643
0.819564
0.832677
0.938773
0.915527
0.969768
0.803471
0.960827
0.869632
1.091957
1.037717
1.133680
1.071692
1.273751
1.240969
1.239777
1.494884
1.817942
1.650453
1.770854
1.869798
1.885891
1.884699
1.879930
2.084970
2.130866
2.789497
13.276935
50.084591
179.488659
335.631967
637.261868
939.851999
1015.774608
1015.774608
1015.774608
1015.774608
1015.774608
1015.774608
710.693598
440.481901
190.503597
88.039637
26.552677
##ZVALUE=400
0.568628
0.582933
0.535846
0.440478
0.634789
0.625849
0.595450
0.380874
0.606775
0.601411
0.524521
0.585914
0.541806
0.533462
0.462532
0.634789
0.528693
0.623465
0.564456
0.545979
0.630617
0.512600
0.656843
0.700951
0.584722
0.618696
0.638962
0.706911
0.661612
0.651479
0.444651
0.585914
0.747442
0.616908
0.607967
0.660419
0.644922
0.732541
0.553727
0.659823
0.610948
0.662804
0.694990
0.689626
0.597835
0.618696
0.589490
0.691414
0.653863
0.829697
0.697970
0.781417
0.745654
0.920892
0.906587
0.786781
0.700951
0.826716
0.810623
0.704527
0.795722
0.847578
0.766516
0.982881
0.948906
1.078844
1.021624
1.171827
1.384616
1.390576
1.499653
1.622438
1.710653
1.481771
1.522899
1.391768
1.599789
1.730919
1.814961
1.959801
2.236962
6.717443
26.446581
103.908777
222.380757
486.523509
747.540593
1015.774012
1015.774012
1015.774012
1015.774012
1015.774012
1015.774012
763.560534
509.018898
260.008574
##END
