##TITLE=QP00302
##FORMAT=SPECTACLE-ASCII V-1.2
##DATA TYPE=ULTRAVIOLET SPECTRUM
##SECOND TYPE=ULTRAVIOLET SPECTRUM
##DATE=02/12/18
##TIME=15:11:25
##SPECTROMETER/DATA SYSTEM=SPECTACLE
##XUNITS=NM EM
##YUNITS=ENERGY
##YFACTOR=1
##FIRSTX=220
##LASTX=410
##NPOINTS=96
##3DDATA=Equidistant
##ZUNITS=NM EX
##FIRSTZ=210
##LASTZ=400
##ZPOINTS=39
##XYDATA=(Y..Y)
##ZVALUE=210
2.244711
2.511740
2.640486
2.101660
1.983643
2.128482
2.838969
2.711415
2.660751
2.677441
2.068877
2.449751
2.148747
2.083778
2.402663
2.577901
2.180934
2.332926
2.606511
2.242923
2.726912
3.179908
2.620816
3.388524
3.626943
3.832579
3.838539
3.428459
3.689528
3.379583
3.777742
3.728867
3.979802
3.390908
4.317760
3.532767
4.449487
4.071593
4.010797
4.317760
3.991723
3.997684
4.674792
5.028844
4.514456
4.446507
4.541874
4.583597
4.839897
4.519820
4.245639
4.702806
4.778504
5.268455
5.164742
5.271435
4.963875
5.311966
5.247593
5.205870
5.012751
4.988909
5.396605
5.841851
5.548596
5.701780
6.324649
6.364584
6.844997
8.742809
10.436773
11.176467
14.572740
14.866590
14.972687
15.511513
16.382933
15.069842
15.467405
14.460683
13.327599
11.818409
10.536909
10.303855
9.347796
6.756783
6.670952
6.713867
6.043911
6.200671
5.370975
5.624890
6.028414
5.802512
6.191730
7.258654
##ZVALUE=215
7.068515
6.470680
5.855560
5.508661
4.603863
4.686713
4.699826
4.701614
5.378723
5.728602
4.812479
4.664660
4.163980
3.660917
2.825856
2.923608
2.855659
2.616644
2.828836
2.836585
3.090501
3.554821
3.132820
3.408790
3.542900
3.808737
3.970861
4.461408
4.332662
3.637671
4.480481
4.296899
4.842877
4.460812
4.465580
5.227923
4.993677
5.115867
5.603433
5.366802
5.762577
5.175471
3.912449
5.220771
5.355477
5.725622
6.283522
5.632639
5.930662
5.373955
6.288886
6.108880
6.652474
6.561875
6.748438
6.764531
6.141663
6.595850
6.777644
7.305741
6.539822
6.549954
6.070733
6.523728
6.774664
7.626414
8.220673
7.576942
8.562803
10.092854
11.556745
14.520884
14.551878
17.149448
19.123554
19.423962
18.971562
19.279718
18.976927
18.752813
18.340945
16.040802
12.951493
12.484789
11.651516
9.516478
9.000897
7.709861
7.528663
7.723570
7.290840
6.513596
7.602572
7.022619
6.913543
7.368922
##ZVALUE=220
19.716620
20.682812
24.069548
25.240779
23.479462
21.222830
18.628836
12.578964
12.820959
12.517571
12.228489
12.453794
11.938810
11.772513
9.019971
8.052588
5.084872
4.080534
4.225969
3.579855
3.678799
3.679991
3.846884
3.907681
4.796982
4.238486
4.758835
4.318953
5.420446
5.030632
4.958510
5.379915
5.382895
5.619526
4.732609
5.440712
6.237626
6.142855
5.422831
6.506443
6.043911
5.925894
6.478429
5.444884
5.570650
5.940795
6.051660
5.909801
6.266832
6.131530
6.035566
6.578565
6.291866
6.232858
6.235838
6.619692
6.543994
7.020831
7.751584
7.096529
8.085966
7.667542
7.177591
7.461905
7.990599
8.223653
9.055734
9.610653
8.918643
11.146665
13.098717
15.932918
17.323494
19.477606
19.268990
20.016432
21.438599
22.232533
22.576451
21.536946
19.979477
18.395782
17.012954
15.668869
13.988614
11.359453
10.258555
10.446906
9.706616
8.213520
8.261800
8.804798
8.459687
8.172989
9.112954
8.176565
##ZVALUE=225
46.206713
47.560930
64.688921
81.679821
91.987848
94.813704
80.317855
66.649914
49.097538
37.480593
27.592778
23.541451
23.716688
27.863979
27.588606
24.017692
21.016598
18.292665
12.747645
8.964539
6.499887
4.489422
3.911853
4.883409
5.172491
5.566478
5.102754
5.221963
5.171895
5.035996
6.297827
6.504655
6.471872
6.324649
7.236600
6.200671
6.553531
6.256700
7.248521
7.104874
8.005500
7.829666
7.415414
7.003546
7.770658
7.823706
7.404685
7.537603
7.467866
8.579493
7.803440
8.171797
7.764697
8.454919
8.369684
8.885860
9.281635
8.369684
9.423494
8.791685
9.199977
9.748936
8.767843
10.188818
10.320544
10.475516
12.871623
14.027953
14.088750
14.494658
16.164780
19.171834
21.186471
20.615458
23.368001
24.568439
25.026798
25.943518
24.969578
22.443533
21.873713
20.468831
20.039678
16.627908
15.973449
15.511513
13.833642
12.462735
13.154745
12.330413
12.058616
12.033582
12.187958
11.545420
11.724830
11.505485
##ZVALUE=230
37.608743
41.882992
69.143772
108.344555
139.885545
177.948475
192.212462
190.032721
167.883635
127.403736
95.532537
65.216422
52.832961
46.435595
44.489503
47.800541
51.531792
49.678683
44.053793
37.898421
29.257536
20.743608
11.554956
8.436441
7.183552
6.076694
5.853772
5.923510
5.877614
4.748702
4.966855
5.684495
6.368756
7.191896
6.536841
5.831718
6.913543
6.276965
6.379485
7.451773
6.567836
7.178783
7.289648
6.805658
7.368922
6.230474
6.511807
7.991791
7.450581
6.909966
7.813573
8.740425
8.426905
8.129478
8.799434
8.905530
10.133982
9.750724
9.438992
10.633469
9.477735
10.537505
9.407997
10.518432
10.412931
11.385679
11.997819
11.933446
13.978481
16.401410
17.138720
18.678904
19.434690
23.157597
22.828579
24.115443
24.697781
23.091435
24.220943
22.315979
20.728707
22.781491
20.927787
18.930435
18.568635
19.202828
17.104745
17.874837
17.893910
17.665625
17.110705
17.771721
17.275810
16.403794
17.467737
17.563701
##ZVALUE=235
13.723969
14.522672
32.146573
75.938702
120.187998
187.668800
244.401693
303.237438
337.320566
329.589844
284.880996
242.055655
164.306760
125.981569
85.834861
76.957941
76.306462
83.488822
83.503723
88.759661
82.768798
69.468617
57.264566
38.736463
26.017427
15.214682
11.654496
8.225441
6.193519
7.168651
7.180572
7.530451
7.583499
6.726980
7.374883
7.362962
7.660985
7.675886
6.860495
7.237792
8.476973
7.400513
7.991791
7.298589
7.780790
7.179976
7.475615
7.567406
7.843971
8.649826
8.432865
7.242560
9.372830
8.703470
8.094907
9.563565
9.581447
8.688569
10.800958
10.807514
11.159778
10.906458
13.046861
12.214780
13.957620
14.466643
14.401674
18.383861
16.121864
18.402934
20.605922
23.720860
25.576949
27.437806
28.099418
26.769638
27.418733
27.213693
28.311610
28.482676
27.334690
28.185844
27.035475
27.361512
24.655461
24.663806
24.947524
25.193691
23.447871
26.552677
24.910569
26.947856
24.886727
24.188757
25.559664
24.359822
##ZVALUE=240
2.098680
1.647472
5.966425
17.581582
53.022504
96.720457
196.998715
291.381478
426.518917
517.171621
578.518510
587.715507
541.955829
425.866842
322.517753
204.595923
147.778988
103.205442
91.103911
96.267462
111.502409
112.713575
109.840631
101.282001
78.754425
64.175725
46.455860
31.363964
20.259619
14.891624
11.505485
9.715557
10.122657
9.743571
9.464622
8.990765
9.707808
8.254647
8.536577
8.836985
8.910894
8.680820
8.728504
8.980632
9.443760
8.972883
8.761883
8.134842
8.552670
8.636713
8.781552
8.659959
8.660555
9.964705
9.513497
9.803772
9.843707
10.574460
10.841489
11.253953
11.908412
13.075471
12.215972
13.527870
14.715791
16.164780
16.285777
18.171668
21.211505
23.080707
24.790764
24.606586
28.438568
30.421615
33.130646
34.864545
34.710765
33.664703
35.024881
30.965805
32.438636
31.510592
30.292869
30.257702
29.449463
28.936863
30.106902
29.198527
28.578639
29.554963
29.261708
29.522777
30.574799
30.064583
30.203462
29.346943
##ZVALUE=245
1.405478
1.647472
1.693964
1.964569
4.825592
20.943880
50.882697
138.408542
236.145854
358.310938
544.369817
668.799877
761.443973
761.304498
686.118603
569.584966
406.115651
290.271640
203.326941
123.254657
97.137690
97.932816
107.048750
124.606490
125.167966
122.288465
110.550523
90.070963
75.536966
52.456856
37.421584
22.910833
17.737746
12.553930
9.943843
9.961724
9.251833
9.957552
8.781552
9.507537
8.266568
8.649826
8.240938
8.248687
7.668734
7.855892
6.865859
6.892681
7.864833
7.281899
7.478595
7.388592
8.121729
7.850528
7.945895
8.751750
8.985996
9.234548
8.472800
9.607673
9.201765
10.564923
10.805726
11.766553
13.315678
12.874603
13.551712
15.101433
16.642809
18.809438
20.018816
22.445917
23.852587
26.341677
26.240945
28.301477
29.507875
27.830601
29.811859
29.259920
29.324889
28.692484
28.574467
29.440522
28.429627
28.520823
29.516816
30.271411
29.391646
27.014613
27.759671
28.733611
27.130842
27.810931
28.404593
27.036667
##ZVALUE=250
1.167655
1.450777
1.585484
1.382828
1.370907
1.700521
2.399683
6.570816
25.823712
56.409836
140.199661
227.255821
330.160856
482.558012
566.045642
642.772913
631.699562
558.492541
470.409989
325.628519
226.400495
149.432421
100.716949
90.823770
104.663968
119.030476
133.450627
134.455562
128.983855
118.257999
102.741718
77.451468
56.613684
34.000874
24.257898
13.974905
9.902716
7.934570
7.177591
6.406903
6.398559
5.816817
7.062554
6.052852
5.927682
6.064773
6.001592
6.495714
6.249547
5.989671
5.490780
5.894899
5.342960
5.659461
6.182790
6.011724
6.082654
7.051826
6.518960
6.594658
8.162856
8.810759
7.954836
10.372996
10.470748
10.851622
11.672974
11.970997
14.173985
15.642643
16.650558
18.508434
19.520521
20.429492
21.473765
24.027824
23.574829
24.409890
24.640560
24.168491
24.749637
25.518537
24.687648
24.923682
25.663972
26.616454
25.095940
25.653839
26.592612
26.142597
27.328730
26.145577
26.253462
26.988983
27.247667
27.467608
##ZVALUE=255
1.215935
1.355410
1.125932
1.092553
1.615882
1.272559
1.424551
1.326799
1.644492
3.414750
18.356442
45.799613
95.555782
205.879807
317.159891
485.442877
595.484972
699.308515
723.993778
674.788952
577.458739
460.434556
293.956995
191.298723
110.899806
87.619424
89.468956
100.344419
122.079849
135.336518
142.995715
134.819746
122.931004
100.577474
78.008771
52.191615
36.486983
21.005869
13.669729
9.464622
7.262826
6.160736
6.198883
6.081462
6.110668
5.656481
5.719662
5.611777
6.074905
5.337596
5.294681
5.691648
5.198717
5.580783
5.967617
5.681515
6.275773
6.357431
6.843805
6.667972
7.267594
8.034706
8.004904
7.550716
8.623600
10.094643
10.535717
11.113882
11.660457
12.534857
14.009476
14.833808
16.809702
17.990470
19.704700
20.158887
19.928813
21.004677
22.301674
21.523833
21.342635
22.865534
22.866726
22.705793
23.054481
24.244785
23.463964
24.939775
23.316741
24.923682
24.845600
24.132729
24.919510
24.858713
25.366545
25.755763
##ZVALUE=260
1.114607
1.032948
1.077652
1.040697
1.090765
1.159906
1.376867
1.288652
1.510978
1.582503
1.986623
2.538562
6.924868
31.644702
70.617795
164.344907
268.905759
440.619588
572.382808
728.274584
797.333717
793.203712
704.975724
574.221015
389.117599
267.477632
158.224702
104.357600
75.348616
77.761412
94.417930
120.383501
136.406422
142.151713
141.469836
122.533441
104.063749
76.916814
56.076646
35.379529
22.536516
12.951493
8.907914
7.268786
6.282926
5.937815
5.966425
5.888939
6.221533
5.751848
5.611777
5.743504
6.076694
6.537437
6.001592
6.198883
6.386638
6.147623
6.576777
6.786585
7.028580
7.442832
7.402897
7.306933
8.821487
8.954406
9.412766
10.527968
10.918975
12.384653
13.674498
14.100671
15.373826
16.445518
16.609430
17.853975
18.501878
18.771887
19.973516
20.519495
19.985437
20.769835
19.980669
21.322966
22.108555
21.261573
22.238493
21.537542
22.268891
23.119450
21.860600
22.556782
23.652911
23.051500
24.597645
24.839640
##ZVALUE=265
1.026988
1.186728
1.001954
1.251698
1.308918
1.129508
1.211762
1.484752
1.256466
1.423955
1.345873
1.627803
1.648664
2.333522
3.635883
20.214915
49.978495
129.360557
223.366618
409.745574
574.243665
725.514889
870.756507
904.734731
838.537812
730.063915
555.599928
400.192738
230.351686
149.511695
85.819960
68.992972
76.936483
104.717612
123.886466
142.607689
147.723556
139.815807
126.016736
101.584792
80.008507
53.385496
36.698580
21.104813
12.932420
8.743405
7.186532
6.034970
6.038547
6.260872
5.728602
5.965829
6.140471
6.429553
6.288886
6.136894
6.209612
6.648898
7.108450
6.973743
7.395744
7.768869
7.633567
8.190870
8.600950
9.355545
9.601712
10.470748
10.034442
12.113452
12.514591
13.220906
14.679432
15.375614
15.363693
17.281771
17.044544
18.283725
18.135905
18.546581
18.172860
18.882751
19.136667
19.369721
19.895434
19.466877
20.672679
21.210909
21.038651
20.840764
21.526814
21.742582
20.754933
22.895932
22.800565
22.194982
##ZVALUE=270
1.000762
0.967979
1.043677
0.834465
1.186728
1.052618
1.112819
1.092553
1.134872
1.169443
1.340508
1.326799
1.310706
1.503825
1.485944
1.702905
2.077818
9.010434
27.097464
89.583993
174.703598
301.786661
534.933805
717.857480
911.388993
981.784463
964.318514
876.633525
679.095984
516.595840
358.151793
187.518001
106.347799
59.341788
58.421493
80.104470
98.558664
126.407743
139.606595
144.834518
140.671730
123.798847
105.360746
76.452494
56.807995
33.827424
23.280978
13.643503
9.740591
7.432699
6.290674
6.187558
6.776452
6.564856
7.047653
6.834865
6.765723
6.745458
6.996989
8.298755
7.282495
7.258654
8.420944
8.057952
8.569956
8.800626
9.777546
10.139942
10.830760
11.336803
12.694597
12.812614
14.200807
15.032887
15.172958
16.595721
16.379952
16.248822
17.934442
16.914606
17.451644
17.734766
18.638968
18.493533
18.662810
19.092560
18.885732
19.468665
19.476414
19.490719
20.969510
20.402670
19.741654
20.456910
20.567775
20.926595
##ZVALUE=275
0.940561
1.106858
0.918508
0.933409
0.853539
0.786781
0.994802
0.947714
1.069903
1.189709
1.184940
1.138449
1.487732
1.335740
1.346469
1.382828
1.756549
1.793504
1.796484
4.067421
15.647411
45.185685
139.309764
266.701579
494.405627
670.157671
880.282521
1000.347733
1015.791893
988.991857
822.369456
641.973615
459.212661
246.908665
141.779780
65.676570
48.291683
56.456923
75.487494
102.239847
121.313930
139.424801
145.949721
137.960911
125.182867
100.969672
78.766942
53.696632
38.588643
23.174882
15.603900
9.829998
8.187890
7.318854
7.023811
7.153749
7.380843
7.435679
7.753968
7.482767
8.131862
8.192658
8.332729
8.637905
8.963943
9.265542
9.581447
9.759665
11.225939
12.107491
12.106895
13.231635
13.651848
14.850497
15.272498
15.836954
15.370846
16.794801
16.775727
16.835928
16.645789
17.456412
17.653704
17.973781
17.954707
18.565655
17.737746
18.454790
18.420815
18.172860
18.961430
19.409657
19.551516
19.767880
19.979477
20.571947
##ZVALUE=280
0.873804
0.887513
0.789762
0.756979
0.765920
0.951886
0.948906
0.863671
0.835657
0.777841
0.884533
1.078844
0.895858
0.974536
0.916719
1.181960
1.249909
1.303554
1.459718
1.527667
1.540780
2.023578
8.857846
31.088591
102.362633
193.524957
368.320942
539.018512
772.469640
928.969979
1015.774012
1015.774012
942.711830
723.179579
525.678992
302.133560
176.965594
78.581572
45.511723
39.540529
52.073598
75.495839
97.444654
121.116638
133.855939
140.783787
135.689974
119.195580
102.886558
75.732470
56.352615
36.208630
24.837852
14.827847
10.766983
7.843971
7.490516
7.473826
7.762909
7.401705
7.777810
8.325577
8.764863
9.018779
9.234548
9.879470
10.254979
11.059642
11.304617
11.957884
12.623668
13.753772
13.246536
14.419556
15.081763
14.685988
15.391707
15.868545
15.903711
16.818643
16.711950
16.767979
17.168522
17.386675
17.236471
17.575622
17.538667
17.610788
17.923713
17.926693
17.931461
17.918944
17.865896
18.017888
18.258691
19.253492
##ZVALUE=285
0.663996
0.731945
0.766516
0.652671
0.797510
0.805855
0.814795
0.725985
0.865459
0.870824
0.806451
0.897646
0.999570
1.047850
0.945926
1.204610
1.189709
1.072884
1.150966
1.206994
1.427531
1.501441
1.622438
1.892447
5.352497
17.395616
47.934651
134.709477
239.180923
440.338850
619.612932
848.140717
972.682834
1015.774012
984.911919
818.254948
639.294982
393.590927
242.080688
114.000440
59.396625
32.053590
32.673478
49.769878
68.591833
96.124411
114.548802
131.488442
137.006640
132.902861
121.010542
100.295544
81.230998
55.755973
39.101839
23.225546
16.020536
10.834932
9.539723
8.022785
8.193851
8.516908
8.445978
9.252429
9.543896
10.553598
9.857416
10.867715
11.624694
12.075901
12.197495
13.143420
13.639927
14.321804
15.446544
15.806556
15.560985
16.020536
15.994906
16.356707
16.664863
16.658902
17.181635
16.986728
16.958714
17.690659
17.930865
17.628670
17.954707
18.224716
17.928481
17.407537
17.581582
17.685890
18.088818
18.179417
##ZVALUE=290
0.612736
0.736713
0.683665
0.771880
0.805855
0.823736
0.800490
0.736713
0.671744
0.956655
0.780821
0.887513
0.958443
0.733733
0.958443
0.904799
0.984669
0.956655
0.966787
1.106858
1.122952
1.300573
1.422763
1.586676
1.672506
1.616478
2.425909
7.246733
32.396913
76.186657
183.814764
319.081545
491.098762
752.236843
917.114615
1015.774012
1015.774012
931.337476
773.955584
519.389510
341.719985
169.419646
85.945725
34.452677
23.583770
31.863451
45.107603
67.345500
86.376667
109.685659
123.774409
132.977962
130.608678
116.395950
100.121498
73.630810
57.021976
37.299991
26.171803
16.572475
12.393594
9.916425
9.555817
9.310842
9.866953
10.322928
10.247827
11.369586
11.809468
12.658834
12.653470
13.971925
14.201999
14.611483
15.470982
15.609860
15.407801
15.783906
16.182661
16.897917
17.302632
16.743541
17.190576
17.754436
17.691851
18.004775
17.431974
18.396974
17.803907
18.028617
17.813444
17.145872
17.763972
18.044710
17.271638
17.427802
##ZVALUE=295
0.769496
0.872612
0.894666
0.670552
0.811815
0.834465
0.543594
0.813603
0.756979
0.828505
0.910759
0.788569
0.833869
0.914931
0.903606
0.953674
0.974536
1.078844
0.985861
1.053810
1.100898
1.176596
1.039505
1.308918
1.486540
1.647472
1.706481
1.808405
1.958609
3.206730
11.041760
45.228601
107.741952
258.912444
419.971943
680.187941
871.788859
1015.775800
1015.775800
1015.775800
942.937732
690.581799
491.145849
265.957713
140.359998
49.443841
24.461746
20.162463
26.468635
43.429732
59.652925
84.529519
101.053715
119.591951
126.843452
122.858882
113.773942
92.897415
76.280832
53.383708
39.420724
25.014877
18.152595
13.249516
11.604428
10.530949
10.608435
11.395812
11.714697
12.683868
13.244748
13.746619
14.620423
15.139580
15.450716
15.529990
16.560555
16.806722
16.616583
16.620755
17.341971
17.724633
17.720461
17.708540
18.256903
18.022656
18.137693
18.117428
17.482638
18.129945
17.869473
17.510653
17.419457
17.798543
17.537475
18.177629
##ZVALUE=300
0.838637
0.772476
0.843406
0.660419
0.689626
0.536442
0.651479
0.669956
0.678897
0.603795
0.702739
0.805855
0.798702
0.720620
0.953674
0.952482
0.950694
0.843406
0.992417
1.015663
0.867844
0.971556
0.943542
0.924468
1.176596
1.088977
1.243949
1.253486
1.299977
1.426935
1.631975
1.975894
4.799962
28.184652
72.535872
189.541578
329.498649
579.376817
782.747865
998.089910
1015.774608
1015.774608
998.072028
787.423849
589.649677
345.045924
210.002661
92.961788
42.900443
17.683506
16.577840
25.156736
35.930872
56.422949
73.731542
96.970797
110.330582
119.074583
118.759871
108.986497
95.025897
73.143840
57.843924
38.555861
28.804541
19.104481
15.213490
12.702942
12.000799
12.405515
12.904406
13.520718
14.360547
14.911890
15.758872
16.111732
16.502738
16.272664
16.738772
16.983747
17.273426
18.201470
18.545985
18.128753
18.326640
18.354654
18.641949
18.879771
18.282533
18.614531
17.824769
18.545985
17.799735
17.519593
17.528534
18.351674
##ZVALUE=305
0.659823
0.578761
0.745654
0.637770
0.708699
0.704527
0.752807
0.757575
0.644922
0.643730
0.643730
0.672936
0.803471
0.740886
0.767708
0.829697
0.764728
0.809431
0.840425
0.887513
0.831485
0.830889
0.807643
1.004934
1.019835
1.209974
1.039505
1.028776
1.167655
1.195669
1.331568
1.420975
1.724958
1.741648
2.841949
14.644861
43.472648
133.471489
247.168541
471.632481
665.237904
915.948749
1015.774608
1015.774608
1013.616920
826.728940
650.585890
418.168902
265.147686
125.455856
62.583685
22.682548
13.355613
16.258955
22.485852
36.768913
52.544475
74.100494
90.305805
107.417703
113.729835
112.691522
106.127858
89.498758
72.631836
52.022934
40.048957
27.817488
20.752549
16.381741
14.735460
14.636517
14.382601
15.516877
15.609860
16.020536
16.614795
16.234517
17.657876
17.287731
17.881989
18.092990
18.478632
18.851757
18.881559
18.924475
19.128919
18.980503
19.699931
18.720627
18.895864
18.263459
18.583536
18.141866
17.898679
17.972589
##ZVALUE=310
0.725985
0.604987
0.652671
0.738502
0.841618
0.571609
0.608563
0.541806
0.635982
0.602603
0.740886
0.693798
0.806451
0.731945
0.775456
0.854731
0.715852
0.836849
0.736713
0.622869
0.789762
0.735521
0.748634
0.912547
1.047850
1.022816
0.973940
1.058578
1.023412
1.053810
1.091957
1.144409
1.189709
1.434684
1.538992
1.553893
2.017617
6.433725
22.032857
77.230930
161.296725
352.411866
542.557836
829.351544
1001.316905
1015.780568
1015.780568
978.173614
812.414885
545.261502
372.130871
191.838741
105.079412
38.384795
16.858578
11.204481
14.405847
21.890998
30.943751
48.107505
63.038468
85.322857
97.800493
109.137893
109.628439
101.121664
90.236664
72.734952
57.601929
40.207505
31.155944
22.841692
19.046664
16.685724
16.151667
16.610622
16.546845
17.087460
17.794967
17.709732
18.012524
18.849969
19.468665
19.462705
19.810796
19.421577
19.941926
20.020604
19.578934
19.165874
19.232631
19.082427
19.177794
18.884540
18.664598
18.558502
##ZVALUE=315
0.615716
0.554919
0.727773
0.566840
0.605583
0.628829
0.522733
0.689626
0.482798
0.625849
0.699759
0.719428
0.772476
0.781417
0.626445
0.762939
0.702739
0.677705
0.639558
0.950694
0.740886
0.785589
0.904799
0.896454
0.837445
0.903606
0.766516
0.788569
0.954866
0.972748
0.951886
0.995994
1.156926
1.235604
1.255870
1.373887
1.594424
1.465678
1.879930
3.328919
11.754632
52.920580
123.466849
294.345617
477.886796
759.939551
943.887830
1015.774608
1015.774608
1011.216640
881.753564
644.613504
463.446975
255.663991
144.722462
55.905581
24.122596
10.620952
10.658503
14.402866
19.408464
31.867623
43.670535
62.423944
77.492595
95.025897
102.914572
105.130672
100.937486
86.367726
73.006749
55.968761
43.409467
30.431747
24.653673
20.222664
18.320680
17.849803
17.684698
18.195510
18.232465
18.625855
19.250512
19.780993
19.599795
19.320846
19.591451
19.761920
20.054579
19.665956
19.453764
19.132495
19.062757
19.211769
18.836856
19.022822
##ZVALUE=320
0.465512
0.523925
0.561476
0.668764
0.477433
0.507832
0.548959
0.620484
0.472665
0.501871
0.394583
0.579953
0.429749
0.423789
0.592470
0.594854
0.548959
0.687838
0.635982
0.641942
0.635982
0.545979
0.759959
0.685453
0.616908
0.794530
0.696778
0.756979
0.769496
0.940561
0.909567
0.847578
0.962615
0.909567
0.997782
1.084805
0.989437
1.281500
1.113415
1.534820
1.459718
1.998544
4.926920
27.881861
75.001717
210.312605
364.586711
634.596944
854.159594
1015.658975
1015.658975
1015.658975
998.557806
751.381516
544.197559
301.900506
171.759725
71.925521
32.864809
12.742877
9.434819
10.641813
13.006926
19.892454
27.376413
42.737722
55.958629
74.754953
87.800622
99.676847
100.613832
96.546412
87.294579
69.672465
57.021976
40.558577
32.213926
25.260448
21.191835
18.748641
18.984675
18.766522
18.770695
19.235611
19.338727
20.005703
19.752979
19.785762
19.802451
19.844770
19.708872
19.344687
19.049644
19.063950
19.113421
19.012690
##ZVALUE=325
0.430942
0.464916
0.463724
0.463724
0.295639
0.390410
0.517964
0.355840
0.402927
0.454783
0.368953
0.391603
0.427961
0.507832
0.352859
0.470877
0.520945
0.506639
0.520945
0.497699
0.467896
0.530481
0.407696
0.539422
0.611544
0.514984
0.704527
0.597835
0.468493
0.743866
0.741482
0.663996
0.959635
0.687838
0.620484
0.800490
0.637770
0.837445
1.031756
0.933409
0.981688
1.248717
1.379848
1.793504
3.042817
18.415451
48.585534
137.517452
252.736807
485.514998
696.522593
960.196853
1015.588641
1015.588641
1015.588641
835.473537
622.915626
364.025831
221.890807
100.629926
48.248768
16.696453
9.948611
9.246469
10.333657
14.171600
18.849969
28.471947
40.255785
58.348775
72.117448
87.726712
94.615817
97.368956
92.744827
79.466701
68.436861
52.594543
42.014718
31.073689
25.435686
21.506548
20.134449
19.168854
19.413829
19.215941
19.492507
19.282699
19.370914
19.460917
19.081831
19.163489
19.422770
18.872619
18.810630
18.894672
##ZVALUE=330
0.562668
0.466704
0.410676
0.560880
0.670552
0.344515
0.386834
0.536442
0.405908
0.535846
0.563860
0.497699
0.613928
0.445843
0.764728
0.527501
0.623465
0.511408
0.640750
0.650883
0.644922
0.598431
0.639558
0.611544
0.609756
0.744462
0.736713
0.828505
0.733733
0.837445
0.810623
0.839829
0.831485
0.684857
0.800490
0.962615
0.779629
0.862479
0.947714
0.916719
1.111627
1.034737
0.982881
1.260638
1.523495
1.497865
1.950860
7.146001
69.227815
91.060996
321.038961
361.968875
587.506890
764.564872
956.658721
1015.728712
1006.325483
895.980597
683.991909
505.777001
289.982557
163.083673
65.434575
30.062795
12.392998
9.290576
10.144711
10.947585
14.624000
19.680858
29.427409
40.088892
56.608915
70.128441
82.962513
88.899732
91.559887
87.191463
76.476932
65.332651
49.827695
41.297674
31.442642
27.054548
22.024512
21.184683
19.776821
19.838810
19.099712
19.491911
18.989444
18.996596
19.034743
18.811822
18.768907
18.718839
##ZVALUE=335
0.490546
0.618696
0.395775
0.427961
0.470877
0.539422
0.526905
0.653863
0.557899
0.667572
0.556707
0.553727
0.618696
0.466704
0.619888
0.685453
0.622869
0.487566
0.589490
0.646710
0.569820
0.580549
0.599623
0.724792
0.707507
0.621676
0.588894
0.669956
0.704527
0.787973
0.699759
0.756979
0.687838
0.717640
0.786781
0.761747
0.920892
0.877976
0.848770
0.922680
0.903606
0.985861
1.160502
1.170635
1.098514
1.274943
1.211762
1.618862
1.742840
3.301501
18.856525
55.910945
163.633823
292.958617
527.233481
724.426508
942.544937
1015.774012
1015.774012
945.446491
752.007961
574.532747
349.805951
215.028524
92.612505
43.570995
16.159415
10.603666
10.181665
10.700822
12.176633
14.794469
20.368695
27.419925
40.342808
51.953793
67.130923
77.487826
87.128878
87.559819
83.009005
74.404478
63.152909
52.593946
40.735602
33.591986
26.409626
23.198724
20.438433
19.111633
19.177794
18.745661
18.459558
18.375516
18.688440
18.606782
##ZVALUE=340
0.625849
0.501871
0.431538
0.477433
0.539422
0.545979
0.485778
0.562668
0.400543
0.501871
0.528693
0.385642
0.634789
0.455976
0.542998
0.456572
0.547767
0.563860
0.601411
0.593662
0.523925
0.626445
0.571609
0.684857
0.719428
0.802875
0.765920
0.833869
0.702739
0.637770
0.817776
0.620484
0.604987
0.662804
0.710487
0.660419
0.742674
0.963807
1.103878
0.788569
0.558496
0.881553
0.886917
0.987649
0.887513
1.002550
1.119971
1.272559
1.256466
1.355410
1.554489
2.130866
6.331801
33.171773
85.560679
221.803784
375.165939
613.712668
785.526633
959.188938
1006.083488
941.518545
817.945004
605.886579
434.463620
242.099762
133.256912
52.818656
23.061633
11.434555
10.073781
10.443926
11.148453
12.689829
15.104413
21.131635
27.261972
39.272904
50.615668
65.263510
74.544549
81.307888
82.735419
78.356862
72.374940
61.056614
50.321817
39.110780
32.655001
26.014447
22.004843
19.712448
18.490553
17.990470
17.668605
17.758608
##ZVALUE=345
0.671744
0.756979
0.731945
0.594854
0.704527
0.540614
0.594854
0.758767
0.693798
0.859499
0.555515
0.650883
0.777841
0.520945
0.653863
0.684857
0.721812
0.673532
0.786781
0.686646
0.510812
0.775456
0.619888
0.718832
0.619888
0.702739
0.796914
0.719428
0.805855
0.767708
0.763535
0.781417
0.870824
0.913739
0.815988
0.877976
0.813603
0.823736
0.885725
0.919700
0.976920
0.989437
0.778437
1.029968
0.938773
1.194477
1.145601
1.297593
1.371503
1.322627
1.286864
1.551509
1.660585
1.749992
3.341436
18.804669
55.289865
155.665874
276.290774
498.878956
683.737993
903.559923
997.653008
989.308953
882.629752
659.735799
486.027598
282.913446
160.312653
67.626834
32.383800
14.208555
10.558963
10.846853
10.728836
11.434555
12.532473
15.163422
18.911958
27.071834
35.687685
49.230456
58.731437
69.127679
75.052977
77.510476
75.691938
67.603588
59.858561
48.513412
39.967895
30.520558
25.792718
21.427870
19.327998
18.063784
##ZVALUE=350
0.642538
0.818968
0.694990
0.572801
0.696778
0.876784
0.806451
0.792742
0.805855
0.944734
0.741482
0.708699
0.753999
0.676513
0.752807
0.710487
0.855923
0.777841
0.815988
0.793934
0.736713
0.828505
0.834465
0.847578
0.823736
0.732541
0.745654
0.785589
0.659823
0.802875
0.748634
0.790954
0.879765
0.765920
0.767708
0.734925
0.769496
0.709891
0.901818
0.814795
0.886917
1.034737
1.147985
1.031756
1.028776
1.154542
0.830889
1.089573
1.077652
1.083612
1.270771
1.312494
1.391768
1.455545
1.486540
1.779795
2.237558
6.829500
32.842755
77.877641
199.443698
340.417624
572.379827
757.685900
939.528942
994.118452
932.852626
795.362592
549.715757
366.508961
180.730820
98.297000
40.055513
18.737912
10.633469
10.333657
10.114908
10.584593
11.229515
12.448430
14.663935
18.326640
25.298595
31.746626
42.918921
52.437782
62.231421
68.063736
71.340799
69.236755
63.531995
56.620836
45.667887
37.943721
29.857755
25.059581
##ZVALUE=355
0.429749
0.538826
0.491738
0.505447
0.424981
0.447631
0.545979
0.509620
0.500679
0.521541
0.407696
0.591874
0.489950
0.410676
0.516772
0.586510
0.565648
0.565648
0.389814
0.512600
0.631809
0.458956
0.478625
0.366569
0.647902
0.602603
0.586510
0.603795
0.621676
0.733733
0.810623
0.669956
0.571609
0.600815
0.628829
0.585914
0.737906
0.689626
0.545979
0.658631
0.698566
0.709891
0.918508
0.947714
0.880957
0.882745
0.728965
0.864863
0.825524
0.975728
0.974536
0.930429
1.083612
1.024604
1.247525
1.100898
1.203418
1.454949
1.677871
4.180670
15.511513
62.207580
129.962564
285.531878
459.425449
734.317899
919.752717
1015.774012
1015.774012
920.681953
744.733810
483.819842
301.875472
128.134489
60.287714
20.599961
11.688471
9.646416
9.758472
9.825826
10.152459
10.726452
11.662841
14.002919
16.848445
22.578835
28.068423
37.458539
45.903921
55.351853
61.712861
64.669847
64.233541
59.305429
52.947998
44.065714
##ZVALUE=360
0.409484
0.469685
0.549555
0.543594
0.657439
0.483990
0.540614
0.468493
0.545979
0.502467
0.520945
0.622869
0.703931
0.618696
0.647902
0.522733
0.481606
0.435710
0.502467
0.571609
0.502467
0.644922
0.589490
0.646710
0.636578
0.756979
0.612736
0.742674
0.713468
0.713468
0.573993
0.703931
0.561476
0.629425
0.527501
0.548959
0.600815
0.548959
0.639558
0.801682
0.704527
0.652671
0.717640
0.680685
0.764728
0.744462
0.813603
0.769496
0.812411
1.033545
0.890493
1.022816
0.992417
1.049638
0.967979
1.103878
1.199841
1.177788
1.340508
1.525879
1.850724
2.431870
6.986856
31.745434
78.441501
203.021765
348.952413
590.482950
799.723864
1001.432538
1015.767455
1012.506485
881.629586
621.224642
423.556566
208.756924
104.940534
36.109686
15.457869
9.347796
9.203553
9.341836
9.450912
9.685755
9.828806
10.642409
11.924505
14.740825
18.112659
24.451613
30.734539
40.660501
48.248768
55.201650
57.533979
58.186650
##ZVALUE=365
0.371933
0.477433
0.504851
0.492930
0.567436
0.620484
0.573993
0.509620
0.562668
0.497699
0.574589
0.602603
0.485778
0.439882
0.457764
0.524521
0.390410
0.562668
0.588894
0.491738
0.747442
0.634789
0.574589
0.619888
0.403523
0.570416
0.403523
0.443459
0.547767
0.581741
0.605583
0.631809
0.694990
0.742674
0.769496
0.660419
0.656843
0.538826
0.647902
0.871420
0.727773
0.748634
0.773668
0.763535
0.763535
0.809431
0.783801
0.892878
0.943542
0.924468
0.921488
0.830889
1.049638
1.054406
1.010895
1.019835
1.066923
1.154542
1.239777
1.368523
1.390576
1.615882
1.848936
2.119541
4.257560
25.635958
72.386861
197.376609
356.171727
628.558993
853.446722
1015.774012
1015.774012
1015.774012
1011.385918
764.857531
556.677580
314.723849
172.706842
62.943697
24.991632
10.047555
8.679628
8.634925
8.684993
8.923411
8.963943
9.391904
9.628534
10.824800
12.441874
16.244650
20.426512
26.669502
33.441782
42.103529
##ZVALUE=370
0.464916
0.484586
0.495911
0.576973
0.478625
0.510812
0.581741
0.440478
0.550747
0.633597
0.641942
0.563860
0.630617
0.424981
0.584722
0.449419
0.568628
0.474453
0.588894
0.563860
0.544786
0.579953
0.646710
0.653863
0.644922
0.639558
0.567436
0.604987
0.718832
0.587702
0.711679
0.596642
0.727773
0.683665
0.757575
0.593662
0.677705
0.713468
0.502467
0.780821
0.766516
0.777841
0.776649
0.823736
0.800490
0.721812
0.856519
0.786781
0.782609
0.735521
0.835657
0.907779
0.824928
0.933409
0.973940
0.938773
0.951886
1.082420
1.049638
1.102686
1.309514
1.230836
1.409650
1.693964
1.822710
2.132654
2.643466
12.474656
48.743486
167.925954
325.151682
626.642704
887.047648
1015.774012
1015.774012
1015.774012
1015.774012
899.424553
667.124987
383.852720
221.624970
89.725852
41.523576
14.701486
8.959770
8.176565
8.175969
8.081794
8.359551
8.296967
8.495450
8.928776
9.739995
11.725426
14.072657
18.641949
##ZVALUE=375
0.377893
0.418425
0.400543
0.447631
0.407696
0.512600
0.372529
0.396967
0.315905
0.370741
0.518560
0.394583
0.351667
0.610948
0.460744
0.432730
0.407696
0.389814
0.508428
0.602603
0.429749
0.434518
0.417829
0.430942
0.450611
0.470877
0.539422
0.425577
0.622869
0.520945
0.581741
0.409484
0.559688
0.501871
0.573993
0.497699
0.570416
0.542998
0.550747
0.751615
0.490546
0.564456
0.552535
0.580549
0.571609
0.622869
0.536442
0.640750
0.733733
0.649691
0.717640
0.671744
0.745654
0.639558
0.692606
0.817776
0.846982
0.728965
0.698566
0.797510
0.848770
0.788569
0.963807
1.082420
1.033545
1.256466
1.316667
1.563430
1.861453
4.939437
17.673969
67.778826
154.959559
356.016755
562.287569
853.751898
1012.011766
1015.741825
1015.741825
955.611467
763.716698
486.632586
317.173600
161.556005
82.475543
25.588870
11.017919
7.426739
7.495880
7.412434
7.404685
7.708669
7.842779
7.930994
8.128881
9.309649
##ZVALUE=380
0.390410
0.462532
0.313520
0.386834
0.413656
0.509620
0.559688
0.457764
0.372529
0.483990
0.431538
0.429749
0.533462
0.462532
0.380874
0.489950
0.427961
0.377893
0.375509
0.484586
0.413656
0.472665
0.472665
0.622869
0.350475
0.607967
0.522733
0.425577
0.463724
0.400543
0.533462
0.565648
0.447631
0.489950
0.506639
0.526905
0.543594
0.453591
0.445843
0.529885
0.441670
0.636578
0.570416
0.575781
0.653863
0.582933
0.731945
0.691414
0.600815
0.795722
0.587702
0.661612
0.690818
0.635982
0.709891
0.610948
0.738502
0.797510
0.745654
0.655651
0.825524
0.880957
0.823736
0.976920
0.958443
1.085997
1.135468
1.284480
1.358986
1.427531
1.682639
2.848506
10.344982
49.594641
115.042925
268.657804
431.550741
687.125921
866.580606
1015.774012
1015.774012
946.537852
787.236691
548.339486
379.269719
193.699598
102.439523
36.720634
15.484691
7.493496
6.868839
6.637573
7.009506
6.855726
7.221699
7.588863
##ZVALUE=385
0.260472
0.151992
0.263453
0.258684
0.128746
0.281930
0.302792
0.251532
0.280738
0.363588
0.205636
0.221729
0.230670
0.356436
0.276566
0.409484
0.206828
0.368953
0.368953
0.287890
0.223517
0.333786
0.264645
0.305772
0.117421
0.185966
0.364780
0.289679
0.401735
0.388622
0.343919
0.357628
0.433922
0.262856
0.337958
0.314713
0.367761
0.474453
0.493526
0.480413
0.520945
0.490546
0.473857
0.319481
0.426769
0.333786
0.383854
0.398755
0.419617
0.429749
0.400543
0.509620
0.433922
0.419617
0.573993
0.586510
0.511408
0.539422
0.629425
0.545979
0.689626
0.580549
0.679493
0.614524
0.760555
0.694990
0.778437
0.839829
1.096725
1.336932
1.376867
1.428723
1.441836
1.839995
4.957914
29.576421
76.291561
195.686817
347.578526
616.657734
827.614665
1015.645862
1015.645862
1015.645862
979.600549
739.791989
537.957549
305.157900
175.982714
72.084665
28.057694
8.858442
6.576777
6.400943
6.904602
6.877780
##ZVALUE=390
0.473857
0.517964
0.438690
0.409484
0.457764
0.521541
0.413656
0.371933
0.496507
0.381470
0.517964
0.436902
0.403523
0.397563
0.505447
0.606775
0.402927
0.484586
0.394583
0.448823
0.549555
0.478625
0.524521
0.456572
0.403523
0.402927
0.560880
0.413656
0.485778
0.557899
0.381470
0.488758
0.478625
0.498891
0.438690
0.383854
0.514984
0.490546
0.640750
0.512600
0.464916
0.572801
0.532866
0.603795
0.659823
0.521541
0.558496
0.612736
0.716448
0.488758
0.661612
0.693798
0.621676
0.594854
0.580549
0.596642
0.568628
0.800490
0.709891
0.685453
0.813603
0.796914
0.773668
0.827909
0.834465
0.857711
0.950694
1.111627
1.068711
1.259446
1.269579
1.468658
1.409650
1.666546
1.787543
1.798868
2.710819
17.575622
55.479407
161.472559
300.927758
561.139584
775.476694
1003.849506
1015.774012
1015.774012
1015.774012
895.171762
698.723793
439.368486
259.682536
108.242631
50.489902
15.491843
7.718801
6.346703
##ZVALUE=395
0.345707
0.553727
0.368953
0.416636
0.563860
0.348687
0.445843
0.545979
0.312924
0.461936
0.352859
0.518560
0.434518
0.506639
0.308752
0.474453
0.547767
0.360608
0.544786
0.514984
0.486970
0.460744
0.474453
0.468493
0.645518
0.562668
0.677705
0.405908
0.538826
0.451803
0.580549
0.468493
0.520945
0.417829
0.472665
0.305772
0.611544
0.500679
0.363588
0.419617
0.593662
0.409484
0.569820
0.509620
0.453591
0.589490
0.513792
0.677705
0.668764
0.664592
0.547767
0.697970
0.577569
0.481606
0.616908
0.528693
0.597835
0.550747
0.706911
0.765920
0.802875
0.773668
0.959635
0.802875
0.786781
0.868440
0.860691
1.021624
1.079440
1.103878
1.352429
1.170635
1.208782
1.174808
1.183748
1.336932
1.544952
1.716614
2.073646
8.658767
35.616755
134.034753
256.186724
483.067036
701.271892
974.415541
1015.774608
1015.774608
1015.774608
900.774002
701.122880
437.242985
278.207660
125.603676
61.636567
20.914674
##ZVALUE=400
0.446439
0.574589
0.425577
0.429749
0.586510
0.368953
0.366569
0.347495
0.326633
0.336766
0.396967
0.386834
0.335574
0.512600
0.558496
0.582933
0.416636
0.451803
0.519753
0.480413
0.349879
0.479817
0.499487
0.594854
0.659823
0.646710
0.499487
0.546575
0.464916
0.546575
0.447631
0.396967
0.381470
0.635982
0.454783
0.416636
0.609756
0.635982
0.483990
0.528693
0.491738
0.699759
0.632405
0.678897
0.502467
0.505447
0.552535
0.593662
0.625849
0.486970
0.380874
0.427961
0.561476
0.584722
0.666976
0.563860
0.805855
0.604987
0.583529
0.524521
0.713468
0.653863
0.705719
0.717640
0.662804
0.759959
0.880957
0.722408
1.082420
0.933409
1.077652
1.047850
1.078844
1.152754
1.110435
1.015663
1.185536
1.222491
1.460910
1.647472
1.558661
3.784895
14.813542
61.822534
139.558911
316.476822
507.569909
764.185786
923.116803
1015.774012
1015.774012
913.062692
752.650499
515.359640
346.717834
182.779431
##END
