##TITLE=QP00352
##FORMAT=SPECTACLE-ASCII V-1.2
##DATA TYPE=ULTRAVIOLET SPECTRUM
##SECOND TYPE=ULTRAVIOLET SPECTRUM
##DATE=02/12/18
##TIME=15:44:49
##SPECTROMETER/DATA SYSTEM=SPECTACLE
##XUNITS=NM EM
##YUNITS=ENERGY
##YFACTOR=1
##FIRSTX=220
##LASTX=410
##NPOINTS=96
##3DDATA=Equidistant
##ZUNITS=NM EX
##FIRSTZ=210
##LASTZ=400
##ZPOINTS=39
##XYDATA=(Y..Y)
##ZVALUE=210
2.091527
2.592802
2.840757
2.329946
3.040433
2.168417
3.014803
3.313422
3.259778
2.853870
2.902746
3.065467
2.649426
2.577901
2.817512
2.969503
2.993941
3.032684
3.167987
3.381968
3.351569
3.322959
3.983974
3.810525
5.028844
4.834533
4.695654
4.953742
4.776716
4.859567
4.590750
4.999638
5.674958
5.290508
5.218983
6.239414
5.789995
6.866455
6.729960
5.912781
6.530881
6.533861
6.632805
6.860495
7.300973
7.521510
7.709861
5.711913
7.022619
8.244514
6.992817
6.961823
8.167624
7.505417
8.132458
7.323623
7.982850
7.686615
7.760525
6.989837
7.736683
7.760525
7.854700
8.062720
8.347631
9.439588
9.211898
10.499954
11.576414
14.013648
15.628934
18.210411
21.152496
22.640824
26.136637
26.054978
26.312470
28.795600
24.920702
26.341677
22.776723
23.337603
18.103719
17.639995
14.225841
11.347532
10.751486
9.039640
8.696914
8.381605
8.381605
8.636713
8.014441
7.649660
8.719563
8.446574
##ZVALUE=215
9.474754
8.586645
7.206798
6.314516
6.028414
5.789995
5.746484
5.522966
6.277561
5.640984
6.517768
4.780889
4.035830
3.796816
3.229976
3.336668
3.577471
3.436804
3.118515
4.001856
3.293753
4.135966
4.217625
4.667640
4.518628
4.857779
5.408525
5.386472
5.634427
5.693436
5.271435
6.393790
5.519986
5.547404
6.390810
5.825758
5.765557
6.072521
6.157756
6.096959
5.830526
6.647706
6.365776
6.778836
6.306767
6.570816
6.704926
6.671548
6.210804
6.792545
7.030964
7.037520
6.774664
8.078814
7.519722
6.801486
8.374453
8.156896
7.244945
8.383989
7.989407
6.759763
6.992817
7.078648
7.117987
8.241534
7.921457
8.376837
8.742809
13.005733
14.841557
17.139912
17.975569
21.550655
20.482540
23.769736
22.055507
23.415685
23.006797
21.403432
18.674731
16.617775
15.408993
13.172626
12.195706
9.488463
7.992983
8.699894
7.889867
7.647872
7.663965
7.029772
7.395744
7.194877
7.603765
7.358789
##ZVALUE=220
26.940703
28.187633
30.508637
29.970407
27.667880
21.982789
17.617941
13.376474
11.681914
10.569692
12.451410
12.172461
13.099909
9.807944
9.495616
7.715821
5.267859
6.186962
4.161596
3.530979
3.648996
4.134774
4.113913
4.854798
4.804730
4.991889
4.755855
5.518794
4.870892
5.250573
4.951954
5.241632
5.958676
5.942583
5.005598
5.573630
5.628467
6.534457
6.099939
7.154942
6.263852
6.251931
6.337762
7.207990
7.030964
8.052588
7.087588
6.437898
7.330775
7.681847
7.291436
7.432699
7.118583
6.533861
7.279515
6.820560
8.152723
7.753968
8.186698
8.009672
8.050799
6.699562
7.989407
8.610487
8.255839
8.786917
8.483529
9.403825
10.145903
12.114644
13.401508
16.012788
17.458797
19.707680
22.161603
23.463964
20.867586
22.863746
21.451712
19.445419
19.758940
16.924739
16.272664
13.821721
12.228489
10.046959
9.148717
8.879900
8.246899
7.169843
7.843971
8.233786
6.967783
7.501841
7.167459
6.731749
##ZVALUE=225
53.115487
57.085752
73.506832
90.656877
95.076561
93.025565
87.357759
65.821409
47.572851
35.950541
27.495623
22.529960
26.560426
26.312470
25.913715
24.096966
20.766854
18.166900
14.697909
8.761883
6.540418
5.232692
5.157590
5.100965
5.058646
4.787445
4.887581
4.928708
5.533695
5.071759
5.464554
5.461574
5.198717
6.016493
6.731749
6.724000
6.711483
6.741881
6.238818
5.856752
5.727410
6.451607
7.055998
6.275773
6.511807
6.455779
6.598830
6.525517
6.049871
6.690621
6.867647
6.434917
7.489920
7.335544
7.396936
7.554889
7.470846
8.012652
7.510781
7.130504
7.959604
8.038878
8.364916
8.124709
8.614659
8.630753
9.414554
9.941459
10.027885
12.266636
13.550520
14.742613
17.012954
18.964410
18.628836
19.004941
21.025538
19.723773
17.564893
18.703938
18.030405
15.687943
14.360547
12.692809
11.820793
10.873675
10.734797
9.886622
10.248423
8.444786
8.245707
8.342862
8.457899
9.174943
8.715987
9.503961
##ZVALUE=230
47.231913
51.784515
79.524517
131.270885
172.487497
212.677717
222.314596
214.575529
181.343555
147.978663
98.109841
66.322684
48.686862
46.008825
46.964884
48.415661
48.058629
49.976707
43.274760
36.223531
27.111769
18.107891
12.659431
7.956624
7.398725
5.094409
6.331801
5.851984
6.510615
6.928444
6.186962
5.659461
6.356835
5.634427
5.740523
5.881786
6.105900
6.983876
6.968975
6.906986
7.226467
6.380677
6.819963
6.549954
6.506443
6.600618
7.419586
7.077456
6.337762
7.519722
7.407665
7.739663
7.918477
7.916689
8.802414
7.420778
8.488894
8.500814
9.513497
9.300709
9.116530
9.678602
9.230971
10.382533
10.549426
10.470748
10.497570
11.119843
11.300445
14.054775
15.076995
16.866922
20.459890
19.595623
20.974874
22.808909
23.338795
22.495985
21.835566
19.785762
18.314719
17.675757
16.555786
15.300512
14.193654
12.989640
13.271570
11.753440
11.216998
11.943579
12.308955
11.871457
12.252927
11.862516
11.649728
11.853576
##ZVALUE=235
17.206669
18.852949
50.840974
94.906688
168.880820
238.158703
335.510969
402.981639
428.681970
418.637991
363.674760
299.130678
224.018693
142.532587
105.625987
77.205896
73.804855
81.172585
84.688663
85.295439
80.091953
69.957972
52.793622
38.445592
27.003884
18.920898
12.246966
11.128783
8.781552
8.608699
8.075833
9.417534
8.021593
8.608699
8.552670
8.768439
8.906722
8.195639
9.053946
7.599592
8.504987
8.598566
7.581711
8.314848
7.987618
8.024573
9.248853
8.122921
8.669496
8.914471
9.137988
8.400679
8.662939
9.775758
10.254979
9.550452
10.018945
10.447502
9.430647
10.394454
12.034774
10.762811
12.823939
12.292862
12.045503
13.294816
13.407469
15.520453
15.671849
16.435981
19.177794
20.507574
23.120642
24.153590
27.604699
26.689768
26.352406
26.914477
24.535656
25.408864
23.003817
23.209453
20.683408
19.301772
19.453764
17.674565
17.969608
17.336607
16.819835
16.693473
16.762614
15.712976
16.217828
15.954971
16.131997
16.008615
##ZVALUE=240
2.308488
2.791882
7.259846
28.587580
64.778924
148.737431
245.993733
402.070880
535.527468
637.371540
700.788498
692.694783
588.689446
485.857725
335.769653
230.875611
139.638782
111.563802
98.731518
103.944540
109.318495
116.440654
114.335418
101.996660
87.066889
64.781904
50.899982
33.884645
24.024844
16.271472
15.731454
12.046695
11.627674
10.553598
10.060668
10.042787
10.254979
10.101795
9.325743
9.231567
8.586645
9.106994
8.235574
8.489490
9.157658
10.289550
8.678436
8.645654
9.757876
8.714795
8.966923
8.481741
10.648966
8.798838
10.615587
10.321736
9.393692
10.283589
10.698438
10.170937
11.560917
11.442900
11.812449
12.777448
13.981462
14.811754
14.451742
15.950799
17.138720
18.981695
21.809936
23.470521
24.733543
29.931664
29.675961
30.658841
32.217503
29.581785
29.498935
30.479431
29.492974
27.812719
24.935603
23.124814
21.829605
20.032525
22.254586
20.270944
18.604994
19.835830
19.855499
18.028617
18.794537
18.412471
17.425418
17.047524
##ZVALUE=245
1.623631
1.505613
1.705885
1.939535
4.077554
15.666485
55.583715
117.214918
252.920985
378.333926
570.273995
697.265863
761.376619
782.517791
740.774870
594.171882
484.051704
320.584774
227.137804
145.164728
113.724470
102.751851
117.219687
129.988790
136.291981
129.820704
116.070509
100.215673
75.351000
56.336522
40.382743
27.446747
19.157529
13.173819
11.095405
10.338426
9.596944
9.665489
8.629560
9.700656
8.358955
8.382797
8.371472
7.962584
8.445978
6.956458
8.296967
7.372499
8.422732
7.438660
8.447766
7.943511
8.292794
7.786751
8.102655
8.284450
8.528829
9.073615
8.821487
10.475516
9.032488
10.063648
10.135770
10.268688
12.173653
11.853576
11.374950
14.226437
15.581846
16.083717
18.154979
20.438433
21.276474
23.027658
25.377870
25.892854
24.003983
25.642514
26.328564
24.023652
23.584962
22.887588
21.863580
20.286441
19.647479
20.199418
19.346476
18.502474
18.972754
18.681884
17.742515
19.464493
16.939640
18.921494
18.846989
17.720461
##ZVALUE=250
1.498461
1.553893
1.563430
1.918674
1.748800
2.148747
3.276467
11.906624
32.274723
73.806643
188.694000
325.801969
535.135865
687.146783
840.640664
907.709599
879.327655
794.594884
667.299032
461.398959
313.447714
179.987550
128.373504
106.138587
107.934475
128.507614
140.385628
142.974854
141.764879
127.147436
108.002424
81.253648
60.959458
39.425492
27.092695
17.530918
13.332963
9.772778
8.720756
8.455515
8.519888
7.344484
7.648468
7.640719
7.659793
6.981492
7.177591
7.042885
7.065535
7.131696
7.588863
7.495880
7.607937
7.179976
7.449985
8.042455
7.591844
8.146763
8.116961
7.421970
8.717775
8.665919
8.560419
9.636879
9.781718
10.543466
10.511875
11.992455
12.777448
13.690591
16.746521
17.073750
18.626451
20.497441
22.800565
22.128820
23.549795
23.696423
23.403764
24.140477
22.528768
21.434426
18.984675
19.041896
19.247532
18.340945
18.514991
16.596913
17.383695
17.562509
17.005801
17.143488
17.732978
16.986728
16.822815
17.791986
##ZVALUE=255
1.800656
1.960993
1.854897
1.872778
1.956820
1.730919
1.937747
2.033710
2.454519
5.606413
25.677681
71.176887
151.931643
329.466462
506.761670
751.964450
920.696855
1016.007662
1016.007662
950.942636
801.090002
618.631840
388.708711
252.334476
142.914653
105.345845
93.664527
106.391907
132.997632
146.167874
149.229765
144.720674
135.272741
105.433464
85.012913
56.942701
38.150549
24.065971
14.451742
10.121465
8.326769
7.651448
7.773638
7.690787
7.332563
7.284880
7.501841
7.328987
6.579757
7.117987
7.534623
6.895661
6.382465
7.157922
6.990433
7.194877
7.230639
7.018447
7.525682
7.397532
6.973743
7.852912
7.900596
8.485913
9.062886
9.943843
9.926558
10.904670
11.436939
12.400746
13.110638
14.855862
15.302896
18.470883
18.216968
18.613935
20.526648
19.954443
19.968748
18.407702
18.569827
17.010570
17.749667
16.608834
16.297698
15.698671
15.915632
16.234517
15.453696
16.259551
14.775991
16.989708
16.578436
15.452504
16.270876
16.589761
##ZVALUE=260
1.368523
1.545548
1.314878
1.534820
1.286864
1.414418
1.516938
1.307726
1.501441
1.744628
1.944900
2.994537
9.165406
41.062832
92.632771
220.031738
357.924700
568.892956
738.213658
932.186842
1013.770700
1015.774012
901.340842
742.828846
501.405597
347.276926
197.589993
121.657848
83.473921
85.100532
106.947422
124.997497
141.776800
151.351690
148.697495
131.287575
110.707879
82.124472
59.792995
38.043857
23.911595
13.484955
8.991957
6.913543
6.247759
5.647540
5.939603
5.442500
5.447865
5.721450
6.152987
5.893707
6.100535
5.729795
6.346703
5.353689
6.368756
5.921721
6.276965
6.523728
6.327629
6.291866
6.420612
7.107854
6.978512
7.072687
7.161498
8.132458
8.741617
9.951591
10.624528
11.701584
13.047457
13.576746
13.616681
14.147758
14.574528
14.297962
14.716983
14.445782
13.925433
14.427900
13.949871
13.199449
13.595819
13.547540
12.786984
13.557673
13.273954
13.541579
13.228655
13.699532
13.964772
13.775826
13.355613
13.749599
##ZVALUE=265
1.262426
1.169443
1.140833
1.114607
1.238585
1.210570
1.397729
1.561642
1.357794
1.666546
1.595616
1.880527
2.083778
2.247691
5.626678
30.948520
76.399446
184.220672
307.171941
547.881722
738.811493
917.218924
1015.774012
1015.774012
997.846723
859.728456
634.018779
449.041724
257.861018
155.225992
98.031759
70.915818
81.619620
110.256672
130.758882
147.235990
153.047442
144.005418
132.138729
105.467439
81.472993
55.277944
36.084652
20.867586
12.848973
8.248687
6.496906
5.780458
5.622506
5.456805
5.350709
5.393624
5.612969
5.713701
5.927682
6.052852
5.769730
5.837679
6.594658
6.260872
6.480813
5.669594
6.155968
6.433725
6.497502
6.859899
7.191896
7.232428
8.450747
8.982420
9.986758
10.733604
11.776686
12.231469
12.741685
12.794733
12.958646
13.635755
12.122989
12.118816
12.118816
12.757778
12.827516
11.980534
11.884570
11.983514
12.143850
12.717843
12.306571
12.834668
12.290478
12.473464
12.457967
12.925863
12.929440
12.988448
##ZVALUE=270
1.262426
1.266599
1.595616
1.514554
1.352429
1.600981
1.436472
1.573563
1.419783
1.486540
1.720786
1.619458
1.772642
1.947880
2.187490
2.174973
3.057718
17.349720
59.982538
178.620815
313.977003
504.445434
789.275765
989.412665
1015.901566
1015.901566
1015.901566
1015.901566
833.695531
633.963943
393.601656
250.262618
121.112466
73.101521
65.129995
80.185533
108.850598
131.453872
146.995783
151.737928
147.953629
134.038925
107.992887
83.483458
55.710673
39.613843
23.121834
14.671683
8.540750
6.902814
5.974770
5.678535
5.816817
6.161928
6.456971
5.617738
5.876422
6.180406
6.332994
6.219745
5.888939
6.433725
6.194711
6.299615
6.770492
7.046461
6.917715
7.765889
7.843971
8.791685
10.136962
10.628700
11.085868
11.716485
12.523532
11.972785
12.142658
11.727810
12.247562
11.644959
11.457801
11.718869
11.244416
11.054873
11.311769
10.965466
11.175871
11.637807
11.870861
11.821985
11.799932
11.854768
11.829734
11.567473
11.578798
12.379885
##ZVALUE=275
1.138449
0.927448
1.251698
1.114607
1.168847
1.237988
1.270771
1.268983
1.085997
1.387596
1.247525
1.491904
1.481771
1.291633
1.581907
1.758933
1.928806
1.584888
1.877546
5.224943
23.365617
101.886392
213.230848
438.368917
662.086010
948.694944
1015.774012
1015.774012
1015.774012
1015.774012
1015.774012
785.948634
567.846894
320.313573
191.007853
87.384582
57.672858
59.918761
78.258514
106.906891
126.736760
146.362782
149.580836
145.192742
131.153464
105.438828
82.403421
54.341555
39.294958
22.839904
14.347434
9.122491
6.658435
5.927682
5.829930
5.767941
5.754828
5.664825
6.032586
5.833507
5.845428
6.313920
6.290674
6.235838
6.463528
6.717443
6.872416
7.363558
7.522702
8.499622
8.655787
9.556413
10.266900
10.301471
11.109710
11.211634
11.560917
11.347532
11.001825
10.298491
10.457635
10.630488
10.396838
10.249615
10.194778
10.140538
10.412931
10.647774
10.440946
10.681748
10.538697
10.645986
10.214448
10.706782
10.312796
11.333823
##ZVALUE=280
0.940561
1.151562
0.925660
0.931621
0.915527
1.060963
1.192689
1.216531
1.046658
1.004934
1.098514
1.211762
1.308918
1.376867
1.500845
1.410842
1.312494
1.899600
1.640916
1.942515
2.074838
2.535582
12.456775
39.932728
124.067664
226.490498
426.973701
628.042817
896.387696
1015.774012
1015.774012
1015.774012
1015.774012
894.658566
680.039525
391.514897
239.307880
106.149912
56.302547
42.694807
54.449439
78.682899
101.713538
125.075579
142.267942
148.358941
143.081546
124.610662
106.495619
78.104734
57.310462
35.405755
24.333000
13.386607
8.903742
6.437898
5.503893
5.624890
5.500913
5.524755
5.740523
5.970597
6.190538
6.116629
6.702542
6.724596
6.570816
6.946921
6.990433
7.951856
8.159876
8.375645
8.885860
9.392500
9.676814
10.210872
10.338426
9.879470
10.127425
9.853840
9.840727
10.093451
9.288788
9.938478
9.388924
9.548664
9.485483
9.523630
9.730458
9.584427
9.569526
9.411573
9.725690
9.578466
9.690523
10.592937
##ZVALUE=285
0.929832
0.686646
0.981688
0.837445
0.839829
0.972748
1.143813
1.062751
1.047850
1.159906
0.962615
1.073480
1.072884
1.247525
1.234412
1.163483
1.360774
1.491904
1.335740
1.380444
1.765490
1.649857
1.979470
2.133846
6.239414
20.710826
69.798827
141.396523
309.992433
494.031906
708.698630
992.270708
1015.774012
1015.774012
1015.774012
1015.774012
865.794420
551.624894
352.897644
164.634585
83.427429
36.903620
34.339428
51.457882
71.835518
100.326538
118.667483
135.364532
142.672658
139.082670
126.217604
104.354620
83.609819
56.834817
40.224791
22.570491
15.120506
8.959770
6.878972
6.326437
5.730987
6.063581
6.005764
5.853772
6.227493
6.569624
6.281734
7.266998
7.378459
7.373691
7.903576
8.754730
9.055734
9.666681
9.697676
9.438992
9.976625
9.563565
9.572506
9.588599
9.557605
9.442568
8.791685
9.596944
9.737611
9.374619
9.172559
9.811521
9.515882
9.475946
8.702874
9.609461
9.222627
9.552836
10.043979
9.551644
##ZVALUE=290
0.967979
0.734925
0.894666
0.907779
1.009703
0.936985
0.895858
0.936985
0.970960
0.842810
0.912547
0.996590
0.937581
1.035929
1.034737
1.023412
1.209974
1.100898
1.277924
1.276731
1.280904
1.361966
1.389980
1.542568
1.834631
2.124906
2.923608
9.384751
39.666891
92.704892
217.250586
383.015871
595.390797
930.601954
1015.774608
1015.774608
1015.774608
1015.774608
954.567790
651.263595
429.475904
218.639970
111.447573
41.326880
26.129484
34.273863
47.865510
70.306659
90.374947
115.647912
130.025744
138.336420
136.874914
122.517943
105.195642
77.393651
58.261752
34.807920
24.144650
14.848709
10.016561
7.201433
6.931424
6.212592
6.411672
6.516576
6.555915
7.299781
7.055998
7.702708
8.205771
8.581877
8.828640
9.280443
9.803772
9.640455
9.862781
9.398460
9.208918
9.610653
9.337664
8.806586
9.654760
9.022951
9.184480
9.228587
9.318590
9.284616
9.461641
9.093881
9.292960
9.472966
9.361506
8.959770
9.110570
8.970499
##ZVALUE=295
0.799894
0.784993
0.956655
0.828505
0.866652
0.910759
0.968575
0.899434
0.850558
0.952482
0.806451
0.890493
0.989437
0.964999
0.982881
0.930429
1.107454
0.981688
1.276731
1.135468
1.348853
1.422763
1.394749
1.476407
1.602769
1.431704
1.803637
1.783967
2.190471
3.975630
19.924641
54.942966
155.344605
289.762616
551.245809
787.483454
1015.774012
1015.774012
1015.774012
1015.774012
1010.497808
816.086531
506.440997
316.931605
141.438842
68.256855
25.337934
20.842552
29.755831
43.026805
66.435933
84.797740
109.508634
124.817491
131.042600
130.671859
116.072893
99.903941
76.312423
57.398677
37.282705
24.455786
14.966726
10.427833
7.753968
6.724596
6.689429
7.034540
7.372499
7.779598
7.998943
8.669496
8.943677
8.864999
9.131432
9.028912
9.306669
9.121895
9.904504
9.117723
9.076595
9.198785
9.138584
9.227991
8.959770
9.108782
9.049773
9.664893
9.546876
9.392500
9.065866
9.208918
9.083748
8.605719
8.869767
8.925796
##ZVALUE=300
0.768900
0.789762
0.816584
0.938773
0.741482
0.822544
0.901818
0.728965
0.785589
0.778437
0.839829
0.865459
0.759959
0.790954
0.993609
0.999570
1.079440
0.767708
0.797510
0.957847
0.971556
1.149774
1.159906
1.312494
1.186728
1.481771
1.497865
1.518726
1.706481
1.707673
2.106428
2.384782
8.971691
31.166673
103.238821
200.753808
424.765944
651.393533
966.140628
1015.774012
1015.774012
1015.774012
1015.774012
987.797976
669.279695
441.882610
222.819448
115.670562
37.817955
18.985868
18.301606
25.401711
40.620565
56.409836
81.128478
98.770857
118.768811
123.832822
123.511553
114.502907
94.783902
77.683926
55.313706
39.583445
24.787784
16.721487
10.669827
9.126663
7.666945
7.645488
8.137822
8.469820
8.992553
9.161830
9.238720
9.142756
8.789897
9.044409
9.498000
9.208918
9.212494
9.551644
9.375811
9.635687
9.400845
9.261966
9.624958
9.516478
9.365678
9.166598
9.297729
8.921623
8.851886
8.804798
8.875728
8.375645
##ZVALUE=305
0.749826
0.929832
0.824928
0.870824
0.767708
0.864863
0.783801
0.778437
0.850558
0.985861
0.904799
0.850558
0.766516
0.888705
0.811815
1.034737
0.832677
0.971556
1.118779
0.938773
1.061559
1.024604
1.176000
1.078844
1.210570
1.224875
1.284480
1.338720
1.299977
1.525879
1.542568
1.851916
1.956820
2.302527
3.891587
21.979809
58.201551
162.203908
296.786427
568.963885
814.256668
1015.771031
1015.771031
1015.771031
1015.771031
1015.771031
878.548026
572.878718
364.737511
165.243745
77.613592
24.032593
13.929605
16.695857
24.310946
39.535761
54.630637
77.860951
93.769431
112.254620
118.036866
117.483735
109.114647
92.967749
75.359941
52.419901
38.197637
25.585890
17.463565
11.474490
9.610653
9.111762
8.836985
8.987784
9.018779
9.304881
9.077787
9.106994
9.300709
9.537935
9.624958
9.353757
9.594560
9.534955
9.799600
9.008646
9.667873
9.560585
9.252429
9.022951
9.085536
9.262562
9.061694
8.941889
8.750558
8.816719
##ZVALUE=310
0.667572
0.743866
0.597835
0.728965
0.763535
0.805855
0.751615
0.779629
0.847578
0.697970
0.805855
0.940561
0.738502
0.824928
0.849962
0.888705
0.948906
0.941753
0.993609
0.864863
0.875592
1.061559
1.176000
1.039505
0.861883
1.139641
1.157522
1.061559
1.295805
1.236796
1.221895
1.463890
1.568794
1.629591
1.672506
2.096891
2.510548
9.778738
30.032992
99.761486
197.466612
425.931811
657.559037
990.145802
1015.771627
1015.771627
1015.771627
1015.771627
1015.771627
752.916932
512.732863
264.537930
144.451857
48.656464
19.205809
11.971593
14.445782
22.440553
32.995939
50.306916
66.741705
87.392926
102.297664
113.206506
113.962889
106.263757
92.283487
72.399974
55.399537
36.640763
27.164817
17.880797
13.967752
10.936856
10.006428
9.649992
9.721518
9.349585
9.164810
8.991957
9.366870
9.639859
9.432435
9.543896
9.426475
9.953976
9.490848
9.781718
9.438992
9.380579
9.185672
9.257793
9.100437
8.980632
9.060502
8.900762
##ZVALUE=315
0.573993
0.469685
0.637770
0.506639
0.517964
0.523925
0.576973
0.691414
0.582933
0.546575
0.625849
0.542998
0.610948
0.606775
0.740886
0.638962
0.742674
0.668764
0.921488
0.553727
0.661612
0.701547
0.822544
0.705719
0.738502
0.821948
0.770688
0.893474
1.076460
1.104474
1.045465
1.039505
1.269579
1.308918
1.535416
1.667738
1.632571
1.790524
2.062917
4.543662
16.793609
69.752932
157.057643
363.770723
597.958565
974.209905
1015.565991
1015.565991
1015.565991
1015.565991
1015.565991
909.115672
650.217533
355.146527
200.729966
77.598691
30.011535
11.034608
10.537505
13.836622
19.732714
32.096505
44.819713
63.746572
80.664754
97.997785
106.260777
107.281804
101.136565
86.003542
71.246624
52.408576
38.937926
25.313497
18.489957
12.978911
10.588765
9.703636
9.326935
9.180903
9.206533
9.268522
9.481907
9.395480
8.990765
9.187460
9.570718
9.011626
9.850860
9.071827
8.911490
9.226799
8.954406
8.792877
8.951426
8.846521
##ZVALUE=320
0.764728
0.757575
0.786781
0.684857
0.696778
0.688434
0.669956
0.841618
0.784993
0.766516
0.786781
0.754595
0.795722
0.720620
0.700951
0.785589
0.654459
1.038909
0.966787
0.998974
0.834465
0.855923
0.745654
0.955462
0.956655
0.998974
0.967979
1.047850
0.976920
1.186728
1.117587
1.327991
1.136661
1.291633
1.335740
1.482964
1.546741
1.696944
1.805425
1.988411
2.189875
3.086925
8.105636
44.016838
109.068751
283.962488
488.860607
845.503807
1015.774012
1015.774012
1015.774012
1015.774012
1015.774012
1015.773416
785.023570
434.577465
249.014497
109.150410
50.462484
15.884638
9.887815
10.487437
12.693405
18.857718
27.466416
42.767525
57.304502
77.719688
90.448856
100.731850
102.681518
95.638633
85.773468
66.894889
52.616596
35.372972
26.371479
18.030405
13.556480
11.153817
10.178685
9.650588
9.321570
9.489655
9.578466
9.362698
9.290576
9.287000
9.496808
9.451509
9.188652
9.250641
9.156466
9.172559
9.048581
9.153485
##ZVALUE=325
0.685453
0.632405
0.660419
0.787973
0.553727
0.814795
0.775456
0.700951
0.591874
0.643730
0.749826
0.764728
0.674725
0.864863
0.835657
0.832677
0.886917
0.767708
0.702739
0.683665
0.738502
0.819564
0.855923
0.889897
0.893474
0.943542
0.918508
0.972748
1.064539
1.027584
1.138449
1.134872
1.155734
1.048446
1.271963
1.174808
1.310706
1.502633
1.637936
1.429915
1.749992
1.810789
2.011657
2.346635
4.531741
28.606653
75.330734
198.145509
355.991721
670.104623
941.570997
1015.774608
1015.774608
1015.774608
1015.774608
1015.774608
883.621573
518.329740
316.092968
141.395926
68.250895
20.831823
10.587573
9.171963
9.731650
13.145804
17.953515
28.056502
39.887428
58.561563
71.819425
87.568760
93.904734
96.305609
90.317726
77.358484
64.766407
47.498941
36.401749
23.700595
17.625690
12.952685
11.310577
10.150671
9.463429
9.434819
9.310842
9.466410
9.416938
9.418726
9.095669
8.935928
8.863807
8.780956
8.865595
8.781552
##ZVALUE=330
0.531673
0.592470
0.615716
0.751615
0.746846
0.796914
0.738502
0.672936
0.566840
0.833869
0.762939
0.622869
0.841618
0.669956
0.842810
0.776649
0.741482
0.770688
0.614524
0.836849
0.760555
0.869632
0.737906
0.632405
0.949502
0.833869
0.866652
0.919700
0.897646
0.734925
1.027584
0.964999
1.031756
1.068711
1.151562
1.134872
1.296997
1.267791
1.280904
1.258850
1.326799
1.449585
1.618862
1.692772
1.894832
2.059937
2.926588
13.282895
40.967464
128.544569
249.212980
518.731475
794.969797
1015.774012
1015.774012
1015.774012
1015.774012
1015.774012
1015.774012
716.176629
435.704589
187.300444
92.903972
34.617782
14.649630
9.250641
8.924603
10.027885
12.372732
18.586516
26.505589
39.960742
52.997470
71.327686
82.118511
91.120601
91.168880
84.811449
74.928999
58.171749
46.342611
31.626821
24.020672
17.113686
13.738871
10.698438
10.024905
9.480715
9.038448
8.912683
8.698702
9.087920
8.816719
8.646846
8.705854
8.832812
##ZVALUE=335
0.613928
0.617504
0.693798
0.650883
0.767708
0.676513
0.582933
0.558496
0.602603
0.710487
0.710487
0.666976
0.593662
0.749826
0.748634
0.565648
0.669956
0.700951
0.761747
0.675917
0.635982
0.826716
0.790954
0.688434
0.735521
0.778437
0.900626
0.965595
0.975728
1.081824
0.860691
0.798702
0.906587
0.941753
1.121759
1.133680
1.033545
1.026988
1.192689
1.184940
1.361966
1.257658
1.235604
1.503825
1.684427
1.769662
1.738667
2.022982
2.254844
5.977750
21.325946
84.656477
177.306533
398.073792
654.903650
1015.774608
1015.774608
1015.774608
1015.774608
1015.774608
1015.774608
835.494995
539.759398
258.108974
126.650929
43.502450
19.091964
9.668469
8.875728
9.208918
10.061860
12.691617
17.451644
27.103424
36.903620
52.870512
64.955950
77.762604
84.296465
85.531473
80.040693
68.258643
57.522655
44.975877
34.387708
23.888946
18.315911
13.384819
11.429787
10.024905
9.208918
8.937716
8.517504
8.617640
8.803606
8.407831
##ZVALUE=340
0.641942
0.630617
0.674725
0.626445
0.625849
0.551939
0.725985
0.666976
0.725985
0.728965
0.704527
0.574589
0.619888
0.588894
0.662804
0.643730
0.623465
0.707507
0.604987
0.709891
0.743866
0.378489
0.706911
0.807643
0.887513
0.733733
0.765920
0.742674
0.849962
0.702739
0.785589
0.819564
0.757575
1.032948
1.001954
0.978708
1.036525
1.116991
1.070499
1.114607
1.125932
1.177788
1.082420
1.177788
1.272559
1.318455
1.631975
1.678467
1.670718
1.827478
2.301931
2.658963
14.473796
45.553446
141.319633
276.469588
574.253798
862.775445
1015.774012
1015.774012
1015.774012
1015.774012
1015.774012
1015.773416
678.372979
399.367809
175.117850
81.114769
23.065805
11.207461
8.964539
8.860826
8.990765
9.926558
12.726784
16.317964
24.824739
34.102798
48.884749
60.697794
72.805882
78.570843
79.426765
75.881481
65.322518
56.414604
42.415857
33.016801
22.812486
17.541647
12.667775
10.485649
8.959770
8.797646
8.398890
8.136630
##ZVALUE=345
0.682473
0.662804
0.623465
0.759959
0.556707
0.594854
0.456572
0.595450
0.569820
0.496507
0.550747
0.452995
0.662804
0.577569
0.582933
0.559688
0.611544
0.511408
0.502467
0.699759
0.735521
0.727773
0.715852
0.694990
0.711679
0.809431
0.799894
0.869632
0.696778
0.683665
0.768900
0.754595
0.797510
0.849962
0.735521
0.691414
0.875592
0.977516
0.860691
0.995994
1.002550
1.043677
1.035929
1.005530
1.133680
1.176000
1.061559
1.223683
1.263618
1.526475
1.428723
1.728535
1.857877
2.292991
4.826784
31.488538
87.201595
226.664543
390.226841
675.551891
925.332904
1015.722752
1015.722752
1015.722752
1015.722752
1015.722752
951.962471
574.223995
323.979855
119.440556
49.460530
15.037656
9.351969
8.986592
8.331537
8.428693
9.004474
11.125803
14.911890
23.454428
32.094717
45.659542
55.292845
65.859556
71.475506
73.104501
70.434809
62.481761
53.425431
42.305589
32.859445
22.460818
17.059445
12.324452
10.170937
9.056926
##ZVALUE=350
0.549555
0.695586
0.668764
0.634789
0.632405
0.532866
0.740886
0.385642
0.590682
0.620484
0.598431
0.752807
0.608563
0.515580
0.638962
0.665784
0.637770
0.754595
0.694990
0.664592
0.707507
0.711679
0.699759
0.623465
0.699759
0.712872
0.656843
0.729561
0.797510
0.789762
0.787973
0.718832
0.743866
0.744462
0.892878
0.862479
0.943542
0.877976
0.896454
0.750422
0.844598
0.882745
0.960827
0.992417
0.833869
1.067519
1.134872
1.136661
1.200438
1.426935
1.492500
1.409650
1.564622
1.488924
1.770854
2.161860
2.927780
14.632940
47.228932
147.962570
276.156664
533.365607
768.926740
1015.774608
1015.774608
1015.774608
1015.774608
1015.774608
1015.774608
708.353519
446.115732
206.668973
91.097951
21.920800
10.039806
7.988811
7.834435
7.566810
7.881522
8.724928
10.421872
15.105605
20.249486
29.405951
37.873983
50.074458
58.031678
65.661669
68.404675
66.339970
59.985518
49.137473
40.647984
29.670000
22.995472
16.450882
##ZVALUE=355
0.601411
0.721812
0.624657
0.683665
0.509620
0.698566
0.713468
0.606775
0.608563
0.645518
0.696778
0.527501
0.533462
0.610948
0.553727
0.671744
0.705719
0.711679
0.665784
0.802875
0.771880
0.758767
0.736713
0.817776
0.810623
0.719428
0.741482
0.706911
0.941753
0.846982
0.856519
0.825524
0.864863
0.840425
0.761747
0.863671
0.852942
0.730753
0.851750
0.889897
1.009703
0.984669
0.923872
0.923872
1.036525
0.912547
0.997782
1.207590
1.235604
1.362562
1.165867
1.402497
1.328588
1.455545
1.556873
1.629591
1.909733
2.220869
2.395511
6.650686
25.278926
98.664761
206.072927
430.550575
662.748814
991.470814
1015.774012
1015.774012
1015.774012
1015.774012
1015.774012
966.413617
637.846589
287.836790
135.789514
37.084818
12.705922
8.158684
7.892847
7.182956
7.374883
7.251501
8.117557
9.784698
12.806654
18.269420
24.381876
34.806728
42.090416
52.029490
58.670640
61.391592
60.734749
54.983497
48.391819
38.347840
##ZVALUE=360
0.706911
0.626445
0.639558
0.712872
0.642538
0.569820
0.735521
0.698566
0.712872
0.692606
0.597835
0.706911
0.605583
0.578761
0.750422
0.738502
0.659823
0.848770
0.687838
0.721812
0.628829
0.713468
0.648499
0.680685
0.758767
0.716448
0.803471
0.717640
0.728965
0.773668
1.014471
0.898838
0.865459
0.893474
1.003742
1.025796
1.076460
0.938773
0.877976
0.797510
1.088977
0.884533
1.038909
1.051426
1.034737
1.027584
1.178980
1.080632
1.202822
1.309514
1.307726
1.446605
1.416802
1.392961
1.435876
1.521707
1.654625
1.741648
2.090931
2.000928
2.576709
3.423691
10.404587
49.596429
126.059651
313.910842
515.425801
859.064460
1015.774608
1015.774608
1015.774608
1015.774608
1015.774608
1015.774608
827.921629
422.513485
218.726993
74.962974
24.567842
8.511543
7.690787
7.370710
7.117987
6.961823
6.826520
7.583499
8.378625
11.158586
14.369488
20.592809
27.409792
37.891865
44.660568
52.206516
55.449605
55.254698
##ZVALUE=365
0.660419
0.669956
0.561476
0.644922
0.646710
0.623465
0.715852
0.711679
0.561476
0.574589
0.765920
0.715852
0.632405
0.690818
0.660419
0.731945
0.636578
0.766516
0.618696
0.765920
0.568628
0.647902
0.694990
0.629425
0.773668
0.798702
0.953674
0.838637
0.870824
0.794530
1.002550
0.826716
0.870824
0.825524
0.841618
0.926852
0.960827
0.948906
0.958443
0.906587
0.855923
1.023412
0.748634
1.019835
0.976920
1.143813
1.049638
1.043677
1.228452
1.042485
1.065731
1.235604
1.198649
1.226664
1.351833
1.319647
1.401901
1.617670
1.642704
1.835823
1.914501
2.060533
2.273917
2.450943
4.909635
26.541948
74.985623
210.461617
408.293605
781.081915
1015.774012
1015.774012
1015.774012
1015.774012
1015.774012
1015.774012
860.370994
501.962900
283.385515
102.610588
39.036870
10.089874
7.298589
6.846786
6.905794
6.466508
6.359816
6.477833
6.593466
7.347465
8.834600
12.648702
16.733408
24.283528
30.778646
38.843751
##ZVALUE=370
0.576973
0.601411
0.651479
0.575781
0.729561
0.523925
0.581741
0.536442
0.585914
0.568628
0.753999
0.669956
0.552535
0.600815
0.708699
0.611544
0.663996
0.699759
0.617504
0.673532
0.769496
0.682473
0.810623
0.587702
0.681877
0.773668
0.700951
0.606775
0.849962
0.735521
0.850558
0.872612
0.684857
0.641942
0.662804
0.801682
0.791550
0.803471
0.759959
0.938773
0.707507
0.810623
0.812411
0.803471
1.027584
1.034737
0.892878
0.901818
0.936985
1.181960
0.929832
0.978708
0.847578
0.953674
1.123548
1.293421
1.261830
1.355410
1.251698
1.501441
1.432896
1.460910
1.636744
1.838803
1.982450
2.397895
3.056526
13.904572
47.356486
156.580806
305.161476
610.393882
929.882526
1015.774608
1015.774608
1015.774608
1015.774608
1015.774608
880.162716
493.866801
279.679894
109.341741
48.870444
15.794635
7.903576
6.620884
6.263852
6.200671
5.802512
5.757809
5.704761
5.886555
6.007552
8.169413
10.635853
15.160441
##ZVALUE=375
0.648499
0.677705
0.705719
0.793934
0.638962
0.731945
0.833869
0.742674
0.846982
0.848770
0.779629
0.699759
0.701547
0.796914
0.748634
0.762939
0.682473
0.634789
0.629425
0.739694
0.758767
0.651479
0.956655
0.744462
0.667572
0.728965
0.737906
0.808835
0.786781
0.735521
0.759959
0.780821
0.716448
0.907779
0.897646
0.712872
1.014471
0.903606
0.729561
0.853539
0.798702
0.817776
0.864863
0.911951
0.961423
0.989437
0.990629
1.104474
0.995994
1.037717
1.034737
0.999570
1.104474
1.048446
1.101494
1.218915
1.140833
1.214743
1.299977
1.335740
1.366735
1.486540
1.625419
1.563430
1.651645
1.797676
2.214909
2.463460
2.844930
8.611679
29.090643
104.900599
233.887434
535.029769
836.972594
1015.901566
1015.901566
1015.901566
1015.901566
1015.901566
971.883535
583.807826
358.195901
161.312819
78.942776
25.647879
10.317564
6.439686
6.276965
5.692840
5.833507
5.441904
5.514622
5.301833
5.551577
5.920529
##ZVALUE=380
0.571609
0.521541
0.435710
0.446439
0.496507
0.571609
0.642538
0.623465
0.498891
0.549555
0.567436
0.554919
0.542998
0.566840
0.510812
0.344515
0.548959
0.599623
0.692606
0.653863
0.650883
0.621676
0.705719
0.739694
0.604987
0.519753
0.537634
0.476837
0.507832
0.575781
0.559688
0.578761
0.642538
0.695586
0.615716
0.641942
0.608563
0.660419
0.608563
0.588894
0.663996
0.670552
0.748634
0.770688
0.626445
0.798702
0.774860
0.773668
0.820756
0.891685
0.858903
0.918508
0.836849
0.937581
0.972748
1.072884
1.098514
1.066923
0.995994
1.078844
1.127720
1.000762
1.143813
1.246929
1.247525
1.529455
1.491904
1.658797
1.818538
2.293587
2.589822
4.682541
16.214848
78.957677
188.778639
454.220772
739.348531
1015.777588
1015.777588
1015.777588
1015.777588
1015.777588
1015.319824
689.015985
446.344614
211.664438
106.250644
36.900640
15.152693
6.909966
5.629659
5.339980
5.153418
4.998446
4.893541
4.708767
##ZVALUE=385
0.479817
0.563860
0.510812
0.439882
0.501871
0.486970
0.359416
0.518560
0.563860
0.690818
0.670552
0.525713
0.670552
0.490546
0.689626
0.568628
0.502467
0.420809
0.509620
0.510812
0.514984
0.493526
0.681877
0.603795
0.602603
0.508428
0.595450
0.683665
0.528693
0.747442
0.708699
0.547767
0.580549
0.645518
0.707507
0.754595
0.764728
0.670552
0.697970
0.698566
0.604987
0.649691
0.794530
0.775456
0.885725
0.721812
0.855923
0.738502
0.642538
0.504851
0.833869
0.835657
0.736713
0.837445
0.921488
0.837445
0.658631
0.874996
0.910759
0.954866
1.050830
1.099706
0.962615
1.268983
1.170635
1.054406
1.216531
1.479983
1.589656
1.830459
1.977682
2.051592
2.141595
2.874732
7.805824
44.203401
121.396780
327.301621
595.499873
1005.872488
1015.774608
1015.774608
1015.774608
1015.774608
1015.774608
906.488895
610.031486
309.989452
167.505741
63.643456
25.038719
7.684827
5.379915
5.017519
4.829764
4.582405
##ZVALUE=390
0.566840
0.569820
0.609756
0.541806
0.466704
0.466704
0.518560
0.501871
0.434518
0.520945
0.564456
0.611544
0.408888
0.478625
0.586510
0.363588
0.526905
0.522733
0.583529
0.558496
0.554919
0.672936
0.751615
0.604987
0.587702
0.423789
0.638962
0.479817
0.576973
0.575781
0.683665
0.409484
0.460744
0.466704
0.449419
0.540614
0.564456
0.628829
0.660419
0.691414
0.618696
0.664592
0.512600
0.725985
0.601411
0.777841
0.607967
0.664592
0.581741
0.718832
0.696778
0.747442
0.730753
0.569820
0.605583
0.899434
0.871420
0.888705
0.981688
1.031756
0.866652
0.918508
0.989437
0.964999
0.889897
1.082420
1.103878
1.268983
1.452565
1.641512
1.846552
1.866817
2.022982
2.184510
2.213717
2.289414
3.868937
24.189949
74.853897
233.476758
447.603464
859.048963
1015.774012
1015.774012
1015.774012
1015.774012
1015.774012
1015.773416
820.089579
460.732579
253.523588
94.468594
41.270852
12.679696
6.187558
5.019903
##ZVALUE=395
0.484586
0.554919
0.535846
0.610948
0.511408
0.602603
0.637770
0.519753
0.520945
0.571609
0.439882
0.463724
0.433922
0.407696
0.517964
0.503659
0.558496
0.405908
0.350475
0.620484
0.661612
0.507832
0.602603
0.450611
0.504851
0.550747
0.517964
0.702739
0.762939
0.725985
0.602603
0.564456
0.607967
0.586510
0.413656
0.528693
0.539422
0.537634
0.672936
0.544786
0.577569
0.603795
0.626445
0.524521
0.686646
0.651479
0.658631
0.692606
0.700951
0.704527
0.665784
0.624657
0.710487
0.741482
0.688434
0.845790
0.771880
0.863671
0.829697
0.905991
0.896454
0.815988
0.971556
0.983477
0.938773
1.134872
1.127720
1.418591
1.338720
1.464486
1.636744
1.714826
1.592636
1.764894
1.834631
1.863837
1.838803
2.028942
2.822876
9.532571
59.094429
152.325034
368.276834
619.111657
998.023748
1015.774012
1015.774012
1015.774012
1015.774012
1015.774012
986.796618
685.124993
344.179869
174.169540
58.943629
23.691654
##ZVALUE=400
0.524521
0.512600
0.464916
0.531673
0.418425
0.496507
0.512600
0.478625
0.447631
0.503659
0.553727
0.575781
0.448823
0.602603
0.549555
0.466704
0.490546
0.495911
0.341535
0.535846
0.531673
0.474453
0.461936
0.417829
0.629425
0.611544
0.560880
0.533462
0.564456
0.587702
0.481606
0.642538
0.548959
0.590682
0.670552
0.623465
0.643730
0.740886
0.590682
0.597835
0.575781
0.509620
0.710487
0.745654
0.761747
0.721812
0.834465
0.545979
0.693798
0.652671
0.626445
0.596642
0.727773
0.625849
0.655651
0.928640
0.886917
0.857711
0.754595
0.894666
0.905991
0.868440
0.881553
0.963807
0.870824
1.006722
0.984669
1.269579
1.342893
1.460910
1.554489
1.553893
1.635551
1.521707
1.545548
1.551509
1.641512
1.789927
1.804829
2.050996
2.291799
5.844831
23.231506
97.581744
220.955610
504.955649
810.554624
1015.774012
1015.774012
1015.774012
1015.774012
1015.774012
1015.774012
753.376484
484.769940
233.758688
##END
