##TITLE=QP00301
##FORMAT=SPECTACLE-ASCII V-1.2
##DATA TYPE=ULTRAVIOLET SPECTRUM
##SECOND TYPE=ULTRAVIOLET SPECTRUM
##DATE=02/12/18
##TIME=15:07:29
##SPECTROMETER/DATA SYSTEM=SPECTACLE
##XUNITS=NM EM
##YUNITS=ENERGY
##YFACTOR=1
##FIRSTX=220
##LASTX=410
##NPOINTS=96
##3DDATA=Equidistant
##ZUNITS=NM EX
##FIRSTZ=210
##LASTZ=400
##ZPOINTS=39
##XYDATA=(Y..Y)
##ZVALUE=210
2.318621
2.230406
2.953410
2.508759
2.145767
2.762675
3.197789
2.953410
2.522469
2.748966
2.322793
2.292991
1.968741
1.667738
2.121925
1.907945
2.165437
2.391934
1.915693
2.458692
2.730489
2.625585
2.566576
2.349615
2.736449
3.034472
3.273487
4.003644
2.710819
3.021955
3.104806
3.017783
3.721714
3.542900
3.746748
3.902912
4.070997
4.013777
3.973842
3.766418
4.453659
3.770590
4.452467
3.077984
3.638864
4.399419
3.803968
3.996491
3.920794
3.770590
4.383922
4.211664
4.438758
4.309416
4.185438
4.603863
4.892945
4.290938
4.157424
4.073977
4.244447
4.868507
4.465580
4.398823
4.760623
5.402565
5.507469
5.532503
5.851984
6.953478
8.427501
8.833408
10.885000
11.675954
12.394786
12.326837
13.106465
12.782812
11.082888
10.627508
10.013580
9.027719
8.394718
7.473826
6.945729
6.473660
4.677773
5.517602
5.643964
5.761981
6.017685
5.084872
4.921556
5.001426
5.804896
6.160736
##ZVALUE=215
6.693602
6.140471
6.926656
6.214976
5.397797
5.372763
5.318522
5.383492
4.895926
5.012751
5.328655
4.657507
4.146695
3.594756
2.828836
2.569556
2.947450
2.926588
3.014803
2.849698
3.971457
3.525615
3.358722
3.170967
3.099442
3.636479
3.472567
3.231764
3.687739
3.576875
3.701448
3.951788
4.139543
4.746914
4.530549
4.638433
3.763437
4.884601
4.650950
4.667640
4.130602
4.389882
4.344583
4.300475
4.679561
4.919767
4.927516
4.601479
4.817843
5.239844
5.236864
5.484819
4.864931
5.403757
4.834533
5.130768
5.393624
5.872846
4.078746
5.586743
5.153418
5.156994
5.084872
4.740953
4.772544
5.427599
5.466938
5.963445
6.240606
6.941557
8.133650
8.970499
10.272861
11.945963
12.354851
11.982918
12.395978
11.574626
11.637807
10.444522
10.470748
9.031892
8.117557
7.760525
6.971955
7.347465
6.462932
5.718470
5.276799
5.340576
5.487800
6.136894
5.843639
5.724430
5.914569
6.056428
##ZVALUE=220
18.563867
19.307733
20.797849
19.778609
19.211769
17.467737
13.949871
12.642741
11.312962
12.187958
13.683438
12.869835
13.629794
11.307597
8.878708
6.816983
4.944801
4.013777
4.002452
3.384948
2.406836
2.553463
2.773404
2.945662
3.466606
3.781915
3.532767
3.775954
3.539920
3.870726
4.401803
4.142523
4.209876
3.875494
5.073547
4.803538
4.285574
4.855990
4.597902
4.458427
4.426837
5.602837
5.285740
4.918575
5.298853
4.559755
5.342960
5.181432
5.064607
5.374551
5.569458
4.642606
5.730987
5.300641
5.209446
5.410910
5.551577
5.452633
5.198717
6.053448
6.220937
5.682707
6.087422
6.865859
5.619526
5.766749
6.781816
6.041527
7.062554
8.157492
9.464622
9.916425
11.072755
11.603832
12.248755
12.408495
13.196468
12.089610
12.187958
12.328625
10.580420
9.834766
10.801554
9.788871
8.496642
8.116961
6.864667
6.750822
7.380843
6.744862
6.657839
6.862879
6.947517
6.128550
7.388592
7.677674
##ZVALUE=225
34.804940
35.038590
43.269992
56.266785
60.256720
59.505701
57.521462
45.236945
36.368966
29.161572
26.374459
23.255944
27.708411
28.175712
27.526617
25.242567
18.369555
17.705560
13.562441
8.190870
5.987883
4.174709
3.447533
3.221631
3.293753
3.267527
3.751516
3.875494
4.721880
4.298687
4.515648
4.299879
4.774928
5.335808
4.759431
4.715919
5.231500
5.773902
4.971623
5.356669
4.837513
5.257726
5.071759
4.940629
6.101727
5.149841
5.931854
5.505681
5.657673
6.121993
5.799532
6.997585
7.023811
6.274581
6.134510
6.343722
6.198883
5.794764
6.484985
6.747842
6.805658
6.268620
7.467866
6.941557
7.241964
7.226467
7.250905
7.094741
8.497834
8.967519
10.425448
10.812879
11.313558
14.386773
12.333989
13.398528
13.545752
13.076663
12.848973
13.518929
12.361407
11.338592
11.077523
11.060834
10.761619
10.223985
10.347962
10.306835
10.645986
10.510683
9.899735
9.099841
10.738969
9.407997
9.849668
8.733869
##ZVALUE=230
29.233694
31.096935
48.747659
85.821748
107.724667
131.451488
152.411461
151.787996
135.170817
110.010505
83.085895
61.104894
47.257543
44.222474
48.214793
48.741698
51.980615
52.425861
43.458939
37.663579
25.329590
19.006729
11.203885
7.707477
6.028414
5.497932
4.732609
4.473925
4.770756
3.958941
4.824996
4.642606
4.968643
6.229877
5.173683
5.819798
6.321669
5.867481
6.316900
6.027818
5.130768
5.815625
6.100535
5.996823
6.164908
5.947948
5.913973
6.346703
5.831718
6.603599
6.489754
6.562471
6.861687
7.935762
8.233786
7.101893
7.546544
7.630587
8.117557
7.024407
8.826852
9.029508
8.429885
9.410977
9.690523
9.386539
10.036826
12.766719
11.510849
13.597608
14.741421
15.415549
15.421510
15.922785
17.903447
17.560720
18.274784
18.943548
18.726587
18.347502
16.162992
16.630888
15.609860
16.039610
15.892982
16.078949
15.575886
14.661551
15.446544
14.645457
14.775991
15.910864
15.150905
15.532970
15.254617
16.190410
##ZVALUE=235
11.447668
11.561513
25.709867
59.540868
94.163418
156.617761
198.868513
252.939463
280.755758
286.350846
255.764723
215.131640
145.256519
111.286640
82.569718
73.871613
75.791478
80.146790
89.525580
87.012649
84.114671
66.891909
55.725574
37.467480
25.165677
14.708638
11.997819
7.449985
6.947517
6.329417
6.282926
6.465912
5.720854
6.747842
6.108880
6.775856
5.634427
6.903410
7.034540
6.241798
6.005764
5.300641
6.556511
6.976724
6.637573
6.195903
6.789565
7.432699
7.545948
6.492734
6.374717
5.906820
7.121563
7.520914
8.031726
8.561611
8.616447
9.051561
9.259582
9.053946
9.745955
11.440516
10.262728
10.695457
10.742545
12.504458
14.457703
14.589429
14.862418
16.342998
16.897917
19.685626
20.684600
21.797419
23.103952
23.785830
23.482442
24.699569
24.021864
24.373531
22.108555
23.268461
23.563504
21.036863
23.991466
23.959875
23.174882
22.972822
23.893714
23.835897
23.297668
21.377802
21.155477
23.152828
23.141503
21.908879
##ZVALUE=240
1.506805
2.213717
4.837513
11.372566
27.341843
70.063472
118.148923
203.674436
276.371837
361.326933
400.700569
400.769711
371.123552
296.444893
237.095952
160.681009
116.535425
90.492964
88.618994
97.378492
107.364655
111.925602
108.983517
97.089410
77.781677
65.283775
45.044422
31.729937
20.406842
13.976693
9.673834
8.698702
8.281469
7.838607
7.071495
7.612705
6.552935
6.313920
6.289482
5.666614
6.017685
6.172657
6.346703
6.474853
5.618930
6.087422
6.382465
6.716847
6.499887
5.782843
6.472468
7.287860
6.944537
7.294416
6.910563
7.278919
7.733703
8.627772
8.564591
8.834600
8.942485
10.360479
11.592507
11.934638
12.831688
13.916492
15.137792
15.245676
17.017722
17.156601
18.751621
20.572543
21.289587
22.469759
24.848580
25.597811
25.029778
26.004910
26.700497
25.124550
26.983619
26.246905
26.740432
27.344823
24.687648
25.862455
26.524663
27.740598
26.949644
26.434660
27.507544
26.279688
25.525689
24.547577
25.734901
25.384426
##ZVALUE=245
1.286864
1.446605
1.278520
1.670718
3.335476
7.991791
28.891563
59.693456
131.807923
206.310749
327.265859
405.415893
460.507870
499.293804
476.063490
401.223898
325.962901
223.098993
164.961815
106.630921
92.810988
93.379617
108.604431
119.707584
127.486587
125.515461
107.391477
93.866587
69.707632
53.764582
38.205981
23.944974
16.990900
11.495948
10.202527
8.401871
7.974505
7.419586
6.896853
6.507635
6.480813
6.605983
6.165504
6.002784
5.785823
5.728602
5.957484
5.681515
5.997419
5.835891
5.694628
5.966425
5.838871
7.166862
7.435679
6.048679
7.349849
7.857680
7.306933
7.775426
7.755756
9.632707
9.443760
9.897947
11.038780
12.012720
12.500882
12.698770
13.312697
16.459823
17.112494
19.043684
19.168854
20.913482
22.737980
22.849441
24.497509
25.263429
23.579597
24.175644
25.007725
24.504662
24.772882
25.322437
25.308728
27.115941
26.765466
26.073456
27.124882
26.564598
25.732517
26.340485
27.659535
25.650859
26.138425
26.693940
##ZVALUE=250
1.191497
1.178980
1.317859
1.377463
1.189709
1.540780
2.187490
5.361438
22.252798
50.158501
115.982890
193.044543
288.899541
415.478945
499.286652
568.689704
568.450689
507.763624
433.705449
307.820439
212.947726
146.824718
92.222691
87.548494
104.093552
118.443966
129.210949
135.020614
126.686692
117.907524
100.853443
77.118874
56.836605
33.647418
23.526549
13.920665
10.297894
7.573962
6.929636
7.485747
5.954504
5.452633
5.853772
5.717874
5.740523
5.277991
5.404949
5.507469
5.065799
5.129576
5.067587
5.070567
5.439520
5.052686
5.715489
5.892515
6.311536
6.214976
6.655455
7.173419
7.402897
8.388758
8.150935
8.657575
9.486675
10.468960
10.278821
12.564659
13.266802
14.337897
14.664531
16.239882
17.339587
18.987656
20.014644
21.475554
20.879507
22.306442
22.916794
22.589564
23.427606
23.021698
23.998618
24.857521
23.984909
25.150776
24.376512
24.097562
25.783777
26.243925
25.418997
24.934411
24.705529
25.180578
25.143623
25.672913
##ZVALUE=255
0.966787
1.147985
1.104474
1.162887
1.402497
1.373887
1.502633
1.279712
1.704693
3.250837
14.637709
37.838817
77.879429
165.274739
259.522796
410.314798
515.258908
611.630678
653.646588
610.804558
538.626909
439.039469
286.837816
184.772611
110.856891
84.403753
86.068511
97.576976
121.975541
132.643580
138.562918
133.638978
123.930573
101.058483
80.263615
53.588748
35.544634
21.011829
13.404489
8.971691
7.375479
5.993843
5.756617
5.507469
5.637407
5.484819
6.197691
5.543828
5.188584
5.489588
5.296469
5.402565
5.428791
6.039739
5.374551
5.698800
5.591512
6.086826
5.888939
6.608963
7.076859
7.819533
7.170439
8.087754
8.239746
9.839535
9.502769
10.347962
10.712743
12.898445
13.507605
14.562607
15.392900
16.775727
16.881824
18.070936
18.978715
19.577742
19.613504
19.626617
20.698905
20.620823
21.509528
22.761822
21.922588
22.832751
24.737716
22.839904
23.079515
23.680925
24.449825
24.024844
24.384856
23.908615
23.948550
24.166703
##ZVALUE=260
0.969768
0.998974
1.113415
1.181960
0.905991
1.013875
1.005530
1.095533
1.076460
1.263618
1.514554
1.962781
5.866885
24.004579
54.764748
132.048726
218.604803
361.331701
484.354496
630.232692
696.226954
709.219575
628.269911
525.309443
350.537896
241.073966
143.697858
97.241998
71.664453
79.230666
93.971491
119.354725
133.183599
144.091845
140.609741
122.826695
103.940964
75.847507
55.752993
34.924746
22.966862
13.217926
8.949637
6.304979
5.854964
5.471706
5.480647
5.713701
5.626678
5.678535
5.305409
5.645752
5.604625
5.474687
5.980730
5.897880
5.618930
6.187558
6.428957
6.263852
6.686449
7.361770
7.506609
7.448792
8.422732
8.792877
8.986592
9.933710
10.150671
11.400580
11.999607
13.380647
14.027953
14.824867
15.892982
16.995668
17.014742
16.663671
18.243790
18.309951
19.735694
19.431710
20.050406
20.619631
20.707846
21.067858
20.881891
21.773577
21.934509
21.356940
22.385716
21.822453
23.198724
21.586418
23.952723
22.599697
##ZVALUE=265
0.963807
0.896454
1.047850
1.039505
0.914931
0.984669
0.961423
1.171827
0.963807
1.163483
1.374483
1.540780
1.401901
1.548529
4.013777
12.683868
45.936704
91.763735
192.092657
312.880874
483.002663
619.421601
732.136965
761.857033
768.923759
601.851940
475.583673
305.684805
203.904510
109.986663
74.645877
63.585639
76.986551
103.597641
122.243762
140.974522
142.544508
137.238503
123.410821
100.211501
78.257918
51.687956
35.580993
20.338893
12.933612
8.607507
6.626844
6.914735
5.718470
5.944967
6.082654
5.892515
6.136894
6.240606
6.205440
6.509423
6.778836
6.556511
6.646514
6.640553
7.344484
7.548928
7.697940
7.650852
8.244514
8.868575
8.604527
9.922981
9.938478
10.624528
11.830926
13.202429
13.692975
14.781952
14.570951
15.665889
16.055703
16.767979
16.884804
17.565489
17.464757
17.772913
18.782616
18.943548
19.264817
19.998550
19.894838
20.476580
20.550489
20.750761
20.945668
21.283627
21.902919
21.912456
21.478534
22.109747
##ZVALUE=270
0.969768
0.876784
0.823736
0.869632
0.975728
1.042485
0.899434
0.958443
1.125932
1.184940
0.891685
1.100898
1.255870
1.373887
1.500845
1.597404
2.110600
7.902980
22.308826
73.201656
137.959719
236.635804
424.307585
573.444963
738.420486
802.224874
794.523954
723.519921
563.095808
426.056981
327.639580
160.907507
91.867447
54.340959
55.862665
76.996684
97.966790
125.777721
138.976574
144.451857
141.123533
124.113560
104.973912
76.413751
56.778789
33.243895
22.922754
13.004541
9.811521
7.212758
6.769896
6.507635
6.204844
6.454587
6.254911
6.996989
6.968975
7.471442
7.603765
6.857514
7.509589
7.732511
8.579493
8.340478
8.532405
9.351969
9.524822
10.160804
10.355711
11.382699
12.019873
12.485981
13.024807
14.238954
13.731718
15.276670
15.777946
15.998483
16.702414
16.447902
17.188787
17.877817
17.514825
18.677711
18.242598
19.028783
19.412637
18.739700
19.851923
19.762516
19.494891
19.683838
19.580722
19.862652
20.209551
20.105839
##ZVALUE=275
0.826716
0.813603
0.962615
1.048446
0.949502
0.884533
1.084805
1.009703
0.943542
1.049638
1.140833
1.216531
1.117587
1.093745
1.149774
1.043677
1.386404
1.562834
1.576543
3.690720
12.806654
37.843585
107.794404
202.059746
380.282998
514.858961
675.958991
777.691603
819.121003
780.078769
688.787699
511.764884
363.083482
197.272897
115.204453
57.429671
45.045614
54.471493
72.902441
100.128651
119.987726
136.971474
141.783953
137.032866
124.191642
99.212527
79.529881
54.344535
39.139986
23.082495
15.386939
10.147691
8.567572
6.918907
7.292628
6.922483
7.040501
7.357597
7.296801
7.820725
7.980466
8.631945
8.526444
9.225607
9.028912
9.220839
9.466410
10.130405
10.747910
10.976791
12.189746
12.914538
13.200641
13.797879
14.562607
14.302731
15.076995
15.252829
16.400814
16.035438
16.719699
16.650558
17.351508
17.284751
17.918944
17.969608
18.367767
18.100739
18.509626
18.402934
18.733740
18.823743
18.158555
18.816590
19.015670
19.354820
##ZVALUE=280
0.748634
0.756979
0.788569
0.862479
0.775456
0.873804
1.015663
0.946522
0.950694
0.989437
1.043677
0.987649
1.229644
1.022816
1.242757
1.098514
1.285672
1.276731
1.426935
1.264811
1.545548
1.851916
8.112788
28.610826
99.793673
179.915428
335.974693
494.993925
702.623725
817.676783
886.292458
868.977904
776.938796
589.555502
434.639454
249.042511
150.748491
72.697997
44.396520
39.137602
51.350594
75.441599
96.192956
120.230913
133.914948
140.333772
134.983659
119.410753
100.986958
75.146556
56.068897
36.190748
24.135709
14.543533
10.578632
7.841587
7.362962
7.497668
7.816553
7.973909
8.067489
8.398890
8.974671
9.219646
9.213686
10.021925
10.290742
10.623932
10.957718
11.888742
12.073517
12.990832
12.932420
14.206767
14.471412
15.402436
15.756488
15.416741
16.089678
16.486645
16.373992
16.714931
16.945601
17.810464
17.347932
18.580556
18.228889
18.065572
18.345714
17.784834
18.725991
17.739534
18.689632
18.163919
18.052459
18.635988
##ZVALUE=285
0.574589
0.659823
0.570416
0.755787
0.572801
0.686646
0.690818
0.715852
0.749826
0.744462
0.796914
0.944734
0.940561
0.795722
0.847578
0.841618
0.954866
0.989437
0.926852
1.110435
1.191497
1.202822
1.208782
1.679659
3.861785
13.859868
48.169494
99.752545
214.520693
338.982940
481.574535
678.135753
795.166492
861.592889
819.876790
675.673485
532.156825
332.433581
210.876465
100.441575
55.297613
30.401945
31.074882
47.990680
65.786839
95.281601
111.216903
127.571821
135.120749
132.077932
120.908618
99.952817
80.279708
54.713488
39.411783
23.705959
15.648603
10.757446
9.204745
8.171797
8.168817
8.466840
8.649826
9.157658
9.242892
10.278821
10.771751
11.041760
11.745691
11.706948
12.719631
12.968779
13.326406
13.608932
14.452934
14.744997
15.297532
16.843677
16.006827
16.271472
16.850829
17.110705
17.415881
17.703772
16.939640
17.709732
17.774701
17.648935
17.922521
18.075705
17.530918
17.943978
17.662644
17.617941
17.676950
18.103719
##ZVALUE=290
0.710487
0.812411
0.609756
0.755787
0.849962
0.720620
0.686646
0.720620
0.687838
1.014471
0.777841
0.864863
1.049638
0.970960
0.962615
0.933409
0.903606
1.115799
0.821948
1.057982
1.012683
1.336932
1.277924
1.291633
1.487732
1.525879
2.025962
7.743835
22.720695
69.414973
133.552551
275.159478
421.878695
636.160970
770.082474
888.505578
888.571739
775.209665
638.402700
428.108573
281.896591
143.076777
75.319409
31.635761
22.411942
30.749440
43.851733
66.015720
83.893538
108.975768
121.238828
130.582452
127.909780
115.798712
100.149512
73.576570
55.763721
36.535859
25.495887
16.570687
12.391806
9.803772
9.298921
9.157658
9.304881
10.168552
10.406971
10.564923
11.680722
12.550950
12.346506
13.310909
13.318658
14.678836
14.747977
14.835000
15.471578
15.883446
16.401410
16.273856
16.466975
17.248988
17.240644
17.857552
17.912984
17.822981
17.842650
18.064976
18.014908
17.881989
18.509626
18.278956
17.945766
17.776489
18.007755
17.724633
##ZVALUE=295
0.646710
0.651479
0.822544
0.777841
0.675917
0.809431
0.834465
0.705719
0.644922
0.866652
0.632405
0.803471
0.789762
0.969768
0.834465
0.883937
0.783801
0.830889
0.894666
1.067519
0.921488
1.041889
1.095533
0.906587
1.043677
1.225471
1.440644
1.411438
1.654625
2.523661
9.073615
39.000511
88.373423
208.865404
336.628556
544.102788
688.936710
840.882659
884.124637
830.052495
713.477731
517.589450
360.301733
190.822482
102.909803
39.398670
21.401644
19.308925
25.544763
42.477846
58.108568
81.340671
99.483728
116.730928
124.254823
122.098923
113.638639
92.240572
75.360537
53.994656
38.868785
24.221539
17.215610
12.428761
10.857582
10.376573
10.419488
11.303425
10.986924
11.798739
12.354851
13.088584
13.878942
14.409423
14.776587
15.164614
15.386939
15.972853
16.691685
16.587973
17.140508
16.928911
17.609000
17.538667
17.802715
17.908812
18.102527
18.283725
18.429756
18.258691
17.959476
17.643571
18.266439
17.343760
17.478466
17.222762
##ZVALUE=300
0.746846
0.669956
0.424981
0.549555
0.745654
0.841618
0.710487
0.875592
0.746846
0.737906
0.760555
0.693798
0.815988
0.724792
0.755787
0.802875
0.787973
0.958443
0.930429
0.872612
0.967979
0.853539
1.025796
0.949502
1.007915
1.249909
1.244545
1.128912
1.249909
1.330972
1.484752
1.713634
4.315972
23.091435
60.217977
152.052641
260.844827
448.707938
597.817898
761.829019
840.392709
840.418935
767.458677
594.576597
438.866615
245.457888
147.745609
66.356659
32.591820
15.102625
15.732646
24.292469
35.543442
55.501461
72.968602
96.273422
110.645890
118.997693
117.547512
106.132627
94.395876
72.671771
56.701899
39.154887
27.760863
18.542409
14.918447
12.040734
11.787415
12.248755
12.438893
13.432503
14.234781
14.757514
14.695525
15.584826
16.140938
16.868711
16.748905
16.694665
17.487407
17.575622
17.462969
17.912984
18.796921
18.492937
18.093586
18.307567
18.564463
18.884540
18.537641
18.058419
18.399954
18.008947
17.868876
17.750859
##ZVALUE=305
0.527501
0.730753
0.615716
0.754595
0.662804
0.552535
0.573993
0.713468
0.616908
0.626445
0.818968
0.698566
0.631809
0.848770
0.613928
0.726581
0.904799
0.735521
0.930429
0.738502
0.890493
0.675917
0.721812
0.771880
0.862479
0.970960
1.024604
1.128912
0.968575
1.258850
1.371503
1.388788
1.455545
1.553893
2.515912
14.389753
40.701628
116.460919
208.875537
382.567644
531.251431
711.174011
813.683867
849.089026
797.400475
643.747449
505.334735
319.375992
200.478435
94.140768
46.968460
17.349720
12.048483
15.450716
22.947788
37.348866
51.035881
73.904991
88.691711
105.079412
112.414956
112.493634
104.763508
87.868571
73.553920
52.002668
39.945841
27.499795
20.681620
15.916824
14.422536
13.512969
14.076829
14.463663
14.948845
15.465617
16.085505
16.303658
16.573668
17.722845
17.735958
18.261671
18.251538
18.904805
18.667579
18.794537
18.732548
19.366741
19.579530
18.846989
18.295646
19.203424
18.733740
18.123984
18.507838
18.678904
##ZVALUE=310
0.749826
0.709891
0.566840
0.680685
0.749826
0.612736
0.626445
0.717640
0.658631
0.833869
0.570416
0.828505
0.734925
0.746846
0.675917
0.630617
0.776649
0.806451
0.655651
0.719428
0.850558
0.703931
0.821948
0.736713
0.964999
0.979900
0.953674
0.910759
1.171827
1.028776
1.168847
0.999570
1.290441
1.230836
1.231432
1.500845
1.683831
6.130934
20.770431
70.707798
140.814781
292.427540
440.040827
651.343465
787.636638
883.491635
870.245695
756.061673
623.688698
419.762731
278.804898
141.510963
75.167418
27.607679
13.784766
10.638833
13.483763
21.100640
30.663610
48.320889
63.207746
83.791614
96.707940
107.475519
107.893944
101.119876
89.073777
72.006583
56.092739
39.556623
30.752420
22.418499
18.286705
16.232729
15.875697
16.046762
16.536713
16.840696
17.275810
18.075705
18.680692
18.333793
18.608570
18.688440
19.316673
19.364953
19.657612
19.442439
19.286871
19.492507
19.176602
19.127727
19.053817
18.720627
18.405914
18.797517
##ZVALUE=315
0.506639
0.609756
0.651479
0.533462
0.586510
0.713468
0.760555
0.696778
0.664592
0.664592
0.633597
0.478625
0.497699
0.512600
0.524521
0.679493
0.690818
0.600815
0.670552
0.740886
0.714660
0.837445
0.788569
0.753999
0.764728
0.899434
0.693798
0.827909
0.944734
0.927448
0.996590
0.859499
1.130700
1.073480
1.128912
1.227856
1.377463
1.314878
1.573563
2.922416
10.282993
44.010878
96.583962
224.931836
366.776586
589.270592
743.402839
876.635909
911.782980
839.423537
730.994940
522.886515
371.276736
199.671984
108.887553
39.985776
17.933846
9.928942
9.930730
13.650656
19.059777
30.601621
43.192506
60.662627
75.310469
93.429685
101.956725
103.687644
98.974705
86.486936
71.798563
54.702759
43.283701
29.863715
23.503900
19.106865
17.753839
17.267466
16.910434
17.565489
17.435551
18.572807
18.419623
18.715858
18.960834
19.542575
19.209981
19.389987
19.902587
19.533634
19.358993
19.059777
19.618869
18.852949
18.691421
18.634796
##ZVALUE=320
0.505447
0.538826
0.744462
0.440478
0.517964
0.705719
0.674725
0.647902
0.642538
0.579953
0.538826
0.766516
0.653863
0.865459
0.824928
0.680685
0.801682
0.762939
0.737906
0.749826
0.757575
0.762939
0.840425
0.818968
0.969768
0.912547
0.953674
0.819564
0.649691
0.951886
0.775456
0.752807
0.892878
0.964999
0.893474
1.015663
1.011491
1.160502
1.289845
1.365542
1.426935
1.693964
4.665852
24.662614
61.375499
160.732865
273.395777
472.570658
642.801523
826.394558
906.052589
899.935961
803.077817
610.396862
443.410873
246.154666
137.640834
57.351589
26.566982
11.333823
8.958578
10.087490
12.712479
18.845797
26.607513
41.722655
56.292415
73.747635
86.897612
97.565651
100.367665
94.981790
83.774924
67.615509
54.874420
41.407943
32.014847
24.390817
21.237731
19.248724
18.408895
18.228889
18.550754
19.051433
18.931627
19.268990
19.390583
19.408464
19.550920
19.284487
19.271970
19.352436
18.980503
18.947721
19.013882
19.042492
##ZVALUE=325
0.512600
0.600815
0.630617
0.576973
0.356436
0.644922
0.585914
0.507832
0.594854
0.538826
0.487566
0.632405
0.549555
0.472665
0.480413
0.545979
0.680685
0.672936
0.597835
0.740886
0.602603
0.649691
0.596642
0.666976
0.726581
0.643730
0.661612
0.726581
0.892878
0.730753
0.917912
0.667572
0.812411
0.887513
0.999570
0.925660
0.932813
0.888705
1.122952
1.047850
1.249909
1.164675
1.411438
1.678467
3.214478
11.540651
45.977831
98.294616
223.776698
355.252624
561.072826
713.575482
860.864520
892.065763
819.690824
688.641667
474.482775
322.870016
172.175765
95.014572
37.173629
17.551780
9.740591
9.282827
10.503531
12.558699
19.033551
26.908517
42.584538
55.915713
74.624419
85.438490
94.370842
95.436573
89.463592
80.681443
65.840483
53.898692
39.347410
31.252503
24.284720
21.739602
20.128489
19.354820
19.040704
19.080639
19.059777
19.046664
19.296408
18.999577
19.066930
18.704534
18.774867
19.428730
19.026995
18.712878
##ZVALUE=330
0.570416
0.495911
0.562668
0.533462
0.528693
0.400543
0.517964
0.561476
0.585914
0.588894
0.647902
0.510812
0.564456
0.612736
0.632405
0.746846
0.658631
0.665784
0.619888
0.630617
0.684857
0.667572
0.682473
0.642538
0.673532
0.576973
0.679493
0.667572
0.713468
0.683665
0.743866
0.646710
0.908971
0.779629
0.866652
0.891685
0.827909
0.759959
0.971556
0.952482
0.815988
0.899434
1.085997
1.228452
1.308918
1.336932
1.773834
5.103946
25.003552
64.034462
161.611438
276.712775
483.158827
648.631454
832.451582
917.125940
891.966820
784.338713
587.807894
423.087478
233.582854
130.607486
54.233670
25.570989
11.094809
9.048581
9.476542
10.823607
14.218688
19.239783
29.449463
39.287806
55.368543
67.682862
81.630945
88.643432
91.038942
86.443424
75.997710
64.561963
49.990416
40.283799
31.523705
26.348829
21.984577
20.576715
19.190907
18.774867
19.162893
18.754601
18.517971
18.554926
18.560886
18.094778
18.356442
18.448830
##ZVALUE=335
0.510812
0.463724
0.501871
0.507832
0.588894
0.545979
0.596642
0.650883
0.562668
0.551939
0.573993
0.583529
0.511408
0.539422
0.438690
0.555515
0.590682
0.804663
0.524521
0.622869
0.634789
0.586510
0.514984
0.590682
0.733733
0.722408
0.788569
0.664592
0.554919
0.540614
0.704527
0.857711
0.675917
0.743866
0.488758
0.611544
0.733733
0.925660
0.743866
1.074672
0.874996
1.019835
0.994802
1.006722
1.179576
1.259446
1.265407
1.178980
1.354814
2.665520
14.022589
38.897991
109.973550
200.479627
379.716754
548.707843
751.783848
853.970647
885.391831
825.746655
653.745532
494.834781
295.757651
177.883506
76.097846
35.722852
14.391541
9.578466
9.650588
9.781718
11.667609
14.004707
19.610524
26.634932
39.007664
50.837994
65.875649
76.722503
85.165501
86.008906
80.730915
73.322654
61.954856
52.018762
40.165782
32.672882
25.758743
22.076964
19.760728
19.043684
18.565655
18.189549
17.414689
17.914772
17.959476
17.787814
##ZVALUE=340
0.472665
0.509620
0.613928
0.615716
0.482798
0.495911
0.426769
0.506639
0.541806
0.594854
0.709891
0.751615
0.645518
0.662804
0.717640
0.753999
0.735521
0.755787
0.556707
0.648499
0.613928
0.708699
0.684857
0.635982
0.658631
0.725985
0.757575
0.689626
0.664592
0.661612
0.770688
0.583529
0.652671
0.688434
0.697970
0.798702
0.709891
0.718832
0.756979
0.709891
0.759959
0.801682
0.966787
0.835657
0.897646
0.944734
0.982881
1.071692
1.237988
1.183748
1.336932
1.845956
5.028844
25.211573
64.626932
163.998604
280.217528
465.664864
614.555478
767.576694
818.105936
777.495503
685.623884
513.280630
359.021425
189.685822
107.258558
44.547915
20.045638
10.196567
9.564757
9.909868
10.300875
12.001991
14.286637
20.132661
26.502609
38.511753
48.747659
63.244700
73.269606
80.012679
80.980659
77.054501
70.280433
59.404969
50.377846
38.728714
31.728745
24.954677
21.348596
19.066930
17.933846
17.144680
17.027855
17.302632
##ZVALUE=345
0.411868
0.386834
0.253916
0.548959
0.545979
0.446439
0.402927
0.491738
0.567436
0.628829
0.414848
0.522733
0.459552
0.564456
0.474453
0.397563
0.506639
0.538826
0.479817
0.479817
0.400543
0.488758
0.561476
0.705719
0.518560
0.588894
0.547767
0.490546
0.398755
0.468493
0.470877
0.490546
0.417829
0.552535
0.677705
0.690818
0.729561
0.576973
0.747442
0.653863
0.622869
0.709891
0.724792
0.639558
0.737906
0.806451
0.782609
0.928640
0.845790
1.063943
0.986457
1.270771
1.088977
1.388788
2.700686
17.222762
47.906637
125.285983
218.032002
386.377573
524.602532
699.436665
774.618983
787.620544
724.315643
560.087562
418.389440
249.251723
141.376853
57.257414
27.793646
12.325644
9.598732
9.755492
9.665489
10.650754
11.320710
14.119744
17.822981
25.967956
34.641623
47.147870
57.496428
68.090558
73.470473
76.329708
73.312521
67.272782
58.619976
47.744513
38.901567
29.504895
23.992658
19.685626
17.900467
16.791821
##ZVALUE=350
0.561476
0.409484
0.458956
0.494719
0.520945
0.414848
0.478625
0.522733
0.590682
0.536442
0.537634
0.460744
0.425577
0.332594
0.363588
0.446439
0.645518
0.529885
0.629425
0.541806
0.491738
0.629425
0.528693
0.544786
0.573993
0.484586
0.535846
0.560880
0.613928
0.580549
0.519753
0.592470
0.568628
0.690818
0.615716
0.688434
0.642538
0.690818
0.603795
0.740886
0.571609
0.719428
0.676513
0.824928
0.743866
0.750422
0.975728
0.741482
0.846982
1.014471
0.963807
0.976920
1.044869
1.163483
1.328588
1.327991
1.606941
8.547902
29.253960
91.401935
169.196725
327.539444
463.355780
631.489754
731.683969
776.923895
734.511018
609.373450
470.696688
281.043649
175.864697
82.718730
39.425492
14.944673
9.852648
9.192824
9.300709
9.746552
9.878874
11.396408
13.326406
18.005967
23.325682
32.220483
40.693879
52.317977
59.874654
67.379475
68.836808
67.812800
62.745810
53.634644
45.491457
36.478639
29.637814
23.167729
##ZVALUE=355
0.454783
0.584722
0.464916
0.429749
0.491738
0.537634
0.552535
0.575781
0.602603
0.508428
0.568628
0.584722
0.535846
0.369549
0.516772
0.430942
0.624657
0.653863
0.504851
0.569820
0.578761
0.558496
0.779629
0.391603
0.457764
0.466704
0.658631
0.511408
0.565648
0.542998
0.655651
0.740886
0.669956
0.474453
0.639558
0.764728
0.563860
0.655651
0.651479
0.722408
0.662804
0.678897
0.781417
0.912547
0.721812
0.787973
0.792742
0.826716
0.790954
0.850558
1.004934
0.872612
0.953674
1.069903
1.136661
1.134872
1.212955
1.271963
1.401901
3.608465
14.144778
59.489608
123.997927
255.070925
390.293598
579.347610
697.152019
775.333643
770.787597
664.099455
535.787940
355.551839
228.612423
103.759766
51.272511
18.433928
10.531545
8.774996
8.784533
9.068847
9.432435
10.001659
10.980964
12.983680
15.707612
21.286607
27.475953
37.061572
44.677854
53.727627
59.630871
63.638687
62.792897
58.107972
52.248836
42.675734
##ZVALUE=360
0.480413
0.453591
0.444651
0.503659
0.476837
0.509620
0.373721
0.530481
0.495911
0.470877
0.614524
0.568628
0.612736
0.478625
0.402927
0.463724
0.542998
0.557899
0.469685
0.507832
0.553727
0.485778
0.542998
0.493526
0.430942
0.499487
0.628829
0.463724
0.507832
0.657439
0.524521
0.469685
0.655651
0.553727
0.687838
0.571609
0.518560
0.666976
0.577569
0.616908
0.700951
0.648499
0.650883
0.681877
0.651479
0.707507
0.682473
0.755787
0.780821
0.722408
0.877976
0.817776
0.971556
0.845790
0.920892
0.944734
0.984669
1.151562
1.142621
1.209974
1.312494
2.350807
6.720424
30.781627
77.227950
189.072490
311.022997
495.991707
642.649531
763.465762
786.165595
722.944736
600.177646
402.586460
265.995860
129.236579
68.244934
27.141571
13.223886
8.150935
8.241534
8.544922
8.678436
8.916855
9.129643
9.623766
11.169910
13.820529
17.133951
23.579597
29.515624
39.241910
46.182871
52.784681
56.924820
57.533979
##ZVALUE=365
0.524521
0.607967
0.518560
0.498891
0.617504
0.534654
0.588894
0.514984
0.429749
0.658631
0.542998
0.618696
0.471473
0.589490
0.562668
0.550747
0.585914
0.353456
0.718832
0.569820
0.670552
0.699759
0.620484
0.638962
0.588894
0.720620
0.634789
0.704527
0.595450
0.699759
0.532866
0.546575
0.417829
0.683665
0.628829
0.649691
0.657439
0.641942
0.621676
0.816584
0.750422
0.607967
0.707507
0.590682
0.717640
0.878572
0.758767
0.753999
0.628829
0.764728
0.854731
0.798702
0.876784
0.887513
0.848770
0.933409
1.061559
1.174808
1.082420
1.265407
1.103878
1.570582
1.564622
1.866817
4.880428
27.384758
66.718459
157.923698
270.783901
457.096696
593.274832
731.313825
788.725615
755.124688
648.885965
465.322733
327.283740
177.815557
98.651648
38.222671
17.479658
8.705854
7.652640
7.799864
8.042455
8.154511
8.328557
8.474588
8.824468
9.850860
11.611581
15.188456
19.543767
26.251674
32.680631
40.880442
##ZVALUE=370
0.397563
0.407696
0.501871
0.527501
0.142455
0.517964
0.452995
0.387430
0.393987
0.578761
0.377893
0.372529
0.533462
0.409484
0.659823
0.428557
0.554919
0.596642
0.563860
0.398755
0.431538
0.385642
0.552535
0.448823
0.345707
0.466704
0.429749
0.518560
0.496507
0.569820
0.664592
0.633597
0.865459
0.626445
0.601411
0.627637
0.622869
0.597835
0.522733
0.436902
0.622869
0.590682
0.691414
0.634789
0.886917
0.610948
0.665784
0.694990
0.740886
0.636578
0.732541
0.880957
0.888705
0.835657
0.821948
0.860691
0.884533
0.835657
0.961423
0.988841
1.039505
1.143813
1.233816
1.248717
1.381636
1.620650
2.151728
13.952851
51.089525
162.186623
285.786986
488.938689
650.928617
814.610720
869.452953
844.702721
747.433901
572.033525
414.583683
225.768685
125.969648
50.327778
24.887919
10.815859
7.776618
7.209778
7.303953
7.488728
7.268786
7.432699
7.704496
8.185506
8.975863
10.597706
12.988448
17.607808
##ZVALUE=375
0.492930
0.546575
0.515580
0.480413
0.382662
0.321865
0.428557
0.564456
0.445843
0.543594
0.387430
0.511408
0.561476
0.479817
0.447631
0.358820
0.509620
0.569820
0.284910
0.407696
0.552535
0.324845
0.375509
0.561476
0.493526
0.610948
0.504851
0.419617
0.460744
0.492930
0.590682
0.403523
0.676513
0.562668
0.643730
0.573993
0.550747
0.608563
0.659823
0.695586
0.549555
0.653863
0.562668
0.780821
0.583529
0.722408
0.580549
0.732541
0.598431
0.590682
0.682473
0.753999
0.689626
0.844598
0.749826
0.676513
0.717640
0.705719
0.754595
0.814795
0.782609
0.946522
0.901818
1.087785
1.023412
1.049638
1.173615
1.186728
1.573563
4.405975
16.934872
76.688528
178.876519
396.571755
586.930513
813.567638
919.557810
944.859982
872.711539
678.309798
505.499840
294.879675
181.014538
87.070465
44.427514
16.337633
8.800626
6.792545
6.734729
6.472468
6.720424
6.921887
7.089972
7.197857
7.527471
8.245707
##ZVALUE=380
0.395775
0.432730
0.422597
0.316501
0.537634
0.473857
0.563860
0.442863
0.482798
0.440478
0.390410
0.380874
0.485778
0.495911
0.361800
0.435710
0.379682
0.445843
0.478625
0.428557
0.481606
0.419617
0.642538
0.372529
0.500679
0.601411
0.610948
0.551939
0.652671
0.563860
0.563860
0.407696
0.449419
0.444651
0.608563
0.490546
0.629425
0.587702
0.619888
0.668764
0.603795
0.672936
0.635982
0.582933
0.712872
0.643730
0.547767
0.496507
0.682473
0.623465
0.628829
0.603795
0.662804
0.759959
0.719428
0.680685
0.770688
0.748634
0.707507
0.879765
0.837445
0.844598
0.988841
0.919700
0.780821
1.033545
0.918508
1.173615
1.458526
1.507998
1.647472
2.657771
8.680820
42.848587
110.002756
268.310905
433.036685
678.502917
849.933624
971.461535
956.857800
806.267858
642.774701
415.187478
269.979835
127.854943
66.392422
26.994944
12.243986
6.584525
6.178617
6.484985
6.231666
6.265640
6.465912
6.609559
##ZVALUE=385
0.418425
0.465512
0.418425
0.330806
0.401735
0.346899
0.420809
0.417829
0.517964
0.353456
0.391603
0.386834
0.426769
0.343919
0.382662
0.373721
0.447631
0.417829
0.402927
0.483990
0.338554
0.588894
0.448823
0.555515
0.415444
0.489950
0.598431
0.472665
0.362992
0.360608
0.520945
0.554919
0.506639
0.541806
0.611544
0.446439
0.586510
0.525713
0.532866
0.324845
0.428557
0.493526
0.414848
0.567436
0.534654
0.641942
0.593662
0.406504
0.487566
0.695586
0.732541
0.512600
0.654459
0.557899
0.712872
0.610948
0.533462
0.614524
0.641942
0.729561
0.813603
0.709891
0.925660
0.757575
0.874996
0.827909
0.853539
1.127720
1.040697
1.191497
1.272559
1.403689
1.478791
1.667738
3.860593
20.841956
55.745840
150.607824
277.335644
505.832434
692.902803
876.955986
930.421948
884.130001
780.171752
559.947491
391.757488
203.929543
110.936761
43.968558
18.640757
7.329583
5.951524
5.525947
5.662441
5.500913
##ZVALUE=390
0.392795
0.286698
0.422597
0.417829
0.375509
0.530481
0.325441
0.393987
0.396967
0.449419
0.467896
0.481606
0.447631
0.368953
0.369549
0.518560
0.651479
0.531673
0.365973
0.388622
0.416636
0.372529
0.413656
0.381470
0.338554
0.523925
0.303984
0.407696
0.598431
0.542998
0.486970
0.558496
0.531673
0.512600
0.509620
0.467896
0.419617
0.548959
0.453591
0.437498
0.653863
0.532866
0.485778
0.551939
0.475645
0.480413
0.553727
0.514984
0.522733
0.507832
0.593662
0.635982
0.622869
0.654459
0.600815
0.727773
0.463724
0.545979
0.646710
0.630617
0.739694
0.676513
0.703931
0.616908
0.697970
0.696778
0.852942
0.948906
1.162887
1.194477
1.114607
1.235604
1.485944
1.427531
1.342893
1.591444
2.241731
11.005402
36.691427
117.561817
229.131579
444.297791
620.998740
820.639729
934.606791
971.117616
895.400643
704.883933
530.777574
313.110948
174.397826
67.908764
31.320453
11.080503
6.383657
5.457997
##ZVALUE=395
0.416636
0.357628
0.503659
0.504851
0.509620
0.456572
0.550747
0.496507
0.493526
0.426769
0.356436
0.479817
0.381470
0.392795
0.500679
0.400543
0.466704
0.525713
0.364780
0.413656
0.377893
0.594854
0.451803
0.507832
0.528693
0.518560
0.399947
0.612736
0.456572
0.453591
0.517964
0.489950
0.413656
0.452995
0.538826
0.483990
0.497699
0.402927
0.438690
0.544786
0.463724
0.493526
0.615716
0.547767
0.577569
0.634789
0.651479
0.532866
0.503659
0.497699
0.492930
0.688434
0.689626
0.763535
0.597835
0.578761
0.567436
0.610948
0.668764
0.574589
0.648499
0.606775
0.717640
0.687838
0.725985
0.742674
0.857711
0.949502
0.965595
1.014471
1.117587
1.165867
1.251698
1.185536
1.047850
1.057982
1.117587
1.384616
1.737475
6.239414
23.351908
85.131526
164.499879
325.668454
499.032736
746.443868
900.866985
998.842716
976.611972
824.275017
645.551682
393.902659
243.248940
102.169514
47.605634
15.743971
##ZVALUE=400
0.499487
0.401735
0.460744
0.377893
0.393987
0.395775
0.279546
0.392795
0.430942
0.375509
0.292659
0.382662
0.585914
0.541806
0.518560
0.573993
0.449419
0.330806
0.456572
0.472665
0.360608
0.501871
0.384450
0.520945
0.351667
0.491738
0.494719
0.311732
0.548959
0.534654
0.488758
0.371933
0.590682
0.567436
0.503659
0.468493
0.476837
0.519753
0.538826
0.569820
0.546575
0.459552
0.334978
0.382662
0.471473
0.536442
0.530481
0.650883
0.613928
0.459552
0.527501
0.693798
0.474453
0.503659
0.505447
0.525713
0.701547
0.619888
0.555515
0.609756
0.823736
0.634789
0.831485
0.615716
0.643730
0.639558
0.603795
0.752807
0.826716
0.991821
0.971556
1.107454
1.144409
0.935793
1.075864
1.057982
1.261830
1.244545
1.295805
1.436472
1.651645
3.765821
12.648702
49.780607
109.673738
254.774690
412.355661
644.709468
809.471011
952.427983
982.878804
884.473920
731.215477
487.939715
317.993760
153.431892
##END
