##TITLE=QP00351
##FORMAT=SPECTACLE-ASCII V-1.2
##DATA TYPE=ULTRAVIOLET SPECTRUM
##SECOND TYPE=ULTRAVIOLET SPECTRUM
##DATE=02/12/18
##TIME=15:41:46
##SPECTROMETER/DATA SYSTEM=SPECTACLE
##XUNITS=NM EM
##YUNITS=ENERGY
##YFACTOR=1
##FIRSTX=220
##LASTX=410
##NPOINTS=96
##3DDATA=Equidistant
##ZUNITS=NM EX
##FIRSTZ=210
##LASTZ=400
##ZPOINTS=39
##XYDATA=(Y..Y)
##ZVALUE=210
2.167821
2.209544
2.239943
2.376437
3.163815
3.254414
2.629757
2.706647
3.278852
2.572536
2.499819
2.310872
2.117753
2.165437
2.248883
2.538562
2.350807
2.717972
2.707839
2.975464
3.085732
2.645850
3.463626
3.636479
3.897548
3.193617
2.843738
4.005432
4.073977
3.352761
4.288554
3.738999
3.729463
4.273653
4.206896
3.945827
3.968477
4.319549
4.876852
4.219413
4.826784
4.268885
4.749894
4.891753
5.015731
4.997849
5.531907
4.847646
4.527569
5.728602
5.730987
5.230904
6.253719
5.637407
4.718900
5.322695
5.131960
5.610585
5.449653
5.102754
5.566478
5.903840
5.961657
5.922914
5.944967
6.286502
6.023645
6.965995
7.546544
9.841919
10.578632
11.887550
13.872981
14.767647
16.034842
15.916824
17.556548
16.045570
16.500950
13.951659
15.452504
12.752414
11.849999
10.529757
8.885860
7.323623
6.765723
5.934834
6.452799
6.218553
5.407929
4.888773
5.092621
6.222725
6.239414
6.048679
##ZVALUE=215
6.364584
5.992651
6.107688
5.641580
5.406737
4.632473
4.679561
4.469752
5.666614
5.554557
4.746914
4.455447
4.163980
3.264546
3.336668
2.616644
2.805591
2.981424
2.623796
3.033876
3.265738
2.938509
3.328919
2.950430
3.775954
3.305674
3.762841
4.167557
3.915429
4.287958
4.767776
3.809929
4.401803
3.572702
4.616976
4.110932
4.521608
4.262924
4.057884
4.976988
4.492998
5.121827
4.854798
5.178452
5.126595
4.852414
5.130768
5.280972
5.754828
5.307794
5.263686
5.274415
5.897880
5.487800
4.974604
5.699992
5.347729
5.755424
5.849600
4.640818
5.201697
4.964471
5.264878
5.483627
5.904436
5.778670
6.655455
5.986691
6.304979
7.678866
9.331703
11.188984
11.676550
13.950467
14.624596
14.612675
16.636848
15.339851
15.073419
14.284849
14.249682
13.131499
11.222959
9.987950
9.055734
8.549690
7.091761
6.610751
6.179810
5.771518
6.213784
5.467534
5.533695
5.008578
4.939437
6.274581
##ZVALUE=220
17.424822
20.293593
20.972490
20.518899
19.524693
16.990900
13.553500
12.112856
10.557771
10.647774
11.450648
12.261868
12.121797
10.143518
9.184480
5.835891
5.373955
4.006624
3.338456
3.624558
3.732443
3.500581
3.368855
4.089475
3.767610
3.725886
3.310442
3.495812
4.075766
4.169941
4.239678
4.510880
4.902482
4.942417
4.368424
5.903840
4.829764
4.539490
5.182624
4.159808
5.237460
4.940629
4.885793
5.221963
6.036758
5.340576
5.270839
6.017685
6.114841
5.077720
5.648732
4.510880
6.037951
5.798936
5.349517
5.938411
6.170869
6.353855
5.570650
5.974770
5.643964
6.314516
5.500913
6.847978
5.638599
6.073713
6.868839
8.016825
8.307695
9.526610
10.155439
10.772943
12.316704
14.962554
15.078783
17.239451
16.044974
14.431477
15.441775
14.451742
13.914704
13.346672
11.601448
10.125637
9.231567
8.158684
7.021427
7.446408
6.837845
5.915761
6.158948
6.953478
5.374551
5.990863
6.582737
6.115437
##ZVALUE=225
32.722950
36.152601
42.862892
58.879852
61.662793
64.947605
56.882501
48.526525
38.002729
29.077530
22.736788
23.239851
23.608804
26.336908
26.619434
24.301410
20.562410
18.366575
12.843609
7.868409
6.279945
4.321933
4.333854
3.859997
3.310442
4.068613
4.171729
4.850626
4.769564
4.436970
4.698634
4.746914
4.793406
5.132556
5.063415
5.320907
5.884767
5.565882
5.964637
5.440712
5.844831
5.196929
6.010532
5.445480
5.437732
6.250739
5.313754
5.888939
5.753636
5.822778
5.849600
6.597638
6.045699
6.401539
6.285906
6.256700
7.324815
6.679893
6.206632
5.572438
7.541776
6.971955
6.834865
7.283688
7.581711
7.414818
8.194447
8.841753
9.268522
9.294748
10.790825
12.995601
13.452768
15.759468
15.990734
15.501976
14.527440
13.957620
14.796853
13.483763
13.526678
12.398958
11.103749
9.817481
9.301901
9.740591
8.309484
9.423494
8.895993
7.816553
8.155704
7.726550
7.233620
7.567406
8.098483
8.036494
##ZVALUE=230
28.765798
29.828548
53.887963
83.871484
110.612512
140.028596
151.405931
155.733824
143.928528
116.026998
89.989901
65.182447
50.911903
45.753717
46.936870
49.318671
51.738620
50.699711
41.616559
35.649538
26.563406
19.724965
11.753440
7.257462
5.929470
5.217791
5.286932
4.716516
5.030632
4.793406
5.633831
5.951524
5.575418
6.437898
5.729795
5.998611
5.635619
5.775690
5.218983
5.809665
6.623864
5.717874
6.036758
6.352663
5.684495
6.134510
6.368756
6.235838
6.220937
6.058812
6.403923
6.966591
5.843639
7.264614
6.352663
7.030964
7.356405
7.260442
7.479787
7.740855
8.001924
8.357763
8.565784
8.682609
10.125637
8.445978
9.551644
11.121631
11.003613
11.446476
13.587475
14.157891
14.628768
16.750693
17.967820
16.808510
17.448664
16.436577
17.078519
15.770793
14.102459
13.902783
13.692975
13.493896
11.537671
11.389852
11.190772
10.950565
10.197759
9.785891
10.265708
9.944439
10.892749
11.029840
9.862781
11.043549
##ZVALUE=235
11.232495
13.087988
27.122498
63.111782
100.106597
163.853765
221.420527
283.191800
315.984488
322.109461
285.421610
234.122872
164.330602
125.671625
87.322593
71.948767
74.365735
78.465939
85.094571
87.175965
77.118874
67.322850
53.036809
35.723448
26.236773
15.600920
10.411739
7.441640
7.488728
7.368922
7.389784
6.712675
6.610751
7.428527
7.559657
6.880760
6.391406
5.953908
6.053448
5.951524
6.904602
7.187724
7.108450
7.787943
6.342530
6.728768
6.306767
6.343722
7.234812
8.367896
6.786585
7.320642
7.261634
7.076859
7.685423
8.292794
7.562637
8.263588
7.931590
8.999705
8.659959
9.197593
9.133816
9.289980
10.552406
9.428859
9.903908
11.118650
13.277531
13.116598
13.978481
15.959740
16.728640
17.802715
18.168688
19.909739
19.965768
18.839836
18.562675
18.963814
16.087890
16.513467
16.151667
15.624762
14.770627
14.402866
13.659596
13.122559
13.555884
13.939738
13.491511
12.599826
13.680458
12.686849
12.667775
12.962818
##ZVALUE=240
1.712441
2.511740
5.498528
14.096498
38.267970
74.266791
151.695609
229.748487
350.861549
417.939425
486.871004
491.271615
461.496711
361.315608
288.037658
189.724565
138.098598
97.585917
92.845559
99.139810
110.268593
114.256740
114.031434
101.812482
86.238980
64.278841
48.189759
33.781528
21.694899
16.272664
12.887716
10.094643
9.733438
9.705424
9.273887
7.380843
7.719994
7.888675
7.627606
7.896423
7.492900
7.612705
6.590486
6.264448
7.395744
7.129908
7.614493
6.651878
7.893443
7.062554
7.512569
7.621646
7.097721
6.028414
7.309914
8.425713
7.770658
7.892847
8.759499
9.039640
9.492636
9.510517
10.896921
9.808540
10.551810
11.000633
10.907650
12.832880
13.294816
14.448762
14.609694
17.108917
19.342899
21.162629
20.056963
20.811558
21.454692
21.423697
21.900535
21.655560
19.888878
19.984841
18.371940
18.605590
18.381476
18.763542
16.695857
16.883612
16.155839
16.934872
17.164946
15.394688
15.819669
15.689731
15.390515
16.695857
##ZVALUE=245
2.091527
1.921654
1.767874
2.128482
3.783703
13.439655
29.237866
75.547695
141.131878
258.403420
361.371636
493.900776
561.682582
589.950681
554.246902
495.926738
376.845002
278.370976
178.666711
128.468871
99.178553
99.546909
116.474628
129.707456
132.679939
127.942562
116.043687
97.060800
78.642964
53.729415
38.328767
24.306774
18.916726
11.519790
10.465980
9.391904
9.910464
8.532405
8.060932
7.669926
7.419586
6.840825
6.377697
6.990433
6.489754
6.008744
6.407499
6.655455
6.202459
6.257892
5.996823
6.191730
7.429719
7.074475
6.667972
6.124973
7.113814
7.131696
7.170439
7.788539
7.861853
8.226633
8.845925
8.461475
9.402633
9.601712
10.148883
11.260509
10.823607
12.980700
15.219450
16.102791
16.029477
18.162727
17.948747
19.189715
19.735694
19.959807
18.319488
19.249916
17.758608
18.557906
18.610954
17.551780
16.364455
16.554594
16.553998
16.019940
16.473532
15.689731
14.725924
15.923977
16.254783
15.984774
16.059875
15.222430
##ZVALUE=250
1.845956
2.106428
1.412630
1.434684
1.683831
1.822710
2.833605
7.084608
28.763413
62.391758
145.725608
248.198509
358.357430
502.662659
607.178807
684.165955
686.866641
600.431561
508.863926
354.942679
242.905617
162.354708
106.387734
93.657970
107.192993
123.296976
138.276815
143.416524
137.734413
123.160481
107.033849
82.685947
60.814619
37.329793
25.786757
16.662478
12.018681
8.416772
8.520484
8.187890
7.371902
6.579757
6.457567
6.907582
6.491542
6.538630
5.805492
6.386638
6.561875
5.936623
6.231666
5.508661
5.526543
6.068945
5.408525
5.946755
5.958676
6.442666
6.589890
6.957650
6.474853
6.616712
7.539988
7.333755
8.001924
8.510947
9.348989
9.533763
10.433793
10.628700
12.555718
13.133883
14.346838
15.214682
15.409589
15.810728
15.710592
17.404556
16.474724
16.694665
16.144514
15.058517
16.005635
16.993880
15.375614
15.369654
14.670491
15.496612
16.498566
15.139580
15.648603
16.158819
14.582872
15.215874
15.219450
14.641881
##ZVALUE=255
1.291633
1.245737
1.294613
1.301765
1.105666
1.416802
1.517534
1.332760
1.782775
3.779531
18.103719
45.607686
94.742775
201.796889
318.408012
498.901606
616.641641
736.148953
763.462782
725.903511
621.856451
492.112637
312.757492
205.881596
118.471980
93.138814
91.129541
107.537508
129.915476
143.359900
146.598816
144.606829
130.376816
104.969740
81.107616
54.642558
37.431717
22.462606
14.270544
9.046793
6.809831
6.468892
6.156564
5.452633
5.320907
5.266666
5.627871
5.611777
5.095601
5.266666
4.354715
4.683733
4.921556
4.478693
4.386902
5.137920
5.082488
5.576611
5.939603
5.602837
5.604625
6.194711
6.247759
6.576777
6.347895
7.113814
6.530881
7.944703
8.975863
9.347796
10.037422
11.601448
12.092590
12.581944
13.729930
14.960766
14.326572
13.393760
12.986660
14.250875
13.631582
13.344884
13.659596
14.262795
14.018416
14.334917
13.371706
14.370680
14.527440
13.988614
14.973879
14.638901
13.629794
15.134811
13.753772
12.901425
##ZVALUE=260
1.363754
1.360774
1.217723
1.099706
1.253486
1.147985
1.352429
1.423955
1.567602
1.529455
1.899600
2.258420
9.715557
28.406978
74.332952
146.458745
303.325653
440.105796
579.053760
764.774680
852.539539
845.350027
765.326023
583.924651
435.224771
256.260633
165.609717
98.172426
81.017613
87.684989
104.351640
129.395723
142.458677
150.118470
147.158504
131.419897
108.628869
78.011751
57.873726
34.782887
22.362471
12.831688
8.262992
6.011724
5.462766
5.522966
4.757643
5.416870
5.089641
5.401969
5.364418
4.935861
5.409718
5.054474
4.877448
4.958510
4.787445
5.032420
4.831553
5.519986
5.121827
5.562901
5.199909
5.620718
5.776882
5.957484
7.085800
7.233620
7.815957
8.746982
9.165406
10.496974
10.071993
10.447502
12.462735
12.449622
11.807680
11.881590
11.922717
12.485981
12.545586
12.558699
12.378693
12.520552
11.726618
12.850761
12.115836
12.785792
12.745857
11.973977
13.252497
13.290644
12.930632
13.133883
12.906790
13.365746
##ZVALUE=265
1.305938
1.295805
1.156926
1.144409
1.206994
1.406670
1.257658
1.383424
1.229644
1.594424
1.480579
1.588464
1.717806
1.830459
4.019737
21.083951
52.697659
133.341551
234.040618
430.727005
597.796440
765.731931
918.540955
944.775939
854.225755
729.627609
542.368889
377.901793
207.164884
129.023790
77.776909
68.090558
78.990459
108.850002
129.143596
149.515867
153.346658
146.993995
130.126476
104.689598
82.184672
53.920746
36.506653
18.952489
12.273788
7.590652
5.616546
4.846454
5.644560
4.802942
5.139709
5.093813
5.308986
5.171895
5.028844
4.743934
5.147457
5.369782
4.744530
4.794598
5.064607
5.246997
5.622506
5.441904
6.030798
6.160736
6.623864
6.430745
7.266998
8.324981
7.774830
8.966923
9.691715
10.045767
10.331869
10.669827
10.645986
10.315776
11.012554
11.429787
10.491610
10.352731
10.475516
11.380911
11.375546
11.282563
11.098981
11.619925
11.262894
11.690855
12.310743
12.219548
12.257695
12.069941
12.598634
12.028813
##ZVALUE=270
0.987649
1.106858
1.119971
1.134872
1.177788
1.203418
1.155734
1.183748
1.452565
1.421571
1.314878
1.360774
1.546741
1.723766
1.726747
1.848936
2.442598
9.149909
29.575825
93.160868
184.760690
322.346687
564.922690
751.037598
949.083567
1015.132666
994.838476
895.074010
693.480968
515.225530
350.471735
183.040500
106.906891
62.591434
60.958862
83.176494
105.223656
132.560730
146.912932
153.531432
147.723556
127.023458
108.278990
78.834891
57.457685
32.902956
21.746755
12.028813
8.380413
5.523562
4.946589
5.077720
4.916787
4.548430
4.498959
4.771948
5.019903
5.122423
5.406737
5.032420
5.197525
5.461574
5.505681
5.160570
5.835891
5.725622
5.830526
6.352663
6.862879
7.494688
7.101893
8.000731
9.004474
9.388924
10.201931
9.671450
9.991527
9.966493
9.998679
10.141730
9.777546
9.718537
10.085702
10.358691
10.487437
10.634661
10.435581
10.689497
10.598898
10.140538
10.274649
10.933876
11.202693
11.128783
10.940433
11.191964
##ZVALUE=275
0.976920
0.888705
0.896454
1.354814
1.125932
1.003742
1.234412
1.111627
1.103878
1.172423
1.294613
1.072884
1.133680
1.480579
1.400709
1.558661
1.530647
1.653433
1.869798
4.516840
16.727448
48.978925
146.444440
270.852447
495.657921
670.418739
882.594585
1000.309587
1015.774012
991.925001
867.722631
645.866990
465.831757
244.999528
140.463710
65.580606
47.345757
57.910681
75.890422
105.181932
124.650598
143.945813
149.305463
142.905712
129.002929
100.383759
81.036687
55.948496
37.825704
21.155477
14.057755
7.557869
5.709529
5.317926
5.087852
5.032420
4.672408
4.952550
5.112886
4.911423
5.112886
5.115867
5.533695
5.626678
5.764961
5.821586
6.038547
6.297827
6.617904
6.966591
7.785559
8.406639
8.615851
9.023547
9.172559
9.608865
9.397864
9.788871
9.486675
9.208918
9.313822
9.811521
9.513497
9.706616
9.609461
9.351969
9.649992
9.566545
9.451509
10.271668
9.958744
10.118484
9.839535
10.435581
10.061860
10.567904
##ZVALUE=280
1.004934
1.122952
0.985861
1.211762
0.983477
0.992417
0.950694
0.894666
1.065731
1.121759
1.279712
1.366735
1.186728
1.362562
1.254678
1.346469
1.485944
1.459718
1.573563
1.730919
1.861453
2.388954
10.845661
35.906434
115.766525
210.352540
397.889614
586.989522
832.192898
975.754857
1015.774012
1015.774012
960.626602
724.650025
534.346700
302.645564
182.099938
82.653761
47.252774
39.659739
51.878691
79.181790
101.198554
125.334859
140.092969
145.544410
140.933990
123.760700
103.777647
76.247454
57.028532
35.017729
22.960901
12.831688
8.329749
5.990863
5.491972
5.086660
5.222559
5.197525
5.535483
5.131960
5.605817
5.251765
5.986691
6.175637
6.087422
6.142855
6.382465
7.304549
7.294416
7.846951
8.107424
8.771420
8.607507
8.785725
8.945465
9.221435
9.630919
8.913875
9.530783
9.123683
9.180903
9.281635
9.239912
9.506941
9.292960
9.694695
9.378791
9.373426
9.468794
9.501576
9.226799
9.400845
9.326935
9.472966
##ZVALUE=285
1.004934
0.954866
0.882745
0.797510
0.933409
0.753999
0.871420
0.869632
0.950694
1.006722
1.034737
0.953674
1.245737
1.129508
1.239777
1.183748
1.192689
1.248717
1.282692
1.306534
1.351833
1.563430
1.761913
1.941919
5.092621
18.597841
63.809752
133.079886
290.083885
464.150906
658.290982
909.134746
1015.774012
1015.774012
1015.774012
844.268799
659.639835
406.261683
253.135562
120.997429
63.424706
33.722520
34.220815
52.565932
70.797801
99.454522
117.254853
134.706497
142.333508
138.376951
124.768615
101.704001
81.836581
56.102872
38.256645
22.152662
13.848543
8.678436
6.407499
5.573630
5.407929
5.828738
5.568862
5.596876
5.624890
5.994439
6.261468
6.738901
6.954670
7.420778
7.775426
8.078814
8.392930
8.196831
8.748770
8.902550
8.785725
8.705854
9.089708
9.021759
8.678436
8.885860
9.124875
8.842945
9.213686
8.971691
9.478927
9.252429
9.377599
9.189844
9.559989
9.045601
8.835793
8.648634
8.555651
9.434819
##ZVALUE=290
0.992417
1.037717
0.695586
0.951886
0.821948
1.017451
0.779629
0.839829
0.911951
1.049638
0.934601
0.755787
0.979900
1.086593
1.041889
1.052618
1.122952
1.126528
1.122952
1.161695
1.040697
1.295805
1.553893
1.580715
1.825690
1.743436
2.308488
7.545948
35.502911
86.776614
172.152519
363.975763
558.732748
848.716497
1005.540490
1015.767455
1015.767455
970.728993
794.648528
528.778434
348.425508
173.960924
90.737939
37.655830
24.806857
33.799410
47.521591
69.113970
90.317726
115.362406
129.916668
139.449835
137.143731
122.065544
103.917718
76.831579
57.695508
36.657453
23.890734
14.037490
10.257959
6.900430
6.101727
6.019473
6.091595
6.251931
6.191730
6.714463
6.961823
7.372499
7.538795
8.131862
8.270741
8.608699
8.586645
8.601546
8.930564
8.593798
9.029508
8.357763
8.797646
8.747578
9.031892
8.730888
9.278655
9.033680
8.920431
8.777976
9.260774
9.015799
9.248853
8.702874
8.728504
9.304881
8.816719
8.578897
##ZVALUE=295
0.799894
0.831485
0.753999
0.865459
0.817776
0.823736
0.906587
0.828505
0.740886
0.849962
0.829697
0.934601
1.070499
0.936985
0.860691
1.021624
0.868440
0.861883
0.954866
1.204610
1.039505
0.988841
1.213551
1.396537
1.409650
1.652837
1.586676
1.713634
1.907945
3.681779
12.586713
55.114627
124.594569
294.577479
472.681522
745.932460
933.749676
1015.774012
1015.774012
1015.774012
889.268517
626.387000
432.924628
226.146579
122.375488
46.347976
24.267435
20.583868
28.129816
44.281483
62.431693
88.894963
105.787516
124.685764
133.251548
128.398538
116.730928
95.777512
77.547431
52.563548
38.813949
22.305846
15.495420
9.720922
7.465482
6.636977
6.694794
6.646514
7.119775
7.508993
7.277727
7.960796
8.636713
8.911490
8.753538
8.916855
9.164810
8.710623
8.991957
8.825660
8.745790
9.158850
8.835793
8.866787
8.652806
9.343624
9.042621
8.872747
9.058714
8.883476
8.673668
9.133816
8.695722
8.627772
9.052753
8.689761
##ZVALUE=300
0.735521
0.648499
0.941753
0.768900
0.921488
0.862479
0.807643
0.849962
0.792742
0.880957
0.858903
0.974536
0.861883
0.760555
1.005530
1.005530
0.988841
0.998974
1.016855
0.968575
0.956655
1.010895
1.042485
1.243949
1.283884
1.230836
1.219511
1.445413
1.509786
1.716614
2.086759
1.995564
8.386970
28.050542
99.744797
194.389820
402.218699
606.533885
889.226794
1015.774012
1015.774012
1015.774012
989.019871
809.863806
528.286695
342.244506
168.743730
88.072419
31.924844
17.170906
17.455816
24.796724
39.928555
55.866838
80.343485
98.201632
119.244456
124.673843
122.135878
114.682913
96.182823
77.056885
54.647923
39.942861
24.245977
16.647577
10.678768
8.265972
7.391572
7.520914
7.602572
7.836819
8.480549
8.282661
9.025931
8.786917
8.884668
8.854866
8.924603
9.236932
9.330511
9.407997
9.095669
9.283423
9.288788
9.238720
9.145737
9.233952
9.244680
9.123683
8.811951
8.809566
8.843541
8.495450
8.257627
8.682609
##ZVALUE=305
0.792742
0.697970
0.811815
0.732541
0.712872
0.772476
0.829697
0.860691
0.838637
0.762939
0.725985
0.966787
0.792742
0.739694
0.851750
0.840425
0.865459
0.970960
1.103878
1.012683
1.222491
1.098514
1.049638
0.976920
1.055598
1.296997
1.166463
1.143813
1.303554
1.479983
1.478791
1.608729
1.820922
2.296567
3.431439
19.035935
54.184794
160.349607
296.043754
559.686422
786.371827
1015.774012
1015.774012
1015.774012
1015.774012
876.060724
666.461587
415.657759
256.111026
114.012957
54.894686
20.201802
12.879968
16.498566
23.331642
39.080977
54.533482
77.637434
93.903542
111.674666
118.436813
116.730928
108.406544
91.932416
74.459910
51.939487
37.764907
23.744702
16.287565
11.360645
9.471774
8.579493
8.206964
8.499622
8.745790
8.798838
8.565784
8.760691
9.015799
8.785725
9.088516
9.175539
9.118915
9.666681
9.719729
9.684563
9.325743
9.128451
9.076595
8.911490
8.825660
8.795857
8.789897
8.924603
8.722544
8.509755
##ZVALUE=310
0.688434
0.730753
0.730753
0.906587
0.813603
0.839829
0.829697
0.855923
0.683665
0.883937
0.793934
0.766516
0.691414
0.779629
0.692606
0.789762
0.870824
0.848770
0.759959
0.840425
0.945926
1.040697
0.952482
0.887513
1.052618
0.929832
1.079440
1.211762
1.176596
1.341701
1.329780
1.350641
1.474619
1.536608
1.547933
1.832843
2.304912
6.406903
34.042597
85.509419
210.745931
364.983678
648.111701
872.625709
1015.774012
1015.774012
1015.774012
1015.774012
882.430673
655.957460
372.956991
223.588943
91.820955
39.901733
14.014840
10.997653
15.161633
21.406412
34.112930
47.085881
68.865418
85.186958
102.428794
111.108422
112.527609
105.867982
89.627504
73.924661
52.104592
37.911534
24.054646
17.267466
13.009906
10.574460
9.441972
9.197593
8.870959
8.884668
8.765459
8.831620
8.933544
9.273887
9.004474
9.224415
9.569526
9.601712
9.196997
9.629726
9.307861
9.367466
9.242892
8.899570
9.044409
8.932948
8.870959
8.535981
##ZVALUE=315
0.699759
0.667572
0.815988
0.717640
0.596642
0.823736
0.820756
0.794530
0.760555
0.591874
0.780821
0.703931
0.694990
0.797510
0.741482
0.684857
0.843406
0.816584
0.979900
1.034737
0.877976
0.859499
0.907779
0.797510
0.808835
0.878572
1.105666
0.994802
1.017451
1.085997
1.143813
1.271963
1.073480
1.319647
1.368523
1.696944
1.628995
1.761913
1.992583
3.310442
16.818643
50.420761
155.685544
285.991430
555.636883
790.930986
1015.774012
1015.774012
1015.774012
1015.774012
1012.686491
836.663842
542.122722
355.849862
176.343918
82.786679
21.835566
11.086464
10.677576
13.158917
20.850897
29.668808
46.702623
61.639547
83.304644
95.217824
104.896426
106.651783
98.005533
85.721612
67.417622
52.782893
36.561489
27.138591
17.411709
13.435483
10.795593
9.823442
9.352565
9.195805
9.219646
9.272695
9.371638
9.215474
9.416938
9.133816
9.534955
9.498596
9.450912
9.462833
9.027719
8.854866
9.303689
9.201765
9.081960
9.091496
##ZVALUE=320
0.762939
0.708699
0.700951
0.739694
0.678897
0.623465
0.702739
0.719428
0.819564
0.822544
0.701547
0.742674
0.724792
0.625849
0.704527
0.792742
0.765920
0.892878
0.738502
0.826716
0.796914
0.577569
0.855923
0.874996
0.840425
0.886917
0.806451
0.968575
0.988841
0.955462
0.822544
1.152754
1.285672
1.219511
1.279712
1.255870
1.412630
1.502633
1.609921
1.598597
1.733899
2.371669
6.182790
35.611987
93.678832
250.167847
419.048667
689.015985
915.254951
1015.772820
1015.772820
1015.772820
1015.772820
897.343755
667.230487
383.788943
227.166414
100.048780
46.062469
13.938546
9.066463
10.063648
12.397766
18.545985
27.526617
43.457747
57.923794
76.901913
89.938641
101.864934
101.825595
95.203519
84.614754
66.512823
51.823854
35.826564
25.550723
17.340779
13.522506
10.945797
10.102987
9.193420
9.245872
9.261966
9.314418
9.370446
9.238720
9.284616
9.379983
9.250641
9.338856
9.140968
8.909702
9.253621
8.958578
8.567572
##ZVALUE=325
0.739694
0.710487
0.593662
0.598431
0.729561
0.746846
0.671744
0.757575
0.618696
0.670552
0.501871
0.483990
0.761747
0.640750
0.541806
0.637770
0.592470
0.693798
0.844598
0.739694
0.699759
0.779629
0.718832
0.683665
0.898838
0.687838
0.951886
0.854731
0.800490
0.820756
0.871420
0.889897
1.089573
1.051426
1.123548
1.013875
1.163483
1.216531
1.102686
1.362562
1.405478
1.520514
1.635551
1.899600
3.700852
23.307800
62.994957
170.326829
311.902761
580.648780
807.201862
1015.733480
1015.733480
1015.733480
1015.733480
956.358910
724.155903
440.772772
266.606808
118.675828
56.713820
18.537641
9.850860
8.577704
9.111762
12.644529
17.158985
27.070642
39.331913
59.042573
72.310567
86.338520
94.448924
95.800757
90.515614
76.294541
63.685775
46.494603
35.124421
23.349524
17.004609
12.173653
10.885000
9.984970
9.541512
9.449720
9.455681
8.963943
9.309649
9.137988
9.073615
8.734465
8.852482
8.761883
8.779764
8.579493
##ZVALUE=330
0.556707
0.592470
0.633597
0.374913
0.443459
0.728965
0.691414
0.559688
0.469685
0.389814
0.618696
0.581741
0.486970
0.568628
0.731945
0.633597
0.681877
0.763535
0.619888
0.651479
0.838637
0.736713
0.631809
0.624657
0.624657
0.718832
0.807643
0.753999
0.777841
0.833869
0.559688
0.874996
0.868440
1.049638
1.045465
0.955462
0.947714
0.968575
1.080632
1.227856
1.190901
1.277924
1.248717
1.470447
1.473427
1.652837
2.252460
10.096431
34.007430
117.483735
229.286551
456.629992
673.945546
971.106887
1015.715003
1015.715003
1015.715003
1010.547876
820.447803
517.993569
330.076814
149.333477
73.911548
26.248693
11.779666
8.213520
8.140802
9.378791
12.064576
17.768741
25.218725
39.520860
51.119924
69.240928
80.716610
88.793635
89.784861
83.381534
73.985457
57.790875
45.477748
31.359792
23.637414
16.978979
13.364553
10.911822
9.914637
9.368658
9.044409
9.053946
8.895993
8.785725
8.554459
8.686781
8.074641
8.489490
##ZVALUE=335
0.591874
0.717640
0.550747
0.569820
0.701547
0.727773
0.588894
0.534654
0.675917
0.749826
0.624657
0.563860
0.701547
0.682473
0.514984
0.744462
0.727773
0.652671
0.780821
0.762939
0.793934
0.767708
0.816584
0.793934
0.847578
0.708699
0.798702
0.767708
0.869632
0.885725
0.860691
0.977516
0.831485
0.824928
1.021624
1.071692
1.025796
0.942945
1.053810
1.085997
1.076460
1.223683
1.125932
1.178980
1.563430
1.440644
1.646876
1.725554
1.901984
5.494952
20.020604
78.870654
165.507793
362.669826
572.957993
884.779692
1015.774608
1015.774608
1015.774608
1015.774608
959.379673
643.634796
429.326892
218.044519
110.432506
36.875606
16.027689
8.773804
8.161664
8.406639
9.502769
12.719631
16.455650
26.473999
36.283731
51.224828
63.045621
76.825619
83.153844
83.356500
79.272985
67.742467
57.098866
44.130683
33.930540
23.823977
17.590523
13.150573
11.235476
9.229779
8.902550
8.829832
8.632541
8.747578
8.442998
8.543730
##ZVALUE=340
0.546575
0.621676
0.628829
0.592470
0.579953
0.693798
0.671744
0.664592
0.555515
0.634789
0.678897
0.673532
0.604987
0.647902
0.755787
0.656843
0.621676
0.639558
0.666976
0.749826
0.733733
0.615716
0.783801
0.822544
0.742674
0.781417
0.750422
0.743866
0.873804
0.817776
0.766516
0.788569
0.848770
0.833869
0.864863
0.906587
0.984669
0.874996
0.964999
1.130700
1.074672
1.192689
1.097918
1.125932
1.170635
1.193881
1.450777
1.535416
1.522899
1.676679
1.874566
2.902746
10.391474
51.225424
122.516751
296.058655
481.999516
772.910714
982.421637
1015.778780
1015.778780
1015.778780
997.295976
733.466744
515.239835
263.630748
143.685937
56.470633
22.988915
9.578466
8.349419
8.082986
8.572936
9.333491
11.699796
17.314553
24.239421
36.149621
46.810508
62.029958
71.619749
78.682899
79.272985
73.975921
65.805912
53.442717
42.902827
31.097531
24.233460
17.084479
13.062954
10.462999
9.116530
8.589625
8.360744
8.509755
##ZVALUE=345
0.577569
0.572801
0.568628
0.585914
0.577569
0.664592
0.718832
0.637770
0.648499
0.681877
0.553727
0.675917
0.705719
0.486970
0.719428
0.784993
0.732541
0.534654
0.713468
0.654459
0.626445
0.799894
0.789762
0.615716
0.728965
0.821948
0.768900
0.645518
0.766516
0.744462
0.618696
0.607967
0.683665
0.819564
0.847578
0.883937
0.759959
0.823736
0.891685
1.039505
0.972748
0.947714
0.966787
0.842810
1.052618
1.110435
1.246929
1.069903
1.040697
1.359582
1.349449
1.513958
1.520514
1.973510
4.068613
28.844476
83.713531
224.744678
392.079949
688.557029
913.933516
1015.774608
1015.774608
1015.774608
1015.774608
839.843750
628.205538
371.522903
209.117532
80.790520
35.935640
12.631416
8.774996
8.134842
8.113980
7.976890
8.618832
11.040568
14.430881
23.174882
31.273961
44.913888
54.305792
65.527558
71.661472
73.113441
70.159435
62.522888
54.281950
42.295456
32.279491
22.585988
17.531514
12.197495
10.116696
8.804798
##ZVALUE=350
0.589490
0.567436
0.548959
0.641942
0.482798
0.616908
0.494719
0.606775
0.590682
0.473857
0.478625
0.572801
0.454783
0.545979
0.544786
0.551939
0.581741
0.753999
0.560880
0.690818
0.502467
0.771880
0.349879
0.586510
0.745654
0.660419
0.677705
0.793934
0.539422
0.534654
0.464916
0.792742
0.735521
0.779629
0.749826
0.820756
0.839829
0.699759
0.729561
0.898838
0.794530
0.871420
0.847578
0.885725
0.809431
1.152754
1.075864
1.154542
1.199841
0.993609
1.178980
1.170635
1.421571
1.282692
1.447797
1.864433
2.426505
11.066794
38.906932
132.061839
263.721943
542.725921
802.802444
1015.719771
1015.719771
1015.719771
1015.719771
1000.990868
787.824988
472.122431
290.496945
132.815838
59.700608
16.852617
8.890629
7.571578
7.305741
7.359982
7.369518
8.245707
9.751916
14.416575
19.757748
28.830767
37.015676
49.136877
58.054924
65.243840
66.904426
65.170527
59.243441
48.530698
40.579438
29.392838
22.461414
15.881658
##ZVALUE=355
0.811815
0.820756
0.623465
0.759959
0.705719
0.823736
0.776649
0.844598
0.675917
0.742674
0.883937
0.669956
0.748634
0.696778
0.739694
0.910759
0.898838
0.793934
0.754595
0.850558
0.810623
0.822544
0.805855
0.850558
0.818968
0.843406
0.842810
0.799894
0.801682
0.899434
0.822544
0.828505
0.877976
1.037717
0.847578
0.980496
0.830889
1.065731
0.886917
1.050830
1.079440
1.081824
0.994802
1.186728
0.987649
0.932813
1.097918
1.260638
1.246929
1.287460
1.227856
1.294613
1.253486
1.355410
1.501441
1.739860
1.703501
2.027750
1.944900
5.390644
19.014478
78.006983
166.063905
358.867645
582.667589
899.240971
1015.923023
1015.923023
1015.923023
996.732712
820.358992
546.829700
348.852873
156.326890
73.567629
22.391677
10.252595
7.592440
7.036924
6.948709
6.911755
7.380843
8.011460
9.548664
11.983514
18.214583
24.303794
33.778548
42.797923
52.225590
57.345629
61.277747
60.240626
53.304434
47.315955
37.097931
##ZVALUE=360
0.679493
0.475645
0.629425
0.664592
0.612736
0.467896
0.459552
0.420809
0.577569
0.645518
0.501871
0.605583
0.796914
0.612736
0.569820
0.659823
0.702739
0.656843
0.611544
0.501871
0.638962
0.682473
0.648499
0.675917
0.796914
0.734925
0.662804
0.639558
0.843406
0.626445
0.873804
0.687838
0.665784
0.588894
0.796914
0.690818
0.697970
0.802875
0.786781
0.836849
0.865459
0.779629
0.965595
0.731945
0.718832
0.855923
0.792742
0.840425
1.004934
1.016855
1.156926
1.053810
0.841618
1.234412
1.193881
1.154542
1.294613
1.489520
1.590848
1.656413
1.781583
2.727509
8.276701
37.766695
94.311833
239.676833
400.101542
648.576617
852.606893
1015.202999
1015.768647
985.480547
834.904909
578.474998
389.002562
190.399885
98.005533
34.601688
14.089942
7.204413
6.707907
6.289482
6.358624
6.441474
6.327629
6.706715
7.592440
10.312796
13.952851
19.807816
26.645660
36.977530
43.948889
51.904917
54.847598
54.501891
##ZVALUE=365
0.462532
0.589490
0.569820
0.553727
0.617504
0.564456
0.714660
0.480413
0.738502
0.502467
0.547767
0.635982
0.620484
0.619888
0.723600
0.592470
0.618696
0.619888
0.567436
0.548959
0.651479
0.588894
0.769496
0.584722
0.641942
0.576973
0.595450
0.620484
0.609756
0.765920
0.642538
0.649691
0.740886
0.851750
0.696778
0.714660
0.866652
0.792742
0.705719
0.703931
0.832677
0.799894
0.519753
0.762939
0.811815
1.015663
0.873804
1.040697
0.826716
0.832677
1.032948
0.954866
1.103878
0.930429
1.102686
1.257658
1.285672
1.308918
1.351833
1.330972
1.419783
1.756549
1.863837
2.342463
4.235506
23.639798
64.176917
181.314945
340.862870
633.285642
860.801935
1015.774608
1015.774608
1015.774608
970.944762
697.531700
489.493608
261.484981
139.218569
48.790574
19.520521
7.953644
6.478429
6.203651
6.240606
6.128550
5.894899
5.895495
5.977750
6.771684
8.651614
12.142658
16.459823
24.379492
31.237602
38.914680
##ZVALUE=370
0.567436
0.614524
0.570416
0.443459
0.719428
0.543594
0.416636
0.550747
0.578761
0.551939
0.658631
0.617504
0.621676
0.432730
0.524521
0.711679
0.520945
0.619888
0.559688
0.656843
0.639558
0.558496
0.627637
0.767708
0.581741
0.642538
0.484586
0.692606
0.637770
0.700951
0.674725
0.632405
0.602603
0.643730
0.775456
0.802875
0.613928
0.698566
0.705719
0.660419
0.754595
0.740886
0.661612
0.852942
0.785589
0.685453
0.813603
0.900626
0.890493
0.759959
0.885725
0.908971
0.841618
0.840425
0.835657
1.026988
0.980496
1.022816
1.037717
1.258850
1.363754
1.391768
1.496673
1.570582
1.680851
1.924634
2.486706
12.914538
43.072701
131.843686
250.275731
475.974679
683.955550
945.152640
1015.774012
1015.774012
977.069736
758.412480
556.019545
309.494734
175.775886
68.125725
29.690862
9.831786
6.417632
5.573630
5.609989
5.523562
5.352497
5.290508
5.287528
5.423427
5.912781
7.693768
9.935498
14.658570
##ZVALUE=375
0.598431
0.553727
0.419617
0.450611
0.517964
0.527501
0.486970
0.560880
0.492930
0.538826
0.583529
0.562668
0.565648
0.627637
0.626445
0.630617
0.658631
0.644922
0.530481
0.523925
0.481606
0.435710
0.565648
0.649691
0.649691
0.662804
0.616908
0.577569
0.632405
0.547767
0.563860
0.597835
0.548959
0.598431
0.615716
0.601411
0.701547
0.625849
0.833869
0.637770
0.660419
0.581741
0.703931
0.737906
0.701547
0.572801
0.732541
0.666976
0.897646
0.922680
0.745654
0.827909
0.957847
0.938773
0.949502
0.944734
0.758767
0.999570
1.055598
1.172423
1.104474
0.911951
0.924468
1.282692
1.354814
1.456738
1.580715
1.635551
2.039671
6.022453
21.564960
78.017712
168.514848
371.282697
569.599867
839.439034
992.950797
1015.774608
1015.774608
844.015479
656.241775
398.579836
251.868963
122.556686
60.487986
19.100904
8.122921
5.529523
5.549788
5.046725
4.965663
4.965663
4.764795
4.701614
4.931688
5.462766
##ZVALUE=380
0.326633
0.478625
0.353456
0.318885
0.318885
0.261664
0.305772
0.392795
0.428557
0.460744
0.280738
0.374913
0.441670
0.420809
0.382662
0.408888
0.428557
0.502467
0.321865
0.407696
0.419617
0.551939
0.428557
0.231862
0.418425
0.511408
0.438690
0.275970
0.475645
0.414848
0.358820
0.393987
0.447631
0.427961
0.377893
0.536442
0.433922
0.447631
0.468493
0.457764
0.568628
0.459552
0.496507
0.534654
0.512600
0.626445
0.478625
0.515580
0.574589
0.457764
0.530481
0.597835
0.444651
0.743866
0.579953
0.734925
0.702739
0.664592
0.779629
0.692606
0.697970
0.837445
0.935793
0.906587
1.027584
0.976920
1.061559
1.135468
1.296997
1.600981
1.689792
3.473759
12.280941
57.423711
132.087469
316.714644
518.129468
791.214705
986.097455
1015.619636
1015.619636
972.885489
790.909529
546.997786
366.027951
177.855492
89.534521
29.947758
12.137890
5.548596
4.934669
4.732609
4.527569
4.387498
4.301667
4.385710
##ZVALUE=385
0.405908
0.416636
0.286698
0.379682
0.338554
0.322461
0.362992
0.401735
0.381470
0.414848
0.387430
0.473857
0.582933
0.439882
0.432730
0.616908
0.397563
0.336766
0.444651
0.330806
0.328422
0.553727
0.630617
0.466704
0.469685
0.505447
0.479817
0.529885
0.601411
0.490546
0.468493
0.603795
0.452995
0.553727
0.608563
0.524521
0.520945
0.678897
0.551939
0.551939
0.647902
0.590682
0.593662
0.597835
0.614524
0.660419
0.646710
0.583529
0.605583
0.694990
0.671744
0.853539
0.768900
0.593662
0.672936
0.603795
0.575781
0.833869
0.745654
0.838637
0.803471
0.641942
0.908971
0.982881
1.057982
0.988841
1.048446
1.136661
1.360774
1.470447
1.557469
1.844764
1.833439
2.250671
6.296635
35.277605
89.593530
226.023793
397.269726
691.338778
916.937590
1015.710831
1015.710831
1015.710831
991.938710
724.951625
515.964627
279.491544
155.470967
60.181618
23.454428
6.926656
4.933476
4.588962
4.351735
4.477501
##ZVALUE=390
0.341535
0.406504
0.347495
0.193715
0.348687
0.455976
0.358820
0.382662
0.363588
0.468493
0.388622
0.399947
0.391603
0.493526
0.495911
0.571609
0.233650
0.437498
0.378489
0.510812
0.454783
0.515580
0.423789
0.379682
0.290871
0.458956
0.487566
0.428557
0.400543
0.319481
0.530481
0.330806
0.369549
0.475645
0.483990
0.480413
0.584722
0.426769
0.474453
0.416636
0.475645
0.428557
0.394583
0.433922
0.392795
0.494719
0.542998
0.579953
0.545979
0.517964
0.586510
0.480413
0.466704
0.536442
0.537634
0.611544
0.569820
0.676513
0.604987
0.701547
0.546575
0.578761
0.645518
0.775456
0.868440
0.743866
0.977516
1.013875
1.106858
1.156926
1.331568
1.508594
1.457930
1.442432
1.505613
1.650453
3.211498
19.669533
61.431527
178.521872
324.842930
587.682724
789.172649
1003.024578
1015.645862
1015.645862
1015.645862
880.188942
670.966506
406.966805
235.740542
94.865561
41.501522
10.613799
5.104542
4.507899
##ZVALUE=395
0.521541
0.562668
0.535846
0.497699
0.429749
0.405908
0.478625
0.480413
0.478625
0.633597
0.539422
0.480413
0.343919
0.576973
0.405908
0.554919
0.468493
0.610948
0.484586
0.471473
0.596642
0.588894
0.491738
0.738502
0.634789
0.621676
0.523925
0.601411
0.533462
0.535846
0.597835
0.482798
0.447631
0.612736
0.553727
0.536442
0.568628
0.649691
0.567436
0.637770
0.605583
0.625849
0.620484
0.730753
0.647902
0.691414
0.586510
0.786781
0.779629
0.610948
0.768900
0.654459
0.657439
0.639558
0.626445
0.688434
0.630617
0.806451
0.686646
0.651479
0.881553
0.881553
0.797510
0.784993
0.773668
0.778437
1.053810
1.043677
1.212955
1.198649
1.359582
1.451969
1.429915
1.327991
1.508594
1.613498
1.564622
1.809597
2.193451
9.362698
37.174821
133.736730
260.000825
508.081913
731.503963
1008.926630
1015.774012
1015.774012
1015.774012
996.989608
781.724453
471.651554
297.931433
138.238668
65.323710
20.089746
##ZVALUE=400
0.389814
0.547767
0.464916
0.442863
0.474453
0.590682
0.525713
0.345707
0.513792
0.572801
0.581741
0.363588
0.493526
0.404716
0.595450
0.596642
0.574589
0.543594
0.472665
0.555515
0.608563
0.532866
0.617504
0.652671
0.554919
0.415444
0.446439
0.573993
0.378489
0.412464
0.675917
0.512600
0.423789
0.517964
0.572801
0.505447
0.644922
0.537634
0.589490
0.641942
0.654459
0.594854
0.586510
0.627637
0.662804
0.657439
0.635982
0.706911
0.566840
0.612736
0.577569
0.691414
0.733733
0.713468
0.626445
0.683665
0.750422
0.702739
0.851750
0.689626
0.717640
0.746846
0.832677
0.822544
0.871420
0.832677
1.017451
1.045465
1.120567
1.122952
1.135468
1.351833
1.404881
1.348853
1.227856
1.245737
1.257658
1.224875
1.557469
1.811981
1.898408
4.287958
16.271472
66.069961
151.856542
350.844860
562.971830
871.636868
1015.774608
1015.774608
1015.774608
1015.774608
885.547996
580.716729
377.630591
190.642476
##END
