##TITLE=QP00651
##FORMAT=SPECTACLE-ASCII V-1.2
##DATA TYPE=ULTRAVIOLET SPECTRUM
##SECOND TYPE=ULTRAVIOLET SPECTRUM
##DATE=02/12/18
##TIME=15:26:28
##SPECTROMETER/DATA SYSTEM=SPECTACLE
##XUNITS=NM EM
##YUNITS=ENERGY
##YFACTOR=1
##FIRSTX=220
##LASTX=410
##NPOINTS=96
##3DDATA=Equidistant
##ZUNITS=NM EX
##FIRSTZ=210
##LASTZ=400
##ZPOINTS=39
##XYDATA=(Y..Y)
##ZVALUE=210
2.393723
2.011657
2.679825
2.672672
2.541542
2.559423
3.010631
2.305508
2.212524
2.240539
2.332926
2.280474
2.602935
2.321601
1.892447
2.742410
2.247691
2.269745
3.071427
3.425479
3.135800
3.309846
3.041625
3.060699
3.480911
4.001856
3.549457
3.299713
3.830791
3.757477
4.816651
4.044771
4.408956
4.700422
4.364848
4.610419
4.664660
4.636645
4.602671
4.590750
4.771948
4.971623
5.140901
5.235672
4.584789
4.892945
4.897714
4.595518
4.906654
4.411936
5.124807
5.527735
4.983544
4.531741
5.373955
5.338788
4.806519
5.234480
5.337000
5.619526
5.540848
4.955530
4.904866
5.642772
5.310774
6.747842
6.225705
6.119609
6.696582
8.248687
9.514689
11.878610
12.757778
12.927651
14.800429
15.249848
16.066432
15.267730
16.140938
14.419556
12.878776
12.551546
11.167526
9.279847
8.224845
7.382631
6.315708
5.710721
5.529523
5.863905
5.230904
4.828572
5.250573
5.887747
6.633997
5.741715
##ZVALUE=215
8.239746
8.294582
7.053614
5.971789
4.838705
5.110502
5.081892
5.285740
5.943775
5.725622
5.209446
4.535913
4.009604
3.781915
2.654791
2.814531
2.906919
3.435612
2.734661
2.767444
2.906919
3.424883
2.855659
3.076792
3.149509
3.860593
3.898740
4.143715
4.745722
4.247427
4.570484
4.083514
5.330443
4.452467
4.677773
5.711913
4.527569
4.916787
4.907846
5.569458
5.472898
4.534721
4.499555
5.105734
4.411936
5.247593
5.048513
5.542636
5.118847
5.125999
5.691648
4.720688
6.216764
5.163550
5.743504
5.797744
5.169511
5.649924
5.908608
6.053448
6.020665
5.416870
5.064607
5.414486
5.829930
5.831718
6.534457
6.440878
7.685423
9.295940
10.941625
10.717511
12.291670
12.169480
14.794469
15.245676
16.445518
15.451908
14.327765
14.591813
12.664795
12.182593
11.081696
9.528995
8.857846
7.827878
6.738901
6.461740
6.381869
5.196929
5.634427
6.364584
5.347729
5.358458
4.797578
6.242990
##ZVALUE=220
27.580857
26.778579
27.531981
28.738976
25.572777
20.083785
16.464591
12.208819
11.717677
11.349916
13.102889
12.734532
11.814833
11.090636
8.760691
7.103682
6.466508
4.421473
3.902912
3.262758
3.404617
3.466606
4.018545
4.220605
4.410744
4.021525
3.905892
5.155802
4.319549
5.066991
6.246567
5.697608
6.349683
6.035566
6.755590
5.901456
6.961823
6.559491
5.782843
6.266832
6.070733
6.575584
6.072521
6.139874
6.030798
6.152987
6.654859
5.951524
5.858541
5.911589
6.748438
6.038547
6.623864
6.360412
6.410480
6.414652
6.087422
6.337762
5.721450
5.919933
6.739497
7.267594
6.049871
6.162524
6.445646
7.059574
7.856488
7.756948
9.400845
9.987950
10.440946
12.304783
13.455749
15.302896
17.126799
17.838478
18.028617
18.057823
18.383861
15.656948
16.013980
13.962984
12.359619
11.449456
10.340810
9.144545
8.699894
8.012652
7.947683
6.839633
6.643534
7.264614
7.380843
7.432699
7.080436
6.181598
##ZVALUE=225
41.515827
45.171976
61.827898
74.142814
85.521936
80.501437
71.658492
58.665872
42.006969
25.902987
27.189851
24.145842
23.823977
29.227734
26.356578
25.330782
19.959807
17.491579
12.028813
7.382631
6.046891
5.286932
4.580617
4.122853
5.092621
5.844831
4.472733
6.285906
4.773736
6.914735
6.436706
7.367730
6.984472
6.304979
7.052422
8.101463
8.070469
6.799698
8.131862
7.553697
8.468628
7.768869
7.987618
8.300543
8.188486
7.215738
8.017421
7.853508
7.165670
8.016825
7.154942
8.349419
7.159710
7.617474
8.845925
8.899570
8.989573
8.250475
8.652806
8.469820
8.928776
9.400845
8.795857
9.017587
9.264946
10.127425
9.961724
10.361671
11.296868
11.946559
13.453960
15.897751
17.007589
18.354654
20.847917
20.574927
21.414757
23.149848
21.508932
20.539761
20.032525
17.614961
16.902685
13.179779
14.752746
11.836886
10.974407
10.311604
10.159612
10.211468
10.365844
9.665489
10.262728
10.634661
9.280443
9.761453
##ZVALUE=230
37.872791
41.114688
64.481497
110.331774
146.070719
183.767676
198.262930
196.332932
182.479620
149.807930
108.131766
79.467893
51.994920
46.016574
47.345757
49.655437
55.000782
51.363707
45.884848
37.556887
28.289557
18.792748
12.670755
9.844899
7.268786
5.679727
5.573630
5.899668
6.046891
7.670522
7.128716
7.130504
7.944703
8.052588
7.424951
7.901788
8.675456
7.718801
8.559823
8.969903
8.492470
7.918477
7.589459
8.016825
8.348823
9.014606
8.730888
9.236932
9.322762
9.827614
8.642673
9.567738
10.544658
9.339452
9.758472
9.829998
10.608435
10.533929
11.235476
12.292862
10.881424
11.514425
11.663437
11.237860
12.370944
14.323592
13.441443
14.511943
14.861822
17.321706
19.731522
19.757748
25.115609
26.157498
28.346777
26.004910
29.000640
28.454661
26.796460
25.561452
22.202730
20.742416
20.081997
17.594695
16.823411
15.458465
15.573502
14.958978
13.733506
14.171600
13.272762
13.413429
14.185905
14.085770
14.173985
13.705492
##ZVALUE=235
16.034842
17.911792
36.213994
80.983639
135.387778
212.749839
290.789008
369.426608
410.639644
420.633554
370.972753
321.493745
223.164558
170.404911
114.454627
87.369680
75.115561
81.748962
85.046887
85.218549
80.326796
67.729950
55.805445
38.262606
28.358698
17.331839
11.340976
8.949637
8.142591
7.910728
8.593798
8.802414
8.671880
9.789467
8.254647
8.402467
8.358955
7.683635
9.334683
8.301735
8.924603
8.336902
9.009838
8.993745
9.049773
10.120869
9.422898
9.055734
9.494424
9.782910
9.877682
12.229681
10.315776
11.211634
11.600852
12.526512
12.716651
12.612939
12.954473
12.282729
14.293790
15.059710
14.316440
14.509559
14.813542
15.367866
17.573833
17.989874
21.399856
22.291541
24.821758
26.876926
29.165745
30.014515
30.367970
32.549500
33.464432
30.179620
29.920936
30.421615
27.084947
25.558472
23.380518
23.368597
21.316409
22.263527
19.570589
20.094514
20.151734
18.727779
19.623637
18.486977
19.209981
18.164515
17.757416
18.949509
##ZVALUE=240
2.308488
1.905560
7.924438
20.302534
53.461790
101.681948
200.472474
298.117995
450.421572
542.028546
620.498657
626.080632
569.565892
482.368469
387.179852
260.166526
191.800594
128.913522
101.797581
102.842450
109.157562
117.183924
110.109448
102.829933
81.218481
64.637661
47.062635
33.676624
21.737814
15.496612
13.728738
10.226965
9.070635
9.037852
8.792877
9.022951
8.851886
8.698702
9.486675
8.720756
8.837581
8.555651
9.011626
8.313656
8.273721
8.559823
10.363460
10.289550
10.043979
9.132624
9.050965
10.633469
10.530949
10.653734
10.519624
11.267662
12.382865
11.894703
12.779832
12.566447
14.942884
14.114976
12.900829
14.851689
14.930964
15.743971
16.506910
18.166900
19.732714
22.038817
24.431944
24.464726
26.158690
29.587746
30.218959
31.141639
30.590892
30.268431
30.362606
29.226542
27.366877
24.613738
24.819970
21.927953
21.381974
22.852421
22.135973
22.369623
21.005869
21.115541
21.337867
20.810962
21.790862
20.134449
20.027757
19.102693
##ZVALUE=245
1.859665
1.728535
1.821518
2.152920
4.443526
16.704798
40.484667
106.934905
184.093714
292.249918
465.785861
597.877502
733.807683
746.500492
711.648464
605.547428
432.222486
318.682790
225.621462
142.328739
110.080838
103.316903
109.770894
128.004551
131.627917
123.278499
113.906860
93.632936
73.384643
53.541660
38.994551
24.230480
16.959906
13.124943
11.486411
10.526776
10.664463
9.582639
9.375811
8.578897
8.652806
8.974671
9.504557
8.499622
8.148551
7.418990
8.446574
7.725954
9.017587
9.114742
8.939505
8.706450
9.529591
10.718703
9.784698
10.100603
10.319948
10.679960
11.374950
11.576414
11.795759
11.059642
12.853742
12.213588
13.454556
13.841987
14.621615
16.285777
16.923547
18.682480
19.070506
22.163987
24.592876
25.083423
26.275516
24.399757
26.413798
24.811625
25.152564
23.384690
22.396445
22.942424
21.944642
20.895600
20.765662
20.919442
21.459460
20.453930
20.873547
20.004511
19.743443
21.068454
20.986795
19.301772
21.681786
19.593835
##ZVALUE=250
1.699924
1.507998
1.851916
1.885891
2.089739
2.280474
2.847910
7.637739
33.745766
71.171522
168.055892
274.996758
409.532785
597.682595
728.920698
815.237761
810.682774
713.105798
591.575503
406.234860
279.795527
188.723803
120.122433
99.669695
106.378794
119.429827
135.399699
139.599442
135.369897
122.821927
107.324719
81.477761
61.537623
36.732554
25.754571
16.641617
12.244582
9.501576
9.170771
8.677840
7.728934
8.981824
7.884502
7.601976
7.808805
7.019639
6.958842
7.251501
7.569790
7.465482
7.687807
7.730722
8.143783
7.825494
8.043647
8.636713
9.110570
7.986426
8.765459
9.038448
9.581447
9.927750
9.399652
9.968877
10.255575
11.018515
12.102723
12.173653
13.897419
14.892817
15.254617
16.494989
19.332767
20.449758
19.708872
20.703673
21.311641
20.665526
20.634532
19.516945
19.593835
19.761920
20.108819
18.759966
19.526482
18.270612
19.522905
18.990636
19.677877
18.595457
19.648671
19.472837
19.273758
19.473433
19.014478
19.292831
##ZVALUE=255
1.710653
1.215935
1.172423
1.354814
1.663566
1.822710
1.503825
1.749992
2.181530
3.634691
18.545985
46.829581
123.070478
214.231014
375.378728
529.246926
732.906461
844.669938
886.662006
836.700797
721.927881
517.893434
360.084772
201.572776
128.558874
92.678666
87.955594
104.103684
123.771429
140.368938
146.058798
139.013529
129.132867
101.227760
82.290769
54.771900
38.980842
23.860931
15.960932
10.493994
8.843541
8.170605
7.773638
7.782578
7.650852
7.740855
7.628798
6.903410
7.208586
7.381439
7.528663
7.017851
6.585717
7.431507
7.319450
7.004738
7.805824
7.930994
8.097887
7.628798
7.601976
8.911490
8.356571
8.902550
9.829998
10.111928
9.604692
11.120439
10.678768
12.330413
13.152957
14.582872
14.861822
15.704632
16.283989
16.813874
17.391443
17.137527
17.208457
17.122626
17.853975
17.288923
17.583966
17.476678
17.012954
17.278790
17.497540
17.288923
17.858744
18.068552
18.607974
18.603802
17.291903
18.165708
17.891526
19.660592
##ZVALUE=260
1.294613
1.239777
1.245737
1.278520
1.201630
1.505613
1.487732
1.323819
1.580715
1.683831
1.815557
2.892613
8.298755
33.442974
73.106885
173.648596
287.875533
482.080579
646.516681
865.228772
966.953635
982.756615
872.087479
706.145763
473.091006
323.656797
185.548663
115.201473
80.135465
84.856749
99.219680
124.827623
140.782595
147.645473
144.207478
127.355456
109.652877
81.954002
59.743524
37.506819
25.332570
14.495850
10.642409
7.923841
7.423759
7.209778
6.976724
7.131696
6.357431
6.983876
7.162690
6.667972
7.366538
6.805658
7.090569
7.509589
7.172823
7.422566
7.523894
7.393956
7.423759
7.427931
7.503629
7.892847
8.410811
8.571744
9.665489
10.039806
10.610819
11.895895
11.469722
12.986660
13.507605
14.500618
14.778972
15.857816
15.249848
15.206933
15.007854
15.032887
14.150739
14.561415
15.399456
16.078949
16.656518
16.277432
16.288757
16.037822
16.646981
15.637875
16.611814
15.687943
17.121434
16.747713
17.458797
17.077923
##ZVALUE=265
1.261830
1.247525
1.098514
1.371503
1.141429
1.190901
1.394749
1.234412
1.361966
1.464486
1.517534
1.727939
1.687407
1.994967
4.408956
22.733808
55.858493
133.289695
234.719515
435.822606
617.779493
794.685483
980.854034
1015.774012
955.397487
830.225945
635.048747
456.207991
261.485577
152.528882
92.881918
71.201921
80.283880
108.360648
131.081939
147.179961
150.332451
144.929886
129.628778
105.850697
81.566572
54.114461
38.663745
21.958947
15.060902
9.756684
7.988811
7.351637
7.617474
7.029772
7.776618
7.398725
7.527471
7.035732
7.050633
7.179976
7.664561
7.385612
6.891489
7.858872
7.950664
7.878542
7.886887
8.072853
8.184910
8.751750
9.131432
9.346604
9.570718
10.661483
11.087656
12.374520
11.520982
12.985468
13.186932
13.696551
14.079809
14.202595
13.913512
13.532639
13.273954
13.495684
13.914704
14.689565
14.229417
14.366508
15.308857
15.345812
15.382767
14.867783
15.537739
14.894605
15.793443
15.483499
16.113520
16.703606
##ZVALUE=270
1.063943
1.082420
1.100898
1.245737
1.015663
1.140833
1.106858
1.092553
1.131892
1.313686
1.340508
1.392961
1.503825
1.735687
1.499653
1.929998
2.309680
9.347796
30.248761
93.299747
182.435513
315.637589
544.846654
732.568502
912.007689
972.049832
941.001773
852.561593
671.652555
503.933430
350.409746
187.757611
109.281540
62.709451
60.742497
85.246563
105.609894
133.117437
146.275759
152.716637
147.554874
127.770901
110.321641
81.249475
59.580803
35.623908
24.311543
15.049577
10.781884
7.987618
7.527471
7.372499
7.591844
7.244945
7.448792
7.268786
7.883906
8.049607
8.492470
7.820725
7.930994
8.319616
8.098483
8.735657
8.049607
8.681417
8.874536
9.247661
9.435415
10.938644
10.414720
10.896921
12.184978
12.103915
13.198853
12.662411
13.575554
13.002753
13.031960
13.398528
13.197660
13.320446
13.359785
13.690591
13.855696
13.744831
13.971925
14.828444
14.477968
14.124513
14.231801
14.783740
14.267564
14.956594
14.958978
14.319420
##ZVALUE=275
1.143813
1.136661
1.075864
1.259446
1.258850
1.184940
1.330972
1.434684
1.555681
1.333952
1.292825
1.330972
1.573563
1.372695
1.728535
1.615882
1.674891
1.935959
1.984835
4.492402
16.405582
47.932863
139.913559
256.156921
467.289686
631.011724
819.152594
928.737521
966.265798
910.768509
805.581808
611.701012
448.119640
248.981714
145.247579
69.326758
50.701499
59.823990
79.442859
107.652545
125.923753
144.076943
149.322748
142.602921
130.253434
102.281570
81.679821
56.956410
39.272904
25.257468
17.665625
10.789633
9.180903
8.767843
7.823706
8.249879
7.845759
8.736849
8.596778
8.754730
9.289980
9.439588
8.763671
9.267926
9.039640
9.003878
10.095835
10.300875
10.092854
10.951757
10.992885
11.799932
11.922717
12.486577
12.891889
13.446808
12.781620
13.194680
13.685822
13.538599
13.897419
12.822747
13.115406
12.912750
13.469458
13.620853
13.747811
13.206601
13.561845
13.718605
13.877749
14.083982
13.811588
13.776422
14.530420
14.656782
##ZVALUE=280
0.802875
1.014471
0.894666
1.097918
0.978708
0.991821
1.016855
1.008511
1.082420
1.101494
1.128912
1.077652
1.276731
1.213551
1.190901
1.176596
1.372695
1.330972
1.587868
1.651645
1.704693
2.283454
10.988712
36.373734
117.929578
212.434530
393.018723
565.038919
794.613957
926.143527
994.274616
970.595479
860.913992
642.019510
467.291474
268.483758
161.182880
72.407722
44.543743
40.517449
52.784681
77.322721
97.887516
124.515891
137.960911
141.257644
139.520764
123.621821
104.511976
78.315735
57.976842
36.783814
25.430918
15.127659
11.121631
9.020567
8.902550
8.528829
8.654594
8.851886
9.089708
8.955598
9.310842
9.289980
9.680986
9.305477
10.040998
9.682775
10.499954
10.539889
10.868907
11.664629
11.997819
12.565851
12.332797
11.841655
12.814999
13.069510
12.561679
12.995601
12.791753
12.579560
12.491941
12.780428
13.215542
13.337731
12.880564
13.390779
12.935996
13.548732
13.611913
13.072491
12.845993
12.985468
13.388991
13.777614
##ZVALUE=285
0.807643
0.797510
0.854731
0.863671
0.920892
1.031756
1.011491
1.137853
1.054406
1.055598
1.182556
1.110435
1.170635
1.051426
1.200438
1.187921
1.057982
1.125932
1.593828
1.490712
1.409650
1.578927
1.803637
1.865625
6.005764
19.078851
66.871643
132.542849
277.280807
427.798629
649.365783
814.828873
946.590900
1003.298759
941.296816
759.401917
597.230792
369.582772
225.639939
106.926560
55.549741
31.223893
33.362508
51.764846
69.573522
97.937584
117.964745
133.314729
141.967535
136.500001
126.289725
101.819634
84.822774
57.197809
40.463805
25.322437
17.461777
11.411905
10.175705
9.575486
9.847879
9.773970
9.637475
10.068417
9.665489
10.489821
10.668635
10.812879
11.077523
11.296868
11.759996
12.827516
11.885762
12.475848
13.343692
13.076663
12.765527
13.178587
13.371706
12.919903
12.914538
12.587905
13.408661
12.945533
13.384819
13.338923
13.288856
12.918711
13.464689
13.555884
13.775826
13.394952
13.421774
13.128519
13.482571
13.472438
##ZVALUE=290
0.800490
0.912547
0.811815
0.892878
0.708699
0.850558
0.773668
0.771880
0.868440
0.864863
0.897646
0.795722
1.103878
1.179576
1.048446
1.181960
1.024604
1.050830
1.204610
1.227856
1.236796
1.407862
1.351833
1.475811
1.620650
1.852512
2.294779
11.008978
31.117797
92.584491
173.285604
349.113941
514.846444
759.013891
909.491777
1015.774012
1012.338996
890.785456
722.553730
479.562879
315.810442
158.412457
85.553527
34.036636
24.226904
31.870604
46.364665
68.579912
87.889433
111.771822
127.915740
135.833621
137.169957
121.089816
106.009841
78.617930
59.817433
39.677620
29.053688
18.774867
14.336705
12.367964
10.455847
10.270476
10.743737
10.751486
10.944605
11.012554
11.762977
12.516975
12.274981
12.724996
12.972951
13.080835
13.921857
13.626814
13.427734
13.303757
13.093948
13.247728
13.491511
13.722777
13.422966
13.250709
13.774633
13.666749
13.597608
13.540983
13.277531
13.334751
13.054609
13.413429
13.042688
13.163686
13.002753
13.214946
##ZVALUE=295
0.739694
0.704527
0.738502
0.865459
0.692606
0.865459
0.836849
0.939965
0.824928
0.895858
0.823736
0.978708
0.935793
0.976920
0.898838
1.019835
1.105666
1.035929
1.182556
1.067519
1.183748
1.091957
1.350641
1.362562
1.588464
1.492500
1.648664
1.653433
2.003908
4.118681
21.844506
59.925914
126.901865
282.305479
448.592901
699.604750
872.941613
1015.774012
1015.774012
980.126858
838.239789
592.719913
406.724811
210.540891
116.519928
45.538545
24.553537
20.530820
27.774572
45.240521
63.095689
87.144971
105.417967
123.562813
129.332542
128.585696
119.114518
98.066926
80.985427
57.627559
42.465925
28.044581
20.441413
14.539957
12.448430
11.604428
11.733770
11.533499
11.946559
12.199879
12.481809
12.705922
13.135672
13.894439
13.409853
14.284849
13.920665
13.867617
13.938546
13.671517
13.644695
13.955832
13.894439
13.425946
13.784766
13.800859
13.383627
13.846755
13.356805
13.569593
13.178587
13.765693
13.027787
13.451576
12.763739
13.328791
##ZVALUE=300
0.739694
0.786781
0.835657
0.801682
0.712872
0.873804
0.721812
0.908971
0.798702
0.854731
0.790954
0.871420
0.918508
0.866652
0.905991
0.822544
0.799894
1.086593
0.934601
1.314878
1.028776
1.511574
1.215935
1.048446
1.090765
1.204610
1.282692
1.404881
1.342893
1.761913
1.765490
2.094507
10.114908
33.327937
105.203986
192.979574
382.397771
562.073588
806.948543
959.994793
1015.774608
1015.774608
906.354785
736.006498
483.770967
313.548446
155.628920
84.729791
33.589602
18.924475
18.848777
26.041865
42.286515
57.292581
80.538988
98.387003
118.921995
124.650002
124.550462
116.760731
98.653436
80.053806
58.090687
43.578744
28.828979
21.075606
15.217662
13.012886
12.043715
12.330413
12.787580
12.943745
13.525486
13.668537
14.002919
13.297796
13.787746
14.181733
13.997555
14.176965
13.835430
14.210939
13.578534
13.941526
14.394522
13.802648
14.414787
14.114976
13.806820
13.687611
13.139844
13.521910
13.656616
13.147593
13.737679
13.585687
##ZVALUE=305
0.745654
0.742674
0.632405
0.777841
0.850558
0.815988
0.761747
0.961423
0.693798
0.737906
0.664592
0.658631
0.735521
0.802875
0.759959
0.670552
0.869632
0.959635
1.062751
0.948906
0.858903
0.975728
0.988841
1.195669
1.074672
1.160502
0.989437
1.232624
1.250505
1.282692
1.405478
1.749992
1.856685
1.927614
3.761649
22.397637
61.748624
163.051486
283.764005
503.468513
687.316656
894.020796
1008.473635
1015.774012
967.039466
772.565007
602.693558
382.493734
239.570737
109.105706
56.143999
22.433996
15.257001
18.303990
25.540590
40.852427
55.518746
77.934861
94.608665
112.019777
118.513703
116.569996
110.206604
94.158649
77.093840
54.806471
41.552782
28.238893
20.997524
15.799999
14.212728
12.883544
13.073683
13.411641
13.497472
13.671517
13.216734
13.815761
13.979673
14.213920
14.174581
14.205575
14.439821
14.057755
14.587641
14.049411
13.567805
14.139414
13.868809
13.997555
13.692975
13.721585
13.394952
13.549924
13.403893
13.234615
##ZVALUE=310
0.634789
0.727773
0.886917
0.667572
0.812411
0.764728
0.889897
0.857711
0.714660
0.735521
0.794530
0.841618
0.876784
0.759959
0.812411
0.786781
0.915527
0.797510
0.937581
0.895858
0.834465
0.982881
0.988841
0.941753
0.986457
0.935793
1.212955
1.102686
1.156926
1.325607
1.365542
1.331568
1.369715
1.653433
1.569986
2.044439
1.952648
9.282827
33.885837
113.904476
218.440890
435.232520
631.676912
877.867937
1009.575725
1015.774012
1015.774012
916.389823
752.927661
504.037738
334.028006
165.641904
88.226795
31.717420
15.853643
12.915730
15.902519
23.945570
33.910871
52.163601
67.104697
88.660717
102.763772
111.677647
113.448501
105.107427
93.517900
73.430538
58.130622
39.889812
30.209422
21.338463
17.298460
14.489889
13.294816
13.499856
13.448000
13.354421
13.351440
13.436675
13.657808
13.957620
13.469458
14.126897
13.950467
13.956428
14.015436
14.339685
14.026761
14.162660
13.889670
13.796687
13.909936
13.510585
13.704896
13.332963
##ZVALUE=315
0.574589
0.549555
0.590682
0.678897
0.523925
0.843406
0.747442
0.746846
0.787973
0.617504
0.636578
0.589490
0.826716
0.706911
0.700951
0.808835
0.852942
0.821948
0.846982
0.775456
0.673532
0.854731
0.636578
0.891685
0.924468
0.938773
1.016855
0.907779
0.926852
0.954866
1.012683
1.137853
1.035929
1.169443
1.163483
1.404881
1.476407
1.811981
1.896620
3.676414
14.216900
68.246722
158.590674
367.587805
599.200726
920.904875
1015.670896
1015.670896
1015.670896
1015.670896
895.033479
641.981959
453.162789
246.180892
132.184625
47.100782
21.419525
11.904836
11.962652
15.780926
21.480918
32.821894
45.447946
64.509511
79.057813
98.346472
105.986595
106.420517
101.255774
86.752772
72.818995
54.696798
41.469932
28.101802
21.713972
16.257763
14.056563
13.259649
13.155937
12.975931
13.176799
13.580918
13.624430
13.659000
13.529658
13.727546
13.537407
13.637543
13.602972
13.528466
13.686419
13.685822
13.123751
12.833476
12.873411
12.972951
##ZVALUE=320
0.664592
0.751615
0.642538
0.702739
0.889897
0.663996
0.754595
0.773668
0.619888
0.811815
0.792742
0.694990
0.746846
0.987649
0.756979
0.738502
0.846982
0.826716
0.737906
0.860691
0.781417
1.008511
0.850558
0.934601
1.020432
0.985861
1.084805
0.998974
1.145601
1.065731
1.221895
1.262426
1.214743
1.354814
1.336932
1.526475
1.505613
1.538992
1.569986
1.628995
1.988411
2.520680
6.598830
36.049485
100.310445
289.687514
508.241653
880.978703
1015.774012
1015.774012
1015.774012
1015.774012
1015.774012
812.170506
570.986867
312.756896
178.444982
75.801611
35.256743
13.831854
10.367632
11.403561
13.713837
19.743443
28.170943
43.395758
58.115721
76.526999
91.000795
100.952983
101.675987
96.545815
86.056590
66.969991
53.856969
39.440989
29.272437
20.604730
16.932487
14.504790
13.393760
13.175607
12.843609
13.209581
13.188720
13.345480
13.317466
13.534427
13.585687
13.201833
13.171434
13.279915
13.595819
12.654662
13.293624
13.155937
##ZVALUE=325
0.655651
0.498891
0.751615
0.886917
0.591874
0.650883
0.739694
0.715852
0.698566
0.778437
0.664592
0.873804
0.649691
0.868440
0.598431
0.872612
0.838637
0.912547
0.673532
0.814795
0.739694
0.682473
0.814795
0.870824
0.897646
0.799894
0.897646
1.040697
0.962615
0.985861
1.128912
0.996590
1.140833
0.997782
1.051426
1.002550
1.278520
1.388788
1.368523
1.361966
1.687407
1.845956
1.933575
1.984835
3.677607
20.130873
57.291985
176.396966
341.024399
682.172775
973.177552
1015.774012
1015.774012
1015.774012
1015.774012
910.843015
664.726496
397.567749
241.337419
109.843612
53.436756
17.739534
10.239482
9.211898
10.335445
13.406873
18.599629
28.088689
40.080547
59.162974
72.107911
86.544752
94.120502
95.183849
90.813637
76.716542
64.735413
48.307776
37.410855
25.918484
20.314455
15.668869
13.862848
13.518929
12.449622
12.717843
13.004541
13.184547
12.891889
12.569427
12.378693
13.044477
12.963414
12.982488
13.083816
13.087988
##ZVALUE=330
0.623465
0.709891
0.636578
0.747442
0.663996
0.672936
0.708699
0.772476
0.776649
0.734925
0.754595
0.831485
0.646710
0.798702
0.618696
0.921488
0.634789
0.735521
0.674725
0.800490
0.814795
0.629425
0.788569
0.735521
0.816584
0.804663
0.964999
0.982881
0.964999
1.039505
1.054406
1.004934
1.169443
1.001954
1.085997
1.130700
1.204610
1.270771
1.317859
1.301765
1.460910
1.418591
1.541972
1.703501
1.875758
2.220869
2.360940
8.970499
30.215979
111.179948
239.364505
548.509955
853.270888
1015.774012
1015.774012
1015.774012
1015.774012
1015.774012
832.430720
495.523810
308.135748
144.161582
76.448917
28.483868
13.186932
8.750558
9.022951
10.402799
12.626648
19.143820
26.241541
39.875507
52.071810
70.176721
81.216693
89.233518
90.876818
83.696842
75.153708
59.815645
47.794580
34.091473
26.859641
19.807816
16.433597
14.424920
13.335943
12.744665
12.852550
12.335777
12.731552
12.478828
12.587905
12.147427
12.360811
12.345910
##ZVALUE=335
0.645518
0.629425
0.637770
0.627637
0.743866
0.677705
0.664592
0.707507
0.547767
0.625849
0.684857
0.747442
0.658631
0.872612
0.860691
0.658631
0.703931
0.819564
0.676513
0.579953
0.555515
0.667572
0.769496
0.729561
0.779629
0.855923
0.701547
0.862479
0.897646
0.872612
0.776649
0.947714
0.846982
0.923872
0.893474
0.819564
0.857711
1.126528
1.024604
1.298785
1.161695
1.312494
1.296997
1.293421
1.225471
1.537800
1.782775
1.888871
1.907945
4.718900
15.588999
64.268708
144.288540
368.482471
648.885965
1015.768647
1015.768647
1015.768647
1015.768647
1015.768647
1015.768647
657.341480
407.120585
191.753507
96.153617
34.479499
16.438961
9.624958
9.137988
9.638667
10.223985
13.544559
17.601848
27.126670
37.232637
52.708983
64.317584
76.629519
83.914995
84.754825
80.176592
68.652630
58.607459
46.085715
36.658645
26.454926
20.907521
16.583800
14.471412
12.986660
12.683868
12.458563
11.993647
11.744499
11.999607
12.312531
##ZVALUE=340
0.654459
0.654459
0.620484
0.520945
0.711679
0.563860
0.665784
0.491738
0.741482
0.579953
0.488758
0.553727
0.730753
0.746846
0.639558
0.595450
0.682473
0.713468
0.757575
0.811815
0.708699
0.744462
0.786781
0.713468
0.775456
0.850558
1.028776
0.734925
0.760555
0.818968
0.524521
0.879765
0.915527
0.955462
1.010895
0.896454
0.995994
0.966787
1.014471
1.183748
1.275539
1.121759
1.204610
1.179576
1.277924
1.540780
1.530647
1.694560
1.781583
1.869798
2.082586
3.384948
12.068748
54.518580
127.505660
316.474438
557.784438
970.916748
1015.760899
1015.760899
1015.760899
1015.760899
1015.760899
979.466438
641.477704
284.606814
139.915943
53.461790
23.713708
11.316538
10.101795
10.027885
10.190606
11.338592
14.033914
19.086599
25.451779
36.333799
48.177838
63.491464
72.891712
80.007911
80.102682
76.044798
68.049431
56.438446
46.585798
34.388900
27.411580
20.179749
16.535521
13.599992
12.621880
11.808872
11.942983
11.563897
##ZVALUE=345
0.608563
0.616908
0.696778
0.740886
0.723600
0.862479
0.826716
0.740886
0.756979
0.720620
0.692606
0.699759
0.587702
0.757575
0.686646
0.785589
0.607967
0.695586
0.678897
0.697970
0.761747
0.905991
1.006722
0.917912
0.972748
0.802875
0.769496
0.837445
0.876784
0.834465
0.836849
0.788569
0.787973
0.813603
0.847578
0.918508
0.947714
0.994802
1.174808
1.044869
1.009703
1.007915
1.131892
1.044869
1.292825
1.337528
1.473427
1.495481
1.465678
1.728535
1.871586
2.021790
2.277493
2.473593
5.041957
33.478737
87.852478
228.183866
419.989824
801.553726
1015.766859
1015.766859
1015.766859
1015.766859
1015.766859
1015.766859
968.179703
519.379973
258.931518
83.614588
36.303997
14.996529
10.967851
10.577440
10.269880
10.403991
10.834932
13.047457
16.712546
24.773479
33.585429
47.001839
56.521893
66.380501
72.492957
74.672699
72.010756
64.138770
55.692792
43.630600
34.609437
25.535822
20.036697
15.164614
13.374686
11.956692
##ZVALUE=350
0.626445
0.607967
0.757575
0.614524
0.482798
0.713468
0.731945
0.604987
0.625849
0.659823
0.722408
0.653863
0.681877
0.746846
0.663996
0.603795
0.619888
0.745654
0.745654
0.704527
0.707507
0.753999
0.653863
0.711679
0.681877
0.779629
0.836849
0.824928
0.791550
0.845790
0.759959
0.898838
0.837445
0.855923
0.926852
0.874996
0.868440
0.810623
1.183748
0.860691
1.016855
1.064539
1.083612
1.059771
1.224875
1.189709
1.361966
1.374483
1.401901
1.475811
1.354814
1.586676
1.702905
1.945496
2.156496
2.388954
3.484488
11.456609
57.339668
133.692026
326.563716
553.225875
942.063928
1015.774012
1015.774012
1015.774012
1015.774012
1015.774012
990.592837
657.859445
296.276808
147.398710
49.310923
20.074844
10.614991
9.422898
9.009838
8.755922
9.119511
9.779930
12.480617
15.679598
21.981001
28.829575
39.484501
49.380660
59.782863
65.455437
68.025589
66.641569
59.657693
52.616000
41.522980
33.408999
24.379492
19.210577
##ZVALUE=355
0.554919
0.654459
0.571609
0.545979
0.589490
0.509620
0.582933
0.672936
0.590682
0.792742
0.767708
0.697970
0.831485
0.714660
0.700951
0.738502
0.799894
0.801682
0.703931
0.679493
0.782609
0.734925
0.708699
0.784993
0.761747
0.905991
0.713468
0.653863
0.774860
0.853539
0.814795
0.954866
0.759959
0.828505
0.988841
1.033545
1.084805
0.895858
0.919700
0.944734
0.999570
1.004934
1.003742
0.912547
0.841618
0.974536
1.248717
1.088977
1.392961
1.284480
1.372695
1.374483
1.210570
1.348853
1.544952
1.662970
1.744628
2.116561
2.433658
6.924868
28.192401
119.095445
244.825482
491.992831
751.093030
1015.774012
1015.774012
1015.774012
1015.774012
1015.774012
1015.774012
747.050643
468.198657
194.168687
83.475709
23.167729
11.522770
8.830428
8.400679
8.299947
8.284450
8.420944
9.366870
11.131763
13.941526
19.173622
25.512576
34.659505
43.273568
52.759647
58.715940
62.378645
61.189532
55.570602
49.106479
40.324926
##ZVALUE=360
0.617504
0.703931
0.682473
0.709891
0.721812
0.776649
0.681877
0.716448
0.771880
0.555515
0.839829
0.725985
0.798702
0.751615
0.656843
0.657439
0.727773
0.648499
0.580549
0.724792
0.757575
0.893474
0.684857
0.837445
0.788569
0.759959
0.684857
0.871420
0.743866
0.826716
0.740886
0.824928
0.947714
0.813603
0.751615
0.743866
0.703931
0.744462
0.822544
0.780821
0.904799
0.819564
0.808835
1.144409
1.088977
1.123548
1.131892
1.124740
1.264811
1.184940
1.147985
1.181960
1.236796
1.484752
1.554489
1.429915
1.627803
1.693964
1.910925
2.080798
2.387762
3.683567
12.062788
59.542656
152.508616
379.225612
616.291761
972.684622
1015.746593
1015.746593
1015.746593
1015.746593
1015.746593
858.017802
588.788986
293.125510
149.784684
50.305724
18.209815
8.742809
8.199811
7.846951
7.849932
7.682443
7.803440
8.647442
9.423494
11.807680
15.575886
21.846890
28.529763
38.357973
44.713616
51.811934
55.348873
55.410862
##ZVALUE=365
0.562668
0.572801
0.523925
0.612736
0.444651
0.519753
0.467896
0.488758
0.447631
0.469685
0.704527
0.774860
0.498891
0.559688
0.489950
0.593662
0.565648
0.792742
0.498891
0.647902
0.559688
0.690818
0.708699
0.643730
0.603795
0.629425
0.689626
0.597835
0.698566
0.756979
0.701547
0.849962
0.809431
0.721812
0.790954
0.767708
0.714660
0.693798
0.853539
0.736713
0.903606
0.927448
0.776649
0.915527
0.899434
1.030564
0.947714
1.115799
0.957847
1.046658
1.097918
1.038909
1.165867
1.229644
1.377463
1.168847
1.448989
1.330972
1.491904
1.625419
1.842976
2.179742
2.393723
2.765656
6.383657
34.034848
88.682771
240.489841
453.901887
832.366943
1015.708447
1015.708447
1015.708447
1015.708447
1015.708447
957.771540
698.797703
398.095846
222.271681
78.666806
29.523969
9.786487
8.026958
7.534623
7.368922
6.996989
7.257462
7.290840
7.271767
8.384585
9.664893
13.561845
17.601848
25.392771
31.567812
40.301681
##ZVALUE=370
0.710487
0.590682
0.712872
0.665784
0.648499
0.737906
0.597835
0.650883
0.620484
0.670552
0.547767
0.571609
0.528693
0.721812
0.804663
0.686646
0.710487
0.679493
0.666976
0.714660
0.571609
0.726581
0.600815
0.747442
0.861883
0.799894
0.808835
0.788569
0.885725
0.840425
0.756979
0.801682
0.754595
0.690818
0.674725
0.685453
0.827909
0.779629
0.922680
1.026988
0.767708
0.836849
0.803471
0.826716
0.764728
0.879765
0.841618
0.889897
1.120567
0.897646
1.011491
1.002550
1.111627
0.967979
0.942945
1.242757
1.321435
1.268983
1.274943
1.487732
1.525879
1.713634
1.759529
1.847744
2.093911
2.243519
3.602505
19.746423
63.695908
198.877454
369.592905
691.632032
979.915857
1015.778780
1015.778780
1015.778780
1015.778780
977.993011
719.497800
404.208899
232.771635
96.436739
43.902993
14.657974
8.366704
7.070899
6.795526
6.775856
6.593466
6.509423
6.478429
6.651878
7.258654
9.190440
11.523962
16.360879
##ZVALUE=375
0.636578
0.502467
0.715852
0.691414
0.720620
0.704527
0.412464
0.604987
0.639558
0.614524
0.649691
0.572801
0.635982
0.686646
0.627637
0.541806
0.634789
0.611544
0.600815
0.602603
0.679493
0.667572
0.609756
0.512600
0.688434
0.692606
0.569820
0.696778
0.731945
0.692606
0.739694
0.782609
0.730753
0.738502
0.774860
0.708699
0.570416
0.736713
0.723600
0.826716
0.746846
0.933409
0.758767
0.855923
0.920892
0.813603
0.983477
0.931621
0.936985
0.956655
0.794530
1.052618
0.964999
0.962615
1.034737
1.053810
1.188517
0.971556
1.147985
1.331568
1.265407
1.341701
1.440644
1.440644
1.621842
1.798868
2.047420
2.340674
2.598763
9.073615
34.279823
131.149888
288.686752
626.846552
942.946672
1015.790701
1015.790701
1015.790701
1015.790701
1015.790701
852.255821
512.614846
322.156549
159.938931
80.034733
24.584532
10.157824
6.818771
6.518960
6.528497
6.411672
6.051660
5.963445
6.002784
6.083846
6.858706
##ZVALUE=380
0.601411
0.601411
0.525713
0.686646
0.639558
0.685453
0.506639
0.580549
0.549555
0.522733
0.564456
0.521541
0.527501
0.594854
0.558496
0.467896
0.569820
0.553727
0.676513
0.613928
0.616908
0.622869
0.613928
0.685453
0.676513
0.501871
0.553727
0.707507
0.819564
0.613928
0.758767
0.635982
0.632405
0.448823
0.843406
0.671744
0.873804
0.773668
0.524521
0.852942
0.713468
0.612736
0.743866
0.859499
0.726581
0.733733
0.837445
0.727773
0.823736
0.803471
0.861883
1.087785
0.929832
0.820756
0.737906
0.988841
1.016855
0.888705
1.117587
0.973940
1.113415
1.129508
1.196861
1.283884
1.424551
1.594424
1.596808
1.837611
2.170801
2.520680
2.767444
4.800558
17.105937
94.359517
232.719779
565.620661
908.646584
1015.774012
1015.774012
1015.774012
1015.774012
1015.774012
1004.358530
667.226911
437.007546
210.710764
108.743906
37.659407
15.515685
7.099509
6.146431
5.809665
5.638599
5.624890
5.518794
5.508661
##ZVALUE=385
0.444651
0.627637
0.472665
0.577569
0.644922
0.608563
0.543594
0.668764
0.649691
0.430942
0.545979
0.577569
0.489950
0.662804
0.470877
0.583529
0.658631
0.598431
0.616908
0.651479
0.590682
0.588894
0.498891
0.737906
0.524521
0.617504
0.446439
0.674725
0.646710
0.509620
0.571609
0.617504
0.673532
0.610948
0.614524
0.757575
0.643730
0.751615
0.774860
0.759959
0.661612
0.648499
0.774860
0.578761
0.629425
0.611544
0.642538
0.819564
0.734925
0.790954
0.739694
0.947714
0.860691
0.871420
0.809431
1.016855
0.900626
0.964999
0.986457
0.975728
1.037717
1.039505
1.065731
1.166463
1.273751
1.325607
1.299977
1.443624
1.652837
1.953840
2.286434
2.219677
2.627969
2.920628
7.728934
28.580427
123.570561
285.180807
661.060810
994.812846
1015.774012
1015.774012
1015.774012
1015.774012
1015.774012
984.245539
587.053895
358.816981
156.095624
74.245930
24.186969
9.540915
5.761981
5.496740
5.314946
5.287528
##ZVALUE=390
0.616908
0.536442
0.498891
0.499487
0.465512
0.638962
0.537634
0.634789
0.607967
0.528693
0.497699
0.642538
0.391603
0.640750
0.572801
0.611544
0.467896
0.503659
0.507832
0.544786
0.639558
0.638962
0.619888
0.493526
0.518560
0.644922
0.628829
0.693798
0.524521
0.623465
0.581741
0.567436
0.548959
0.779629
0.654459
0.674725
0.771880
0.625849
0.687838
0.718832
0.741482
0.735521
0.731945
0.806451
0.768900
0.662804
0.760555
0.709891
0.756979
0.735521
0.795722
0.753999
0.805855
1.046658
0.818968
0.913739
0.945926
0.762939
1.055598
0.965595
1.015663
1.002550
0.952482
0.929832
1.043677
0.916719
1.242757
1.403689
1.518726
1.794696
1.829863
1.839995
2.007484
2.071857
2.182722
2.400875
3.608465
20.406842
67.942739
215.697885
421.284437
834.903717
1015.774012
1015.774012
1015.774012
1015.774012
1015.774012
1015.774012
952.913761
555.639863
305.219889
115.535855
50.041676
14.315844
6.609559
5.392432
##ZVALUE=395
0.585914
0.640750
0.626445
0.724792
0.663996
0.555515
0.545979
0.569820
0.354648
0.616908
0.441670
0.576973
0.536442
0.559688
0.419617
0.665784
0.496507
0.592470
0.449419
0.579953
0.561476
0.499487
0.515580
0.603795
0.633597
0.689626
0.541806
0.475645
0.515580
0.602603
0.552535
0.570416
0.512600
0.698566
0.578761
0.730753
0.645518
0.645518
0.705719
0.647902
0.740886
0.615716
0.832677
0.713468
0.605583
0.689626
0.729561
0.752807
0.716448
0.742674
0.804663
0.728965
0.728965
0.745654
0.769496
0.929832
0.746846
0.796914
0.836849
0.937581
0.906587
0.891685
1.013875
0.953674
1.014471
1.096725
1.191497
1.181960
1.213551
1.547933
1.503825
1.732707
1.835823
1.775622
1.728535
1.869798
2.037883
2.349615
2.744794
13.491511
54.542422
193.101764
363.339782
674.204826
971.288681
1015.774012
1015.774012
1015.774012
1015.774012
1015.774012
1015.774012
762.490630
471.834540
204.175711
93.739629
25.390983
##ZVALUE=400
0.638962
0.627637
0.605583
0.548959
0.535846
0.643730
0.564456
0.535846
0.493526
0.618696
0.648499
0.732541
0.554919
0.540614
0.681877
0.544786
0.638962
0.549555
0.445843
0.564456
0.651479
0.621676
0.605583
0.607967
0.486970
0.757575
0.508428
0.697970
0.541806
0.518560
0.650883
0.635982
0.472665
0.721812
0.629425
0.615716
0.774860
0.577569
0.670552
0.708699
0.756979
0.659823
0.556707
0.728965
0.728965
0.735521
0.668764
0.802875
0.809431
0.808835
0.817776
0.705719
0.695586
0.608563
0.740886
0.822544
0.644922
0.738502
0.942945
0.864863
0.777841
0.915527
0.923872
0.986457
1.005530
0.962615
1.035929
1.072884
1.343489
1.425743
1.515746
1.517534
1.594424
1.454949
1.726747
1.556873
1.595616
1.930594
1.902580
2.093911
2.374649
5.596876
23.170710
107.111931
235.975981
517.968535
807.974935
1015.774012
1015.774012
1015.774012
1015.774012
1015.774012
1015.774012
883.960724
596.367717
298.417807
##END
