##TITLE=DDW1
##FORMAT=SPECTACLE-ASCII V-1.2
##DATA TYPE=ULTRAVIOLET SPECTRUM
##SECOND TYPE=ULTRAVIOLET SPECTRUM
##DATE=01/24/18
##TIME=18:13:11
##SPECTROMETER/DATA SYSTEM=SPECTACLE
##XUNITS=NM EM
##YUNITS=ENERGY
##YFACTOR=1
##FIRSTX=220
##LASTX=410
##NPOINTS=96
##3DDATA=Equidistant
##ZUNITS=NM EX
##FIRSTZ=210
##LASTZ=400
##ZPOINTS=39
##XYDATA=(Y..Y)
##ZVALUE=210
19.496679
18.428564
13.234615
12.897849
10.826588
9.573698
9.094477
7.752776
7.006526
5.941987
4.402995
3.434420
2.801418
3.065467
2.751946
2.719760
3.232956
3.475547
3.367662
3.179908
4.036427
4.735589
4.072785
5.092621
5.212426
5.215406
4.414916
4.992485
5.417466
6.025434
5.474687
6.793737
6.288886
6.991625
6.340742
8.039474
8.041859
7.079840
7.140636
6.833673
7.695556
7.848740
7.320642
7.191896
7.143617
8.537769
7.758737
8.161664
7.973909
8.269548
8.417964
8.826852
9.016991
8.356571
8.576512
9.140968
8.690953
7.779598
7.904768
9.076595
9.607673
8.342862
9.736419
9.142756
8.772612
9.739995
9.849668
9.929538
12.216568
14.264584
17.117858
19.919872
23.270845
25.909543
27.349591
29.391646
30.143857
30.236840
32.585859
30.903816
30.179620
26.621819
26.032925
21.855831
17.129779
13.742447
10.621548
10.381937
9.258986
11.200905
14.907718
21.178722
25.617480
29.585958
38.989782
43.198466
##ZVALUE=215
54.788589
53.177476
42.667985
31.495690
24.076700
18.510818
16.237497
15.282631
15.307665
13.450980
14.224648
9.541512
7.378459
6.141663
3.651977
2.683997
2.835989
3.325939
3.481507
2.722740
3.805757
3.413558
3.967881
4.253983
3.636479
4.687905
4.443526
5.388856
5.023479
5.656481
4.984736
5.803704
5.782843
6.229877
6.292462
5.478859
7.188916
7.241964
6.357431
5.405545
7.716417
7.099509
7.392764
6.800890
6.893873
7.929802
7.504821
8.550882
7.732511
7.607937
7.246733
8.115768
7.633567
8.638501
8.071661
8.043647
6.705523
8.358955
9.198785
8.541942
9.370446
9.188652
9.266734
8.830428
9.484887
8.368492
9.388924
10.119677
11.555552
12.102723
13.428926
16.401410
18.519759
20.674467
21.006465
25.835633
25.549531
26.613474
26.802421
25.390983
25.013685
21.600723
20.775795
16.535521
15.158653
11.917949
11.767745
10.161996
8.182526
7.875562
7.966757
7.189512
8.638501
9.956956
12.301803
18.619895
##ZVALUE=220
131.625533
131.047964
128.924847
117.553473
98.051429
70.211887
53.922534
38.276911
30.422807
25.742650
25.071502
24.563670
22.878647
18.222928
14.773607
11.149645
9.064674
6.563663
4.439950
3.988743
4.548430
4.543662
4.881620
5.258918
5.740523
5.511642
5.446672
6.126761
6.464720
6.556511
6.804466
6.609559
7.191896
6.492734
7.321835
7.885695
7.497668
8.678436
8.344650
9.000897
8.290410
9.846687
9.717941
8.897781
9.682775
9.360909
9.016991
9.102821
9.457469
9.760857
9.938478
9.150505
9.864569
9.477735
9.564757
10.558963
9.863973
10.998845
9.668469
9.831786
9.812713
10.315776
9.191632
10.181665
10.241866
9.718537
12.145638
11.418462
12.638569
13.998747
15.727878
19.916892
21.120906
24.382472
26.837587
30.378699
29.706955
30.863881
31.781793
30.168891
26.320815
24.123788
21.673441
16.307831
15.080571
10.941625
9.951591
8.509755
8.609891
7.957816
8.282661
7.240772
7.748604
6.691813
7.392764
6.577969
##ZVALUE=225
163.009763
170.344710
199.771523
219.410658
217.221975
192.081928
167.027712
119.306445
85.105896
62.358975
44.110417
40.950775
41.356683
40.069818
36.624670
33.006668
26.450753
20.930767
14.315844
10.477901
8.157492
5.772710
5.649924
4.932880
5.057454
4.554987
5.312562
6.955862
5.463958
6.179810
5.971789
7.133484
6.171465
5.942583
6.354451
7.217526
7.846951
8.632541
8.084774
8.849502
8.957982
8.211732
8.311868
8.497834
8.059740
7.756948
8.509755
8.190870
8.220673
8.922815
7.991791
8.678436
7.860661
8.801818
8.436441
8.930564
8.677840
8.749962
8.553863
8.715987
8.271933
8.529425
8.830428
8.769631
9.499788
9.825826
9.367466
10.136962
11.129975
11.673570
12.916923
12.939572
16.389489
16.174912
17.614961
17.156601
16.864538
16.799569
15.836954
16.031861
14.198422
13.350844
12.375712
11.042953
9.362698
8.418560
7.984638
7.610917
6.993413
6.778836
7.914901
7.322431
6.553531
6.430745
6.333590
7.083416
##ZVALUE=230
120.720863
133.373737
192.405581
271.846652
325.492620
355.635881
362.806916
313.704610
263.067484
197.470784
128.318667
91.756582
65.229535
57.719946
58.447719
61.606765
62.594414
59.136748
51.423907
40.370822
29.389858
19.226670
14.687777
9.769797
6.745458
6.309748
6.133914
5.968809
7.526875
6.331801
7.534623
7.470846
6.520748
6.361604
7.161498
7.977486
7.395744
7.401705
8.569956
8.512735
8.828640
7.629991
7.982850
8.331537
8.179545
9.245872
9.852648
8.877516
9.086728
9.581447
8.902550
10.112524
8.759499
9.001493
9.827614
9.505749
8.670688
9.655952
9.849668
9.100437
9.056926
9.466410
9.534955
10.431409
8.863807
9.905696
9.501576
11.290908
12.131929
12.107491
13.947487
13.949871
15.584826
16.339421
18.619895
18.946528
19.459724
17.942786
18.943548
17.187595
16.223788
14.643669
13.279915
12.001991
10.221601
9.422898
8.035898
8.781552
8.387566
7.566810
6.812811
8.557439
7.739663
7.634759
7.698536
8.549690
##ZVALUE=235
29.150844
35.190582
71.569681
161.973834
248.737931
367.896557
473.777652
577.188730
601.159930
558.316708
464.147925
333.555937
233.067870
143.950582
104.149580
84.285736
80.837607
87.545514
91.944933
90.453625
81.054568
72.362423
50.402880
38.182735
26.307702
16.736984
12.233853
10.408759
9.133816
8.574724
9.826422
9.658933
9.345412
10.493994
9.706616
10.078549
9.304881
10.886788
10.142922
10.305643
10.087490
10.385513
9.869933
10.384917
10.175705
10.939837
10.259748
11.294484
10.331869
10.187626
10.964870
10.026693
10.573864
10.006428
10.256767
10.208488
10.334849
10.516644
10.693669
10.530949
11.405945
11.541843
10.857582
11.628866
10.874867
12.270808
13.757944
13.393760
14.198422
16.441941
18.748641
18.818974
21.604896
21.534562
24.457574
24.642944
23.703575
24.605989
24.604797
23.599863
20.800829
18.992424
17.518997
16.458631
13.071895
13.455749
12.677908
11.778474
11.990666
11.428595
10.756850
10.221601
11.944771
9.935498
10.425448
10.695457
##ZVALUE=240
2.514720
2.922416
11.830926
40.871501
97.115636
228.156447
372.692943
605.772734
805.886984
960.780978
1015.584469
1015.585065
873.727798
704.131722
471.486449
314.711928
171.389580
124.221444
103.008747
106.577873
116.894841
127.849579
123.414993
108.961463
91.048479
66.409707
51.742792
36.966801
28.024912
19.603968
15.442967
13.650656
13.853908
13.665557
13.756752
12.360811
12.881756
11.779666
12.066960
10.076761
11.030436
11.862516
11.891723
11.539459
11.077523
10.592937
10.272861
10.977983
11.955500
9.931922
10.500550
10.704994
11.115670
11.222959
10.629892
11.567473
11.791587
11.390448
11.335611
11.140704
11.090636
10.822415
10.095835
11.193752
11.503696
12.175441
11.790991
12.497902
13.952851
15.245676
15.590787
17.290711
19.310713
21.224618
23.088455
22.248626
21.860600
21.492839
21.688938
20.269752
18.940568
18.402934
15.970469
14.926791
13.290644
11.996627
12.071729
11.520982
12.236834
11.012554
9.839535
12.017488
11.322498
9.600520
10.337830
9.709597
##ZVALUE=245
1.927614
1.630783
1.647472
2.255440
5.130768
13.952851
50.227642
117.166042
288.651586
452.378392
727.631450
915.746689
1015.584469
1015.584469
994.665623
794.622898
613.530874
387.031436
256.373882
147.301555
110.232830
105.186701
117.860436
130.561590
135.932565
133.051872
121.430755
102.926493
78.753829
58.860779
43.747425
27.999878
21.881461
16.453862
13.307929
11.602640
12.629628
11.828542
9.814501
10.837913
10.102987
9.565949
9.066463
9.084940
9.812713
9.033680
9.494424
9.358525
8.830428
9.163618
9.048581
8.305907
9.387732
8.952618
8.113980
8.181930
9.007454
8.683801
9.310842
9.463429
9.841919
8.276701
9.107590
8.464456
8.579493
9.220839
9.679794
9.180903
10.893941
11.003613
11.992455
13.427734
14.001727
16.113520
15.727878
16.639829
16.264915
16.489625
16.296506
14.405847
13.920665
12.288690
12.400746
12.662411
11.413693
10.872483
10.110736
9.784698
10.109544
10.097623
9.209514
8.888841
9.129643
8.673668
8.099675
8.901954
##ZVALUE=250
1.135468
1.394749
1.273751
1.366735
1.444817
1.784563
2.699494
8.364916
30.228496
67.629814
175.734758
305.023789
475.341678
712.592006
873.734951
990.604758
979.550481
867.290497
726.176500
486.551523
319.149494
199.598670
115.392804
98.526478
112.670660
128.421783
141.026974
144.477487
139.761567
127.432942
112.067461
83.621740
65.177679
40.833950
27.691722
17.444491
13.300776
12.098551
10.802746
9.650588
9.235740
9.181499
9.139776
9.494424
8.190870
7.395744
7.777810
7.858872
7.691979
7.734895
7.203817
7.495880
7.715821
7.075667
7.718801
7.772446
7.124543
7.394552
7.208586
7.279515
7.341504
8.004904
7.575750
7.573962
7.788539
7.954836
8.206964
8.053780
9.189844
9.763837
10.068417
11.649728
11.871457
12.440681
12.606978
13.011694
13.357997
12.225509
11.450648
11.529922
11.074543
10.600686
9.986758
9.129643
9.067655
8.540750
7.748604
8.035898
8.094907
8.067489
7.898808
6.670952
6.490946
6.676912
6.756783
6.602407
##ZVALUE=255
0.776649
0.976920
1.286864
0.988841
1.153946
1.197457
1.358986
1.687407
1.849532
3.624558
18.565655
45.559406
93.138814
221.689939
362.821817
575.463772
736.517906
877.454877
915.482640
846.113563
721.681714
570.192933
356.351733
226.902962
126.429796
96.067786
91.955662
104.918480
130.503774
142.822862
150.632858
144.859552
135.437846
108.316541
88.087916
56.313872
39.121509
24.314523
15.729666
10.519624
8.373857
7.517934
7.193685
7.318854
6.029606
6.461740
7.481575
6.320477
7.125735
6.933808
6.485581
6.958842
6.363988
6.861687
6.889701
6.490946
6.575584
6.698966
7.126927
6.774664
6.671548
6.903410
6.135702
6.403923
7.204413
6.509423
7.307529
6.926656
7.503629
8.150935
8.368492
8.713603
9.187460
8.600950
10.706782
9.804964
10.052919
8.864999
8.399487
8.166432
7.832646
7.779598
7.703900
6.468892
6.700754
6.387830
5.632639
5.755424
5.625486
5.707741
5.246997
5.732775
5.537868
4.979968
5.186796
5.200505
##ZVALUE=260
1.028776
0.805855
0.971556
1.022816
0.964999
1.033545
1.286864
1.274943
1.351833
1.444817
1.656413
2.582669
7.276535
29.292703
64.767599
160.916448
274.718404
468.129516
623.052716
829.137564
917.003751
914.341807
798.772573
655.066967
429.914594
294.638872
170.128942
112.356544
81.794858
87.375641
106.692910
126.434565
145.179629
151.580572
148.515701
131.473541
111.332536
80.266595
60.125589
37.175417
24.704933
13.605952
9.189844
6.960630
6.956458
6.839633
6.992817
6.418824
6.185770
6.735921
6.894469
6.706715
5.997419
6.123781
6.834865
6.521940
6.524920
6.466508
6.794930
6.243587
6.693602
6.736517
6.872416
6.413460
6.103516
6.681681
6.358624
6.247759
6.867647
7.137656
7.922649
7.011890
7.305741
8.398890
7.826686
8.589625
7.695556
7.589459
7.103682
6.998777
6.241798
5.963445
5.607605
5.085468
5.303621
4.803538
5.110502
5.034804
4.557967
4.522800
4.367828
4.068613
4.557967
4.709959
4.245639
3.880858
##ZVALUE=265
0.936985
0.984669
0.857711
0.969768
0.849962
0.851750
0.856519
1.041889
1.082420
1.160502
1.252890
1.331568
1.501441
1.913905
3.938675
19.536614
46.806931
121.865869
226.149559
471.096635
696.994662
922.103524
1015.587449
1015.587449
1015.587449
939.552784
671.796799
458.830595
241.132975
145.625472
93.845725
71.119666
82.411766
111.013651
132.771730
153.011680
154.716969
150.011778
133.748651
107.555985
84.088445
56.863427
38.231611
22.709966
14.116764
8.928776
7.393956
7.439852
7.089972
7.353425
6.801486
6.907582
6.822944
7.207990
6.703734
6.880760
6.988645
6.502867
6.643534
6.665587
6.683469
6.918907
7.126927
6.756783
6.814599
6.594658
6.704926
6.781816
7.415414
7.470846
8.065701
7.605553
7.744431
7.987618
8.062720
7.839799
7.245541
7.137656
6.793737
6.122589
5.854964
5.846620
5.609989
5.135536
5.231500
4.519820
4.848838
5.166531
4.766583
4.550815
4.318953
3.850460
4.087687
4.157424
4.028678
4.083514
##ZVALUE=270
0.995994
0.855923
0.895858
1.114607
0.828505
0.763535
0.666976
1.122952
0.975728
0.892878
1.228452
1.304746
1.413822
1.550913
1.596808
2.067685
2.200603
9.173751
26.745796
85.972548
179.243684
367.365479
741.671920
1003.344655
1015.584469
1015.584469
1015.584469
1015.584469
949.241519
679.299831
441.590548
218.458772
120.728612
65.123439
62.568784
85.065961
107.511878
135.008693
147.988796
155.644417
152.176619
133.162737
112.239718
81.833601
61.514974
35.687685
24.155974
15.351772
10.744929
7.817745
7.420778
7.166862
7.311702
7.179976
7.323623
6.948709
7.072687
6.760955
7.165670
7.220507
7.232428
6.769896
7.089972
7.167459
7.055998
6.553531
7.641912
7.377863
6.866455
7.230639
7.580519
7.720590
8.187890
8.158684
8.451939
7.585883
7.084608
6.861687
6.589890
6.503463
5.894899
5.437732
4.891753
5.044937
4.899502
5.050898
4.864931
4.634857
4.606843
4.308820
4.131794
4.064441
3.711581
3.863573
3.469586
3.582835
##ZVALUE=275
0.662804
0.625849
0.967979
0.850558
0.828505
0.883937
0.761747
0.613928
0.876784
0.888705
0.866652
1.051426
0.989437
1.153946
1.214743
1.450777
1.221895
1.525879
1.795888
4.302859
15.468597
44.000745
134.074688
261.561871
513.558984
720.073581
976.392031
1015.584469
1015.584469
1015.584469
1015.584469
781.438947
554.992557
283.050537
161.232948
73.300600
53.303838
61.014891
81.580877
109.749436
131.222606
151.583552
156.902671
149.213672
134.333968
104.365945
82.856417
57.234764
40.813684
23.895502
15.615821
10.237694
8.139610
7.215738
6.812811
7.139444
6.919503
7.189512
6.954670
7.358789
6.724000
7.001758
6.390810
6.821752
6.701946
6.647706
7.023811
6.537437
7.179976
7.244945
7.187724
7.225871
7.496476
7.607937
7.237792
7.633567
6.902814
6.664991
6.447434
6.171465
5.626678
5.333424
5.211830
4.549623
4.681945
4.337430
4.304647
4.344583
4.399419
4.086494
4.042983
3.836751
3.678799
3.537536
3.441572
3.498793
##ZVALUE=280
0.488758
0.629425
0.710487
0.573993
0.624657
0.602603
0.623465
0.746846
0.588894
0.712872
0.710487
0.776649
0.948906
0.771880
1.048446
0.997782
1.001954
1.015663
1.006722
1.144409
1.541972
1.719594
9.315610
32.040477
99.660754
188.620687
353.607535
531.531572
769.909620
912.998915
1008.676887
1014.461517
940.489769
724.151731
541.343689
313.135982
188.009739
86.528659
50.730705
42.448640
54.869652
80.823898
104.026794
130.616426
142.060518
149.952769
144.538879
129.115582
110.764503
81.317425
60.010552
37.504435
24.774671
14.706850
9.785891
7.756948
6.618500
6.644726
5.986691
6.455779
6.243587
6.409883
6.258488
6.297827
6.431937
6.423593
6.298423
6.505847
6.406903
6.014705
6.466508
6.421804
6.733537
6.540418
6.109476
6.253719
5.867481
5.905628
5.642772
5.267859
5.135536
5.003810
4.789829
4.541874
4.178882
4.243851
4.384518
4.102588
4.051924
3.981590
3.663898
3.831983
3.538728
3.314614
3.367662
3.131628
##ZVALUE=285
0.535846
0.711679
0.567436
0.378489
0.614524
0.522733
0.577569
0.561476
0.822544
0.747442
0.696778
0.502467
0.496507
0.893474
0.670552
0.956655
0.959635
0.838637
0.967979
1.013875
0.991821
1.250505
1.442432
1.426935
4.684925
15.818477
55.693984
115.292668
252.985954
410.594940
586.727858
830.403566
973.146558
1015.579700
1005.007029
833.824873
658.949614
411.710739
261.400938
125.777721
65.183640
34.003854
34.589767
52.634478
72.495937
102.627873
121.280551
139.126778
145.573616
141.113997
129.120946
105.058551
84.389448
57.971478
39.997697
23.378730
14.672875
9.542704
7.362962
6.010532
6.106496
5.981922
5.674958
5.481839
5.812645
6.324649
5.589724
5.943775
5.878806
5.907416
6.281734
5.799532
6.265640
6.157756
5.763769
5.482435
5.569458
5.388856
5.061626
4.818439
4.519820
4.483461
4.229546
4.104972
4.220605
3.597736
3.835559
3.598928
3.661513
3.447533
3.405809
3.615618
3.245473
3.295541
2.972484
3.087521
##ZVALUE=290
0.614524
0.557899
0.416636
0.467896
0.514984
0.547767
0.546575
0.628829
0.491738
0.668764
0.605583
0.649691
0.439882
0.707507
0.720620
0.621676
0.539422
0.755787
0.814795
0.815988
0.977516
0.638962
1.136661
1.135468
1.398921
1.491904
2.346635
5.972981
29.805899
73.569417
148.134828
313.706994
491.392016
752.074718
923.385024
1015.568972
1015.568972
927.631855
765.043497
520.454645
346.365571
174.019933
90.559721
38.083792
24.836659
33.551455
47.049522
69.215894
90.630651
116.934776
131.403804
141.309500
137.108564
124.206543
106.699467
78.675747
57.941675
37.525892
24.357438
14.261603
9.446740
6.212592
5.667806
5.356669
5.197525
4.795790
5.171895
4.987717
4.942417
4.856586
5.295873
5.176663
4.976988
5.059838
5.104542
4.965663
4.741549
4.790425
4.920959
4.170537
3.976822
4.120469
4.047751
3.840923
3.571510
3.654957
3.395677
3.442764
3.401637
3.090501
3.223419
3.171563
3.007650
3.033876
2.919436
2.988577
##ZVALUE=295
0.364780
0.441670
0.589490
0.286698
0.537634
0.450611
0.590682
0.555515
0.429749
0.421405
0.508428
0.435710
0.356436
0.623465
0.618696
0.860691
0.677705
0.724792
0.721812
0.721812
0.632405
0.857711
0.699759
0.853539
0.990629
1.099706
1.248717
1.308918
1.668930
2.746582
10.579824
45.808554
104.478002
250.175595
409.265757
662.788749
841.439962
1003.794670
1015.586853
984.421968
854.219794
617.362857
431.920886
233.776569
127.385855
47.821999
24.887919
20.082593
27.487874
45.536757
61.881542
88.274479
106.748939
127.588511
134.133697
131.283998
118.672848
97.483993
78.535676
53.881407
37.972927
22.565722
13.965964
8.041859
6.189942
4.778504
4.229546
4.259944
4.224777
4.338622
4.099607
4.306436
4.744530
4.438758
4.321933
4.418492
4.285574
4.207492
3.568530
3.727674
3.206730
3.577471
3.241897
3.129840
3.251433
3.391504
3.195405
2.972484
3.211498
2.920628
3.199577
2.674460
2.757907
2.821684
2.612472
2.503991
##ZVALUE=300
0.535846
0.430942
0.412464
0.571609
0.351667
0.627637
0.425577
0.457764
0.524521
0.434518
0.516772
0.501871
0.505447
0.641942
0.578761
0.536442
0.769496
0.629425
0.593662
0.575781
0.693798
0.731945
0.666976
0.832677
0.822544
0.919700
1.024604
1.108646
1.091957
1.336932
1.271963
1.557469
6.528497
23.327470
81.486702
160.533786
334.861875
514.715910
764.663815
923.028588
1015.584469
1015.584469
919.584632
757.204890
508.509874
333.741903
168.057680
90.995431
34.321547
17.587543
17.058849
24.530888
40.093660
56.452751
81.368685
100.421906
118.304491
126.417875
123.617649
116.807818
96.938610
78.561902
54.492950
38.560629
21.770597
14.135838
8.178949
5.779862
4.135966
4.040599
3.926754
3.788471
3.775954
4.084706
3.771782
3.912449
3.705621
3.508925
3.470778
3.520846
3.432631
3.073812
3.133416
2.924800
3.004670
3.168583
2.841949
3.121495
2.866983
2.516508
2.673864
2.644658
3.024936
2.489686
2.432466
2.785921
##ZVALUE=305
0.428557
0.324845
0.477433
0.408888
0.282526
0.310540
0.442863
0.367761
0.655651
0.423789
0.475645
0.476837
0.509620
0.398755
0.502467
0.518560
0.463724
0.511408
0.651479
0.498891
0.630617
0.648499
0.562668
0.662804
0.624657
0.818968
0.872612
0.888705
0.951886
1.096725
0.952482
1.328588
1.495481
1.591444
2.704859
16.259551
45.680404
130.235553
239.455700
449.628830
635.450482
866.044760
994.716883
1015.584469
983.464718
787.202716
618.161559
398.777723
248.869658
114.046931
56.264997
19.623637
12.448430
16.066432
23.466945
38.770437
54.787993
78.103542
95.961690
111.931562
117.686987
118.748546
108.876824
90.758801
74.069500
51.169991
35.436749
20.332932
12.970567
7.666945
5.148649
3.748536
3.726482
3.566742
3.451705
3.214478
3.301501
3.115535
3.100634
3.103614
2.874732
2.945662
2.948642
2.926588
2.857447
2.794862
2.798438
2.756715
2.646446
2.742410
2.745986
2.574921
2.497435
2.586842
2.466440
2.495646
##ZVALUE=310
0.411868
0.352859
0.313520
0.410676
0.416636
0.466704
0.458956
0.390410
0.395775
0.419617
0.415444
0.410676
0.528693
0.467896
0.347495
0.537634
0.575781
0.437498
0.373721
0.484586
0.419617
0.647902
0.369549
0.585914
0.544786
0.858903
0.717640
0.772476
0.810623
0.811815
0.996590
0.981688
1.120567
0.996590
1.241565
1.314878
1.780987
5.350709
28.651953
68.914890
173.511505
299.368501
529.370904
714.879632
928.195715
1015.584469
1013.653874
926.953554
723.015666
537.531972
314.086676
190.230608
82.005858
37.189722
13.679862
10.086894
14.310479
20.297766
33.059716
46.442747
67.715645
84.295869
103.830695
110.391974
111.855865
104.674697
88.056922
71.332455
48.811436
34.550428
20.135641
13.200641
7.871985
5.341768
3.794432
3.598928
3.076792
3.110766
2.860427
2.526641
2.517700
2.641678
2.508759
2.479553
2.854466
2.673864
2.634525
2.610683
2.705455
2.766848
2.728701
2.661943
2.477765
2.499819
2.457500
2.459884
##ZVALUE=315
0.433922
0.384450
0.383854
0.311732
0.241995
0.364780
0.480413
0.369549
0.446439
0.372529
0.405908
0.457764
0.416636
0.405908
0.432730
0.561476
0.307560
0.485778
0.456572
0.461936
0.584722
0.630617
0.657439
0.479817
0.523925
0.606775
0.526905
0.750422
0.523925
0.708699
0.762939
0.807643
0.829697
0.766516
0.933409
1.080632
1.187921
1.145601
1.491904
3.142953
11.906624
49.514771
109.814405
251.712799
410.872698
666.579604
830.745697
984.772444
1015.601754
958.216786
828.683972
603.482723
428.354740
230.204463
126.413703
48.013926
20.532608
8.939505
9.090900
12.102723
18.060803
31.577945
44.114590
63.622594
79.895854
97.105503
105.006695
105.870962
99.297762
82.231760
67.698956
49.237609
35.075545
19.405484
13.027787
6.791949
4.746914
3.291965
3.038645
2.793670
2.556443
2.528429
2.731681
2.595782
2.603531
2.617836
2.502799
2.625585
2.549887
2.676845
2.446771
2.575517
2.555847
2.570748
2.196431
2.326965
##ZVALUE=320
0.371933
0.352859
0.241995
0.240803
0.416636
0.377893
0.298619
0.460744
0.299811
0.439882
0.367761
0.479817
0.476837
0.380874
0.330806
0.366569
0.429749
0.390410
0.380874
0.445843
0.551939
0.381470
0.562668
0.551939
0.637770
0.468493
0.607967
0.483990
0.625849
0.633597
0.440478
0.719428
0.701547
0.773668
0.815988
0.959635
1.013875
1.003742
1.072884
1.333952
1.293421
1.884699
5.299449
28.280616
72.461963
187.948942
313.898921
524.232984
703.351498
909.891725
1002.757549
999.658704
904.330015
695.572495
514.405966
289.128423
168.821812
73.486567
33.478737
11.143684
7.593632
8.047819
10.580420
16.744733
25.745630
41.274428
55.846572
75.020790
87.265968
97.321868
99.775791
92.488527
81.399679
61.818957
47.915578
29.714704
20.160675
11.427999
7.232428
4.354715
3.348589
2.845526
2.590418
2.381802
2.304912
2.478957
2.241731
2.546906
2.316833
2.397895
2.311468
2.368689
2.425909
2.365708
2.263784
2.407432
##ZVALUE=325
0.484586
0.423789
0.275970
0.489950
0.387430
0.483990
0.559688
0.479817
0.721812
0.459552
0.469685
0.557899
0.570416
0.457764
0.623465
0.430942
0.514984
0.527501
0.559688
0.381470
0.481606
0.679493
0.478625
0.672936
0.592470
0.595450
0.749826
0.514984
0.736713
0.738502
0.700951
0.646710
0.717640
0.749826
0.677705
0.787973
0.838637
0.929832
1.033545
1.034737
0.987649
1.208782
1.402497
1.610518
3.056526
17.362833
47.741532
131.030679
233.099461
430.626869
604.524612
824.720860
948.261023
1002.195477
941.012502
748.654008
572.280884
351.344943
217.966437
97.804666
46.135783
14.524460
7.526875
6.666780
7.236600
10.312796
15.177727
26.641488
37.993789
55.996776
69.477558
85.121989
91.106892
92.902780
87.026954
71.864724
59.548616
41.830540
29.365420
17.727613
11.206865
6.036758
4.394650
3.259778
2.849698
2.679825
2.401471
2.317429
2.248883
2.405643
2.293587
2.138615
2.309680
2.305508
2.274513
2.110600
##ZVALUE=330
0.211596
0.132918
0.175834
0.351667
0.175834
0.418425
0.233650
0.250936
0.378489
0.283718
0.262856
0.348687
0.323653
0.168681
0.271797
0.379682
0.223517
0.413656
0.374913
0.467896
0.499487
0.432730
0.349879
0.352859
0.502467
0.421405
0.477433
0.481606
0.380874
0.516772
0.590682
0.548959
0.439882
0.515580
0.519753
0.517964
0.653863
0.578761
0.738502
0.600815
0.731945
0.809431
0.965595
0.972748
1.090765
1.491904
1.637936
7.555485
24.889708
84.964633
164.687634
334.064960
498.898625
732.689500
883.242488
978.503823
957.013965
813.914537
654.417872
426.388979
275.691748
130.062699
66.342950
23.962855
9.966493
6.088614
5.767941
6.670952
9.001493
15.256405
23.122430
36.635995
49.488544
67.424774
78.147650
85.970759
87.285638
80.536604
69.435835
53.420663
40.566921
25.358796
17.466545
10.708570
7.087588
4.597902
3.282428
2.558827
2.551675
2.321601
2.231598
2.161860
2.250671
2.270937
1.936555
1.903772
##ZVALUE=335
0.337958
0.220537
0.294447
0.416636
0.335574
0.447631
0.507832
0.367761
0.255704
0.189543
0.336766
0.328422
0.342727
0.379682
0.257492
0.356436
0.335574
0.531673
0.398755
0.387430
0.347495
0.226498
0.436902
0.415444
0.210404
0.440478
0.385642
0.504851
0.363588
0.429749
0.595450
0.605583
0.578761
0.370741
0.464916
0.457764
0.644922
0.618696
0.636578
0.765920
0.744462
0.762939
0.834465
0.712872
0.911951
1.046658
1.159906
1.257658
1.298785
3.751516
12.828708
51.729679
111.085773
248.250961
402.270555
643.482804
800.978541
934.816599
957.061648
862.870812
727.881789
504.476428
343.144536
179.715753
93.705654
32.038689
13.378859
6.492734
5.496740
5.206466
6.060600
9.166598
13.003945
22.716522
32.860637
48.929453
60.613751
73.372722
80.116987
80.293417
74.423552
62.274933
52.046776
38.517714
28.109550
17.922521
11.744499
6.528497
4.485846
3.307462
2.567768
2.227426
2.312660
1.937747
1.982450
2.047420
##ZVALUE=340
0.165701
0.261664
0.328422
0.212789
0.341535
0.365973
0.297427
0.234842
0.302792
0.339746
0.253916
0.335574
0.285506
0.131726
0.223517
0.391603
0.296831
0.386834
0.268817
0.446439
0.311732
0.296831
0.375509
0.450611
0.348687
0.308752
0.272989
0.456572
0.470877
0.476837
0.455976
0.351667
0.428557
0.461936
0.324845
0.493526
0.414848
0.496507
0.562668
0.551939
0.543594
0.551939
0.708699
0.590682
0.676513
0.733733
0.950694
0.971556
0.891685
0.944734
1.289845
1.445413
7.972717
26.624799
85.376501
170.217752
352.907777
511.766672
721.665621
851.750970
934.884548
914.338827
761.032701
610.390902
391.327739
245.459676
111.133456
53.642988
15.953779
7.330775
5.680919
5.126595
5.202889
5.717874
8.477569
12.673736
21.569729
31.275749
46.133995
57.177544
69.256425
74.095726
75.224638
71.099997
60.801506
51.354766
36.717653
27.143955
17.147660
10.947585
6.472468
4.427433
3.056526
2.597570
2.258420
2.031922
##ZVALUE=345
0.208616
0.220537
0.339746
0.170469
0.199676
0.286698
0.265837
0.255704
-0.011921
0.169873
0.234842
0.284910
0.246763
0.334978
0.359416
0.336766
0.351667
0.314713
0.245571
0.217557
0.315905
0.270605
0.389814
0.249743
0.327826
0.344515
0.236630
0.363588
0.283718
0.512600
0.355840
0.328422
0.344515
0.319481
0.549555
0.495911
0.317693
0.419617
0.334978
0.461936
0.497699
0.721812
0.590682
0.624657
0.595450
0.643730
0.629425
0.683665
0.714660
0.766516
0.936985
1.013875
1.148582
1.354814
3.298521
13.064742
56.843758
116.654634
246.660709
386.899710
606.373549
756.602883
889.822841
911.122561
816.679597
680.608749
468.340516
308.199525
142.484903
70.649981
23.086667
10.222793
5.678535
5.248785
4.467964
4.475713
5.342960
6.893873
11.685491
17.913580
29.360652
39.403439
51.688552
60.548782
68.180561
69.594979
65.543652
58.781505
46.985745
37.904978
25.812984
18.362999
10.698438
6.814599
4.003644
3.017783
##ZVALUE=350
0.324845
0.186563
0.190735
0.086427
0.260472
0.332594
0.235438
0.224710
0.124574
0.298619
0.245571
0.251532
0.140667
0.192523
0.225902
0.179410
0.107884
0.331998
0.320673
0.360608
0.261664
0.273585
0.267625
0.282526
0.250936
0.414848
0.270605
0.329614
0.288486
0.211596
0.427961
0.350475
0.294447
0.324845
0.467896
0.492930
0.374913
0.461936
0.461936
0.587702
0.198483
0.469685
0.462532
0.590682
0.475645
0.567436
0.503659
0.637770
0.632405
0.653863
0.719428
0.814795
0.656843
0.787973
1.093745
1.069903
1.874566
6.793737
31.576753
74.362755
180.814862
301.171541
505.818725
661.037564
827.233791
881.562829
837.592483
723.185539
508.587956
343.692899
174.758434
97.113848
37.231445
15.030503
5.940795
4.942417
4.448891
4.199743
4.289746
4.874468
7.111430
10.243654
17.005801
24.082661
35.444498
43.959618
54.561496
60.180426
63.692927
60.705543
53.971410
46.086907
34.281611
26.090741
16.463995
11.463761
##ZVALUE=355
0.278950
0.223517
0.286698
0.369549
0.232458
0.274777
0.286698
0.300407
0.318885
0.273585
0.302792
0.224710
0.282526
0.212789
0.259876
0.223517
0.182986
0.138879
0.308752
0.265837
0.378489
0.515580
0.392795
0.310540
0.428557
0.416636
0.351667
0.322461
0.240803
0.390410
0.360608
0.391603
0.284910
0.286698
0.410676
0.536442
0.386834
0.327826
0.393987
0.533462
0.431538
0.376701
0.458956
0.327826
0.563860
0.471473
0.473857
0.618696
0.546575
0.557899
0.709891
0.684857
0.656843
0.696778
0.979900
0.918508
0.966787
1.142621
1.276731
4.137754
14.364719
56.860447
117.587447
248.591900
392.980576
609.228015
747.065544
854.444504
859.668851
742.177963
600.273609
392.013788
243.263841
108.774900
53.333640
18.490553
7.817745
4.791617
4.287958
4.099607
3.667474
3.801584
4.253983
5.992651
8.397698
14.108419
20.068884
30.510426
38.555861
47.722459
54.106712
57.070851
55.102706
49.523711
43.126941
33.112764
##ZVALUE=360
0.150800
0.251532
0.349879
0.409484
0.275970
0.304580
0.125766
0.323653
0.215769
0.307560
0.268817
0.129938
0.255704
0.364780
0.225902
0.228882
0.326633
0.227690
0.281930
0.263453
0.413656
0.313520
0.354648
0.295639
0.482798
0.478625
0.209808
0.384450
0.423789
0.309944
0.216961
0.348687
0.279546
0.251532
0.429749
0.508428
0.512600
0.544786
0.329614
0.262856
0.402927
0.472665
0.363588
0.410676
0.399947
0.462532
0.602603
0.433922
0.530481
0.593662
0.588894
0.564456
0.470877
0.651479
0.732541
0.778437
0.792742
0.999570
0.792742
1.091957
1.300573
1.940727
6.354451
29.599667
72.370768
180.041790
300.478935
489.857793
646.302700
797.964931
834.226012
777.949691
664.637685
457.559824
308.794975
153.237581
80.585480
29.557943
11.606812
5.034804
4.293919
3.995895
3.622770
3.588796
3.553629
3.436804
4.472733
7.148981
10.569692
17.229915
24.008751
34.116507
40.581822
47.895908
50.949454
51.466823
##ZVALUE=365
0.317693
0.253916
0.269413
0.283718
0.352859
0.365973
0.293851
0.436902
0.406504
0.334978
0.343919
0.260472
0.324845
0.284910
0.282526
0.291467
0.343919
0.329614
0.260472
0.445843
0.437498
0.426769
0.356436
0.208616
0.429749
0.354648
0.465512
0.351667
0.366569
0.409484
0.443459
0.482798
0.314713
0.404716
0.442863
0.574589
0.445843
0.414848
0.383854
0.502467
0.458956
0.464916
0.476837
0.562668
0.493526
0.564456
0.535846
0.630617
0.695586
0.580549
0.633597
0.700951
0.653863
0.781417
0.634789
0.709891
0.840425
0.844598
0.983477
0.954866
0.918508
1.268983
1.428723
1.363754
2.760887
16.815662
44.266582
118.616819
218.992829
408.193469
556.252003
718.676448
798.285007
790.138841
697.602630
514.809489
369.267464
205.380917
113.302469
40.667653
16.710758
5.382895
4.152656
3.967881
3.764629
3.464818
3.156662
3.135800
3.039837
3.926754
5.405545
9.075999
13.536811
21.395683
28.040409
36.433935
##ZVALUE=370
0.264645
0.126958
0.309944
0.216961
0.284910
0.255704
0.143647
0.366569
0.050664
0.212789
0.289679
0.177622
0.261664
0.260472
0.278950
0.321865
0.319481
0.162721
0.384450
0.230670
0.190735
0.308752
0.242591
0.110865
0.343919
0.336766
0.203848
0.330806
0.309944
0.338554
0.463724
0.393987
0.314713
0.347495
0.249743
0.325441
0.309944
0.331998
0.278950
0.228882
0.369549
0.418425
0.406504
0.450611
0.487566
0.544786
0.521541
0.526905
0.575781
0.438690
0.556707
0.603795
0.464916
0.416636
0.485778
0.656843
0.647902
0.748634
0.555515
0.840425
0.725985
0.759959
0.848770
0.924468
1.062751
1.202822
1.662970
7.990599
27.131438
88.661909
167.521834
321.954489
472.621918
666.592717
767.346621
794.580579
730.873942
580.478907
430.466533
244.922638
138.600469
55.576563
25.597811
9.105802
4.785657
3.638864
3.488660
3.149509
2.816916
2.680421
2.550483
2.909899
3.116727
4.765987
7.233620
11.958480
##ZVALUE=375
-0.008941
0.060797
0.080466
0.157952
0.255704
0.092983
0.091791
0.133514
-0.056624
0.072718
0.082850
0.160933
0.263453
0.123978
0.235438
0.098944
-0.023842
0.042915
0.149608
0.130534
0.008941
0.129938
0.084639
0.046492
0.208616
0.230670
0.047684
0.218749
0.119805
0.223517
0.172853
0.190735
0.063777
0.109673
0.145435
0.269413
0.090599
0.143647
0.275970
0.107884
0.096560
0.103712
0.365973
0.295639
0.087619
0.368953
0.128746
0.328422
0.076890
0.318885
0.399947
0.424981
0.371933
0.525713
0.292659
0.412464
0.253916
0.461936
0.349879
0.317693
0.351667
0.547767
0.553727
0.528693
0.625849
0.757575
0.783801
0.890493
1.362562
3.411770
18.854737
48.785806
126.726627
228.527784
412.621498
556.978583
717.221498
785.432458
762.630701
661.816001
477.329493
337.283611
190.711617
108.215809
42.643547
17.877817
5.633831
3.705621
3.031492
3.034472
2.792478
2.586842
2.486706
2.115965
2.245903
2.655983
##ZVALUE=380
0.311732
0.180602
0.199676
0.183582
0.155568
0.169873
0.417829
0.339746
0.247955
0.184774
0.179410
0.196695
0.172853
0.185966
0.223517
0.231862
0.133514
0.174642
0.322461
0.196695
0.392795
0.211596
0.124574
0.182986
0.194907
0.262856
0.206828
0.279546
0.168681
0.103712
0.157952
0.295639
0.313520
0.334978
0.365973
0.257492
0.309944
0.229478
0.269413
0.145435
0.433922
0.283718
0.248551
0.359416
0.414848
0.410676
0.534654
0.406504
0.297427
0.282526
0.392795
0.391603
0.384450
0.325441
0.314713
0.262856
0.468493
0.419617
0.523925
0.582933
0.503659
0.418425
0.573993
0.599623
0.661612
0.673532
0.700951
0.697970
0.978708
1.111627
1.297593
2.071857
7.647872
37.033558
85.709691
202.956796
330.780745
523.631573
661.872029
781.978965
785.614848
683.654547
562.624931
393.822789
266.629457
132.601857
68.068504
23.571849
9.423494
4.017949
3.175735
2.993941
2.659559
2.656579
2.537966
2.448559
##ZVALUE=385
0.047684
0.191927
0.346899
0.329614
0.216961
0.177622
0.142455
0.276566
0.298619
0.160933
0.268817
0.252724
0.202656
0.137687
0.161529
0.123978
0.223517
0.233650
0.202656
0.220537
0.205636
0.249743
0.229478
0.225902
0.225902
0.154972
0.251532
0.042915
0.238419
0.230670
0.168681
0.153780
0.281930
0.331998
0.243783
0.437498
0.356436
0.114441
0.266433
0.277758
0.336766
0.376701
0.362992
0.385642
0.409484
0.262856
0.373721
0.291467
0.274777
0.372529
0.335574
0.466704
0.477433
0.603795
0.449419
0.369549
0.482798
0.326633
0.538826
0.352859
0.432730
0.596642
0.403523
0.544786
0.511408
0.533462
0.584722
0.576973
0.672936
0.873804
0.946522
1.026988
1.144409
1.524687
3.396869
20.031929
52.546859
135.535002
244.429708
436.948538
592.376590
746.404529
789.265633
751.045942
659.737587
487.077832
345.196724
188.591480
106.782913
43.916702
18.000603
5.224943
3.371835
2.762675
2.775788
2.759695
##ZVALUE=390
0.044703
0.202656
0.153780
0.251532
0.151992
0.082850
0.106692
0.176430
0.066757
0.138879
0.316501
0.361800
0.268817
0.240803
0.215769
0.248551
0.216961
0.073910
0.220537
0.125766
0.121593
0.087619
0.229478
0.226498
0.233650
0.201464
0.127554
0.163913
0.206828
0.291467
0.129938
0.301600
0.179410
0.288486
0.200868
0.262856
0.250936
0.355840
0.348687
0.175834
0.406504
0.420809
0.293851
0.372529
0.389814
0.423789
0.249743
0.518560
0.292659
0.301600
0.375509
0.190735
0.389814
0.415444
0.318885
0.367761
0.421405
0.359416
0.352859
0.466704
0.428557
0.371933
0.359416
0.439882
0.562668
0.519753
0.579953
0.579953
0.495911
0.857711
0.680685
0.984669
1.026988
0.868440
1.056790
1.124740
1.823902
10.410547
32.940507
101.135969
193.863511
373.374820
517.845750
684.287548
776.596665
807.498693
742.226839
583.777428
443.034768
268.324614
155.787468
63.592792
28.982759
8.136630
3.924966
3.218651
##ZVALUE=395
0.230670
0.269413
0.065565
0.301600
-0.032783
0.023842
0.195503
0.268817
0.109673
0.148416
0.239611
0.194907
0.279546
0.008941
0.179410
0.163913
0.188947
0.234842
0.182986
0.208616
0.172853
0.219941
0.394583
0.258684
0.365973
0.177622
0.196695
0.173450
0.257492
0.201464
0.271797
0.238419
0.376701
0.330806
0.144839
0.297427
0.356436
0.246763
0.336766
0.199676
0.424981
0.349879
0.319481
0.422597
0.342727
0.281930
0.334978
0.505447
0.246763
0.458956
0.317693
0.405908
0.376701
0.450611
0.358820
0.367761
0.335574
0.387430
0.257492
0.428557
0.376701
0.324845
0.405908
0.466704
0.512600
0.485778
0.554919
0.523925
0.675917
0.849962
0.793934
0.769496
0.733733
0.770688
0.846982
0.811815
0.870824
0.950694
1.368523
6.029010
21.560788
74.506998
140.799880
268.898606
404.526591
600.153804
725.868940
809.811950
797.485709
681.028962
536.167622
333.636999
207.010508
90.350509
42.434931
13.869405
##ZVALUE=400
0.274777
0.093579
0.209808
0.078678
0.041723
0.045896
0.092983
0.131726
0.134706
0.306964
0.094771
0.202656
0.088811
0.122786
0.091791
0.025630
0.096560
0.194907
0.210404
0.071526
0.129938
0.224710
0.042915
0.155568
0.155568
0.258684
0.057817
0.092983
0.235438
0.223517
0.200868
0.301600
0.270605
0.229478
0.225902
0.309944
0.258684
0.274777
0.309944
0.217557
0.196695
0.262856
0.360608
0.244975
0.199676
0.235438
0.206828
0.241995
0.248551
0.207424
0.258684
0.221729
0.308752
0.334978
0.378489
0.364780
0.215769
0.388622
0.268817
0.308752
0.213981
0.421405
0.365973
0.297427
0.384450
0.494719
0.562668
0.601411
0.490546
0.688434
0.666976
0.702739
0.614524
0.694990
0.644922
0.653863
0.749826
0.733733
0.781417
0.893474
0.957847
3.068447
11.089444
41.590929
90.150833
201.566815
322.937965
509.199500
637.357831
752.531886
775.820613
698.189735
578.216910
387.489796
255.788565
128.035545
##END
