##TITLE=DDW2
##FORMAT=SPECTACLE-ASCII V-1.2
##DATA TYPE=ULTRAVIOLET SPECTRUM
##SECOND TYPE=ULTRAVIOLET SPECTRUM
##DATE=01/24/18
##TIME=18:16:44
##SPECTROMETER/DATA SYSTEM=SPECTACLE
##XUNITS=NM EM
##YUNITS=ENERGY
##YFACTOR=1
##FIRSTX=220
##LASTX=410
##NPOINTS=96
##3DDATA=Equidistant
##ZUNITS=NM EX
##FIRSTZ=210
##LASTZ=400
##ZPOINTS=39
##XYDATA=(Y..Y)
##ZVALUE=210
14.857650
14.474988
12.589693
10.530949
10.332465
9.884834
8.739829
7.275939
6.118417
4.862547
3.288984
2.413988
3.232956
2.151728
2.370477
2.093911
2.600551
1.672506
2.392530
2.704859
2.240539
2.780557
2.869964
3.429651
3.002882
2.765656
3.834963
3.430843
3.207922
2.958775
3.982782
3.867745
4.097819
4.512668
4.195571
4.612803
4.673600
5.551577
4.844666
5.172491
4.565716
4.809499
4.962683
4.624724
4.960895
4.137754
4.537702
5.534887
5.365610
5.421638
4.841685
4.704595
5.631447
5.017519
5.428791
5.265474
5.082488
5.112886
4.896522
5.044937
5.215406
5.257726
5.302429
4.807711
4.107952
5.624890
5.977750
6.352663
6.194711
7.057786
7.758737
9.424686
9.138584
10.960698
12.332797
12.948513
12.856722
10.585785
10.747910
10.933876
8.984804
8.651614
8.636713
6.909966
6.343722
5.037785
4.716516
4.551411
5.121827
6.806850
8.389950
10.257959
15.191436
17.554760
25.098920
29.005408
##ZVALUE=215
38.493872
37.807822
31.545758
24.136901
20.760894
16.500950
15.712976
15.938878
14.399886
13.385415
10.590553
9.437799
6.215572
5.477667
3.699660
2.943873
2.546906
2.613664
2.809763
2.544522
2.928972
2.606511
3.465414
3.644824
3.391504
3.507733
3.798604
3.401637
3.586411
3.930926
3.909469
3.737807
4.062653
4.457831
4.202724
4.302859
5.117655
4.790425
5.848408
5.354881
5.810857
5.523562
5.457997
4.949570
5.999804
5.782843
5.573630
6.219745
5.666614
6.059408
5.912781
6.480813
6.346703
5.911589
5.773902
5.696416
5.321503
5.602837
5.568862
5.410910
6.566644
5.727410
6.340742
5.890727
5.575418
5.586743
6.501675
6.678700
7.506609
8.627772
9.099841
10.606647
11.676550
11.701584
13.648868
14.818907
14.595985
12.988448
13.242960
13.412833
11.243820
10.016561
9.498596
7.738471
7.413626
5.914569
5.254745
4.381537
4.591942
5.005598
5.103946
4.139543
5.994439
5.966425
6.956458
10.833740
##ZVALUE=220
81.779957
82.386732
78.109503
73.208809
58.189631
48.081875
34.262538
29.582977
24.343729
22.983551
24.511814
25.210977
22.366643
17.029643
14.500618
10.877848
7.210970
4.946589
3.452897
3.355742
2.961755
3.019571
4.491806
3.486872
3.727674
3.715754
3.211498
4.178882
3.167987
3.981590
3.699660
4.359484
4.238486
5.639791
5.129576
6.104708
5.532503
5.308986
5.507469
6.820560
6.626844
6.709695
6.786585
6.620884
6.545782
6.340742
6.394982
6.640553
6.486773
6.029606
5.398989
6.245971
6.595850
6.249547
7.079840
7.133484
7.927418
7.742643
7.277727
6.287694
6.713867
7.244945
6.953478
7.000566
7.529855
6.332994
7.308722
7.632971
6.631613
8.279681
8.667707
8.586645
11.329651
10.091662
10.946989
11.589527
10.613799
10.528564
10.490417
10.281801
9.868741
9.352565
8.470416
7.793903
7.664561
6.083846
5.334616
5.331635
5.253553
5.309582
5.103946
4.583597
4.905462
5.025864
3.833771
4.278421
##ZVALUE=225
97.984672
99.398494
114.416480
128.972530
131.605864
122.743845
108.752847
79.061985
61.691999
49.433708
39.288998
37.301779
41.128993
39.409995
38.892627
34.371614
26.245713
20.830631
16.254783
9.922981
6.042719
4.259944
3.684759
4.348755
3.810525
4.079938
3.515482
4.049540
4.373789
3.797412
4.005432
5.182624
5.601645
6.714463
4.784465
5.897880
6.567836
6.742477
6.569624
6.885529
6.522536
6.949902
7.676482
6.526709
6.375909
7.893443
8.341670
7.227659
7.602572
7.387996
7.271767
7.496476
7.345676
7.538795
8.643866
7.649660
7.600784
7.052422
7.301569
8.467436
7.121563
7.929802
8.495450
8.119941
7.625818
8.773804
8.026958
8.769631
8.794665
9.672642
10.233521
10.724664
10.659695
10.950565
11.079907
12.264848
12.171865
12.414455
10.627508
10.215640
9.360909
8.681417
8.778572
7.893443
6.578565
6.910563
6.050467
6.199479
6.108880
6.172657
5.561709
5.676746
4.714727
5.212426
4.935861
5.534887
##ZVALUE=230
64.120889
70.099831
101.965666
151.276588
187.971592
223.353505
226.057768
214.428902
191.489458
156.455636
109.420419
79.752803
60.913563
54.802895
60.203671
61.790943
61.390996
57.252645
52.800775
38.152933
27.629733
19.082427
13.230443
7.678866
4.979968
4.494786
4.503727
4.728436
4.877448
5.107522
5.338788
5.242825
5.117655
6.785989
5.945563
7.488728
6.975532
7.267594
6.866455
6.719828
7.936954
7.792711
7.656813
8.367896
7.808805
7.386804
7.896423
7.571578
7.276535
8.892417
7.898808
8.396506
8.341670
7.950664
8.395910
8.017421
7.547736
8.511543
8.109808
8.812547
9.046793
8.257627
8.672476
9.028912
8.254647
8.973479
8.913875
9.122491
9.115934
10.214448
9.422898
12.148619
11.584759
11.528730
13.678670
13.271570
12.541413
12.933612
11.189580
10.786653
10.190606
10.444522
9.192824
8.194447
7.746816
7.924438
8.059740
6.783605
6.559491
7.645488
7.106662
6.561875
6.220937
6.340742
6.494522
5.874634
##ZVALUE=235
17.637610
20.473599
45.001507
84.153414
142.683983
201.523900
286.333561
341.793895
363.731980
352.668762
307.834744
246.961713
185.426474
125.470757
98.495483
81.650615
79.675913
83.183646
91.410875
86.811781
80.644488
69.043636
50.327778
37.668943
23.414493
15.250444
10.015965
7.670522
7.739663
6.393790
6.729960
7.383823
7.256866
7.333755
6.918907
8.050799
7.672906
7.627606
7.772446
8.132458
8.354783
7.354617
7.869601
7.291436
8.139610
7.907748
7.538795
7.935762
7.756948
7.760525
7.591844
7.560849
8.021593
7.510781
7.985830
7.226467
8.216500
8.644462
7.915497
7.823706
7.908940
9.034872
8.828640
8.596778
9.750724
9.117723
8.667707
9.806752
9.871721
10.071993
11.310577
10.892749
12.476444
14.095902
13.028979
14.514923
14.311671
12.377501
12.282729
13.021827
11.872649
11.274815
11.255741
9.212494
9.701848
9.468794
8.678436
9.343624
7.504821
7.702708
8.365512
7.793903
7.233620
7.064939
7.179976
7.115602
##ZVALUE=240
2.098680
2.366900
5.767941
20.022988
45.269728
98.691583
160.162449
276.674628
363.319516
445.291996
510.795712
516.986847
456.613898
382.944942
281.927586
211.906433
132.856965
104.929805
98.116994
104.001760
114.065409
120.606422
117.608905
103.715658
90.874434
65.364838
48.535466
32.739639
24.692416
15.657544
11.446476
9.469986
11.458993
9.154677
9.268522
9.242892
9.241700
8.658767
8.461475
8.193851
7.605553
8.012652
7.808805
8.068681
7.539988
7.551908
7.352829
7.544756
7.906556
7.646680
7.613897
7.552505
7.423759
7.593632
7.296801
7.411838
7.579923
7.754564
8.549690
7.819533
7.951856
7.429719
7.976890
8.271933
8.284450
9.172559
8.466840
10.038614
10.278821
9.936690
10.764599
12.605786
13.357997
13.401508
13.457537
13.965964
13.255477
13.843775
13.054609
11.770725
13.381839
12.467504
12.059808
11.029840
9.879470
10.273457
10.321736
9.534955
10.942817
10.277629
8.919835
8.765459
9.044409
7.675886
8.198619
7.855892
##ZVALUE=245
1.171827
1.297593
1.868606
1.898408
4.376769
11.824965
37.587881
77.392459
166.782737
253.620744
398.345590
500.626564
569.141507
608.995557
581.292510
476.034880
388.613939
268.972516
190.389752
124.496818
100.481510
103.150010
117.167830
133.533478
139.097571
132.008791
115.933418
97.683668
76.216459
58.057904
42.375922
28.351545
18.113852
14.454722
12.167692
10.478497
10.365844
10.266900
9.550452
7.672906
8.254647
8.160472
7.885695
7.606745
6.797910
7.177591
6.778836
6.416440
7.699728
7.015467
6.993413
7.141829
6.758571
7.000566
7.102489
7.564425
6.534457
6.523728
6.613731
6.280541
7.491708
6.715655
7.066727
6.906986
7.157922
8.070469
7.195473
8.563995
8.884668
8.464456
9.519458
9.888411
10.305643
10.753870
10.615587
11.679530
12.046695
11.551976
12.257695
10.641813
10.080934
9.446740
10.246634
10.156631
9.618998
9.068847
8.247495
8.336902
9.177923
8.972883
8.437634
7.699728
8.703470
7.601976
7.241964
7.704496
##ZVALUE=250
1.168847
1.222491
1.221895
1.265407
1.459718
1.367927
2.348423
6.741881
28.351545
61.144829
143.387914
239.927769
349.223614
500.252843
598.117709
671.930909
671.837926
602.558851
517.761707
361.322761
248.185992
170.991421
111.307502
98.292828
111.376643
124.364495
138.101578
143.687725
140.092969
128.951669
111.618638
84.313750
62.986612
38.362741
25.690794
18.069744
12.861490
11.418462
9.225607
8.737445
8.628964
8.307695
7.601976
7.112622
7.015467
6.675720
5.855560
6.432533
6.457567
6.841421
6.552935
6.721616
6.644726
6.447434
6.369948
6.743670
5.886555
5.834699
6.750822
6.621480
7.396936
7.019639
6.720424
7.476807
6.916523
6.233454
7.249713
6.999969
7.495880
7.388592
9.713769
9.169579
9.470582
9.949803
9.796619
10.602474
10.757446
9.654760
10.081530
9.113550
8.271933
8.642673
8.456707
8.128881
7.414818
7.321835
7.119775
7.347465
6.827712
6.615520
6.847978
6.975532
6.633997
6.548762
6.456971
6.379485
##ZVALUE=255
0.951886
1.249909
0.928640
1.055598
1.231432
1.484752
1.195669
1.299977
1.649857
4.166961
17.565489
46.680570
92.085600
198.580623
311.422944
478.747487
604.864955
725.991726
766.891837
726.299882
630.591512
510.973930
323.233604
211.098790
120.431781
94.001889
93.452930
107.485652
127.882957
141.899586
148.571730
148.701668
132.158995
108.570457
84.682703
54.736733
40.189624
23.349524
15.862584
9.658933
8.753538
7.286668
7.290840
6.446838
6.835461
7.376671
6.188750
6.597638
6.243587
6.385446
6.494522
5.980730
6.335974
6.742477
6.196499
6.411672
6.840825
6.830692
6.366968
6.584525
6.546974
6.417632
6.972551
7.340908
7.057786
6.368756
6.605983
6.662607
6.715655
7.437468
7.364750
8.743405
8.060932
8.569956
8.414984
8.765459
7.805824
7.853508
7.518530
7.616878
7.067919
6.836653
6.688833
5.723834
6.223917
5.832911
5.700588
5.595684
6.220937
5.985498
5.114675
5.066991
4.790425
4.993677
4.989505
4.866719
##ZVALUE=260
0.938773
0.880957
0.792742
1.087785
0.892878
1.157522
0.950694
1.297593
1.279712
1.310706
1.511574
2.214909
6.802678
26.988983
64.549446
156.674981
258.110762
432.066917
574.911833
756.577849
835.408568
850.425959
749.118924
620.825887
419.565439
288.589597
166.456699
108.966827
79.188943
82.714558
107.787848
126.296878
143.975616
151.440501
150.449872
130.696893
111.407638
82.312822
59.943795
37.378669
24.884939
13.885498
9.525418
7.686615
7.205606
6.893873
6.185770
6.056428
6.758571
6.928444
6.220937
6.788969
6.112456
6.186962
6.488562
6.473660
6.780624
7.296801
6.549954
6.914735
7.079840
6.913543
7.053614
6.645918
7.373691
6.313920
6.301999
6.754994
6.677508
7.422566
7.638931
8.007884
8.383989
7.640719
8.285642
7.277727
7.404685
7.343888
7.210970
6.124973
5.824566
5.859733
6.475449
5.415678
4.973412
4.745722
4.658699
5.090833
4.507899
4.705787
4.371405
4.738569
4.597902
3.985763
4.140735
3.929734
##ZVALUE=265
0.964999
0.827909
0.857711
0.931621
0.855923
0.990629
0.881553
1.001954
0.941753
1.084805
1.246929
1.209974
1.269579
1.444817
3.276467
18.434525
45.664907
116.098523
209.701657
392.718911
561.387539
721.378922
876.175761
916.194916
845.697522
726.372004
543.010831
383.839607
219.811797
136.694908
87.144971
69.300532
80.458522
111.376643
131.602883
148.030519
155.658722
146.098733
135.559440
106.303692
83.309412
54.466724
38.354993
21.357536
14.063716
9.507537
7.694960
6.453991
6.978512
6.691813
6.855726
6.908774
6.946921
7.146597
6.828904
7.033944
7.256866
7.255673
7.099509
6.716847
7.422566
6.690621
7.261634
7.006526
7.054806
6.574988
6.315708
7.468462
7.503629
7.857680
7.466674
8.012652
7.637739
7.181764
7.954836
7.172823
7.597804
6.916523
6.521940
5.785823
5.946755
5.515814
5.340576
5.536675
4.673600
4.722476
4.850626
4.404783
4.063845
3.996491
4.215837
3.669858
3.936887
3.535748
3.769994
3.716946
##ZVALUE=270
0.792742
0.661612
0.751615
0.696778
0.802875
0.724792
0.686646
0.836849
1.082420
0.927448
1.108646
0.881553
0.958443
1.219511
1.283884
1.485944
2.109408
8.832812
26.185513
86.119771
164.304972
283.666849
505.521894
691.834688
901.056528
968.886614
962.069035
866.411924
676.559806
510.013700
315.814614
194.024444
111.590624
64.467788
61.079860
85.423589
104.659796
134.482980
146.845579
156.333447
151.537657
133.486986
112.404823
79.298615
58.826804
36.442876
24.344921
14.727712
10.770559
8.191466
7.513762
6.841421
6.971955
7.015467
7.473826
7.261634
7.432699
7.299781
8.052588
7.267594
7.413626
7.439852
7.187724
7.418990
7.231832
7.618666
7.081628
7.022619
7.259846
7.497668
7.638931
7.073879
7.895827
7.601976
7.749796
7.331967
7.150769
6.607771
6.295443
5.802512
5.992651
5.498528
5.299449
4.698634
4.680753
4.562736
4.116893
4.220605
4.169941
4.472733
4.034638
3.610849
3.647804
3.663898
3.544688
3.399849
##ZVALUE=275
0.682473
0.652671
0.641942
0.726581
0.484586
0.652671
0.604987
0.935793
0.539422
0.733733
0.638962
0.833869
0.711679
0.744462
1.123548
1.345873
1.199841
1.242757
1.584888
3.753901
15.234947
43.063760
127.608776
236.123800
450.528860
620.170832
820.801854
950.268507
1012.058854
963.034034
854.701996
635.151863
446.659923
242.916942
140.675902
68.106651
50.374866
60.198903
78.833699
107.573867
129.460692
149.410963
154.842734
150.039792
134.172440
106.736422
84.701777
58.408976
42.032599
22.994876
16.597509
10.654926
8.780956
7.409453
7.369518
7.604957
7.626414
7.395744
7.775426
8.022785
7.696748
7.522702
7.294416
7.116795
7.197857
7.496476
7.083416
6.745458
7.419586
7.174611
7.676482
7.541776
7.784963
7.714629
7.039905
7.336736
7.066727
6.685853
6.218553
5.740523
5.872846
5.482435
5.062819
4.865527
4.564524
4.445910
4.293919
4.284978
4.100800
3.876686
4.034638
3.845692
3.634691
3.148913
3.712773
3.637671
##ZVALUE=280
0.534654
0.680685
0.559688
0.698566
0.603795
0.602603
0.787973
0.694990
0.683665
0.784993
0.875592
0.847578
0.880957
0.801682
0.940561
0.938773
1.020432
1.206994
1.051426
1.208782
1.460910
1.568794
9.601712
30.669570
100.332499
185.614824
349.437594
519.961715
760.428905
908.218622
997.930765
1012.600660
931.091905
719.007850
536.020994
306.398869
185.159445
84.840655
49.820542
41.907430
54.086447
81.861615
103.479624
131.572485
147.411823
149.633884
144.711733
128.134489
109.454989
80.244541
60.116649
37.564635
25.816560
15.283823
10.555983
8.204579
7.978678
7.381439
7.148981
7.523894
7.186532
7.577538
7.453561
7.230639
7.053614
7.115602
7.409453
7.161498
6.999969
7.380843
7.178783
6.608963
7.206798
7.228851
6.880760
6.751418
6.736517
6.353855
5.855560
5.351901
5.230904
4.998446
5.078912
4.744530
4.712939
4.396439
4.334450
4.085898
4.167557
4.128814
4.115701
3.419518
3.280640
3.306866
3.497601
3.382564
##ZVALUE=285
0.773668
0.584722
0.566840
0.636578
0.663996
0.669956
0.732541
0.787973
0.780821
0.665784
0.905991
0.930429
0.896454
0.805855
0.748634
0.985861
0.946522
0.810623
1.110435
1.205802
1.370907
1.128912
1.535416
1.637936
4.395843
15.388727
53.366423
116.280913
258.510709
409.262776
572.969913
816.845894
962.417722
1015.710831
1001.384854
831.608772
659.998655
412.318707
261.080861
123.059750
64.703822
33.869743
35.427809
54.792762
74.061751
104.200840
120.702982
140.283704
146.923661
142.312646
130.946636
105.691552
85.730553
58.409572
40.614605
23.956895
16.319752
10.606647
8.300543
7.090569
7.102489
6.555915
6.259680
6.367564
6.549954
6.536841
6.642938
6.671548
6.360412
6.267428
6.623864
6.410480
6.466508
6.417632
6.789565
6.109476
6.255507
5.838871
5.485415
5.633831
5.143881
5.111694
4.750490
4.406571
4.322529
4.318953
3.990531
3.874898
3.837943
3.891587
3.733635
3.447533
3.412962
3.525615
3.174543
3.482699
##ZVALUE=290
0.534654
0.528693
0.474453
0.635982
0.463724
0.652671
0.497699
0.498891
0.638962
0.654459
0.532866
0.664592
0.593662
0.639558
0.587702
0.764728
0.675917
0.892878
0.909567
0.849962
0.952482
0.990629
1.077652
1.243949
1.267791
1.464486
2.134442
6.194711
30.191541
72.677732
145.458579
312.988758
486.392975
748.433471
913.640857
1015.600562
1015.600562
923.167467
767.233968
520.663857
345.142484
175.351501
92.850924
37.205815
25.313497
33.453703
47.742724
70.734620
91.081858
117.854476
131.013989
141.662955
139.973760
124.443769
105.997920
78.516603
57.459474
36.629438
24.652481
14.770627
9.995699
6.688833
6.172657
5.816817
5.805492
5.221963
5.674958
5.297661
5.432963
5.543828
5.681515
5.947948
5.739927
5.719662
5.507469
5.375743
5.292892
4.937649
4.598498
4.534721
4.504919
4.307628
3.916621
4.000664
3.782511
3.741980
3.686547
3.647804
3.814697
3.192425
3.232956
3.064871
3.064871
3.038645
2.803802
2.947450
##ZVALUE=295
0.445843
0.387430
0.448823
0.523925
0.331998
0.520945
0.515580
0.614524
0.689626
0.585914
0.467896
0.502467
0.504851
0.576973
0.514984
0.620484
0.587702
0.573993
0.757575
0.805855
0.726581
0.839829
0.818968
0.767708
0.967979
1.025796
1.183748
1.408458
1.404881
2.933741
10.076761
44.173002
104.850531
250.847936
406.113863
656.463504
838.086605
1005.709767
1015.572548
984.423757
854.240656
612.230897
429.525971
230.222940
125.053525
47.681928
24.830699
20.666718
27.814507
45.068860
63.674450
88.624954
106.879473
126.731992
132.888556
131.210685
119.874477
97.922683
78.322887
53.404570
37.915707
22.454858
14.773607
8.528829
6.273985
4.892945
4.354715
4.295707
4.487634
4.305840
4.277825
4.834533
4.805923
4.919767
4.748702
4.678965
4.372597
4.269481
4.269481
3.881454
3.525615
3.521442
3.383756
3.504753
3.299713
2.962947
3.375411
3.063679
3.168583
3.243685
3.213882
2.900958
2.818704
2.536774
2.849698
2.671480
##ZVALUE=300
0.517964
0.305772
0.516772
0.687838
0.454783
0.454783
0.487566
0.436902
0.492930
0.469685
0.498891
0.390410
0.462532
0.515580
0.451803
0.541806
0.481606
0.566840
0.675917
0.580549
0.716448
0.652671
0.755787
0.795722
0.880957
0.961423
0.962615
0.912547
1.187921
1.219511
1.448989
1.721978
6.534457
23.064613
80.477595
160.161853
334.756970
513.135791
760.361552
910.914540
1015.584469
1015.584469
906.186700
753.496885
502.570868
331.345797
170.836449
91.980696
35.487413
17.922521
17.959476
25.321841
41.048527
56.783557
80.602765
99.396706
119.092464
126.282573
123.207569
114.726424
95.660686
76.803565
53.709745
38.334727
22.006631
14.007688
8.109808
5.777478
4.310608
3.999472
3.855824
4.071593
3.915429
4.027486
3.957748
3.752708
3.758669
3.701448
3.517866
3.346801
3.417730
3.341436
3.324747
3.069639
2.956986
2.980828
3.265738
2.949834
2.722740
2.674460
2.729893
2.609491
2.697706
2.611876
2.519488
2.607703
##ZVALUE=305
0.394583
0.579953
0.463724
0.374913
0.536442
0.490546
0.650883
0.493526
0.448823
0.610948
0.463724
0.525713
0.393987
0.463724
0.567436
0.563860
0.280738
0.645518
0.668764
0.689626
0.787973
0.870824
0.545979
0.920892
0.972748
0.825524
0.791550
1.079440
1.044869
1.075864
1.174808
1.176000
1.303554
1.659989
2.560616
16.213655
45.249462
131.619573
240.023732
446.877480
629.389882
860.196948
983.422995
1015.664935
976.063013
781.818032
615.780950
395.999551
249.129534
114.408731
56.126714
19.705892
12.339950
15.866756
23.712516
39.110780
54.530501
77.957511
95.034838
113.586783
120.107532
117.863417
109.705925
91.525912
73.521733
50.223470
34.822822
21.348000
13.691783
7.297993
5.473495
4.201531
4.090667
3.930926
3.615618
3.451705
3.230572
3.379583
3.155470
3.039837
3.201962
2.874732
2.917647
3.014803
2.870560
2.980828
3.009439
2.856851
2.680421
2.692938
2.539754
2.625585
2.654791
2.555847
2.622604
2.384782
##ZVALUE=310
0.474453
0.314713
0.428557
0.579953
0.398755
0.460744
0.532866
0.643730
0.512600
0.568628
0.565648
0.519753
0.241995
0.497699
0.416636
0.606775
0.533462
0.585914
0.807643
0.635982
0.624657
0.642538
0.623465
0.564456
0.696778
0.761747
0.712872
0.907779
0.942945
1.085997
0.988841
0.997782
1.125932
1.205802
1.335740
1.599789
1.767874
6.804466
23.055673
79.248548
157.972574
331.250429
503.127575
751.700997
914.243460
1015.663743
1015.663743
908.100605
749.819875
505.539775
337.086916
168.352723
90.573430
32.306910
14.503598
10.122657
13.204813
21.751523
31.910539
51.118731
66.039562
89.674592
101.847649
112.274885
113.512874
102.847815
90.085864
70.021749
53.234696
33.576488
22.755861
12.897849
8.671880
5.410910
4.333854
3.097653
3.177524
3.213882
3.032684
2.783537
2.832413
2.878904
2.777576
2.716780
2.936721
2.949834
3.014803
2.809763
2.580881
2.686977
2.772808
2.377629
2.579689
2.707839
2.432466
2.430677
##ZVALUE=315
0.362992
0.530481
0.382662
0.404716
0.239611
0.359416
0.335574
0.340939
0.438690
0.287890
0.342727
0.255704
0.402927
0.365973
0.340939
0.351667
0.451803
0.464916
0.342727
0.515580
0.431538
0.421405
0.566840
0.632405
0.591874
0.616908
0.585914
0.849962
0.753999
0.527501
0.758767
0.828505
1.017451
0.955462
0.856519
0.908971
1.357794
1.263618
1.409650
2.560616
13.924837
41.705966
122.556686
225.488544
436.135530
619.663596
848.698020
968.433619
1015.571952
978.686810
798.929930
630.297661
397.668481
247.808695
116.791725
56.303740
17.139912
9.330511
9.126663
11.376739
19.509792
28.132796
45.355558
61.130524
82.159638
95.568895
104.781985
105.023980
96.368790
83.680749
64.287782
49.589872
32.470822
22.011995
12.103915
7.856488
4.831553
3.467798
3.035665
2.696514
2.758503
2.487898
2.842546
2.761483
2.866983
2.520680
2.614856
2.668500
2.441406
2.433658
2.423525
2.385974
2.430677
2.451539
2.199411
2.259612
##ZVALUE=320
0.053644
0.208616
0.241995
0.360608
0.255704
0.225902
0.101924
0.158548
0.229478
0.164509
0.112653
0.258684
0.392795
0.245571
0.377893
0.305772
0.335574
0.309944
0.418425
0.212789
0.207424
0.212789
0.563860
0.369549
0.567436
0.435710
0.524521
0.402927
0.430942
0.584722
0.545979
0.549555
0.520945
0.675917
0.808835
0.876784
0.709891
0.923872
0.948906
1.136661
1.176596
1.853704
5.052686
27.950406
71.710944
189.352632
313.910842
523.434877
704.708695
916.808844
1005.585790
1004.666686
914.951563
706.496835
523.204803
294.381976
169.502497
72.495937
32.432675
10.806918
7.085800
8.022785
10.164976
16.609430
25.119781
40.781498
55.054426
74.255466
86.916685
98.942518
100.079775
91.891885
82.385540
62.436461
47.599673
30.463934
20.316839
11.668801
6.850958
4.261732
3.174543
2.859831
2.641678
2.518892
2.247691
2.355576
2.342463
2.331734
2.424717
2.649426
2.170801
2.214909
2.335906
2.264977
2.175570
2.226830
##ZVALUE=325
0.014901
0.313520
0.167489
0.135899
0.201464
0.162721
0.173450
0.198483
0.103712
0.173450
0.079870
0.106692
0.216961
0.290871
0.240803
0.220537
0.395775
0.318885
0.250936
0.223517
0.157952
0.275970
0.325441
0.209808
0.228882
0.413656
0.291467
0.438690
0.316501
0.423789
0.420809
0.458956
0.410676
0.440478
0.629425
0.597835
0.551939
0.774860
0.767708
0.881553
0.816584
1.072884
1.046658
1.238585
3.141761
13.345480
53.624511
112.469792
252.183676
409.061909
652.043819
814.055800
968.586802
1010.025740
932.198763
793.527961
548.791885
379.859805
205.106735
112.236738
41.269660
16.912818
7.259846
6.119609
7.293820
9.435415
15.901923
23.441911
40.127635
54.057837
73.318481
84.211826
92.248917
92.421770
84.850788
75.779557
57.886839
43.533444
27.768612
18.596649
9.846687
6.614923
4.276633
3.121495
2.489686
2.517700
2.436638
2.478957
2.298951
2.074838
2.214909
2.341866
2.151728
2.095699
2.053976
2.254844
##ZVALUE=330
0.252724
0.257492
0.247955
0.183582
0.333786
0.221729
0.225902
0.439882
0.359416
0.326633
0.401735
0.329614
0.391603
0.294447
0.314713
0.257492
0.427961
0.225902
0.337958
0.348687
0.247955
0.345707
0.405908
0.381470
0.385642
0.588894
0.337958
0.363588
0.512600
0.430942
0.527501
0.453591
0.543594
0.492930
0.583529
0.530481
0.749826
0.884533
0.801682
0.909567
0.820756
0.945926
1.031756
0.869632
0.823736
1.225471
1.558661
7.201433
24.365783
83.951950
164.825916
332.050920
496.639013
730.249882
879.671574
979.248881
960.453749
823.496580
666.776896
434.039831
281.605721
133.018494
67.393780
23.665428
9.719729
6.067753
5.936623
6.763935
8.924603
15.252829
22.602677
36.614537
48.273802
66.819787
78.075528
85.707903
86.335540
80.429912
69.745779
53.028464
40.610433
25.069714
17.726421
10.510683
7.385612
4.581809
3.495812
2.807975
2.644658
2.466440
2.335906
2.170801
2.234578
2.259612
2.103448
2.233982
##ZVALUE=335
0.260472
0.323653
0.222921
0.249743
0.220537
0.380874
0.269413
0.309944
0.268817
0.256896
0.158548
0.209808
0.182986
0.214577
0.215769
0.183582
0.215769
0.266433
0.340939
0.483990
0.297427
0.379682
0.278950
0.399947
0.504851
0.444651
0.489950
0.541806
0.360608
0.404716
0.439882
0.322461
0.427961
0.485778
0.583529
0.676513
0.628829
0.643730
0.710487
0.603795
0.577569
0.664592
0.769496
0.900626
0.753999
1.055598
1.137853
1.097918
1.453757
3.351569
12.913942
50.488710
109.331608
246.997476
399.108529
633.761883
795.726776
935.721993
956.977010
868.031979
732.868910
506.507754
347.836018
184.959769
98.252892
33.199787
13.583899
6.436706
5.592704
5.506873
6.101727
8.666515
13.230443
22.405982
32.661557
49.193501
61.184764
74.014664
79.103708
80.216527
75.570941
62.072873
51.613450
38.952827
28.572679
18.036962
11.427999
6.856918
4.643798
3.392696
2.858639
2.521873
2.119541
2.075434
2.156496
2.209544
##ZVALUE=340
0.261664
0.212789
0.229478
0.233650
0.244975
0.265837
0.312924
0.186563
0.323653
0.422597
0.264645
0.197887
0.056624
0.262856
0.299811
0.238419
0.338554
0.244975
0.323653
0.338554
0.470877
0.357628
0.473857
0.307560
0.305772
0.391603
0.338554
0.444651
0.349879
0.347495
0.238419
0.362992
0.297427
0.359416
0.614524
0.295639
0.409484
0.717640
0.535846
0.591874
0.557899
0.555515
0.664592
0.748634
0.596642
0.822544
0.694990
0.901818
0.975728
1.078844
1.127720
1.670718
5.966425
31.334758
76.976418
192.653537
323.971510
533.748865
697.533488
868.315697
929.164886
885.033011
778.252482
578.511953
416.969657
226.697922
123.815536
46.779513
19.225478
7.110834
5.623698
5.194545
5.096793
6.506443
8.273721
13.544559
20.191669
32.222867
43.304563
58.332682
66.941977
75.134635
75.505972
69.447756
61.954856
48.682690
38.255453
25.546551
18.361807
10.645986
7.128716
4.322529
3.135800
2.257824
2.363920
2.082586
##ZVALUE=345
0.315905
0.375509
0.217557
0.266433
0.091791
0.168681
-0.000596
0.227690
0.269413
0.259876
0.222921
0.172853
0.231862
0.218749
0.292659
0.312924
0.296831
0.309944
0.235438
0.331998
0.228882
0.208616
0.298619
0.261664
0.319481
0.229478
0.330806
0.350475
0.418425
0.463724
0.410676
0.423789
0.368953
0.378489
0.412464
0.354648
0.426769
0.616908
0.486970
0.465512
0.531673
0.623465
0.646710
0.663996
0.756979
0.722408
0.623465
0.695586
0.876784
0.726581
0.852942
1.008511
1.120567
1.293421
3.534555
13.450980
56.647658
116.707683
249.109864
389.950871
607.794523
756.719708
886.171460
904.948711
812.764764
677.624941
463.104844
305.655003
142.281651
69.466829
23.197532
10.279417
5.716681
5.144477
4.843473
4.566908
5.327463
6.819963
12.037754
18.049479
29.573441
38.981438
51.877499
60.371757
67.412853
68.838000
65.558553
59.402585
47.136545
37.348866
25.990605
18.213987
10.715723
7.439852
4.227757
3.268719
##ZVALUE=350
0.310540
0.099540
0.163913
0.286698
0.226498
0.334978
0.184774
0.260472
0.186563
0.215769
0.294447
0.133514
0.349879
0.194907
0.321865
0.278950
0.135899
0.184774
0.260472
0.299811
0.216961
0.436902
0.378489
0.395775
0.308752
0.282526
0.424981
0.343919
0.252724
0.437498
0.432730
0.266433
0.433922
0.351667
0.268817
0.451803
0.348687
0.428557
0.447631
0.467896
0.526905
0.584722
0.433922
0.524521
0.482798
0.537634
0.490546
0.609756
0.546575
0.615716
0.730753
0.887513
0.899434
0.865459
1.085997
1.044869
1.663566
8.472800
27.775764
86.461902
166.699886
332.029462
483.117700
687.252879
808.990002
886.105895
848.218799
697.239637
539.901853
334.982872
202.101469
90.356469
42.064786
12.455583
6.279945
4.780889
4.452467
3.957748
4.128814
4.684925
6.417632
10.782480
16.177893
25.849938
34.350753
46.195984
54.028630
60.927868
63.178539
60.343742
55.106878
44.548512
35.785437
25.488734
18.127561
11.163950
##ZVALUE=355
0.184774
0.187755
0.245571
0.184774
0.299811
0.122786
0.368953
0.199676
0.213981
0.296831
0.252724
0.367761
0.192523
0.205636
0.251532
0.272989
0.231862
0.297427
0.246763
0.278950
0.386834
0.303984
0.404716
0.374913
0.284910
0.212789
0.396967
0.238419
0.310540
0.284910
0.381470
0.368953
0.356436
0.416636
0.437498
0.431538
0.444651
0.472665
0.366569
0.460744
0.379682
0.345707
0.525713
0.448823
0.581741
0.429749
0.590682
0.568628
0.554919
0.737906
0.687838
0.652671
0.732541
0.672936
0.923872
1.009703
1.032948
1.145601
1.326799
4.049540
15.103817
58.233738
120.187998
250.029564
394.052863
607.134700
738.416910
846.635699
853.543878
736.255646
597.149730
391.072631
244.518518
109.491944
53.323507
18.162727
7.643700
4.621744
4.419684
4.194975
3.675818
3.503561
4.181862
5.895495
8.608699
14.278889
20.431876
30.526519
38.667917
47.863722
54.057837
57.688951
55.958629
50.018430
42.969584
33.152699
##ZVALUE=360
0.290871
0.217557
0.198483
0.185966
0.218749
0.322461
0.125766
0.208616
0.377893
0.089407
0.216961
0.225902
0.355840
0.153780
0.290871
0.151992
0.230670
0.294447
0.402927
0.309944
0.247955
0.249743
0.294447
0.322461
0.282526
0.350475
0.236630
0.373721
0.329614
0.363588
0.365973
0.438690
0.500679
0.440478
0.321865
0.292659
0.441670
0.344515
0.499487
0.237823
0.305772
0.531673
0.397563
0.425577
0.635982
0.560880
0.532866
0.546575
0.382662
0.498891
0.490546
0.655651
0.534654
0.686646
0.578761
0.801682
0.779629
0.890493
1.042485
1.093745
1.132488
1.882911
6.288886
29.918551
73.462725
182.443857
302.408934
490.670800
644.102693
789.849758
829.045773
771.133900
658.558011
455.995798
305.562615
150.675774
78.071952
28.512478
11.435747
4.936457
4.415512
3.827810
3.719926
3.532767
3.366470
3.826618
4.455447
7.107854
10.363460
16.937852
23.766756
33.946633
40.491819
49.180984
52.277446
52.177906
##ZVALUE=365
0.237823
0.221729
0.246763
0.182986
0.095963
0.208616
0.217557
0.276566
0.262856
0.303984
0.207424
0.187755
0.184774
0.286698
0.124574
0.196695
0.135899
0.212789
0.272989
0.256896
0.267625
0.293851
0.417829
0.462532
0.409484
0.249743
0.324845
0.408888
0.279546
0.422597
0.279546
0.244975
0.290871
0.333786
0.193715
0.392795
0.310540
0.396967
0.257492
0.405908
0.281930
0.416636
0.545979
0.294447
0.441670
0.362992
0.534654
0.482798
0.333786
0.420809
0.477433
0.491738
0.593662
0.640750
0.599623
0.684857
0.596642
0.689626
0.840425
0.933409
1.000762
0.954866
1.292825
1.354814
2.677441
14.810562
43.445826
123.521686
224.824548
400.573611
550.295711
715.075731
794.721842
780.535936
691.289902
509.797931
366.073847
204.502940
112.001896
41.692853
17.117858
5.837679
4.326701
3.916621
3.615618
3.240705
3.055930
3.008842
3.157854
3.831983
5.130768
9.225607
13.305545
20.371675
27.150512
36.046505
##ZVALUE=370
0.135899
0.273585
0.308752
0.307560
0.157952
0.324845
0.148416
0.136495
0.484586
0.353456
0.213981
0.201464
0.266433
0.302792
0.244975
0.205636
0.234842
0.363588
0.221729
0.129938
0.241995
0.065565
0.282526
0.378489
0.336766
0.295639
0.294447
0.314713
0.374913
0.356436
0.380874
0.293851
0.333786
0.254512
0.241995
0.266433
0.335574
0.403523
0.332594
0.286698
0.320673
0.390410
0.485778
0.393987
0.328422
0.369549
0.472665
0.528693
0.384450
0.393987
0.608563
0.463724
0.348687
0.580549
0.597835
0.533462
0.570416
0.663996
0.615716
0.703931
0.772476
0.726581
0.903606
0.812411
1.054406
1.080632
1.570582
8.555651
28.651953
92.793703
173.499584
328.436494
479.918718
669.592619
765.370727
793.363452
731.763840
579.658747
431.986451
246.204734
139.669776
55.393577
25.084615
8.664727
4.708767
3.777742
3.493428
3.325939
2.793670
2.670884
2.713799
2.601743
3.197789
4.973412
7.470846
12.189746
##ZVALUE=375
0.181794
0.197887
0.296831
0.293851
0.185966
0.129938
0.123978
0.162721
0.114441
0.220537
0.170469
0.359416
0.265837
0.217557
0.313520
0.226498
0.095963
0.252724
0.208616
0.328422
0.191927
0.244975
0.193715
0.235438
0.273585
0.235438
0.293851
0.178814
0.281930
0.241995
0.384450
0.333786
0.237823
0.285506
0.331998
0.255704
0.313520
0.354648
0.340939
0.353456
0.279546
0.293851
0.264645
0.339746
0.375509
0.372529
0.315905
0.310540
0.360608
0.263453
0.492930
0.374913
0.542998
0.474453
0.618696
0.332594
0.412464
0.560880
0.470877
0.633597
0.582933
0.769496
0.751615
0.709891
0.700951
0.675917
0.870824
0.911951
1.197457
4.169941
14.981627
54.949522
117.380619
261.376500
404.061675
603.466630
721.396804
798.856616
777.882934
643.142462
500.141978
306.423903
196.775794
98.073483
49.159527
15.288591
6.159544
3.765821
3.358722
2.923608
2.830625
2.642870
2.373457
2.360940
2.433658
2.975464
##ZVALUE=380
0.198483
0.088811
0.176430
0.166893
0.255704
0.149608
0.147820
0.202656
0.174642
0.115633
0.151992
0.251532
0.274777
0.324845
0.342727
0.307560
0.234842
0.329614
0.084639
-0.000596
0.166893
0.247955
0.075698
0.336766
0.279546
0.258684
0.254512
0.155568
0.462532
0.329614
0.261664
0.398755
0.366569
0.206828
0.310540
0.130534
0.317693
0.196695
0.270605
0.336766
0.318885
0.314713
0.357628
0.248551
0.372529
0.288486
0.341535
0.281930
0.411868
0.452995
0.362992
0.410676
0.522733
0.295639
0.427961
0.236630
0.287890
0.476837
0.378489
0.605583
0.574589
0.630617
0.543594
0.690818
0.666976
0.707507
0.625849
0.734925
0.913739
1.064539
1.122952
2.274513
7.362962
36.805868
87.102652
206.171870
334.128737
522.956848
665.032864
782.907605
792.204738
688.309669
570.103526
397.309661
269.441009
133.622885
68.263412
24.032593
9.409785
4.190803
3.144741
2.829432
2.781749
2.485514
2.471805
2.479553
##ZVALUE=385
0.113845
0.109673
0.169873
0.198483
0.180602
0.153780
0.147820
0.221729
0.141859
-0.001788
0.064969
0.135899
0.166893
0.191927
0.091791
0.128746
0.119805
0.323653
0.148416
0.109673
0.057817
0.098944
0.264645
0.221729
0.144839
0.377893
0.132918
0.148416
0.207424
0.160933
0.229478
0.178814
0.280738
0.338554
0.386834
0.171661
0.150800
0.281930
0.203848
0.311732
0.217557
0.261664
0.088811
0.148416
0.283718
0.297427
0.411868
0.328422
0.329614
0.256896
0.371933
0.407696
0.429749
0.442863
0.237823
0.269413
0.381470
0.236630
0.166893
0.329614
0.365973
0.406504
0.524521
0.569820
0.502467
0.439882
0.408888
0.557899
0.689626
0.794530
0.848770
1.007915
1.016855
1.221895
3.502965
20.185709
52.884817
136.736631
244.243741
441.463590
594.465733
746.743679
793.178678
757.389665
666.110516
488.498807
344.592929
187.819600
106.062889
43.488741
17.589927
4.953742
3.399849
2.974868
2.642870
2.679825
##ZVALUE=390
0.283718
0.194907
0.188947
0.220537
0.040531
0.098944
0.187755
0.199676
0.214577
0.225902
0.221729
0.172853
0.167489
0.138879
0.202656
0.175834
0.107884
0.201464
0.168681
0.083447
0.187755
0.363588
0.156760
0.301600
0.304580
0.202656
0.288486
0.287890
0.079870
0.258684
0.237823
0.250936
0.397563
0.366569
0.329614
0.295639
0.387430
0.445843
0.426769
0.407696
0.187755
0.366569
0.405908
0.333786
0.297427
0.506639
0.421405
0.292659
0.539422
0.332594
0.288486
0.255704
0.380874
0.391603
0.346899
0.464916
0.392795
0.489950
0.360608
0.545979
0.447631
0.494719
0.501871
0.535846
0.343919
0.622869
0.700951
0.639558
0.855923
0.646710
0.846982
0.845790
0.950694
0.890493
1.046658
1.129508
1.940727
10.567904
32.690763
101.883411
194.382668
372.079611
514.391661
676.550865
771.513581
801.806450
741.179585
584.326982
445.251465
271.015763
157.904625
63.539743
28.180480
7.967949
3.938675
2.933741
##ZVALUE=395
0.212789
0.135899
0.123978
0.120997
0.297427
0.143647
0.150800
0.036955
0.298619
0.143647
0.197887
0.036955
0.132918
-0.012517
0.182986
0.071526
0.107884
0.172853
0.151992
0.173450
0.156760
0.151992
0.208616
0.206828
0.178814
0.130534
0.307560
0.295639
0.252724
0.307560
0.279546
0.278950
0.183582
0.362992
0.166893
0.254512
0.059605
0.371933
0.386834
0.283718
0.225902
0.381470
0.414848
0.256896
0.265837
0.339746
0.296831
0.186563
0.303984
0.176430
0.253916
0.352859
0.271797
0.271797
0.280738
0.432730
0.430942
0.400543
0.307560
0.403523
0.452995
0.343919
0.415444
0.392795
0.423789
0.507832
0.580549
0.635982
0.595450
0.649691
0.807643
0.786781
0.814795
0.823736
0.750422
0.848770
0.954866
1.222491
1.346469
5.382895
20.529628
71.272850
140.796900
279.549956
414.418578
598.284602
714.882612
785.882473
767.410994
655.305982
516.737700
322.407484
205.855966
96.945763
45.884848
14.501810
##ZVALUE=400
0.265837
0.291467
0.212789
0.156760
0.111461
0.088811
0.222921
0.279546
0.250936
0.270605
0.154972
0.264645
0.150800
0.095963
0.096560
0.224710
0.072718
0.280738
0.109673
0.170469
0.216961
0.174642
0.172853
0.213981
0.214577
0.232458
0.165701
0.232458
0.055432
0.345707
0.314713
0.362992
0.311732
0.366569
0.244975
0.210404
0.399947
0.286698
0.238419
0.276566
0.386834
0.195503
0.393987
0.225902
0.236630
0.274777
0.286698
0.211596
0.337958
0.311732
0.345707
0.511408
0.282526
0.389814
0.359416
0.338554
0.365973
0.590682
0.353456
0.361800
0.327826
0.517964
0.460744
0.334978
0.412464
0.448823
0.497699
0.617504
0.580549
0.717640
0.637770
0.703931
0.694990
0.857711
0.767708
0.564456
0.641942
0.886917
0.831485
0.923872
1.110435
2.447963
12.137890
35.592914
101.518631
183.678865
344.285965
482.080579
649.212599
732.069612
745.659471
684.548020
530.473590
392.501950
226.497650
136.100650
##END
