##TITLE=FDDW1
##FORMAT=SPECTACLE-ASCII V-1.2
##DATA TYPE=ULTRAVIOLET SPECTRUM
##SECOND TYPE=ULTRAVIOLET SPECTRUM
##DATE=01/24/18
##TIME=18:20:10
##SPECTROMETER/DATA SYSTEM=SPECTACLE
##XUNITS=NM EM
##YUNITS=ENERGY
##YFACTOR=1
##FIRSTX=220
##LASTX=410
##NPOINTS=96
##3DDATA=Equidistant
##ZUNITS=NM EX
##FIRSTZ=210
##LASTZ=400
##ZPOINTS=39
##XYDATA=(Y..Y)
##ZVALUE=210
17.948747
19.185543
14.996529
11.522770
11.572838
10.501742
10.650754
7.429719
5.847812
5.106926
4.950762
3.366470
2.725720
2.765656
2.651811
2.670884
3.147721
2.996922
4.005432
3.061891
3.715754
3.682971
3.883839
4.043579
4.995465
5.050898
5.468726
7.371902
9.188652
10.126829
11.195540
12.903810
12.996793
13.890862
14.932752
13.920665
15.911460
15.953779
14.611483
13.602972
14.653802
12.767911
12.962818
12.843609
13.402700
12.543797
11.128783
11.162758
11.310577
10.655522
10.627508
10.940433
10.615587
9.714961
9.395480
9.628534
9.350777
9.449720
8.638501
8.974671
9.968877
9.653568
8.480549
8.169413
9.393692
9.105802
10.158420
9.958744
11.921525
13.243556
14.715791
15.337467
18.703938
21.464825
22.480488
24.489760
23.573637
22.263527
23.259521
20.640492
18.639565
17.630458
14.579892
13.507605
11.270642
9.957552
9.378791
8.349419
9.802580
10.756850
12.320876
14.994740
23.236871
26.278496
37.945509
39.244890
##ZVALUE=215
55.650473
53.036809
44.896603
33.887625
27.515888
22.106767
17.724633
15.518665
14.775991
13.732910
11.257529
10.247827
6.883740
5.926490
3.782511
3.624558
3.262758
3.682971
3.647804
3.241897
3.606677
3.772974
4.209876
4.257560
5.153418
6.396770
6.808639
8.028746
11.372566
11.126995
14.348626
15.217662
17.138720
16.946793
18.253922
18.295646
17.490983
18.085837
16.910434
16.506910
17.174482
15.464425
15.298724
16.095638
14.489889
14.571548
12.252927
13.597608
13.009906
12.161732
11.907816
10.799766
11.050701
10.869503
10.877848
10.942817
9.992719
10.463595
10.922551
10.007620
9.249449
8.948445
8.971691
9.061694
9.722710
9.178519
9.393692
10.331869
8.991957
11.902452
11.797547
13.548732
15.142560
17.053485
17.905831
17.365813
18.993616
20.589828
18.402934
15.883446
14.861822
14.666915
12.020469
10.480881
9.890795
8.581877
8.206964
6.300807
5.908608
6.785989
6.485581
6.090999
7.492900
7.432699
9.636879
14.283657
##ZVALUE=220
97.764730
99.369884
100.528002
89.676976
77.710748
58.881640
48.352480
33.317804
28.947592
25.279522
24.152994
24.200678
21.744967
17.393827
15.294552
11.187792
6.866455
6.779432
4.219413
4.085898
4.218817
4.352927
4.330873
4.133582
5.417466
6.703734
7.349849
8.728504
10.806918
12.025833
12.826920
16.864538
16.106963
17.823577
19.542575
19.192696
20.033717
19.532442
20.401478
19.380450
18.642545
17.371774
17.837882
15.809536
16.227961
15.460849
15.251637
14.536977
12.655854
14.916658
12.808442
12.220740
12.067556
12.061596
12.394786
10.979772
10.002851
10.335445
10.712743
9.992719
9.370446
10.722876
10.503531
10.366440
9.315610
9.893775
10.266900
10.175705
9.018779
11.527538
12.904406
13.696551
15.312433
17.674565
17.590523
18.645525
19.918680
18.061996
19.630790
16.970634
17.244816
15.369654
12.808442
10.775924
10.022521
9.813905
6.620884
7.348657
6.551743
6.756783
5.773902
7.232428
5.190969
7.419586
5.766749
5.923510
##ZVALUE=225
124.537945
128.350854
154.569745
171.925426
173.724890
162.242651
135.263801
101.344585
75.826645
57.590604
44.791698
37.281513
40.008426
38.756728
37.359595
32.327771
25.877953
21.419525
14.383793
9.545684
7.172823
5.213618
4.294515
4.625916
5.846620
7.020831
7.463694
8.561611
10.389686
13.050437
13.646483
17.281771
17.754436
19.385815
19.092560
19.623637
19.617677
19.420981
20.579696
19.758940
18.856525
18.638968
17.881989
15.634894
16.509891
16.040802
16.064644
14.647841
15.031695
14.002919
14.511943
13.179779
12.992620
12.202859
11.951923
13.282895
11.788607
12.025833
12.793541
11.002421
11.885762
12.047887
11.680722
10.449886
11.173487
11.009574
11.014938
10.710955
10.912418
13.659000
13.018847
13.932586
15.623569
16.584992
16.747713
17.174482
16.022921
15.719533
15.768409
14.746785
13.979673
11.814833
10.588765
9.841919
9.230971
8.686781
8.855462
7.553697
7.655621
7.618666
7.054806
7.407665
6.881952
6.503463
6.331801
6.262660
##ZVALUE=230
76.267719
83.997846
124.836564
188.620687
229.723454
274.044871
281.334519
264.017582
230.668783
182.757974
125.163794
92.345476
65.521002
56.992769
57.246685
61.076880
61.737895
56.365728
51.047802
40.322542
29.657483
19.831657
13.794899
7.456541
6.449819
6.674528
6.690621
7.551908
8.528829
10.606647
10.763407
12.314916
12.480617
13.151765
13.546944
15.315413
14.691949
16.028881
15.338659
14.900565
15.295744
15.594959
14.251471
14.509559
13.980865
13.873577
13.370514
13.429523
11.761785
12.852550
12.016892
12.065768
11.752844
10.721684
11.240840
12.014508
12.266636
11.162758
11.695623
10.323524
11.536479
11.480451
10.612607
11.340976
11.049509
11.725426
10.932684
11.830926
10.726452
12.051463
14.786720
13.670921
13.863444
17.758608
17.033815
16.796589
16.297698
15.684962
14.077425
12.721419
12.414455
11.742711
11.542439
10.399818
9.971857
9.557605
9.334683
7.611513
8.488894
8.212924
7.705688
8.753538
8.172989
7.274747
7.545948
7.620454
##ZVALUE=235
19.240975
22.905469
44.467449
109.275579
176.404715
274.865627
357.427597
464.441776
505.833626
492.689610
443.255901
344.259739
252.169967
161.455870
115.748644
93.379617
80.667734
85.579753
92.289448
89.401603
80.874562
69.704652
49.051642
38.369894
25.615692
17.312765
11.853576
11.022687
9.090900
9.452701
9.874701
10.946989
10.811687
11.891723
11.405945
12.526512
11.335611
12.948513
12.200475
12.036562
13.170838
13.545752
12.194514
12.451410
11.780858
11.765957
11.996627
11.346936
10.845661
11.875629
11.812449
11.115670
11.887550
12.011528
11.841655
12.550950
12.120605
11.568666
11.983514
10.721684
12.178421
10.223985
10.590553
10.197759
11.725426
12.202859
11.250973
12.526512
12.006760
13.316870
15.251637
16.051531
16.724467
17.597675
18.497705
18.975735
19.770861
18.922687
17.112494
14.828444
14.779568
12.708902
12.064576
12.646914
13.116598
11.667609
11.052489
11.229515
10.545850
10.666847
9.393692
8.733869
9.221435
9.269714
7.945895
7.508993
##ZVALUE=240
2.604723
2.316833
6.984472
24.636984
51.530600
125.382543
209.803581
370.668769
510.575771
632.560849
718.683600
738.211870
650.882721
540.745854
401.948690
275.380611
162.754655
119.840503
106.261969
108.135939
117.622614
124.787688
119.296908
102.291703
87.771416
64.489841
49.012899
37.611723
23.924708
18.264651
17.281771
14.274716
12.696981
14.564991
13.008714
12.955666
14.461875
11.929870
11.758804
13.020635
13.390779
12.569427
12.158751
12.746453
11.554956
11.698604
12.275577
12.678504
11.483431
11.747479
12.414455
11.848807
12.007952
13.034940
12.640953
12.268424
11.447668
12.004972
10.572672
12.198687
10.700822
11.839867
11.327863
10.912418
11.600852
12.666583
12.805462
12.873411
11.729598
14.020801
15.973449
17.225742
16.896725
20.124912
20.847917
20.511746
21.875501
19.431710
19.962788
17.624497
17.636418
15.663505
14.392734
14.350414
13.689995
11.842847
12.154579
10.926723
11.062622
11.666417
10.350943
10.461807
9.422898
9.336472
10.291934
9.701848
##ZVALUE=245
1.943707
2.046824
1.883507
2.003908
5.278587
18.581748
55.624843
109.175444
227.959752
336.774588
511.255860
601.716638
697.574615
705.288649
662.064552
544.724464
434.329510
296.032429
206.808448
130.820870
106.102824
106.173754
117.880702
132.165551
138.250589
131.430626
118.813515
101.329684
77.957511
60.477853
46.253800
30.115843
23.377538
17.832518
15.679598
15.725493
14.635921
13.530850
13.042688
12.529492
12.377501
12.249947
11.761785
11.136532
12.451410
12.070537
11.520982
11.327863
11.658669
9.865761
9.916425
11.340976
10.230541
10.264516
10.808706
9.771585
9.997487
10.659695
10.437965
9.075999
10.045767
10.044575
9.861588
9.616613
9.371638
9.655952
9.953976
10.336637
9.868741
11.374950
12.548566
14.111996
15.334487
16.234517
17.463565
17.708540
17.064810
16.987920
15.692711
16.752481
15.844703
13.714433
14.108419
12.198687
11.959672
11.740923
10.938644
10.355711
9.243488
9.992719
10.137558
9.635687
9.165406
8.650422
9.082556
9.333491
##ZVALUE=250
1.349449
1.438856
1.398921
1.450777
1.687407
1.195669
2.756715
8.787513
38.407445
77.240467
173.646808
279.860497
398.942828
569.297671
673.410892
747.758746
742.039680
660.786629
562.882423
392.714739
272.173882
179.763436
111.382604
100.188851
112.067461
125.599504
141.205788
146.688819
139.197707
130.073428
113.834739
87.784529
66.301823
45.368671
33.291578
22.241473
18.375516
16.278625
14.525652
13.151765
13.410449
12.742877
12.207627
13.475418
12.166500
11.013746
10.971427
10.952950
10.349751
11.272430
9.710789
10.700822
10.521412
9.490848
9.184480
9.967685
9.604692
9.676814
8.524656
9.318590
8.849502
9.079576
8.679628
8.023977
8.551478
8.329749
8.405447
8.963943
9.309649
8.764863
10.472536
10.454655
9.989738
10.919571
10.433793
11.089444
10.764599
10.914803
10.160804
9.881854
9.742975
9.184480
9.393692
8.838773
8.682609
8.111596
8.586645
8.005500
7.410645
6.847978
6.868839
6.922483
7.638931
7.274747
6.699562
6.681681
##ZVALUE=255
1.012683
1.187921
1.002550
1.103878
1.204610
1.085997
1.338720
1.501441
1.804829
4.107952
20.010471
48.344731
98.739862
207.166672
317.899585
496.645570
618.423820
749.740601
784.806013
738.819838
643.010736
517.585874
329.508781
216.159821
125.569701
97.255707
95.414519
108.458996
133.370757
146.978498
152.763724
152.179599
137.080550
111.688972
90.985894
62.298775
46.294928
28.399825
22.595525
16.098619
14.169812
13.299584
13.887882
13.247728
13.467669
12.593865
11.935830
12.109876
11.628866
11.149645
11.329651
10.833740
10.245442
9.974837
10.726452
9.558797
8.802414
10.046959
9.335876
8.679628
8.246899
9.058714
9.283423
8.067489
8.277893
7.260442
8.287430
7.648468
8.728504
8.747578
9.314418
9.442568
9.308457
9.691715
9.782910
9.922981
10.196567
9.694695
8.068681
8.687973
7.804632
7.735491
7.709861
7.144809
6.721616
6.938577
6.483793
6.198883
6.391406
6.424785
5.762577
5.829930
5.919933
6.399751
5.888939
5.854964
##ZVALUE=260
0.788569
0.839829
0.656843
0.977516
0.949502
1.099706
0.929832
1.345873
1.094937
1.504421
1.537800
2.398491
6.875396
29.537678
67.212582
160.740614
269.298553
442.465544
592.648983
775.724649
857.414603
865.249634
762.956738
637.900829
430.222750
299.943686
175.630450
115.790963
85.155964
87.988973
112.060905
132.697821
152.289867
158.486962
158.782601
140.003562
119.024515
88.934898
69.480538
44.477582
33.218861
21.997690
18.222928
14.884472
15.114546
13.753772
13.906956
13.302565
12.906790
12.648702
12.091994
12.103915
11.213422
10.323524
11.415482
10.408759
10.334849
9.685755
10.112524
10.177493
8.808970
9.183884
8.767843
8.370876
7.791519
8.317828
8.009672
8.252859
8.649826
9.295940
8.835793
9.390712
9.605885
8.652806
9.365678
8.538961
8.305907
8.013844
8.118749
7.592440
6.937981
6.921887
6.549954
6.225705
5.841851
5.755424
5.696416
5.516410
5.196929
5.352497
4.993677
4.848838
4.980564
4.517436
4.634857
4.341602
##ZVALUE=265
0.813603
1.001954
0.902414
0.866652
0.893474
0.783801
1.114607
0.990629
1.026988
0.932813
1.164675
1.360774
1.030564
1.773834
4.177690
19.933581
50.656796
123.697519
219.385624
415.679812
579.921603
746.392608
908.157825
952.679515
863.725543
751.056671
560.737848
404.087901
232.694745
144.627690
96.775889
76.895952
89.830756
120.035410
141.133666
162.339807
165.362954
158.373713
142.507553
118.543506
93.845725
65.884590
49.318671
31.847954
23.860931
18.387437
16.129613
15.065670
14.648438
13.312697
12.619495
13.478994
13.342500
11.602640
11.180639
11.011958
10.547638
10.873675
10.603666
10.417700
10.191798
9.162426
8.978844
9.356737
9.105802
8.663535
8.501410
8.599758
8.113980
8.635521
8.928776
9.037852
8.959770
9.488463
8.712411
8.575916
8.084774
7.683635
7.850528
6.938577
6.592870
5.666614
6.321669
6.220937
5.932450
5.129576
5.450845
5.181432
5.100965
4.439950
4.616976
4.863739
4.667640
4.408956
4.253983
4.422665
##ZVALUE=270
1.035929
0.905991
0.796914
0.964999
1.038909
1.042485
1.104474
0.967979
1.260638
1.076460
1.194477
1.163483
1.041889
1.381636
1.323819
1.648664
2.087951
8.535981
27.442575
88.235736
173.953772
302.920938
529.927611
717.892647
918.996930
994.306803
988.168716
901.073813
705.160499
532.077551
368.238688
200.465918
121.322870
71.922541
71.344972
94.356537
117.204785
143.635869
159.326792
166.707635
163.328648
143.359900
121.419430
92.347860
69.606900
44.252872
32.763481
22.869706
17.879605
14.740825
13.749599
12.977719
13.529658
12.854934
11.819601
11.579990
12.039542
10.712743
10.150671
10.689497
10.357499
9.438992
10.201931
9.367466
9.193420
8.783937
8.636713
8.464456
8.932948
8.800626
9.082556
8.999705
8.691549
9.029508
8.522868
8.638501
8.317828
8.024573
7.021427
6.980896
6.087422
6.103516
6.351471
5.848408
5.956888
5.298853
5.614758
5.057454
4.710555
4.507899
4.333854
3.933907
4.496574
4.255772
4.178882
3.843904
##ZVALUE=275
0.651479
0.541806
0.703931
0.690818
0.699759
0.730753
0.548959
0.735521
0.936985
0.819564
0.867844
0.760555
0.887513
0.836849
0.881553
1.278520
1.514554
1.374483
1.381636
4.292727
16.484857
47.290921
136.156678
252.385736
472.501516
643.763542
853.860974
978.546739
1015.584469
990.569592
886.873007
664.771795
479.736924
261.809826
155.055523
77.313781
58.734417
68.724751
86.390972
117.097497
139.461756
157.713890
162.535906
158.286691
139.419436
112.127662
91.042519
65.938830
48.364997
31.801462
22.040606
15.278459
13.766885
11.930466
11.457801
11.046529
10.560751
10.058880
9.724498
9.519458
9.609461
9.930730
9.631515
9.261966
9.301901
8.550882
8.815527
8.374453
8.487701
8.029938
8.390546
8.476973
8.646846
8.640885
8.327961
7.715821
7.669926
7.331967
7.229447
6.899834
6.422997
5.759597
5.364418
5.690455
5.753636
5.238652
4.901886
4.921556
4.946589
4.132986
4.391670
4.321933
4.134774
3.867745
4.040599
4.475713
##ZVALUE=280
0.679493
0.736713
0.554919
0.596642
0.438690
0.732541
0.654459
0.619888
0.688434
0.710487
0.846982
0.713468
0.989437
0.930429
0.819564
1.049638
1.022816
1.163483
1.142621
1.539588
1.600981
2.343655
10.220408
32.537580
104.658604
194.840431
368.494987
549.144745
786.206722
933.606625
1015.584469
1015.584469
964.055657
744.806528
561.398864
324.116945
193.960667
91.784596
56.906939
47.571659
60.159564
85.955858
109.628439
135.051608
148.948431
155.002475
150.986910
131.775737
113.707781
84.090829
63.864589
41.437745
28.752685
17.823577
13.351440
10.219812
10.707974
9.178519
9.467602
8.808970
8.602738
8.909702
8.533597
8.420944
8.142591
8.286834
8.433461
7.874966
7.944703
7.990599
7.659793
8.061528
8.095503
7.833838
7.628798
7.685423
6.882548
6.253719
6.490946
6.355643
5.778670
5.979538
5.379915
4.918575
5.128980
4.884601
5.060434
4.924536
4.722476
4.319549
4.607439
4.280806
3.922582
3.858805
4.023910
3.882647
##ZVALUE=285
0.665784
0.496507
0.650883
0.656843
0.616908
0.536442
0.530481
0.616908
0.697970
0.740886
0.639558
0.741482
0.844598
0.815988
0.813603
0.806451
1.058578
0.714660
0.870824
1.016855
1.328588
1.184940
1.188517
1.618862
4.631877
16.696453
58.084726
121.266842
266.608596
425.354838
610.609651
853.557587
999.894738
1015.584469
1015.584469
857.807994
681.345463
429.399610
273.483992
129.633546
70.238709
37.404895
37.789941
55.350661
75.599551
106.070638
123.576522
141.698718
147.348642
143.892765
130.669475
107.385516
86.697936
60.117841
42.101741
26.162863
17.609596
11.665821
8.970499
8.302927
8.294582
7.334948
7.184744
7.277727
7.300973
7.360578
7.353425
7.163882
7.321835
7.107854
6.660819
7.320642
7.569790
6.799698
6.983876
6.640553
6.877780
6.471872
5.651712
5.808473
5.658865
5.182624
5.306602
5.266666
5.226731
4.654527
4.560947
4.477501
4.133582
3.977418
4.417896
4.020929
3.892779
4.071593
3.750920
3.991723
##ZVALUE=290
0.414848
0.337958
0.589490
0.439882
0.582933
0.613928
0.609756
0.492930
0.688434
0.738502
0.726581
0.355840
0.459552
0.669956
0.548959
0.549555
0.802875
0.707507
0.942945
0.624657
0.830889
1.216531
0.957847
1.052618
1.110435
1.359582
2.130866
6.833673
33.603907
78.276992
151.017904
322.975516
507.596731
778.059959
946.857929
1015.584469
1015.584469
954.528451
791.698694
535.976887
356.917977
179.535747
95.600486
40.095448
26.425719
34.977794
49.012899
72.527528
93.364716
117.706656
133.258700
143.037438
140.668750
125.603676
106.302500
79.011917
59.721470
38.831830
25.429726
15.169978
10.675788
7.412434
6.574988
6.678700
6.317496
5.879998
6.296635
6.145835
6.422997
6.154776
6.324649
6.382465
6.403923
6.515980
6.185770
6.243587
5.734563
5.411506
5.254745
5.332828
5.158782
4.591942
4.498959
4.290938
4.536510
4.554987
4.135966
4.122853
4.037619
3.813505
3.801584
3.669858
3.805757
3.659725
3.815889
3.545880
##ZVALUE=295
0.521541
0.592470
0.409484
0.586510
0.417829
0.453591
0.388622
0.521541
0.604987
0.529885
0.567436
0.453591
0.676513
0.588894
0.704527
0.581741
0.703931
0.593662
0.592470
0.612736
0.859499
0.795722
0.931621
1.111627
0.863671
1.327991
1.238585
1.445413
1.485944
3.028512
10.767579
48.711896
110.891461
260.991454
424.090624
683.836937
869.614482
1015.583873
1015.583873
1008.549929
882.228613
635.394454
447.432995
241.035819
132.054687
50.433874
25.588870
21.221638
27.961731
46.636462
63.249469
89.596510
108.916759
125.897527
134.290457
130.218863
119.874477
98.395944
77.655911
54.821968
39.289594
22.576451
14.944673
9.177923
6.873608
5.726814
4.890561
5.362630
5.374551
5.296469
5.329847
5.244613
5.670786
5.465746
5.303621
5.160570
4.935861
4.932880
4.878640
4.597902
4.239678
4.071593
4.351735
4.037619
3.782511
3.954768
3.773570
3.726482
3.762841
3.507733
3.419518
3.812909
3.510714
3.303885
3.358722
3.485680
##ZVALUE=300
0.485778
0.695586
0.398755
0.470877
0.426769
0.607967
0.459552
0.590682
0.574589
0.583529
0.457764
0.582933
0.352859
0.528693
0.479817
0.488758
0.600815
0.689626
0.653863
0.567436
0.761747
0.775456
0.839829
0.918508
0.793934
0.843406
1.078844
1.103878
1.104474
1.281500
1.485944
1.705885
6.859899
24.420619
83.827972
168.394446
348.568559
534.875989
793.261528
954.175591
1015.584469
1015.584469
947.706699
789.883733
528.635979
348.652601
176.687837
96.685886
37.223697
18.837452
18.031597
25.275946
41.190982
56.539774
81.464648
100.521445
119.670630
127.756596
125.601888
115.984678
96.528530
78.487992
54.844618
38.605928
22.788644
14.645457
8.777976
6.268620
4.752874
4.702806
4.560947
4.557967
4.512668
4.734993
4.774928
4.530549
4.502535
4.513860
4.226565
4.182458
4.030466
3.719926
3.734827
3.690720
3.360510
3.552437
3.414750
3.445745
3.624558
3.531575
3.492832
3.640652
3.473759
3.492832
3.255606
3.217459
##ZVALUE=305
0.282526
0.235438
0.324845
0.163913
0.369549
0.355840
0.232458
0.271797
0.346899
0.164509
0.245571
0.329614
0.255704
0.370741
0.432730
0.512600
0.340939
0.505447
0.458956
0.472665
0.448823
0.538826
0.513792
0.599623
0.604987
0.550747
0.724792
0.718832
0.782609
0.773668
1.000762
0.981688
1.138449
1.638532
2.542734
16.169548
47.567487
137.333870
250.703692
467.669964
660.392642
898.900032
1012.699604
1015.447974
1010.973454
820.627809
644.097924
414.560437
261.430740
120.003819
57.890415
21.198988
12.989640
16.245842
23.795962
39.180517
55.767894
79.123974
94.953775
110.799670
119.176507
116.166472
108.663440
90.730786
72.559714
49.605966
35.503507
20.917654
13.819933
7.963777
5.705953
4.566908
4.298687
4.125834
4.251599
3.804564
3.843904
4.033446
3.555417
3.464818
3.393888
3.632903
3.406405
3.199577
3.388524
3.382564
3.252625
3.354549
3.266931
3.137589
3.094673
3.156662
3.206730
3.087521
2.788901
3.020763
##ZVALUE=310
0.369549
0.336766
0.381470
0.375509
0.435710
0.367761
0.458956
0.382662
0.404716
0.506639
0.405908
0.435710
0.353456
0.473857
0.313520
0.424981
0.424981
0.611544
0.551939
0.518560
0.493526
0.791550
0.648499
0.715852
0.628829
0.701547
0.706911
0.707507
0.601411
0.841618
0.808835
0.884533
0.898838
1.250505
1.318455
1.550913
1.718998
6.993413
23.941994
83.127618
164.348483
344.038010
530.647635
794.164538
952.743888
1015.584469
1015.584469
939.743519
781.029463
531.225801
358.268619
181.592703
96.739531
35.064816
15.097857
11.124611
13.360977
21.716952
31.978488
50.383806
66.411495
89.043975
101.787448
111.974478
113.649964
103.419423
89.922547
70.046782
53.333640
33.296943
22.683740
13.495684
8.790493
5.845428
4.685521
3.866553
3.582835
3.567934
3.637671
3.326535
3.158450
3.337860
3.118515
3.235936
3.218651
3.306866
3.433824
3.338456
3.309846
3.384948
3.374815
3.249645
3.224611
3.103614
3.157854
3.248453
##ZVALUE=315
0.125766
0.091791
0.090599
0.189543
0.137687
0.093579
0.134706
0.267625
0.219941
0.198483
0.218749
0.224710
0.203848
0.157952
0.242591
0.307560
0.230670
0.176430
0.363588
0.230670
0.465512
0.304580
0.525713
0.378489
0.298619
0.315905
0.681877
0.510812
0.582933
0.520945
0.349879
0.663996
0.514984
0.826716
0.851750
1.004934
1.040697
1.135468
1.476407
3.092885
11.818409
52.400827
115.487576
262.500644
430.293679
695.253611
867.737532
1011.842489
1015.428901
1001.368761
872.328877
633.096695
448.197722
243.304968
132.282972
48.766732
20.356774
9.336472
8.557439
12.858510
18.191934
30.462742
43.387413
63.284636
78.749657
96.805692
105.073452
105.664730
98.281503
81.112981
66.317916
48.368573
34.603477
19.889474
13.374686
7.151961
5.105734
3.969669
3.401637
3.108978
3.035665
2.955794
2.819896
2.993941
3.027916
2.922416
3.261566
2.923608
2.880692
3.004670
3.057718
2.755523
3.047585
2.790689
2.958775
3.014803
##ZVALUE=320
0.347495
0.236630
0.224710
0.176430
0.363588
0.284910
0.296831
0.431538
0.390410
0.372529
0.363588
0.452995
0.344515
0.272989
0.282526
0.347495
0.322461
0.370741
0.437498
0.301600
0.415444
0.422597
0.411868
0.562668
0.703931
0.581741
0.446439
0.524521
0.456572
0.488758
0.461936
0.633597
0.585914
0.721812
0.882745
0.886917
0.867844
1.053810
1.177788
1.240969
1.313686
1.847744
5.410910
28.746724
74.664950
197.062492
329.287648
548.324585
731.624961
953.664780
1015.561819
1015.561819
952.130556
735.597610
543.223619
308.056474
179.928541
78.014731
35.240650
11.639595
7.364750
8.240938
10.474920
16.957521
25.374889
41.999817
56.494474
75.246692
87.695718
99.524856
99.985003
92.667937
81.563592
62.434673
47.437549
30.433536
20.252466
12.141466
7.597804
4.669428
3.872514
3.567934
3.187656
3.096461
3.082752
3.036857
3.255606
3.047585
2.974868
2.983809
2.699494
3.073812
3.173947
3.040433
3.017783
2.987981
##ZVALUE=325
0.309944
0.211596
0.150800
0.209808
0.205636
0.150800
0.284910
0.312924
0.251532
0.175834
0.232458
0.209808
0.294447
0.291467
0.243783
0.297427
0.256896
0.267625
0.364780
0.466704
0.278950
0.309944
0.209808
0.370741
0.538826
0.382662
0.326633
0.477433
0.615716
0.488758
0.579953
0.404716
0.575781
0.513792
0.624657
0.746846
0.702739
0.709891
0.842810
0.920892
0.808835
0.913739
1.375675
1.311898
3.351569
13.763905
54.479837
116.228461
258.590579
419.607759
668.811798
841.499567
1002.441645
1015.501022
968.326926
826.838613
574.969649
401.376486
217.008591
119.903684
44.518709
18.714666
7.719994
6.399751
7.544756
9.472966
15.710592
24.080873
40.614605
54.521561
73.523521
84.720850
93.684793
93.865991
86.042881
75.567961
57.683587
44.095516
28.005838
18.687844
10.273457
6.804466
4.820824
3.775954
3.122687
3.093481
2.846718
2.747774
2.912879
2.761483
2.810955
2.728701
2.791882
2.768636
2.779961
2.770424
##ZVALUE=330
0.376701
0.222921
0.328422
0.235438
0.398755
0.219941
0.339746
0.451803
0.390410
0.228882
0.310540
0.300407
0.208616
0.216961
0.306964
0.302792
0.325441
0.299811
0.387430
0.301600
0.358820
0.444651
0.472665
0.415444
0.386834
0.341535
0.528693
0.387430
0.460744
0.439882
0.476837
0.468493
0.551939
0.675917
0.683665
0.643730
0.692606
0.757575
0.739694
0.768900
0.762939
0.900626
0.838637
0.993609
1.125932
1.110435
1.563430
7.814765
25.669932
87.483525
170.401931
345.257521
513.487458
756.493807
912.981033
1015.397906
1004.858017
867.804885
703.627467
460.784435
300.019979
142.204762
72.110891
25.059581
10.323524
6.149411
6.031990
6.769896
9.116530
15.391707
22.827983
36.428571
49.467683
66.983700
78.461766
87.261796
87.017417
80.377460
70.024729
53.897500
40.637851
25.979877
17.974973
10.811687
7.385612
4.557967
3.724694
3.164411
3.061891
2.714992
2.919436
2.914667
2.765656
2.707839
2.743602
2.876520
##ZVALUE=335
0.183582
0.207424
0.230670
0.266433
0.205636
0.438690
0.420809
0.341535
0.225902
0.222921
0.278950
0.249743
0.263453
0.268817
0.336766
0.114441
0.227690
0.094771
0.140667
0.322461
0.316501
0.311732
0.402927
0.368953
0.460744
0.425577
0.532866
0.539422
0.482798
0.463724
0.487566
0.519753
0.364780
0.541806
0.671744
0.533462
0.713468
0.570416
0.763535
0.593662
0.957847
0.711679
0.699759
0.901818
0.885725
0.987649
1.216531
1.397729
1.341701
3.341436
13.117790
53.578615
115.081668
259.896517
418.684483
664.506555
831.897855
974.309444
1001.361012
911.888480
773.141980
537.039638
370.793939
196.639895
104.586482
35.481453
14.679432
6.392598
5.674958
5.805492
6.663799
9.040833
13.497472
23.256540
33.336878
49.330592
60.855746
73.899627
79.680681
80.471635
74.876547
62.341690
51.969886
39.113760
28.987527
17.832518
11.956692
7.518530
5.016923
3.597736
3.039837
2.776980
2.818704
2.633929
2.659559
2.614856
##ZVALUE=340
0.319481
0.211596
0.266433
0.382662
0.287890
0.322461
0.274777
0.449419
0.175834
0.281930
0.165701
0.132918
0.209808
0.366569
0.157952
0.379682
0.199676
0.259876
0.257492
0.201464
0.385642
0.298619
0.391603
0.226498
0.260472
0.292659
0.196695
0.338554
0.429749
0.467896
0.302792
0.462532
0.431538
0.416636
0.460744
0.491738
0.509620
0.672936
0.644922
0.536442
0.621676
0.696778
0.729561
0.755787
0.642538
0.745654
0.828505
0.894666
0.881553
1.314878
1.180768
1.903772
6.372929
32.302737
80.821514
201.123953
340.059400
558.274984
730.721951
908.519626
973.781943
933.618546
821.089745
612.258911
435.542464
229.922533
128.479004
52.445531
21.028519
7.079840
5.646944
5.307794
5.491972
6.469488
8.545518
13.838410
20.945668
32.829642
43.660998
59.316754
68.980455
74.976683
75.100660
69.971681
62.902570
49.152970
38.505793
26.413798
18.922687
11.618733
7.639527
4.547834
3.547668
2.973676
2.717972
2.731681
##ZVALUE=345
0.302792
0.324845
0.139475
0.365973
0.194907
0.282526
0.196695
0.092983
0.254512
0.098944
0.212789
0.355840
0.202656
0.289679
0.164509
0.160933
0.293851
0.332594
0.292659
0.292659
0.281930
0.253916
0.151992
0.331998
0.466704
0.386834
0.367761
0.430942
0.408888
0.334978
0.410676
0.360608
0.407696
0.380874
0.425577
0.433922
0.521541
0.468493
0.374913
0.390410
0.450611
0.622869
0.550747
0.643730
0.577569
0.544786
0.764728
0.791550
0.909567
0.838637
0.963807
0.928640
1.124740
1.213551
3.457665
13.935566
59.012771
122.612715
260.222554
406.256914
637.714863
793.375969
922.152996
945.933461
848.860741
713.260770
490.781665
327.360630
154.579878
76.700449
24.941564
10.489821
5.896688
5.112886
4.926920
4.770756
5.610585
7.102489
12.353659
18.430948
30.056834
39.847493
51.634908
61.095953
68.143606
69.161654
66.525936
59.583783
47.969818
38.360953
26.484728
18.318892
11.217594
7.744431
4.781485
3.663898
##ZVALUE=350
0.118613
0.201464
0.183582
0.219941
0.263453
0.211596
0.158548
0.125766
0.267625
0.206828
0.334978
0.272989
0.213981
0.229478
0.259876
0.237823
0.314713
0.251532
0.382662
0.214577
0.259876
0.282526
0.228882
0.277758
0.300407
0.244975
0.218749
0.127554
0.338554
0.300407
0.380874
0.377893
0.481606
0.482798
0.354648
0.630617
0.476837
0.452995
0.542998
0.633597
0.462532
0.526905
0.550747
0.530481
0.561476
0.454783
0.621676
0.695586
0.607967
0.770688
0.747442
0.658631
0.842810
0.923872
1.023412
1.157522
1.715422
8.666515
28.171539
90.387464
173.393488
349.155664
508.016944
717.622638
846.560001
925.192833
891.996026
742.961764
581.046939
353.871584
218.866467
101.747513
47.469735
13.183951
6.514788
4.941821
4.521608
4.378557
4.294515
5.007982
6.497502
11.364818
16.393661
25.249720
33.816695
46.158433
54.056644
61.759949
63.982606
61.042905
55.482984
44.964552
36.572814
24.781823
17.969608
11.219978
##ZVALUE=355
0.213981
0.143647
0.156760
0.259876
0.218749
0.209808
0.200868
0.262856
0.181794
0.310540
0.205636
0.233650
0.134706
0.221729
0.319481
0.297427
0.348687
0.182986
0.353456
0.271797
0.399947
0.328422
0.346899
0.247955
0.289679
0.341535
0.317693
0.081658
0.194907
0.353456
0.390410
0.435710
0.286698
0.379682
0.457764
0.544786
0.467896
0.462532
0.560880
0.431538
0.194907
0.438690
0.416636
0.459552
0.538826
0.749826
0.435710
0.612736
0.572801
0.679493
0.664592
0.540614
0.638962
0.731945
0.863671
0.967979
1.176000
1.159906
1.411438
2.933741
17.715693
48.050880
131.754875
237.488747
434.319973
597.692728
788.836479
880.748034
884.605646
788.717866
592.541695
438.983440
251.008868
141.099691
54.559708
23.248792
7.357597
5.100965
4.421473
4.084706
3.863573
3.864765
4.664660
5.714893
8.956790
13.704896
21.653771
29.538870
40.698647
47.904849
55.982471
57.654977
56.118965
51.642656
42.023659
34.751892
##ZVALUE=360
0.120997
0.214577
0.269413
0.225902
0.275970
0.379682
0.256896
0.112653
0.253916
0.214577
0.137687
0.130534
0.177622
0.219941
0.068545
0.103712
0.181794
0.176430
0.171661
0.045896
0.104904
0.338554
0.177622
0.329614
0.223517
0.241995
0.283718
0.191927
0.312924
0.402927
0.323653
0.126958
0.430942
0.264645
0.265837
0.235438
0.313520
0.539422
0.360608
0.489950
0.292659
0.424981
0.460744
0.452995
0.359416
0.426769
0.439882
0.330806
0.425577
0.608563
0.483990
0.572801
0.594854
0.679493
0.557899
0.703931
0.779629
0.929832
1.050830
1.124740
1.329780
1.998544
6.488562
29.953718
74.665546
186.730623
310.940742
509.349704
672.285557
834.970474
877.245665
821.132660
704.593658
489.623547
329.231620
165.064931
88.303685
32.585859
12.610555
5.231500
4.380941
3.969669
3.740788
3.380775
3.488660
3.818870
4.631877
7.448792
10.668635
17.567873
24.043918
34.792423
41.383505
49.297810
52.229762
51.834583
##ZVALUE=365
-0.026822
-0.040531
-0.056624
0.053644
0.073910
0.188947
0.067949
0.042915
-0.006557
-0.037551
-0.051856
-0.179410
-0.039935
-0.074506
0.056624
-0.091791
0.074506
0.138879
0.092983
-0.010729
-0.032783
-0.030994
0.146627
0.112653
0.020862
0.094771
-0.000596
0.096560
0.059605
-0.038743
0.058413
0.038743
0.194907
-0.048876
0.086427
0.247955
0.158548
0.257492
0.159740
0.184774
0.179410
0.097752
0.157952
0.184774
0.194907
0.152588
0.139475
0.157952
0.254512
0.321865
0.306964
0.348687
0.421405
0.366569
0.492930
0.533462
0.518560
0.611544
0.585914
0.598431
0.732541
0.945926
1.021624
1.060963
2.775788
16.338825
45.055747
121.175647
226.344466
422.119498
581.164956
761.343837
839.576721
827.934742
738.907456
567.200780
410.969853
221.957564
123.392940
45.913458
17.606616
5.488992
4.098415
3.733635
3.366470
3.123879
3.073812
2.930760
3.003478
3.905892
5.158782
9.274483
13.674498
21.584630
28.408766
36.773682
##ZVALUE=370
0.239611
0.251532
0.183582
0.208616
0.236630
0.169873
0.277758
0.252724
0.328422
0.373721
0.234842
0.153780
0.366569
0.297427
0.128746
0.210404
0.151992
0.172853
0.175834
0.328422
0.258684
0.358820
0.237823
0.362992
0.267625
0.303984
0.317693
0.138879
0.179410
0.392795
0.245571
0.220537
0.388622
0.300407
0.367761
0.346899
0.361800
0.428557
0.394583
0.292659
0.344515
0.359416
0.393987
0.434518
0.433922
0.356436
0.486970
0.579953
0.540614
0.503659
0.323653
0.517964
0.538826
0.418425
0.608563
0.413656
0.535846
0.572801
0.623465
0.663996
0.778437
0.785589
0.979900
1.048446
0.960827
1.093745
1.600981
8.837581
29.251575
90.543628
173.716545
335.824490
492.856503
696.477890
803.408623
836.001635
778.375864
621.304512
469.294786
273.710489
158.892870
64.029694
28.251410
8.443594
4.640818
3.757477
3.531575
3.205538
3.213882
2.777576
2.946854
3.087521
3.520846
5.036592
7.308722
11.973977
##ZVALUE=375
0.156760
0.049472
0.207424
0.303984
0.165701
0.135899
0.097752
0.292659
0.231862
0.153780
0.236630
0.209808
0.155568
0.237823
0.238419
0.131726
0.383854
0.236630
0.315905
0.163913
0.277758
0.321865
0.314713
0.312924
0.224710
0.373721
0.183582
0.102520
0.309944
0.351667
0.256896
0.346899
0.522733
0.393987
0.437498
0.407696
0.432730
0.207424
0.388622
0.474453
0.297427
0.357628
0.269413
0.233650
0.467896
0.249743
0.400543
0.402927
0.521541
0.510812
0.494719
0.499487
0.475645
0.358820
0.461936
0.455976
0.461936
0.404716
0.648499
0.508428
0.467896
0.593662
0.630617
0.669956
0.787973
0.806451
0.980496
1.180768
1.269579
4.090667
14.950633
55.485964
118.360519
264.517665
410.401821
617.903471
743.559599
828.363895
816.774964
690.063834
546.945930
344.282985
216.989517
101.735592
51.492453
16.459823
6.395578
3.712773
3.378987
3.248453
3.072619
2.684593
2.662539
2.547503
2.697706
3.062487
##ZVALUE=380
0.240803
0.162721
0.016689
0.198483
0.274777
0.205636
0.075698
0.203848
0.235438
0.170469
0.292659
0.166893
0.219941
0.200868
0.235438
0.143647
0.194907
0.187755
0.126958
0.323653
0.196695
0.315905
0.181794
0.345707
0.122786
0.239611
0.191927
0.202656
0.400543
0.284910
0.343919
0.469685
0.244975
0.507832
0.320673
0.356436
0.351667
0.421405
0.370741
0.389814
0.350475
0.455976
0.464916
0.454783
0.262856
0.420809
0.487566
0.459552
0.384450
0.379682
0.451803
0.589490
0.511408
0.379682
0.454783
0.300407
0.469685
0.365973
0.312924
0.337958
0.756979
0.665784
0.743866
0.598431
0.541806
0.813603
0.663996
0.681877
1.063943
1.198649
1.327991
2.218485
10.185838
31.409860
98.439455
182.756782
352.546573
510.653853
704.910755
802.955031
820.038915
751.121640
600.043535
456.840992
272.012949
163.382888
69.073439
31.563640
8.622408
4.204512
3.441572
3.157854
2.837777
2.704859
2.851486
2.421737
##ZVALUE=385
0.118613
0.114441
0.179410
0.187755
0.040531
0.173450
0.249743
0.191927
0.191927
0.154972
0.154972
0.164509
0.047684
0.081658
0.110865
0.265837
0.250936
0.147820
0.312924
0.029802
0.055432
0.056624
0.177622
0.270605
0.125766
0.280738
0.401735
0.372529
0.366569
0.499487
0.421405
0.591874
0.562668
0.546575
0.656843
0.579953
0.629425
0.520945
0.701547
0.546575
0.553727
0.610948
0.673532
0.590682
0.585914
0.479817
0.558496
0.534654
0.433922
0.426769
0.538826
0.492930
0.502467
0.488758
0.474453
0.340939
0.409484
0.474453
0.545979
0.469685
0.398755
0.587702
0.475645
0.418425
0.490546
0.559688
0.674725
0.713468
0.667572
0.929832
0.914931
1.081824
1.061559
1.279712
3.667474
21.306872
55.667758
141.841769
251.264572
445.429683
597.655773
754.437447
809.735656
776.217580
685.764551
508.167744
367.371440
203.375816
116.956830
49.003959
19.517541
5.267859
3.371835
3.099442
3.117919
2.781749
##ZVALUE=390
0.198483
0.212789
0.124574
0.255704
0.209808
0.187755
0.094771
0.101924
0.115633
0.150800
0.051856
0.085831
0.126958
0.216961
0.229478
0.106692
0.185966
0.134706
0.092983
0.218749
0.237823
0.077486
0.028610
0.140667
0.274777
0.316501
0.301600
0.475645
0.376701
0.565648
0.648499
0.685453
0.799894
0.911951
0.883937
0.801682
0.882745
0.923872
1.009703
0.819564
0.917912
0.942945
0.800490
0.673532
0.511408
0.651479
0.530481
0.600815
0.740886
0.602603
0.498891
0.581741
0.613928
0.657439
0.466704
0.492930
0.574589
0.634789
0.420809
0.494719
0.575781
0.392795
0.485778
0.523925
0.526905
0.506639
0.668764
0.654459
0.761747
0.819564
0.939965
0.989437
0.950694
1.150966
1.128912
1.098514
2.144575
8.661747
40.856600
94.559789
221.561790
349.710584
531.784892
666.319728
787.182450
815.175772
741.083026
629.781485
437.686443
298.630595
157.402754
82.233548
28.413534
10.703802
3.858805
3.204942
##ZVALUE=395
0.264645
0.224710
0.149608
0.189543
0.299811
0.158548
0.120997
0.079870
0.235438
0.272989
0.110865
0.062585
0.027418
0.222921
0.092983
0.099540
0.174642
0.221729
0.219941
0.225902
0.314713
0.206828
0.157952
0.220537
0.254512
0.228882
0.427961
0.546575
0.550747
0.648499
0.883937
0.973940
0.911951
1.106858
1.228452
0.913739
1.030564
1.202822
1.223683
1.132488
0.997782
1.025796
0.866652
0.899434
0.664592
0.766516
0.628829
0.518560
0.694990
0.572801
0.556707
0.592470
0.638962
0.512600
0.432730
0.597835
0.627637
0.426769
0.453591
0.476837
0.357628
0.513792
0.530481
0.483990
0.355840
0.502467
0.632405
0.675917
0.677705
0.735521
0.863671
0.974536
0.842810
0.777841
1.030564
0.780821
1.008511
1.128912
1.375675
5.949736
22.131801
77.256560
147.232413
281.843543
419.566631
619.505644
743.031502
821.945667
809.180737
693.223476
552.711487
349.469781
220.689774
99.307895
47.560930
15.125871
##ZVALUE=400
0.341535
0.232458
0.231862
0.033975
-0.043511
0.154972
0.155568
0.263453
0.174642
0.258684
0.084639
0.272989
0.177622
0.076890
0.175834
0.258684
0.127554
0.188947
0.174642
0.199676
0.092983
0.151992
0.188947
0.307560
0.348687
0.317693
0.460744
0.590682
0.725985
0.922680
0.832677
0.863671
1.145601
1.129508
1.043677
1.126528
1.153946
1.174808
1.046658
0.954866
1.025796
0.978708
0.869632
0.935793
0.834465
0.900626
0.650883
0.692606
0.640750
0.565648
0.668764
0.624657
0.597835
0.553727
0.586510
0.610948
0.483990
0.508428
0.341535
0.454783
0.575781
0.501871
0.455976
0.427961
0.452995
0.550747
0.649691
0.594854
0.496507
0.746846
0.757575
0.877976
0.832677
0.729561
0.778437
0.813603
0.770688
0.761747
0.828505
0.911951
1.061559
2.569556
12.702942
36.251545
104.667544
194.799900
365.781784
509.445667
693.233013
776.114464
798.595548
735.442638
576.340556
429.320931
249.733925
150.518417
##END
