##TITLE=FDDW2
##FORMAT=SPECTACLE-ASCII V-1.2
##DATA TYPE=ULTRAVIOLET SPECTRUM
##SECOND TYPE=ULTRAVIOLET SPECTRUM
##DATE=01/24/18
##TIME=18:23:33
##SPECTROMETER/DATA SYSTEM=SPECTACLE
##XUNITS=NM EM
##YUNITS=ENERGY
##YFACTOR=1
##FIRSTX=220
##LASTX=410
##NPOINTS=96
##3DDATA=Equidistant
##ZUNITS=NM EX
##FIRSTZ=210
##LASTZ=400
##ZPOINTS=39
##XYDATA=(Y..Y)
##ZVALUE=210
14.962554
15.580654
13.335943
11.436939
9.824634
8.727908
8.016825
8.282661
6.593466
5.429983
3.711581
3.104806
2.557635
2.446771
2.417564
2.756715
2.600551
3.086925
2.376437
2.951622
2.831817
2.930760
2.868772
4.330873
5.172491
6.379485
8.179545
11.352897
11.757612
14.510751
17.130971
20.386577
23.337603
24.943948
25.428534
24.662614
27.035475
25.883913
26.828647
24.263859
24.995804
22.437572
21.044612
20.175576
19.237995
18.439889
17.281771
16.382933
15.061498
15.204549
13.832450
13.133883
12.680888
12.560487
12.189746
11.547804
10.564923
11.007786
9.966493
9.514689
9.636879
9.335876
9.291768
8.995533
9.029508
8.653998
8.119941
9.296536
9.092689
9.934902
9.734631
13.006926
13.777614
15.766621
17.344952
19.414425
19.684434
21.265745
19.825697
19.795895
19.040704
16.277432
14.691949
14.103651
12.771487
9.513497
8.323789
6.969571
7.135868
8.627772
12.350678
12.964606
16.817451
22.138953
26.348829
31.856894
##ZVALUE=215
45.947433
44.065714
38.058758
26.883483
22.881627
18.409491
16.456842
15.037656
13.589859
12.190938
13.034940
9.068847
6.412864
5.941987
4.296899
3.004670
3.099442
3.599524
3.294945
3.501773
3.386736
3.380775
4.272461
5.492568
5.966425
7.709861
9.535551
12.086630
15.186667
19.226670
20.882487
25.152564
29.328465
29.148459
31.516552
32.917857
34.386516
32.338500
30.887723
31.062961
28.882623
27.075410
25.225878
22.958517
23.138523
22.948980
20.827651
19.945502
18.199682
17.529726
17.200708
16.773939
16.237497
14.527440
13.747811
13.137460
12.795925
12.200475
12.590885
11.474490
12.570620
11.996627
10.066628
11.358857
10.486841
10.717511
11.922717
11.988878
11.379719
12.830496
14.001727
13.848543
15.932918
16.341805
20.094514
18.035769
18.474460
20.111799
17.464757
16.739964
16.491413
15.609860
13.478994
12.646914
11.544824
10.141730
8.575916
8.121729
7.106662
6.886721
7.027984
6.727576
6.846786
7.912517
11.293888
15.502572
##ZVALUE=220
126.504898
122.876763
128.294826
113.452673
90.114474
64.521432
49.790740
33.436418
29.622912
25.546551
26.423931
24.204850
19.458532
17.387867
15.034676
10.686517
7.263422
6.610751
4.478693
4.338622
3.610849
3.643632
3.974438
5.339980
6.053448
8.741617
10.855794
15.245676
18.119812
23.007989
28.225780
30.174851
34.323931
34.078956
35.898685
39.638877
37.866831
38.818717
37.803650
36.997795
36.014915
33.021569
31.497478
29.715896
28.319955
28.615594
25.222898
24.301410
23.363829
22.054911
20.832419
19.722581
16.848445
16.672611
16.734600
16.556978
16.244650
14.851689
15.894771
14.276505
14.412999
14.021993
14.061928
12.315512
13.723969
13.297796
12.911558
13.012886
13.850927
14.074445
17.673969
17.072558
19.527674
21.461844
23.073554
23.268461
24.224520
22.902489
22.465587
20.441413
20.753741
19.396544
16.414523
15.877485
14.933944
11.487603
10.536909
9.689927
7.472634
8.639693
8.617640
8.758903
8.910894
7.954836
7.903576
8.134842
##ZVALUE=225
147.675872
152.701735
182.754993
212.167501
219.121575
205.932856
182.713866
137.751698
107.464790
75.286627
47.023892
38.767457
38.053989
39.959550
37.988424
33.186674
26.792884
20.000935
14.423728
10.418892
8.472800
5.531907
6.468892
6.135702
6.187558
8.109808
11.105537
14.261603
17.721653
20.183921
26.267767
30.110478
31.581521
33.666492
35.653710
38.318634
39.298534
37.402511
37.525892
37.375689
37.167668
35.045743
33.497810
31.378865
29.465556
25.789738
25.024414
25.130510
24.634600
22.534728
22.754669
21.452904
20.002723
20.033717
18.574595
18.526912
18.476844
17.275810
18.246770
17.918944
16.540885
16.757846
16.278625
14.383793
15.534759
14.527440
13.980865
14.500618
15.268922
14.753938
17.515421
20.622611
21.922588
22.272468
24.854541
24.108887
23.849607
25.049448
21.981597
24.062991
24.070740
19.690990
18.403530
17.642975
15.573502
14.067888
13.536811
11.749864
9.937882
10.831952
10.783672
9.470582
9.863973
9.224415
9.558797
8.728504
##ZVALUE=230
89.923739
100.837946
158.267617
254.667997
320.798755
374.220014
394.111872
377.912521
328.633785
256.522894
164.664984
114.858747
73.774457
60.794950
58.723688
62.531829
61.267614
58.456659
52.389503
39.420724
32.138824
20.084977
14.285445
10.829568
9.162426
9.152889
10.665655
13.324618
14.095902
17.932653
19.500852
21.297932
25.196671
28.081536
27.401447
29.002428
29.450655
30.443668
30.699968
29.299855
30.488968
29.405951
25.803447
25.871992
27.222633
26.974678
23.629665
23.758411
22.242665
22.025704
21.345615
20.145774
19.802451
20.199418
19.401908
19.805431
19.840598
19.884706
19.311905
18.666983
18.420815
18.725991
17.875433
17.772913
19.135475
17.896891
16.298890
18.283725
19.116998
20.464659
21.923780
24.052858
27.173758
29.467940
30.356646
32.115579
32.785535
31.290650
29.556751
29.564500
28.910637
26.204586
22.476912
21.914840
19.824505
16.440749
15.044808
14.993548
13.415813
13.358593
14.378428
12.137890
12.681484
12.662411
12.851954
12.512803
##ZVALUE=235
21.391511
25.652647
57.596564
146.432519
249.777436
418.336987
553.209782
731.146932
806.888938
802.106857
708.677769
566.227436
375.319719
259.782672
157.675743
113.238692
91.515779
84.455609
91.152787
87.606907
81.413984
68.927407
55.160522
37.365556
28.685927
19.505620
15.901923
13.475418
13.271570
14.455914
15.861988
16.873479
17.059445
19.873977
20.565987
20.671487
20.040870
21.602511
20.503998
22.240877
22.328496
20.530820
22.127628
19.466877
20.565987
20.174980
18.442869
20.693541
20.041466
19.972920
18.279552
18.866658
18.049479
17.039776
19.630790
19.340515
19.378662
19.416809
19.886494
18.250942
18.009543
17.124414
18.070936
18.607974
18.683672
18.115640
18.095970
19.672513
20.331740
21.541715
24.349689
24.722815
30.893683
30.801892
34.476519
34.386516
34.359694
35.278797
32.604933
32.634735
30.589700
27.353764
23.370981
22.695661
20.008683
17.609596
17.768741
15.401840
14.095902
15.163422
13.770461
13.689995
13.035536
13.956428
12.678504
13.318658
##ZVALUE=240
3.020763
3.376603
12.581944
29.776692
85.446835
157.222748
308.485627
473.473668
695.501566
824.382901
898.217559
870.446563
771.391988
589.883924
440.169573
258.935690
176.806450
118.607879
106.321573
106.143951
116.648674
126.022696
122.041702
109.594464
85.331798
72.959661
49.380660
39.556623
26.097894
20.392537
18.048882
16.015768
18.196702
16.989708
17.237663
18.310547
19.789934
18.503666
18.300414
17.892718
19.154549
18.405914
18.341541
19.081831
18.327832
17.476678
17.027855
17.215610
17.311573
17.431974
17.929673
16.946793
17.273426
15.448928
17.274618
15.904903
16.567707
15.517473
15.584826
16.147494
16.231537
15.535951
14.612675
15.742779
14.862418
15.881658
16.599894
17.478466
17.387867
19.315481
20.319819
24.308562
23.833513
25.402904
27.352571
28.669834
29.264688
28.318763
28.181672
26.815534
26.210546
24.316907
22.949576
20.268559
18.914938
16.913414
16.161799
16.733408
15.417933
14.193654
14.137626
14.406443
14.209747
13.474822
13.429523
13.017654
##ZVALUE=245
1.459718
1.854897
1.810789
2.114773
8.367896
27.122498
75.565577
148.462653
302.631855
429.897904
628.178716
756.195784
832.538009
832.650661
756.425858
599.681735
477.571487
308.083892
212.846994
134.734511
105.435848
103.006959
115.737915
128.180981
134.388804
131.691694
117.792487
104.390979
77.188611
62.423944
47.348738
33.301711
24.880767
20.526648
19.989610
18.449426
18.501878
17.901659
18.357635
16.792417
17.817616
16.922951
17.120838
17.854571
17.008781
16.404986
15.447736
15.708804
16.790628
17.199516
15.307665
15.018582
14.813542
14.835000
13.974905
13.495684
12.943745
13.995767
13.431907
13.590455
13.092756
13.156533
12.580752
13.083816
13.823509
13.692975
13.646483
13.359785
13.652444
15.930533
15.880466
17.385483
18.031597
19.639730
21.478534
20.759702
20.391941
20.018816
20.584464
18.579960
17.786622
17.134547
15.884638
15.142560
14.074445
14.351606
13.016462
11.827946
11.957884
13.548732
12.087822
11.263490
11.350513
11.405945
10.690689
11.376739
##ZVALUE=250
1.263618
1.476407
1.326799
1.634955
1.713634
1.830459
3.590584
12.552738
51.061511
102.024674
231.774449
362.183452
514.650941
703.964829
808.456540
872.333646
829.954743
717.062950
597.912669
402.183533
272.752643
180.971622
110.128522
99.297762
110.044479
128.260851
140.417814
146.869421
144.392848
133.950710
114.735961
91.870427
71.573853
49.624443
37.105680
29.532909
23.168921
20.836592
20.582676
20.043850
19.776821
20.175576
18.676519
19.005537
18.996000
17.679930
17.257929
15.820861
15.487671
16.612411
15.597939
15.307665
14.720559
14.480948
14.358759
14.382601
13.089776
12.928843
12.857914
13.230443
12.794733
12.145638
11.942983
11.340976
12.061596
11.724830
11.449456
12.732744
12.253523
11.834502
12.849569
13.955832
14.256835
14.870763
14.661551
15.202761
15.861988
14.615655
14.227629
12.996793
13.799667
13.088584
12.224913
11.600852
10.534525
11.167526
10.507703
10.125637
10.130405
10.588765
10.378957
9.176731
9.802580
9.100437
9.174943
9.001493
##ZVALUE=255
0.886917
1.169443
1.152754
1.209974
1.391768
1.303554
1.271963
1.420975
1.749992
3.838539
18.189549
47.983527
101.977587
229.978561
360.710621
565.146804
703.879595
830.467939
859.491825
800.320506
690.324903
542.257428
340.771675
226.957798
127.118826
97.493529
95.697641
110.943913
137.963891
146.791935
157.497525
156.492591
143.160820
118.495822
98.815560
72.116852
55.144429
37.365556
29.985905
24.634600
22.805929
22.251606
21.711588
19.970536
20.627975
18.969774
18.792748
18.152595
17.941594
17.204881
17.634630
15.479922
15.665889
15.323758
14.441609
14.604926
13.365746
13.420582
12.530684
12.840629
11.902452
11.774898
11.047721
12.349486
11.350513
11.199713
10.634661
11.090636
10.948777
11.464953
11.360645
12.935996
11.178851
11.876822
12.051463
11.995435
11.816621
12.272000
10.832548
10.540485
10.830760
9.754896
9.197593
9.398460
8.603930
8.436441
8.347631
8.314848
8.150935
8.388758
8.131862
7.908940
7.602572
7.458925
7.905960
7.251501
##ZVALUE=260
0.942945
0.941753
1.127720
0.912547
1.029968
1.058578
1.033545
1.158714
1.336932
1.410842
1.498461
2.779961
7.176995
28.871894
66.352487
163.611770
276.682973
471.755862
623.239875
828.301907
922.192931
934.166908
815.746784
671.065450
450.266600
304.248929
179.042816
115.571618
87.599754
95.697641
112.539530
141.543746
158.197880
170.801878
168.165565
149.220824
129.814744
102.128983
80.630779
57.452917
42.960644
34.313798
28.941631
26.045442
24.380684
24.100542
21.582842
21.487474
21.620989
20.917654
19.547939
17.635822
17.879605
16.997457
15.903711
15.749931
15.601516
14.011860
14.095902
13.534427
13.125539
12.809634
13.169646
12.116432
11.613965
10.818839
11.078715
11.169910
11.470914
10.524988
10.972619
10.958910
11.254549
12.032986
11.090636
11.676550
10.588765
10.448694
9.380579
9.526610
9.290576
8.623600
8.030534
8.544922
7.978678
7.252693
7.803440
7.771850
7.117987
7.153749
7.416606
6.170869
6.542802
6.588697
6.493926
6.523728
##ZVALUE=265
0.848770
0.846982
0.854731
0.977516
0.937581
0.836849
0.861883
0.979900
1.066923
1.656413
1.243949
1.362562
1.437664
1.584888
3.779531
19.118786
46.087503
120.058656
214.720964
410.899520
588.608980
759.027600
937.501788
983.005762
908.442736
777.356029
582.640767
412.070751
233.342648
149.263740
103.676915
85.333586
96.995831
131.698847
151.980519
172.854662
179.275870
173.406601
156.780481
132.567883
109.001994
80.861449
60.118437
44.110417
35.223961
28.172731
26.826859
24.151802
23.682714
22.344589
21.608472
21.853447
19.789934
18.461943
17.506480
16.518831
16.617775
16.043782
14.940500
14.164448
13.656616
13.622642
12.923479
12.789965
11.604428
11.629462
11.129975
10.981560
10.767579
10.786653
10.894537
10.926723
11.146665
10.743737
11.089444
10.117888
10.343790
9.538531
9.313822
9.109974
8.810759
8.296967
7.887483
7.549524
7.209778
7.389784
7.018447
7.397532
6.776452
7.007718
6.672740
6.877780
6.090999
6.023645
5.641580
6.016493
##ZVALUE=270
0.605583
0.509620
0.844598
0.746846
0.706911
0.856519
1.023412
0.911951
0.863671
1.038909
1.177788
1.019835
0.968575
1.030564
1.253486
1.543760
1.970530
8.199811
25.144815
81.933737
166.300535
296.373963
526.810884
721.246004
940.473676
1013.247967
1008.829474
928.188562
723.587871
548.689961
381.194949
210.047960
129.558444
83.595514
82.432628
108.206868
129.456520
158.236623
172.659755
178.653002
176.397562
155.333877
134.964585
103.654861
79.853535
57.138801
43.780804
33.287406
28.317571
24.322867
22.587776
20.945668
20.080805
19.457936
18.026829
16.979575
16.820431
15.582442
15.335679
14.435649
14.694929
14.480948
13.237596
13.404489
13.015866
11.457801
11.885762
11.593699
11.624694
11.390448
11.853576
11.684895
11.431575
11.537671
10.399818
10.511875
10.095835
9.292960
9.316802
9.300709
9.456873
7.972717
8.233786
7.942915
7.607937
7.147789
7.112622
6.752610
6.662607
6.267428
6.469488
6.039739
6.232858
5.848408
5.663633
5.966425
##ZVALUE=275
0.706911
0.655651
0.639558
0.526905
0.826716
0.870824
0.818968
0.604987
0.718832
1.038909
1.018643
0.859499
0.947714
0.730753
0.949502
1.069903
1.181960
1.174808
1.546741
3.806949
15.159845
42.230487
129.505992
246.563554
469.035506
654.215813
876.363516
1006.462574
1015.596986
1011.476517
906.780958
673.587918
484.799743
266.309977
160.491467
86.133480
68.201423
79.721808
97.549558
129.828453
148.392916
169.292688
174.514651
166.814923
151.856542
123.583674
100.212693
74.144602
56.417584
37.633777
29.741526
22.684932
19.994974
18.250942
17.462969
16.718507
15.929937
15.368462
14.807582
14.550686
13.638735
12.894869
12.995601
12.681484
12.012720
12.048483
11.368990
10.966659
11.664629
11.634827
11.552572
11.443496
11.404753
10.796785
10.534525
10.293722
10.391474
10.319948
9.574890
9.011626
8.694530
8.295774
7.736683
7.145405
7.552505
6.740689
7.064939
6.727576
6.952882
6.219745
6.445646
6.195903
5.992651
5.914569
5.454421
5.664825
##ZVALUE=280
0.632405
0.733733
0.702739
0.842810
0.734925
0.662804
0.659823
0.593662
0.738502
0.638962
0.797510
0.910759
0.714660
0.855923
0.873804
0.942945
0.931621
0.950694
1.078844
1.418591
1.631975
1.620650
8.925796
31.914711
98.892450
189.208984
365.455747
548.747778
809.734464
967.570543
1015.579700
1015.579700
980.630517
752.815604
554.153919
323.299766
196.872950
97.710490
60.496926
51.923990
65.651536
92.212558
115.734935
142.218471
155.550838
164.122581
157.715678
138.286948
118.791461
89.296699
68.614483
45.944452
33.559799
23.110509
18.147826
14.571548
13.845563
13.622642
13.589859
12.431741
12.693405
11.955500
12.203455
11.794567
10.955930
11.246800
10.967851
10.966659
10.890961
10.590553
10.775924
9.981990
10.538697
10.219812
10.380745
10.177493
9.517670
9.204745
9.024739
8.419752
8.561611
8.085966
7.930994
7.894635
7.175803
7.123947
6.958842
6.632805
6.666780
6.641746
6.205440
6.123781
6.171465
5.886555
5.964637
5.406737
##ZVALUE=285
0.516772
0.638962
0.619888
0.567436
0.590682
0.568628
0.505447
0.658631
0.442863
0.613928
0.612736
0.618696
0.783801
0.798702
0.757575
0.607967
0.734925
0.887513
0.892878
1.180768
1.203418
1.214743
1.203418
1.665950
4.510880
15.280843
55.279732
117.716789
264.674425
418.291688
660.485625
842.073560
1015.584469
1015.584469
1009.115577
886.701941
641.331673
445.641875
240.671635
139.083862
63.505769
40.476918
41.905642
55.384636
81.216693
102.847815
128.594637
143.348575
149.329901
148.186684
131.161809
113.500953
87.365508
66.157579
43.384433
30.902624
19.061565
14.771819
11.631846
10.343790
10.528564
10.448694
10.149479
9.747744
9.848475
10.550618
9.592772
10.060668
9.948611
9.408593
9.689927
9.112954
9.711981
9.424686
9.493828
9.669662
9.311438
8.748770
8.177757
8.395910
8.171797
7.800460
7.630587
7.314682
7.074475
7.198453
6.982684
6.633997
6.689429
6.661415
6.436706
6.098747
6.033778
5.698800
6.148815
5.907416
##ZVALUE=290
0.503659
0.471473
0.465512
0.492930
0.506639
0.653863
0.356436
0.741482
0.718832
0.723600
0.716448
0.634789
0.663996
0.410676
0.757575
0.655651
0.663996
0.827909
0.541806
0.795722
1.042485
1.007915
1.274943
1.247525
1.456738
1.583695
1.744628
8.334517
25.805831
82.516670
160.084963
340.875983
524.093509
784.206986
957.698822
1015.584469
1015.584469
948.488712
781.615973
521.412492
346.058607
173.479915
92.988610
38.453937
27.295947
35.949945
49.568415
73.077679
94.326735
119.263530
133.369565
143.030882
142.726898
127.833486
109.887719
81.569552
61.892867
40.375590
28.082728
17.340779
12.878776
9.821653
8.850694
8.680820
8.395910
8.369684
8.605719
8.500814
8.624792
8.420944
8.520484
8.925796
8.410811
8.756518
8.476973
8.460879
8.226633
7.975698
8.080602
7.810593
7.339716
7.166862
7.120967
6.778836
6.981492
6.594658
6.800890
6.631613
6.905794
6.333590
6.502867
5.917549
5.897880
5.825758
5.658865
6.004572
##ZVALUE=295
0.486970
0.377893
0.550747
0.520945
0.568628
0.563860
0.500679
0.700951
0.429749
0.619888
0.552535
0.646710
0.419617
0.527501
0.561476
0.811815
0.817776
0.626445
0.617504
0.681877
0.782609
0.634789
0.952482
0.934601
0.970960
0.945926
1.338720
1.524687
1.797676
3.133416
14.727712
41.123629
121.193528
232.457519
455.229878
646.118522
897.457004
1015.584469
1015.584469
1015.584469
849.502683
667.828918
411.463976
257.171988
115.187764
57.427883
25.215745
21.207929
30.180812
44.483542
67.618489
85.898638
111.729503
126.574636
134.787560
133.032799
118.172765
103.760958
78.862906
60.448647
38.672686
26.914477
16.606450
11.572838
8.232594
7.169843
6.972551
6.986856
6.794930
7.170439
7.388592
7.488728
7.376671
7.300973
7.535815
7.569790
7.035732
7.432699
6.830692
6.946921
6.532669
6.900430
6.616712
6.816983
6.900430
6.128550
6.299615
6.122589
5.965829
6.237626
5.596876
5.797744
6.094575
5.833507
5.932450
5.718470
##ZVALUE=300
0.410676
0.458956
0.368953
0.342727
0.487566
0.467896
0.478625
0.546575
0.517964
0.426769
0.561476
0.539422
0.483990
0.446439
0.592470
0.479817
0.583529
0.515580
0.727773
0.587702
0.678897
0.690818
0.746846
0.863671
0.679493
0.814795
1.107454
1.226664
1.016855
1.384616
1.571774
1.739860
6.169677
22.679567
79.861879
160.138607
340.260863
529.311895
787.040591
952.488780
1015.584469
1015.584469
932.298899
771.968961
513.056517
340.059996
171.429515
92.857480
35.187602
18.957853
18.074512
25.244951
40.841699
57.483912
81.040859
100.619793
119.669437
126.542449
123.694539
116.862655
97.181797
79.529881
56.439638
41.002631
24.640560
16.933680
10.017753
7.877946
6.562471
6.254911
6.191730
6.333590
6.073713
6.579757
6.666780
6.486773
6.508827
6.645918
6.195903
6.010532
6.244779
6.264448
6.047487
6.290674
6.055832
5.928874
5.856752
6.217957
5.823970
6.214976
5.509853
5.246997
5.872846
5.633831
5.389452
5.668998
##ZVALUE=305
0.323653
0.457764
0.597835
0.450611
0.323653
0.364780
0.462532
0.386834
0.429749
0.403523
0.421405
0.434518
0.373721
0.561476
0.533462
0.609756
0.564456
0.554919
0.647902
0.638962
0.664592
0.476837
0.694990
0.751615
0.834465
0.790954
0.897646
0.909567
0.824928
1.001954
1.038909
1.313686
1.230836
1.562834
2.906919
15.064478
45.212507
131.904483
239.194632
456.249714
648.646951
888.791680
1010.304689
1015.620828
1003.871560
806.200504
631.463528
400.801897
250.021815
112.666488
55.334568
20.320415
12.906790
16.309619
24.219751
39.458871
55.854917
77.435970
93.613863
112.607479
119.870901
118.048787
110.661983
91.690421
75.969696
52.130818
37.746429
23.110509
15.405416
8.899570
7.452965
6.359816
6.103516
5.910993
5.779862
5.781651
5.834699
5.645752
5.840659
5.605817
5.516410
5.701780
5.720854
5.870461
5.950928
6.041527
5.972981
5.709529
5.950928
5.625486
5.786419
5.594492
5.489588
5.484819
5.437732
5.315542
##ZVALUE=310
0.307560
0.328422
0.354648
0.221729
0.262856
0.492930
0.380874
0.443459
0.265837
0.431538
0.313520
0.319481
0.418425
0.397563
0.488758
0.566840
0.588894
0.369549
0.647902
0.655651
0.534654
0.443459
0.619888
0.777841
0.579953
0.499487
0.653863
0.621676
0.774860
0.815988
0.932813
1.071692
1.087785
1.063943
1.272559
1.452565
1.594424
6.497502
22.303462
78.139901
156.152844
332.225561
520.578623
788.281560
953.665972
1015.584469
1015.584469
928.942561
769.145489
518.411398
341.625810
170.025826
89.638829
32.703876
14.927983
10.665655
13.571978
21.421909
31.728745
50.102472
66.293478
87.915659
101.765990
111.764669
112.957954
103.385448
90.890527
71.231723
53.198934
35.316944
24.355650
15.004873
10.277629
7.338524
6.258488
5.271435
5.226731
5.357862
5.178452
5.240440
5.383492
5.167723
5.261898
5.279779
5.550981
5.535483
5.379915
5.777478
5.542636
5.436540
5.477667
5.267859
5.324483
5.058646
5.342960
5.223751
##ZVALUE=315
0.378489
0.369549
0.287890
0.325441
0.373721
0.282526
0.330806
0.283718
0.468493
0.426769
0.393987
0.523925
0.417829
0.438690
0.361800
0.538826
0.450611
0.344515
0.405908
0.475645
0.534654
0.566840
0.544786
0.515580
0.521541
0.651479
0.762939
0.712872
0.841618
0.616908
0.860691
0.796914
0.906587
0.891685
0.926852
1.249909
1.064539
1.365542
1.548529
3.035665
11.506677
48.602819
109.090805
255.383849
425.756574
697.673559
876.595974
1015.584469
1015.584469
998.829603
857.697725
617.265701
435.092449
231.827497
125.012994
46.123862
20.033717
9.258986
9.589791
12.690425
19.031763
31.232834
44.462681
64.321756
80.596805
96.472502
105.069876
106.718540
101.259947
83.576441
69.886446
50.269961
35.801530
21.491647
14.618635
9.154677
6.872416
5.655885
4.974604
5.487800
4.803538
5.319715
5.255938
5.210638
5.083680
5.329847
5.232692
5.173683
5.382895
5.441904
5.249977
5.350709
5.199909
5.107522
5.055666
5.021691
##ZVALUE=320
0.433922
0.240803
0.290871
0.350475
0.392795
0.218749
0.351667
0.423789
0.213981
0.436902
0.348687
0.336766
0.220537
0.255704
0.456572
0.265837
0.436902
0.414848
0.311732
0.489950
0.429749
0.509620
0.479817
0.495911
0.425577
0.460744
0.617504
0.643730
0.673532
0.760555
0.692606
0.757575
0.649691
0.834465
1.013875
0.839829
0.906587
1.068711
1.194477
1.250505
1.560450
1.767874
6.510615
22.439957
79.800487
165.476799
348.629951
526.741743
790.952444
962.765813
1015.584469
1015.584469
936.432481
763.480663
511.644483
331.952572
153.256655
78.980923
28.798580
12.934804
7.493496
8.083582
11.607409
16.296506
27.979612
39.353967
58.133602
73.513985
91.439486
98.500848
99.479556
94.308853
81.104636
67.242980
47.001839
34.925938
21.448731
14.636517
8.971691
6.704926
5.563498
5.025864
5.139709
4.986525
4.945993
4.909635
4.814863
4.800558
4.914999
4.825592
5.135536
4.879832
4.732609
4.824996
4.845858
4.840493
##ZVALUE=325
0.362992
0.368953
0.263453
0.290871
0.195503
0.222921
0.443459
0.256896
0.260472
0.365973
0.435710
0.289679
0.421405
0.386834
0.430942
0.384450
0.278950
0.534654
0.396967
0.561476
0.375509
0.492930
0.410676
0.335574
0.443459
0.573993
0.400543
0.590682
0.633597
0.466704
0.637770
0.713468
0.731945
0.680685
0.696778
0.667572
0.945926
0.780821
0.786781
1.187921
1.127720
1.256466
1.206994
1.507998
2.950430
17.444491
46.577454
126.125813
235.177875
457.553864
647.715926
887.954831
1010.311842
1015.584469
988.022685
779.401660
588.151813
363.835692
219.698548
95.772743
45.465827
14.368892
8.047819
6.759763
7.573962
10.797977
15.664697
25.387406
37.271976
56.422949
70.512891
85.291862
92.116594
94.527602
87.509751
72.975755
59.556961
43.150783
31.081438
19.161701
13.031960
8.001924
6.292462
5.290508
4.888773
4.752874
4.633665
4.568696
4.883409
4.818439
4.678965
4.859567
4.591942
4.632473
4.646778
4.684925
##ZVALUE=330
0.157952
0.213981
0.353456
0.382662
0.251532
0.298619
0.207424
0.134706
0.244975
0.360608
0.208616
0.341535
0.393987
0.255704
0.248551
0.282526
0.383854
0.464916
0.401735
0.525713
0.461936
0.498891
0.476837
0.171661
0.559688
0.570416
0.413656
0.287890
0.763535
0.555515
0.410676
0.516772
0.597835
0.495911
0.549555
0.485778
0.515580
0.651479
0.663996
0.825524
1.005530
0.875592
1.050830
1.050830
1.241565
1.416802
1.764894
7.535815
24.344921
83.386898
166.705847
344.927907
523.161888
773.442984
934.016705
1015.584469
1002.014875
845.204592
678.145885
444.157720
285.761952
131.953955
65.683722
23.744702
10.350943
6.381869
5.901456
7.254481
9.435415
16.263723
23.997426
37.317872
50.847530
68.515539
78.662634
86.160898
87.663531
80.938935
71.111917
54.237843
42.130947
27.692914
19.792914
12.698770
9.514689
6.417632
5.323887
4.650950
4.511476
4.317760
4.617572
4.406571
4.487634
4.300475
4.304647
4.395843
##ZVALUE=335
0.187755
0.248551
0.310540
0.271797
0.329614
0.312924
0.344515
0.359416
0.364780
0.322461
0.177622
0.289679
0.487566
0.374913
0.385642
0.227690
0.378489
0.350475
0.270605
0.240803
0.313520
0.316501
0.195503
0.196695
0.245571
0.383854
0.396967
0.415444
0.365973
0.631809
0.490546
0.521541
0.468493
0.460744
0.588894
0.520945
0.441670
0.572801
0.625849
0.698566
0.783801
0.751615
0.781417
0.827909
0.934601
1.089573
1.225471
1.276731
1.511574
3.547668
12.287498
50.840974
112.982988
262.520909
432.323813
688.956976
862.602592
1000.180840
1013.473868
906.821489
761.023760
522.015691
352.963805
181.724429
95.599890
32.562613
13.518929
6.550550
6.304979
5.989671
6.840825
9.895563
13.992786
23.250580
33.349991
49.357414
61.732531
74.806809
79.520941
82.123876
75.844526
64.447522
53.266883
40.180683
30.496716
19.330978
13.569593
8.600950
6.595850
4.998446
4.680753
4.057884
4.362464
4.279613
4.277825
4.366636
##ZVALUE=340
0.242591
0.318885
0.227690
0.198483
0.261664
0.163913
0.255704
0.244975
0.364780
0.261664
0.296831
0.290871
0.210404
0.223517
0.495911
0.262856
0.400543
0.367761
0.323653
0.398755
0.346899
0.442863
0.457764
0.466704
0.440478
0.523925
0.485778
0.457764
0.512600
0.472665
0.288486
0.524521
0.540614
0.403523
0.491738
0.613928
0.671744
0.571609
0.733733
0.776649
0.604987
0.659823
0.701547
0.734925
0.835657
0.763535
0.962615
0.968575
0.947714
1.065731
1.470447
1.841784
5.735755
31.208992
80.033541
208.189487
357.941985
595.069528
779.160857
954.056978
1005.520821
941.507816
813.917518
599.530935
421.764851
218.907595
120.639801
47.555566
19.999743
7.288456
5.883574
5.529523
5.761981
6.705523
8.799434
14.639497
21.167994
32.810569
44.566989
59.567690
69.833994
75.926781
75.827837
71.243644
63.833594
50.835609
40.697455
27.985573
20.297766
12.706518
9.114742
6.150603
4.950762
4.377961
4.214644
4.033446
##ZVALUE=345
0.285506
0.229478
0.224710
0.252724
0.315905
0.234842
0.200868
0.317693
0.191927
0.227690
0.143647
0.228882
0.116825
0.335574
0.240803
0.232458
0.217557
0.367761
0.352859
0.302792
0.451803
0.410676
0.248551
0.387430
0.379682
0.366569
0.192523
0.383854
0.314713
0.395775
0.345707
0.369549
0.442863
0.561476
0.397563
0.505447
0.549555
0.425577
0.408888
0.332594
0.519753
0.592470
0.458956
0.649691
0.673532
0.584722
0.785589
0.696778
0.727773
0.852942
1.001954
1.144409
1.217723
1.248717
3.214478
13.364553
58.616996
126.076937
276.834965
439.635515
682.704449
842.719674
962.350965
969.669819
844.009519
697.769523
471.324921
309.391618
140.596628
68.976879
22.597909
10.559559
5.967617
5.631447
5.434752
5.232692
6.079674
7.687807
12.179613
18.713474
30.598640
40.619969
52.948594
61.270595
68.778992
70.331693
66.669583
60.521960
49.027801
39.404631
27.746558
20.044446
12.893677
8.597970
5.987883
4.780889
##ZVALUE=350
0.278950
0.133514
0.226498
0.178814
0.186563
0.281930
0.242591
0.209808
0.161529
0.365973
0.126958
0.260472
0.127554
0.226498
0.100732
0.242591
0.298619
0.339746
0.319481
0.315905
0.194907
0.301600
0.305772
0.474453
0.318885
0.340939
0.388622
0.247955
0.260472
0.370741
0.440478
0.354648
0.498891
0.559688
0.272989
0.520945
0.422597
0.482798
0.513792
0.540614
0.602603
0.538826
0.442863
0.374913
0.524521
0.467896
0.595450
0.549555
0.632405
0.830889
0.710487
0.849962
0.988841
1.053810
1.162887
1.313686
1.745820
8.406639
26.769638
91.872811
182.777643
373.075008
545.302033
759.764910
883.486867
942.627788
887.450576
725.885630
554.367900
328.777432
201.538801
91.735721
42.018890
13.055801
6.772876
5.127788
4.822612
4.490614
4.508495
5.525947
7.245541
11.681914
17.050505
25.882721
34.487844
47.055483
55.553913
62.550902
64.345002
61.670542
56.478977
46.362877
37.186742
26.277900
19.114614
12.601614
##ZVALUE=355
0.202656
0.130534
0.247955
0.209808
0.196695
0.227690
0.315905
0.155568
0.159740
0.300407
0.164509
0.279546
0.378489
0.251532
0.244975
0.271797
0.275970
0.299811
0.358820
0.389814
0.377893
0.194907
0.466704
0.224710
0.271797
0.351667
0.433922
0.402927
0.262856
0.453591
0.415444
0.359416
0.390410
0.444651
0.571609
0.349879
0.412464
0.326633
0.354648
0.526905
0.476837
0.580549
0.627637
0.590682
0.455976
0.509620
0.560880
0.491738
0.698566
0.594854
0.723600
0.720620
0.736713
0.789762
0.864863
0.992417
1.024604
1.145601
1.362562
4.146695
14.591813
59.686899
127.201676
276.269913
438.740849
677.763820
815.448761
911.293626
893.339515
756.945014
609.578490
401.034951
254.226923
112.877488
53.546429
16.597509
7.506609
5.033612
4.735589
4.480481
4.117489
4.152656
5.010962
6.697774
9.059906
14.919639
21.637678
32.071471
40.006638
49.018860
55.060983
58.488846
57.270527
51.427484
44.338703
34.646988
##ZVALUE=360
0.269413
0.179410
0.308752
0.221729
0.275970
0.145435
0.283718
0.241995
0.296831
0.342727
0.218749
0.225902
0.213981
0.318885
0.220537
0.246763
0.227690
0.362992
0.213981
0.311732
0.323653
0.314713
0.276566
0.391603
0.280738
0.399947
0.494719
0.525713
0.255704
0.339746
0.032783
0.421405
0.445843
0.402927
0.404716
0.466704
0.405908
0.548959
0.284910
0.391603
0.328422
0.428557
0.492930
0.538826
0.454783
0.473857
0.512600
0.474453
0.491738
0.591874
0.529885
0.773668
0.630617
0.966787
0.688434
0.988841
0.910759
0.853539
0.993609
1.218915
1.423955
1.978874
6.390810
29.095411
73.337555
191.336870
322.753787
535.367727
702.825785
856.717825
886.213779
814.778805
685.883760
467.548966
311.343670
150.757432
77.493787
28.903484
11.508465
5.377531
4.724860
4.410744
4.261732
3.933907
4.099607
4.329681
5.124807
7.893443
11.084676
17.530918
25.050640
34.894943
42.513609
49.446821
53.112507
53.207874
##ZVALUE=365
0.333786
0.197887
0.300407
0.302792
0.175834
0.172853
0.329614
0.308752
0.264645
0.204444
0.142455
0.112653
0.257492
0.364780
0.203848
0.388622
0.384450
0.311732
0.419617
0.358820
0.341535
0.285506
0.354648
0.210404
0.175834
0.095963
0.310540
0.377893
0.434518
0.229478
0.445843
0.266433
0.414848
0.388622
0.358820
0.385642
0.393987
0.386834
0.374913
0.319481
0.547767
0.517964
0.466704
0.394583
0.379682
0.426769
0.493526
0.476837
0.462532
0.492930
0.540614
0.688434
0.652671
0.631809
0.733733
0.845790
0.748634
0.756979
0.889897
0.924468
1.113415
1.095533
1.402497
1.547933
2.858639
16.025901
43.930411
121.653676
236.884952
450.857878
621.204972
803.642869
874.580741
835.447907
729.091763
545.922518
388.463736
202.618837
109.796524
39.460659
16.173720
5.467534
4.633665
4.176497
3.931522
3.748536
3.711581
3.508925
3.765821
4.596710
5.995631
9.976625
14.196634
22.102594
28.314590
37.737489
##ZVALUE=370
0.229478
0.278950
0.188947
0.160933
0.161529
0.253916
0.220537
0.117421
0.153780
0.163913
0.295639
0.084639
0.268817
0.336766
0.271797
0.217557
0.231862
0.271797
0.281930
0.205636
0.272989
0.224710
0.250936
0.280738
0.256896
0.193715
0.298619
0.238419
0.418425
0.295639
0.367761
0.368953
0.228882
0.477433
0.472665
0.453591
0.314713
0.370741
0.244975
0.439882
0.405908
0.393987
0.185966
0.526905
0.452995
0.462532
0.332594
0.437498
0.693798
0.419617
0.385642
0.500679
0.555515
0.528693
0.505447
0.554919
0.598431
0.564456
0.695586
0.797510
0.728965
0.666976
0.937581
0.948906
1.258850
1.291633
1.678467
8.157492
26.585460
87.278485
172.671676
349.393487
520.103574
739.716887
842.229724
851.335526
767.392516
599.010587
447.026491
253.003836
143.647790
56.882501
25.201440
7.970929
4.595518
3.832579
3.701448
3.463626
3.516674
3.130436
3.123879
3.193617
3.833771
5.478859
7.498860
12.450814
##ZVALUE=375
0.005960
-0.163913
-0.027418
-0.068545
0.120997
0.035763
0.083447
0.158548
0.141859
0.108480
-0.000596
0.115633
0.014901
0.117421
0.106692
0.051856
-0.010729
-0.018477
0.027418
0.078678
-0.039935
0.075698
0.006557
0.097752
0.117421
0.120997
0.041723
0.246763
0.136495
0.189543
0.066757
0.190735
0.269413
0.154972
0.157952
0.355840
0.326633
0.379682
0.191927
0.266433
0.249743
0.329614
0.097752
0.273585
0.220537
0.281930
0.209808
0.288486
0.285506
0.287890
0.371933
0.422597
0.334978
0.238419
0.214577
0.393987
0.405908
0.373721
0.335574
0.705719
0.439882
0.462532
0.496507
0.578761
0.484586
0.614524
0.776649
1.073480
1.101494
3.841519
13.893843
50.434470
109.736919
251.325965
400.063992
613.101721
740.816593
817.880630
793.210864
652.358532
506.712794
308.063626
193.391442
95.177889
47.549605
14.898777
6.216764
3.619790
3.284812
3.116727
3.087521
2.786517
2.797842
2.661943
2.653599
3.128648
##ZVALUE=380
0.208616
0.119805
0.155568
0.098944
0.186563
0.199676
0.155568
0.175834
0.111461
0.101924
0.258684
0.189543
0.218749
0.339746
0.226498
0.292659
0.202656
0.346899
0.312924
0.156760
0.238419
0.263453
0.125766
0.348687
0.313520
0.141859
0.197887
0.352859
0.466704
0.443459
0.484586
0.464916
0.715852
0.650883
0.654459
0.696778
0.744462
0.722408
0.589490
0.540614
0.602603
0.513792
0.642538
0.454783
0.586510
0.486970
0.373721
0.519753
0.468493
0.529885
0.550747
0.491738
0.455976
0.458956
0.473857
0.455976
0.521541
0.544786
0.380874
0.603795
0.604987
0.493526
0.613928
0.572801
0.626445
0.627637
0.754595
1.100898
0.989437
1.155734
1.190901
2.123713
7.959604
36.402941
84.292889
198.337436
326.146483
517.091751
655.640960
776.096582
789.412856
695.080757
568.768978
383.888483
256.599784
125.151873
66.113472
25.234818
10.397434
4.013777
3.332496
3.215671
3.201962
2.988577
2.777576
2.869964
##ZVALUE=385
0.140667
0.147820
0.146627
0.231862
0.214577
0.165701
0.196695
0.359416
0.204444
0.186563
0.151992
0.159740
0.077486
0.154972
0.206828
0.117421
0.197887
0.145435
0.200868
0.247955
0.206828
0.003576
0.287890
0.380874
0.286698
0.245571
0.371933
0.450611
0.500679
0.666976
0.672936
0.839829
0.950694
0.905991
1.055598
0.972748
0.894666
0.869632
1.010895
1.018643
0.895858
0.751615
0.983477
0.842810
0.927448
0.823736
0.817776
0.698566
0.675917
0.576973
0.595450
0.734925
0.498891
0.627637
0.662804
0.409484
0.620484
0.501871
0.513792
0.480413
0.398755
0.492930
0.611544
0.707507
0.733733
0.692606
0.644922
0.865459
0.757575
1.000762
0.920892
1.013875
1.035929
1.200438
4.318953
15.260577
56.157708
119.514465
257.535577
398.901701
592.586994
701.357722
766.316652
743.548870
626.343489
499.155521
316.342711
200.777650
90.670586
44.872761
15.201569
5.968809
3.288984
3.216863
2.988577
2.970695
##ZVALUE=390
-0.014901
0.014901
0.117421
0.021458
-0.083447
-0.018477
0.031590
0.132918
0.005960
0.043511
-0.074506
0.003576
0.195503
0.018477
0.081658
0.037551
-0.005960
0.000000
0.031590
0.179410
0.103712
0.039935
0.051856
0.040531
0.126958
0.359416
0.386834
0.651479
0.644922
0.810623
1.166463
1.189709
1.384616
1.476407
1.625419
1.480579
1.471639
1.479983
1.344681
1.494884
1.403689
1.290441
1.445413
1.180768
1.012683
0.957847
0.841618
0.918508
0.744462
0.671744
0.635982
0.768900
0.601411
0.711679
0.659823
0.626445
0.434518
0.464916
0.456572
0.473857
0.366569
0.499487
0.425577
0.479817
0.328422
0.319481
0.526905
0.619888
0.649691
0.671744
0.733733
0.893474
0.951886
0.933409
0.917912
1.126528
1.732707
10.385513
32.487512
100.854635
190.757513
361.894965
496.791005
646.970868
730.518699
757.344961
704.036951
558.334589
427.592993
261.191726
151.707530
61.408877
27.470589
7.697940
3.849864
3.164411
##ZVALUE=395
0.144839
0.154972
0.357628
0.199676
0.087619
0.193715
0.179410
0.302792
0.090599
0.194907
0.121593
0.066757
0.097752
0.095963
0.129938
0.029802
0.113845
0.199676
0.304580
0.354648
0.295639
0.088811
0.178814
0.104904
0.306964
0.433922
0.568628
0.734925
0.939965
1.095533
1.357794
1.777411
1.979470
1.888871
1.978874
2.127886
2.066493
1.973510
1.973510
1.960993
1.806617
1.790524
1.616478
1.527667
1.578927
1.235604
1.358986
1.151562
1.091957
1.096725
0.905991
0.878572
0.931621
0.859499
0.697970
0.675917
0.678897
0.587702
0.680685
0.580549
0.589490
0.670552
0.677705
0.638962
0.694990
0.797510
0.586510
0.745654
0.664592
0.907779
0.763535
0.872612
0.931621
0.894666
0.867844
0.977516
0.968575
0.972748
1.339912
6.022453
21.780729
73.775649
139.173865
266.234875
396.504998
583.998561
698.484778
776.014924
758.646727
646.536946
509.185791
317.203999
200.935602
93.647838
44.145584
14.124513
##ZVALUE=400
0.424981
0.269413
0.229478
0.201464
0.224710
0.210404
0.135899
0.162721
0.065565
0.138879
0.061989
0.247955
0.182986
0.155568
0.138879
0.297427
0.137687
0.299811
0.153780
0.117421
0.193715
-0.008941
0.070930
0.192523
0.307560
0.383854
0.705719
0.746846
1.006722
1.132488
1.350641
1.682639
1.932979
2.096891
2.271533
2.208948
2.302527
2.341866
2.020597
1.978874
2.039671
1.898408
1.807809
1.531839
1.427531
1.435876
1.484752
1.322627
1.252890
1.138449
1.096725
1.059771
0.852942
0.846982
0.790954
0.805855
0.628829
0.711679
0.681877
0.735521
0.638962
0.497699
0.436902
0.645518
0.349879
0.601411
0.784993
0.716448
0.725985
0.691414
0.863671
0.785589
0.773668
0.797510
0.754595
0.634789
0.707507
0.708699
0.914931
0.833869
0.960827
3.039837
11.186600
41.378736
87.630749
200.782418
325.745940
503.793955
631.129742
738.116503
751.301646
666.080713
551.002622
365.271568
241.268873
121.074915
##END
