##TITLE=10-1
##FORMAT=SPECTACLE-ASCII V-1.2
##DATA TYPE=ULTRAVIOLET SPECTRUM
##SECOND TYPE=ULTRAVIOLET SPECTRUM
##DATE=04/11/18
##TIME=11:20:50
##SPECTROMETER/DATA SYSTEM=SPECTACLE
##XUNITS=NM EM
##YUNITS=ENERGY
##YFACTOR=1
##FIRSTX=220
##LASTX=450
##NPOINTS=116
##3DDATA=Equidistant
##ZUNITS=NM EX
##FIRSTZ=210
##LASTZ=400
##ZPOINTS=39
##XYDATA=(Y..Y)
##ZVALUE=210
15.281439
14.898777
11.225939
11.231899
10.274649
10.253787
9.334683
7.475615
6.460547
5.941987
4.415512
3.578663
3.408790
2.483726
2.604723
2.791882
3.120899
3.083944
3.435612
2.883673
3.365874
2.738833
3.439784
3.394485
3.598928
3.728867
4.137754
4.121661
4.493594
4.420877
4.381537
4.743934
4.895926
5.207658
5.181432
5.295873
5.786419
5.405545
5.949736
6.288886
6.070733
6.438494
6.417632
6.378889
6.289482
7.002950
6.437898
7.920861
7.488728
8.100867
7.166862
6.784797
7.547736
6.991625
7.258654
7.446408
6.950498
7.711649
8.196831
7.703900
7.590652
7.538795
7.734895
7.091761
7.356405
7.292628
7.671714
8.970499
8.484721
8.725524
9.840727
10.412931
11.518598
12.948513
13.128519
13.767481
13.878942
14.405847
13.536811
14.111996
12.141466
11.454821
10.267496
9.569526
7.553697
7.058978
5.942583
5.886555
6.167889
7.161498
8.771420
11.497736
13.184547
19.259453
23.417473
27.894974
31.932592
36.456585
41.586757
46.739578
47.471523
52.093863
50.573945
48.074722
46.272874
44.466853
38.736463
36.502481
32.411814
24.622679
22.585988
18.967986
14.611483
14.154911
13.576746
15.203953
##ZVALUE=215
36.731958
37.000775
29.841661
23.915768
20.942688
16.845465
17.161965
15.523434
15.400648
13.963580
12.249947
9.091496
7.741451
5.621910
3.117919
3.243685
3.033876
3.229976
2.998710
3.193617
3.163815
3.042817
3.718734
3.710985
3.670454
3.726482
4.268885
3.929734
4.882812
4.953742
4.438758
5.139709
5.248785
5.588531
6.269813
5.820990
5.638599
5.674958
6.821752
7.291436
6.461740
7.075667
6.769896
6.879568
6.748438
7.306933
6.997585
6.758571
7.215738
7.844567
8.412600
8.745790
8.796453
8.974671
9.585619
9.979606
9.320974
9.699464
9.029508
9.521842
8.867979
8.122921
7.855892
9.246469
8.303523
8.617640
7.609725
8.685589
8.457899
8.669496
9.796619
10.278821
11.625886
12.314916
12.765527
13.935566
13.015866
12.730956
11.396408
11.577606
10.832548
9.210706
8.249879
8.744597
7.579923
6.044507
6.973743
6.865859
6.225705
4.944801
5.290508
5.370975
5.679727
6.389618
8.675456
11.211634
13.682842
18.960834
25.025606
30.582547
39.047599
44.324994
52.379966
55.121779
66.823959
66.037774
68.884492
70.232749
71.518421
66.642761
62.579513
56.464672
51.626563
45.000911
40.009618
30.685663
##ZVALUE=220
76.000690
72.273612
72.312951
67.785978
58.211684
45.160651
35.088658
29.899478
24.646521
25.665760
25.116801
24.365783
21.236539
16.970634
14.912486
10.469556
7.755756
5.728602
4.302859
3.758669
3.436804
3.293753
4.070997
4.116893
4.031658
3.666878
4.322529
4.697442
4.973412
4.932880
5.060434
5.217791
5.759597
5.403757
7.424951
6.582737
6.946921
7.765889
7.095933
7.259846
7.837415
7.417798
8.270741
7.813573
8.302927
8.809566
8.446574
7.675886
10.151863
9.750724
9.287000
10.072589
11.982918
11.077523
11.389852
11.368990
12.260675
10.847449
11.093616
10.476708
11.048913
11.711717
10.937452
9.901524
10.433793
9.292960
10.824800
10.266900
10.664463
11.778474
11.891723
11.708736
10.882616
12.136698
13.696551
12.809634
12.270808
10.993481
12.832880
11.424422
10.272861
8.780956
9.700656
8.862615
8.560419
7.269979
6.508827
6.750822
5.746484
6.549954
6.064773
6.842613
6.308556
6.279945
5.243421
6.272793
5.214810
6.161928
6.631613
8.297563
12.164712
16.532540
23.176670
29.377937
42.582750
50.990582
63.878894
77.064633
86.612701
99.823475
104.267597
111.431479
113.484859
109.494925
106.388927
92.812777
##ZVALUE=225
93.379617
99.610686
119.478703
130.427480
131.591558
122.616887
102.850795
74.744821
59.142709
44.114590
36.645532
36.940575
40.242672
40.377975
36.027431
31.784773
27.309656
20.084977
13.945699
8.733869
6.592870
4.793406
4.079938
3.817677
4.014969
4.568696
5.518794
4.461408
5.166531
5.836487
5.503893
5.698800
5.333424
6.484985
6.526709
7.076859
8.197427
7.540584
7.839799
8.611679
8.117557
8.320808
10.010600
9.669662
9.647608
9.830594
9.853840
10.021925
10.236502
10.519624
12.018681
12.338758
13.020635
13.314486
12.751818
14.415979
12.432933
13.765693
13.281703
13.801455
13.133883
14.048815
13.307929
12.617707
12.599826
12.631416
12.056828
11.854768
12.182593
12.722611
12.709498
13.536811
14.167428
14.139414
14.322996
15.266538
13.892651
13.634562
11.830926
12.971759
11.427999
10.397434
9.528995
8.872747
8.384585
9.386539
7.666945
8.535981
7.797480
6.612539
6.954670
6.660819
5.910993
6.663799
6.246567
6.105900
6.916523
5.937815
5.253553
5.473495
6.539822
6.707907
7.047653
7.865429
10.766983
16.417503
23.858547
35.439730
44.712424
59.706569
72.461963
91.161728
109.680891
135.701895
148.152709
156.763792
##ZVALUE=230
69.565773
71.486831
113.341808
149.269700
180.025697
205.871463
217.480659
202.417970
175.679922
138.521791
105.799437
71.087480
58.684945
55.846572
57.188869
60.238838
60.516596
57.623982
47.948956
37.477612
28.344989
16.708970
12.861490
7.786751
5.880594
5.226731
4.478693
5.153418
5.522966
4.516840
5.460978
5.930662
6.700754
7.190704
6.597638
7.300973
8.340478
8.538961
8.295774
8.781552
8.388758
8.740425
9.682775
10.173917
10.665655
9.764433
9.564757
9.965897
11.286736
10.524988
11.859536
11.875629
12.420416
12.966990
14.725924
13.935566
12.923479
13.415813
13.480783
14.957786
14.503598
13.607740
13.440847
13.016462
13.126731
13.594627
12.184978
13.801455
13.269782
14.091730
13.657808
14.422536
14.067888
15.618801
16.421676
14.367700
13.595819
14.534593
13.381839
12.838840
13.323426
12.202859
10.754466
10.311604
9.787679
8.763671
9.934902
9.551644
7.260442
8.471608
8.803606
6.956458
7.569790
6.957650
6.453991
7.993579
7.111430
7.369518
8.145571
7.128716
7.280707
6.538630
7.342696
7.547736
6.748438
6.286502
6.856918
6.885529
8.962750
13.084412
18.961430
28.757453
40.762424
57.926774
83.399415
110.355616
##ZVALUE=235
18.758774
20.781755
51.217675
87.696910
138.389468
215.109587
268.785954
328.887701
347.315669
332.173705
291.412473
222.603679
171.538591
113.976002
90.647936
72.828531
76.640844
82.944632
88.409781
87.855458
79.884529
65.608621
53.022504
36.707520
22.994876
15.446544
9.307861
7.236600
6.633997
5.995631
6.433725
6.572604
6.862879
6.652474
8.019805
8.601546
7.468462
8.431673
8.591413
8.450747
8.527637
8.478761
9.663701
10.267496
9.154677
10.107756
9.779930
10.845661
9.705424
10.313988
10.456443
11.825562
11.696815
11.805892
11.801720
12.216568
12.128949
11.951923
12.527704
14.222860
12.023449
13.118982
12.622476
13.020635
13.533831
12.863874
13.576746
13.809800
13.610721
15.533566
14.853477
16.267896
15.743971
17.395616
16.683936
16.154647
17.292500
16.227961
15.934706
15.426874
13.838410
12.951493
12.996793
11.377931
10.299683
10.015965
10.737777
10.034442
9.082556
9.908676
8.840561
9.431839
9.606481
8.296967
9.652972
9.346604
10.121465
8.828640
7.820725
7.979870
8.453727
8.249879
8.891821
8.076429
8.104444
8.297563
7.253885
7.564425
7.638931
7.633567
6.953478
7.495880
9.436607
11.103749
13.777614
24.471879
##ZVALUE=240
1.925826
2.847910
7.908940
19.378662
43.685436
103.208423
164.145827
281.836987
374.710560
459.316969
505.680442
502.046943
440.216660
359.244943
273.011923
180.424452
133.463740
104.815960
91.582537
101.025701
110.109448
116.389990
116.677880
101.861954
82.965493
67.762733
45.948625
32.466650
18.831491
12.276769
9.008646
7.486939
7.010698
7.433891
8.562803
8.807778
8.292794
8.147955
9.244680
8.918643
9.383559
8.854866
9.615421
10.136962
9.854436
10.938644
10.962486
10.200739
10.263920
10.716915
10.993481
10.333657
10.883808
11.054873
10.524988
11.295676
11.523962
11.996627
11.912584
13.490915
13.208985
12.411475
12.600422
13.170838
11.921525
12.671947
13.110638
13.833642
15.144944
14.441609
17.094612
14.538765
15.452504
15.773773
18.183589
16.511679
17.856956
17.954707
16.278625
15.784502
15.476942
15.373826
14.255643
14.507771
11.971593
12.164712
11.346936
11.321902
10.591745
11.570454
10.067821
9.377599
9.768605
10.909438
9.993911
9.258986
8.170605
8.943677
9.494424
9.410977
9.679794
9.050965
8.558631
10.094643
8.914471
9.929538
8.782744
8.754730
9.432435
8.542538
8.093715
9.610653
9.840727
8.673668
8.272529
8.553863
##ZVALUE=245
2.128482
1.641512
2.275705
2.290606
3.957748
14.470816
34.119487
89.253783
156.013966
270.017982
369.659662
500.112772
561.935902
578.558445
552.328825
464.915633
375.142694
254.000425
184.167624
118.381977
98.104477
102.005601
111.731887
123.779774
131.794810
122.209787
112.556815
99.171996
71.508884
53.560734
35.114884
22.109747
13.221502
10.139942
7.868409
7.615685
7.985830
7.493496
8.483529
8.906722
8.891821
9.607673
9.764433
9.666681
10.652542
10.717511
10.345578
10.268688
10.692477
10.900497
11.052489
10.983944
11.646748
10.255575
10.830760
10.385513
9.603500
10.614991
10.135770
10.772943
10.721684
11.072755
11.549592
10.602474
11.486411
10.663867
11.475682
12.565851
10.674000
12.057424
14.161468
14.107823
14.367700
13.984442
14.462471
15.189648
14.641881
15.342832
14.293790
14.153719
12.631416
12.372732
12.939572
12.308955
11.915565
11.081696
10.129809
10.298491
9.139776
10.092854
9.662509
9.778738
9.989738
8.690953
8.291602
7.902980
8.005500
8.393526
8.341670
9.092689
8.409619
8.117557
8.298755
8.348823
9.097457
8.085966
8.623600
8.174777
7.801652
8.107424
8.324981
8.456707
8.157492
8.051991
6.455779
7.022619
##ZVALUE=250
1.500845
1.848936
1.958609
2.101660
1.879930
2.367496
2.761483
8.998513
24.533868
68.520904
129.827857
254.572630
366.403461
514.221787
598.484874
668.018460
648.961663
576.179624
481.606722
330.573916
233.808756
141.840577
104.886889
94.534755
103.789568
121.016502
134.166479
138.744712
132.700801
121.321678
100.150704
80.134869
53.527951
37.241578
22.162795
15.864968
10.000467
9.082556
9.115934
8.820891
9.906888
9.116530
10.078549
9.842515
10.203719
10.041595
10.557771
11.249781
11.087656
9.913445
10.293722
10.380745
10.784864
10.563731
10.839701
10.126829
10.851622
10.981560
9.929538
10.911822
10.577440
10.541677
9.455681
10.417700
10.182858
10.373592
10.350943
10.768771
10.157824
11.046529
11.293888
11.236668
11.986494
12.463927
12.364984
12.508631
12.595654
11.863708
12.462735
11.100769
10.911822
10.796785
9.972453
9.186864
8.795857
9.546876
9.084940
8.868575
7.588863
7.933974
7.862449
7.102489
7.447600
7.506609
7.350445
7.083416
7.611513
7.637739
7.176995
7.619858
7.772446
6.793737
7.349849
6.156564
6.813407
6.491542
6.556511
6.401539
6.510615
6.507635
6.976724
7.305741
6.927848
6.116629
6.427765
6.543994
##ZVALUE=255
1.815557
1.632571
1.846552
1.632571
1.886487
1.501441
1.767874
2.261996
2.237558
4.609823
15.280843
52.278638
104.751587
219.356418
328.128934
493.253469
602.266788
711.223483
748.304725
692.866445
602.154732
447.215438
307.713747
197.928548
114.129782
88.976622
85.752606
100.812912
125.600696
138.749480
143.859982
141.269565
127.873421
110.337734
78.942776
57.856441
38.614869
24.609566
14.932752
11.652708
10.487437
10.082722
10.297894
10.191798
9.749532
11.188984
10.524988
10.747910
11.158586
11.239648
11.211634
11.999607
10.496974
10.941625
10.058880
11.516809
10.516644
10.161996
10.996461
10.467768
9.565949
10.014772
9.997487
9.552836
9.487867
9.313822
10.453463
9.979606
9.184480
9.430647
10.070801
10.795593
12.017488
12.044907
11.134744
11.363626
10.033846
10.103583
10.170937
9.145737
9.093881
9.212494
8.941889
8.433461
7.762909
7.765889
7.025599
6.976724
6.774664
6.809831
6.542802
7.240772
6.272793
5.964637
6.758571
6.192923
6.158948
6.537437
5.930662
6.363988
6.694794
6.643534
5.745888
5.918741
5.991459
5.955696
5.971789
5.753636
5.615950
5.999804
6.222725
5.981922
5.483627
5.457997
5.652905
5.565882
##ZVALUE=260
1.437664
1.534820
1.458526
1.371503
1.657605
1.394749
1.427531
1.677871
1.672506
1.968741
2.132654
3.322959
8.287430
33.425689
71.518421
165.069699
273.863673
442.612767
588.249564
747.968554
818.035603
808.967948
726.645589
558.456779
414.233804
250.229836
161.944628
106.593966
76.461434
81.558824
105.483532
126.674771
148.006678
153.639913
148.160458
138.180852
113.073587
90.679526
59.602857
42.676926
27.126670
19.099712
13.647676
12.847781
11.685491
11.824965
10.682940
11.479855
12.515783
11.859536
12.248755
11.571646
12.685657
12.554526
12.061000
12.170672
12.737513
10.685921
11.811852
11.433959
11.055470
11.092424
10.244846
10.666847
10.994673
10.498762
10.161996
10.502934
9.850860
9.649992
10.166764
10.207891
10.831952
10.630488
10.318756
10.504723
10.175705
10.309815
9.188652
9.183884
8.652806
8.473992
7.896423
7.871985
7.422566
7.187724
6.815791
6.677508
7.147789
6.376505
6.217957
5.836487
6.215572
5.661845
6.100535
5.731583
5.734563
5.882978
5.964637
5.871654
5.773902
5.482435
5.662441
5.322695
5.385876
5.170703
5.717874
5.386472
5.194545
5.144477
5.367994
4.794598
5.012751
5.170703
4.929900
4.914999
##ZVALUE=265
1.414418
1.338720
1.260638
1.469851
1.461506
1.501441
1.372695
1.379848
1.608729
1.511574
1.842976
1.784563
1.988411
2.330542
4.495978
21.125674
52.649975
128.454566
227.949023
412.154794
561.981797
746.426582
862.368941
882.994533
825.421810
671.756864
530.330539
379.669666
212.244987
131.189823
76.549649
69.108605
84.918737
105.882883
136.426687
149.765611
159.701705
155.871511
134.161711
116.338730
86.326003
66.335797
43.400526
30.896664
19.335747
16.113520
14.447570
13.591647
13.312697
13.813972
13.424754
13.952851
13.659000
13.857484
13.725758
13.656616
14.220476
13.108850
13.288856
12.841821
12.103915
11.417866
12.229681
11.612773
11.175871
10.676980
11.082888
10.356903
10.179877
11.030436
10.638833
10.325909
11.169910
10.605454
10.586977
11.122823
10.600686
10.132790
9.484887
8.661747
9.175539
8.591413
7.838607
8.132458
7.593632
7.294416
7.050633
6.805658
6.441474
6.742477
6.389618
6.387830
6.235838
6.054640
5.944967
5.835891
5.706549
6.028414
5.043745
5.243421
5.647540
5.179644
5.386472
5.456805
5.646944
5.132556
5.292892
5.444884
4.733801
4.974604
4.911423
4.923940
4.940629
4.772544
4.536510
4.420877
##ZVALUE=270
1.395941
1.300573
1.619458
1.373887
1.221895
1.356602
1.434684
1.419783
1.417994
1.466870
1.597404
1.738667
1.605749
1.869798
1.855493
1.737475
2.729893
10.212660
28.629899
92.352629
175.386667
342.941880
507.769585
732.966661
863.576531
942.682028
924.322009
801.569819
671.272874
464.517474
317.134857
164.409876
100.508928
64.008832
63.728690
86.192489
111.089945
141.846538
156.615973
164.669752
160.780549
143.513680
122.947693
94.192624
70.548654
44.886470
34.295917
22.411942
18.482804
15.363693
15.460849
15.404820
15.775561
15.377998
15.155673
14.570951
14.562607
14.676452
14.136434
14.042854
14.051795
14.187694
12.718439
12.642741
12.542605
12.348890
11.657476
11.784434
11.974573
11.108518
11.712909
11.846423
10.977983
11.407733
11.453629
10.588765
10.448694
10.399818
9.604692
10.003448
9.371638
8.897781
8.514524
7.940531
7.736683
7.735491
7.693768
6.864667
6.942749
6.423593
6.821752
6.211996
6.788969
6.073713
5.902648
6.166697
5.677938
5.565882
5.500913
5.363822
5.926490
5.732775
5.766749
5.394816
5.247593
5.329847
5.430579
4.709959
4.760623
4.720688
4.502535
4.639626
4.268885
4.565716
4.566908
4.373789
##ZVALUE=275
1.265407
1.222491
1.066923
1.262426
1.212955
1.121759
1.457930
1.300573
1.359582
1.466870
1.455545
1.352429
1.404881
1.377463
1.611710
1.784563
1.978874
2.200603
2.163649
4.731417
17.679930
61.819553
135.211945
293.601751
450.580716
675.367713
826.189518
929.258466
978.711843
926.226974
772.410631
618.055463
401.325822
253.842473
124.492645
75.066686
53.585768
61.457753
89.144707
111.337900
139.411688
155.131817
163.925886
160.480738
142.569542
122.042894
93.060732
70.737600
48.294663
35.606623
24.637580
20.194650
16.588569
16.707778
16.463995
16.415715
15.330911
15.409589
15.247464
15.077591
13.662577
13.882518
14.232993
13.348460
12.806654
12.756586
12.454987
12.638569
11.993647
11.932850
12.030602
11.592507
12.140870
11.850595
11.393428
11.939406
11.497736
10.495782
10.396838
9.663701
9.776950
9.341836
8.973479
8.853674
8.562803
8.199811
7.952452
7.373691
7.216930
7.214546
7.024407
6.380677
6.086826
6.322861
6.000996
6.522536
5.997419
6.457567
5.483627
6.233454
5.724430
5.599856
5.478859
5.373955
5.119443
5.163550
5.350709
4.964471
5.108714
4.761815
4.988909
4.638433
4.712939
4.919767
4.627705
4.470944
##ZVALUE=280
1.164675
1.064539
1.011491
1.272559
1.243949
1.117587
1.387596
1.186728
1.093745
1.316667
1.214743
1.211762
1.223683
1.457930
1.491904
1.283884
1.381636
1.625419
1.793504
1.996756
1.891851
2.954602
9.632707
44.900775
100.342631
228.192806
359.582901
512.465835
747.123957
889.180899
993.845463
984.060764
864.959955
709.036589
474.776626
318.011642
162.902474
91.452599
48.764944
47.091842
59.728622
89.604855
113.109946
140.044689
154.344440
160.019994
157.133937
141.019821
120.426416
97.147822
68.606734
50.242543
33.297539
24.733543
18.868446
16.380548
15.128851
14.451742
14.192462
13.857484
14.062524
13.729930
13.771653
13.653636
13.157725
12.445450
12.680888
12.382865
12.132525
12.146831
11.737943
11.469722
12.214780
12.080669
11.470914
11.216998
11.792779
10.503531
10.082722
10.067821
10.091662
9.317994
9.265542
8.819699
8.299947
8.295774
8.225441
7.693768
7.667542
6.853938
6.889701
6.701946
6.888509
6.181598
6.482601
6.473660
6.177425
6.138682
6.259680
6.316900
5.893707
5.421638
5.428791
5.561709
5.551577
5.744696
5.679727
5.235672
4.936457
4.967451
4.915595
4.987717
4.331470
4.637837
5.024672
4.534721
##ZVALUE=285
0.952482
1.118779
1.086593
0.940561
1.096725
0.959635
1.019835
1.114607
1.090765
1.185536
1.163483
1.202822
1.154542
1.303554
1.056790
1.346469
1.245737
1.408458
1.626611
1.629591
1.494884
1.692772
1.888871
2.070665
4.762411
23.775697
58.128834
121.536851
265.999436
416.771770
645.405650
811.010003
971.257687
1013.294458
949.173570
812.934637
593.826771
412.399769
219.655633
128.722787
57.976842
39.306879
40.574670
55.376887
81.944466
104.652643
129.918456
144.849420
156.756639
151.502490
136.301517
117.984414
90.732574
69.666505
45.807958
32.901764
21.060705
17.079711
14.059544
12.820959
12.359619
12.688637
11.955500
11.338592
11.580586
11.560917
11.216998
11.626482
11.193752
11.510849
11.113882
11.047721
11.047721
10.939837
10.388494
10.764599
10.382533
10.007620
10.008812
9.641647
9.261966
8.971691
8.913875
8.519888
8.547902
8.433461
8.383989
8.000731
7.461905
7.612705
7.087588
6.837845
6.961823
7.097721
6.312728
5.742908
5.981922
6.454587
6.397963
6.066561
5.685687
5.612969
5.645752
5.822778
5.580783
5.588531
5.306602
5.482435
5.169511
4.823804
5.310774
4.856586
4.886985
4.569888
4.768968
4.620552
##ZVALUE=290
0.998974
1.029968
1.023412
1.032948
1.116991
0.982881
0.902414
1.110435
1.037717
1.095533
0.968575
1.158714
1.222491
1.081824
1.203418
1.355410
1.177788
1.176000
1.218915
1.349449
1.248717
1.296997
1.692772
1.805425
2.006888
2.218485
2.639890
7.693768
77.340603
84.445477
228.727460
321.274996
665.591955
738.507509
1012.468934
1015.712023
1007.910967
905.914903
700.387955
522.120595
341.959596
168.944001
89.448690
38.404465
27.349591
36.711693
51.407814
76.057911
95.666647
117.642879
138.793588
149.139762
144.318938
133.228898
108.729601
88.606477
61.424971
44.754744
28.679967
20.158887
13.910532
11.197925
10.037422
9.749532
9.809732
9.482503
9.180903
9.442568
9.603500
9.430647
9.830594
9.930730
9.729862
10.150671
9.255409
9.564757
9.535551
9.223819
8.889437
8.683801
8.674860
7.926822
8.214712
7.949471
7.648468
7.420778
7.819533
7.572770
7.405877
7.262826
6.828904
6.931424
6.605983
6.502867
6.165504
5.905628
6.033778
6.276965
5.735755
5.724430
5.550981
5.550981
5.664825
5.684495
5.548596
5.765557
5.368590
5.414486
5.152822
5.176663
5.190969
4.848838
4.941821
4.410744
4.675984
4.183650
##ZVALUE=295
1.154542
0.946522
0.767708
0.890493
0.932813
0.734925
0.777841
1.068711
0.901818
1.038909
1.089573
1.025796
1.212955
1.204610
1.140833
1.102686
1.134872
1.159906
1.098514
1.218915
1.084805
1.331568
1.302958
1.550913
1.359582
1.426935
1.650453
2.083778
2.118945
3.407598
17.629862
47.180653
134.864450
247.597694
457.590818
643.368959
867.017508
991.235971
1015.712023
966.758728
791.348815
615.989566
377.335548
237.800479
106.530786
52.859783
24.246573
21.592975
32.466650
45.251846
70.400834
90.204477
115.631819
131.088495
140.791535
139.464736
121.831894
104.959607
79.365969
61.736703
39.188862
27.909875
17.120838
12.862682
9.435415
8.112788
8.068681
7.608533
7.872581
7.786751
8.010864
8.018613
8.238554
8.411407
8.267760
8.324981
7.872581
8.202791
8.003712
7.560849
7.477999
7.455945
7.422566
7.223487
7.297993
7.123947
7.047653
6.863475
6.744862
6.445646
6.725788
6.415844
6.539822
6.104708
5.883574
5.969405
5.451441
5.935431
5.312562
5.875826
5.647540
5.549788
5.120635
5.274415
5.437732
5.215406
4.927516
4.954934
5.103946
5.427599
4.850626
4.820824
4.627705
4.723668
4.612803
4.401803
##ZVALUE=300
0.918508
0.919700
0.940561
1.039505
0.909567
1.029968
1.020432
0.969768
0.916719
1.029968
0.937581
0.725985
1.095533
1.120567
1.150966
1.036525
1.001954
1.329780
1.122952
1.044869
1.143813
1.488924
1.190901
1.097918
1.323819
1.389980
1.479983
1.469851
1.640916
1.723766
1.931787
2.037883
8.098483
26.655793
88.727474
170.859694
349.968672
521.743894
764.302611
909.776688
1014.063954
1011.196971
872.607827
719.521642
478.726625
310.000777
154.371858
83.487630
33.001900
18.029809
19.045472
26.503801
42.733550
58.740973
83.731413
103.532672
124.234557
131.486654
129.463673
120.076537
100.356936
82.065463
57.429671
41.039586
24.674535
17.226934
10.792613
7.968545
6.857514
6.803870
6.899834
6.761551
7.249713
6.886721
7.024407
6.825924
6.717443
6.819963
6.465912
6.712675
6.709695
6.362796
6.587505
6.592870
6.338954
6.366968
6.118417
6.052852
5.739927
5.719662
5.633831
5.599856
5.652905
5.435944
5.669594
5.485415
5.206466
5.223751
4.903674
5.021691
5.271435
5.292892
4.978776
4.584789
4.868507
4.801750
4.980564
4.968643
4.932880
4.820824
4.672408
4.811883
4.747510
4.586577
4.349947
4.328489
##ZVALUE=305
0.930429
0.759959
0.804663
0.751615
1.074672
0.966787
0.959635
0.936985
0.885725
0.808835
0.854731
0.870824
0.900626
1.013875
0.833869
0.907779
0.995994
1.031756
1.015663
0.924468
1.018643
1.021624
1.243949
1.134872
1.346469
1.454949
1.412630
1.505613
1.517534
1.524687
1.533628
1.649857
1.657605
1.986623
4.249811
14.496446
57.150722
124.841928
278.139710
436.029434
620.816946
852.816701
974.769592
1015.712023
954.188704
757.180452
591.273904
375.418663
232.876539
127.124786
49.354434
22.899508
13.479590
16.062856
26.154518
36.842823
58.695674
76.596737
99.924803
113.573670
122.926831
123.647451
113.217831
97.744465
75.172782
56.548715
36.546588
25.154948
14.683604
9.819865
7.658601
6.780624
6.264448
6.136894
6.048679
6.245971
6.024837
5.927682
6.119609
5.876422
5.903840
6.079674
6.117821
6.128550
5.991459
5.862713
5.617738
5.742908
5.517602
5.259514
5.079508
5.280972
4.953742
4.862547
4.775524
5.158782
5.042553
5.137920
4.900694
5.171895
4.962683
4.689693
4.946589
4.620552
4.554987
4.541874
4.551411
4.643798
4.696846
4.465580
4.350543
4.555583
4.356503
4.329681
3.962517
4.176497
##ZVALUE=310
0.858903
0.817776
0.835657
0.800490
0.943542
0.804663
0.762939
0.774860
0.982881
0.904799
0.923872
0.909567
0.859499
0.981688
0.943542
0.856519
1.005530
0.979900
0.940561
0.997782
1.029968
1.029968
0.997782
1.125932
1.221895
1.282692
1.104474
1.243949
1.143813
1.249909
1.347661
1.364946
1.572967
1.581907
1.737475
1.819730
2.228618
6.255507
31.394958
73.759556
184.623599
314.154625
541.887879
722.087026
928.736925
1008.690000
994.018912
894.706845
684.183836
506.011844
294.711590
175.385475
75.184703
35.329461
14.047623
10.857582
14.969707
20.758510
34.103990
48.131943
70.541501
86.727738
105.597973
113.307834
114.992857
108.744502
93.380809
75.649619
52.624941
37.789941
22.841692
15.726686
10.482669
7.391572
6.223917
5.737543
5.351901
5.323887
5.046725
5.193949
5.071759
4.888773
4.851818
4.816651
4.982948
5.143881
5.102754
4.840493
4.959702
4.644990
4.714727
4.732609
4.409552
4.506707
4.665852
4.450679
4.164577
4.274845
4.300475
4.381537
4.273653
3.972650
4.192591
4.119873
4.149675
4.316568
4.459620
4.130602
4.162788
4.134774
4.319549
3.890991
4.030466
3.976822
3.993511
4.056692
##ZVALUE=315
0.736713
0.765920
0.824928
0.873804
0.790954
0.779629
0.928640
0.927448
0.939965
0.812411
0.656843
0.934601
0.725985
0.848770
0.851750
0.827909
1.033545
1.030564
0.962615
1.066923
0.975728
1.015663
0.943542
1.053810
1.063943
1.076460
1.132488
1.153946
1.157522
1.310706
1.128912
1.222491
1.202822
1.244545
1.480579
1.443624
1.607537
1.664758
2.215505
3.197789
15.613437
44.643879
128.188729
237.055421
445.969701
634.038448
845.116973
962.567925
1006.916761
951.457620
772.786736
607.770681
381.321907
240.331888
111.148953
53.403974
17.234683
10.164976
9.920001
12.571812
20.248890
29.672980
47.745705
63.675642
84.864497
97.680688
109.168887
110.000968
101.523995
88.157654
67.284703
52.069426
34.650564
23.288727
14.161468
9.523630
6.513596
5.301833
4.727840
4.656911
4.356503
4.164577
4.231930
4.364848
4.192591
4.379749
4.220605
4.358888
4.058480
3.847480
4.218817
4.007816
4.032850
4.042983
4.077554
3.832579
3.902912
3.952980
3.706813
3.883839
3.854632
3.912449
3.721714
3.490448
3.718734
3.839731
3.781915
3.841519
3.889799
3.733635
3.670454
3.684759
3.519654
3.788471
3.523827
3.491640
##ZVALUE=320
0.781417
0.727773
0.779629
0.772476
0.742674
0.955462
0.843406
0.727773
0.925660
0.788569
0.758767
0.854731
0.822544
0.786781
0.917912
0.830889
0.842810
0.846982
0.843406
0.841618
1.004934
1.023412
0.889897
0.746846
0.941753
1.037717
1.009703
1.055598
0.995994
1.207590
1.072884
1.149774
1.075864
1.128912
1.194477
1.385808
1.394749
1.376867
1.542568
1.534820
1.843572
2.118945
7.543564
24.648905
85.371733
170.149803
340.694785
508.885980
744.421482
895.496607
997.846723
989.977717
862.411857
709.768534
477.062464
308.880806
144.554973
76.142550
27.815700
13.012886
8.327961
8.669496
12.588501
17.124414
27.861595
39.851665
59.930682
74.482560
93.209743
101.311803
102.005601
97.315907
83.386898
68.948865
48.724413
35.385489
21.065474
13.618469
7.928610
5.980730
4.504919
4.135966
3.954768
3.535748
3.772974
3.557801
3.502965
3.582835
3.480911
3.333688
3.582835
3.404617
3.430843
3.551841
3.582835
3.620982
3.532767
3.508925
3.470778
3.416538
3.450513
3.263950
3.348589
3.427863
3.236532
3.372431
3.332496
3.378987
3.084540
3.129840
3.300905
3.413558
3.064871
3.173947
3.045797
3.078580
##ZVALUE=325
0.806451
0.759959
0.612736
0.757575
0.775456
0.878572
0.805855
0.818968
0.857711
0.708699
0.725985
0.761747
0.884533
0.799894
0.857711
0.810623
0.893474
0.872612
0.855923
0.993609
0.755787
0.730753
0.839829
0.774860
0.968575
0.991821
1.011491
0.996590
1.022816
0.979900
0.986457
1.183748
1.044869
1.158714
1.186728
1.254678
1.392961
1.314878
1.292825
1.393557
1.610518
1.552701
1.671910
2.041459
3.381968
18.980503
50.206780
132.613778
241.519809
395.404696
634.234548
797.939897
953.933597
989.188552
899.492502
763.703585
539.017916
366.545916
190.475583
105.295777
39.941669
16.989708
7.654428
6.887913
8.037686
10.208488
16.837716
25.516748
41.650534
56.362748
73.953867
85.373521
96.342564
95.622540
89.798570
78.701973
60.303807
45.404434
29.740930
19.733906
11.173487
7.694960
5.108714
4.309416
3.529787
3.166795
3.275871
3.132820
3.076792
2.985597
2.917647
3.107786
3.152490
3.063679
3.139973
3.127456
3.254414
3.182888
2.898574
3.062487
3.147721
2.964735
3.016591
2.990961
2.709627
2.890825
2.912879
3.013611
2.910495
2.869964
2.843738
2.826452
2.813935
2.716780
2.602935
2.800822
##ZVALUE=330
0.795722
0.733733
0.737906
0.663996
0.788569
0.722408
0.810623
0.801682
0.813603
0.842810
0.732541
0.936985
0.816584
0.833869
0.740886
0.638962
0.744462
0.799894
0.879765
0.800490
0.806451
0.867844
0.947714
1.030564
0.865459
0.951886
0.870824
1.068711
0.895858
0.872612
0.944734
0.810623
0.908971
0.895858
1.151562
1.229644
1.152754
1.139641
1.087785
1.233816
1.321435
1.283884
1.505613
1.420975
1.625419
1.578927
2.338886
7.000566
34.023523
79.603791
193.244815
318.743587
539.098978
708.665848
882.482529
957.785845
918.404460
809.948444
611.096621
449.748635
250.183940
139.746666
55.618882
25.457740
9.324551
6.724000
6.471872
7.159710
10.847449
15.672445
26.319623
36.431551
52.991509
67.056417
81.093907
87.640882
88.998675
83.545446
69.802999
57.646632
39.933920
28.889775
18.555522
12.528896
7.667542
5.089641
3.944635
3.358722
3.332496
3.006458
2.876520
2.724528
3.004670
2.749562
2.887845
2.839565
2.828836
2.643466
2.781749
2.793670
2.686977
2.992749
2.823472
2.628565
2.919436
2.746582
2.856851
2.780557
2.633929
2.671480
2.785921
2.656579
2.548695
2.454519
2.398491
2.585649
##ZVALUE=335
0.692606
0.600815
0.621676
0.813603
0.812411
0.663996
0.793934
0.774860
0.794530
0.825524
0.785589
0.753999
0.763535
0.735521
0.700951
0.629425
0.654459
0.720620
0.789762
0.670552
0.727773
0.826716
0.923872
0.805855
1.008511
1.038909
0.910759
0.962615
0.977516
0.817776
0.990629
0.828505
1.035929
1.022816
1.025796
0.811815
0.879765
1.125932
1.102686
1.238585
1.207590
1.323819
1.188517
1.432896
1.355410
1.248717
1.552701
1.494884
2.004504
4.223585
13.987422
54.909587
116.384625
258.086920
410.926938
639.781952
799.605846
927.382708
945.443511
847.402811
711.984634
487.444997
331.946015
174.823999
92.631578
31.805634
13.496876
7.215738
6.223917
6.318688
6.852746
9.640455
13.914704
24.482608
33.748746
48.488975
61.069727
76.020956
81.806779
82.379580
77.521801
64.285994
53.891540
40.122867
30.160546
18.614531
12.701750
7.584691
5.369782
3.811717
3.338456
2.914667
2.757907
2.756715
2.633929
2.566576
2.652407
2.550483
2.747774
2.741814
2.712607
2.825856
2.714992
2.691746
2.509952
2.631545
2.519488
2.670884
2.753735
2.673864
2.518892
2.428889
2.417564
2.412796
2.450943
2.461672
##ZVALUE=340
0.782609
0.665784
0.582933
0.680685
0.576973
0.711679
0.746846
0.884533
0.659823
0.780821
0.711679
0.845790
0.729561
0.693798
0.713468
0.674725
0.790954
0.704527
0.768900
0.825524
0.693798
0.824928
0.727773
0.882745
0.896454
0.839829
0.960827
0.863671
0.772476
0.708699
0.798702
0.853539
0.927448
0.952482
0.993609
0.961423
1.021624
1.039505
1.106858
1.038909
1.163483
0.919700
1.101494
1.172423
1.025796
1.186728
1.226664
1.213551
1.510978
1.499653
1.570582
2.187490
8.111596
28.389692
92.594624
178.020000
354.127884
521.571040
732.876658
857.484937
930.422544
900.738835
755.586028
600.369573
376.604795
236.513615
109.347701
52.074790
15.328526
8.012652
5.926490
5.941987
5.747676
6.400943
8.951426
13.223886
22.087693
31.775832
46.817660
59.163570
71.256757
76.629519
76.754689
73.561668
62.285662
52.203536
38.372874
28.876662
18.094778
12.520552
7.451773
5.325675
3.636479
3.153682
2.612472
2.783537
2.826452
2.505779
2.397895
2.545714
2.542734
2.384782
2.454519
2.401471
2.337694
2.407432
2.341866
2.520680
2.505779
2.431870
2.429485
2.383590
2.467632
2.376437
2.481937
2.253652
##ZVALUE=345
0.614524
0.784993
0.624657
0.805855
0.777841
0.706911
0.751615
0.748634
0.674725
0.652671
0.622869
0.659823
0.702739
0.709891
0.498891
0.795722
0.710487
0.755787
0.688434
0.711679
0.804663
0.656843
0.673532
0.870824
0.665784
0.885725
0.719428
0.842810
0.763535
0.780821
0.856519
0.651479
0.900626
0.944734
0.880957
0.949502
0.962615
1.023412
0.919700
0.960827
1.023412
0.905991
1.005530
0.985861
1.154542
1.083612
1.077652
1.170635
1.335740
1.333952
1.349449
1.537800
1.568794
1.712441
4.176497
14.940500
60.029626
124.567747
262.685418
404.388905
620.430708
771.905780
890.725851
898.779631
804.245472
669.535995
453.971624
299.626589
138.685703
68.164468
22.499561
10.514855
6.420612
5.772710
5.285740
5.193949
5.960464
7.681847
12.999773
18.935800
30.098557
39.646626
53.384900
62.206984
68.981647
71.026683
67.572594
61.508417
48.778653
39.076805
26.283860
18.611550
11.155605
7.692575
5.065799
3.650784
3.047585
2.748966
2.439618
2.563596
2.316833
2.425909
2.526641
2.264977
2.436638
2.329946
2.308488
2.287626
2.376437
2.279878
2.352595
2.234578
2.192855
2.522469
2.280474
2.417564
##ZVALUE=350
0.686646
0.701547
0.687838
0.735521
0.625849
0.807643
0.645518
0.684857
0.592470
0.631809
0.638962
0.694990
0.508428
0.721812
0.741482
0.865459
0.737906
0.833869
0.822544
0.797510
0.797510
0.692606
0.653863
0.767708
0.706911
0.620484
0.756979
0.656843
0.928640
0.804663
0.825524
1.013875
0.835657
0.771880
0.823736
0.855923
0.898838
0.931621
1.143813
0.991821
1.071692
0.913739
0.963807
0.869632
1.009703
1.096725
1.062751
1.043677
1.168847
1.140833
1.278520
1.172423
1.315475
1.217723
1.508594
1.674891
2.454519
7.937551
34.458637
79.317689
191.445947
317.951441
521.675944
675.630569
833.850503
881.966949
831.989646
717.181563
503.685474
338.232517
171.873569
93.993545
36.566854
14.929771
6.479621
5.589724
4.908442
4.738569
4.530549
5.309582
7.584691
10.937452
17.558932
24.743676
36.352873
45.498610
56.865811
62.576532
64.545870
63.125491
55.805445
47.293901
36.135912
26.911497
17.298460
12.760758
5.583763
5.088449
3.907681
2.935529
2.753735
2.497435
2.538562
2.256632
2.230406
2.276897
2.246499
2.418756
2.198815
2.283454
2.158880
2.364516
2.223849
2.331734
2.367496
2.262592
##ZVALUE=355
0.712872
0.690818
0.676513
0.737906
0.738502
0.734925
0.766516
0.653863
0.638962
0.686646
0.690818
0.801682
0.716448
0.715852
0.632405
0.650883
0.744462
0.671744
0.733733
0.794530
0.814795
0.851750
0.827909
0.792742
0.927448
0.754595
0.767708
0.877976
0.979900
0.955462
0.869632
0.720620
0.809431
1.071692
0.826716
0.795722
0.605583
0.900626
0.828505
0.852942
0.852942
0.972748
0.844598
0.800490
0.875592
1.089573
0.954866
0.996590
1.119971
1.036525
1.102686
1.017451
1.077652
1.184940
1.279712
1.364946
1.551509
1.505613
1.719594
3.641844
18.416643
52.204728
140.696764
244.178772
429.700017
583.837628
763.602853
847.046971
839.977860
744.355917
553.109646
407.135487
231.769681
128.604770
48.835874
20.793676
6.912947
5.341768
4.635453
4.496574
4.071593
4.481673
4.608631
6.168485
9.612441
13.724566
22.048950
29.854774
41.057467
49.752593
57.127476
58.962703
57.171583
52.623749
44.038892
36.866665
26.278496
19.471645
11.815429
8.382797
5.371571
3.795624
2.963543
2.635717
2.456903
2.229810
2.202988
2.091527
2.159476
2.137423
2.224445
2.221465
2.064705
2.060533
2.281666
2.219677
##ZVALUE=360
0.696778
0.677705
0.708699
0.601411
0.700951
0.712872
0.641942
0.586510
0.699759
0.632405
0.778437
0.736713
0.687838
0.822544
0.785589
0.666976
0.624657
0.631809
0.606775
0.543594
0.775456
0.719428
0.725985
0.677705
0.812411
0.783801
0.901818
0.847578
0.942945
0.864863
0.841618
0.717640
0.838637
0.929832
0.699759
0.927448
0.867844
0.921488
0.911951
0.815988
0.831485
0.929832
0.959635
1.054406
0.993609
0.744462
0.987649
0.941753
1.003742
0.959635
1.015663
1.055598
1.146793
1.136661
1.116991
1.326799
1.152754
1.226664
1.541972
1.599789
1.859665
2.090931
8.897781
26.954412
84.913969
164.451599
330.448747
485.977530
691.988468
804.197788
841.606855
791.533589
641.651750
484.504700
289.790630
173.288584
75.269938
31.983852
9.643435
5.580783
4.801750
4.463792
4.291534
3.882647
3.803968
4.023910
5.318522
7.316470
11.866689
17.193556
25.535822
33.851862
43.349862
49.308538
53.055882
53.256750
49.913526
44.208765
34.487844
27.960539
19.390583
13.631582
8.957982
6.178617
4.141927
3.166795
2.597570
2.369881
2.257824
2.094507
2.222657
2.203584
2.234578
2.171993
2.040863
2.017617
##ZVALUE=365
0.718832
0.682473
0.597835
0.751615
0.603795
0.675917
0.700951
0.563860
0.654459
0.741482
0.655651
0.672936
0.701547
0.645518
0.734925
0.686646
0.644922
0.697970
0.696778
0.725985
0.626445
0.690818
0.663996
0.803471
0.827909
0.628829
0.744462
0.767708
0.824928
0.741482
0.739694
0.980496
0.814795
0.777841
0.869632
0.857711
0.747442
0.828505
0.805855
0.797510
0.730753
0.826716
0.884533
1.097918
0.969768
0.877976
0.931621
0.892878
0.850558
0.886917
0.932813
0.973940
1.054406
1.065731
1.056790
1.106858
1.108646
1.192689
1.273751
1.318455
1.349449
1.513958
1.662970
1.822710
4.018545
13.537407
54.042935
117.070675
263.263583
413.693786
615.516901
737.399459
825.030804
814.938545
696.947575
555.128455
345.830917
209.739804
93.550682
44.673681
14.962554
6.730556
4.693866
4.395843
3.771782
3.650784
3.515482
3.453493
3.633499
4.174709
6.376505
9.378791
15.052557
20.560622
30.071735
36.540627
44.426918
47.440529
49.250722
47.482848
41.744709
36.120415
27.842522
21.437407
13.969541
9.532571
6.177425
4.213452
3.093481
2.699494
2.477765
2.034903
2.064705
2.121925
2.040863
1.989603
##ZVALUE=370
0.604987
0.788569
0.705719
0.737906
0.536442
0.744462
0.750422
0.613928
0.648499
0.679493
0.652671
0.650883
0.594854
0.604987
0.685453
0.823736
0.761747
0.633597
0.592470
0.722408
0.770688
0.681877
0.745654
0.739694
0.730753
0.739694
0.599623
0.837445
0.728965
0.616908
0.786781
0.774860
0.744462
0.782609
0.798702
0.725985
0.737906
0.744462
0.822544
0.796914
0.795722
0.903606
0.842810
0.684857
0.856519
0.906587
0.996590
0.887513
0.669956
0.749826
0.960827
0.826716
0.952482
0.871420
1.042485
1.066923
1.168847
1.155734
1.272559
1.176596
1.131892
1.300573
1.475811
1.531839
1.553893
1.731515
2.323985
7.561445
38.061738
88.735819
200.988650
330.199003
547.477007
697.686672
825.332999
854.543447
773.531795
642.635822
426.397920
275.004506
126.613975
64.390898
23.411512
9.954572
4.747510
4.234910
3.816485
3.567934
3.598928
3.291965
3.094673
3.058910
3.933907
5.168915
8.373857
11.801720
18.928647
24.944544
32.564998
38.252473
43.914914
46.196580
44.919848
40.415525
34.514666
27.966499
20.219684
14.217496
10.208488
7.215738
4.594922
3.316998
2.615452
2.268553
2.080798
1.939535
##ZVALUE=375
0.557899
0.614524
0.573993
0.652671
0.556707
0.664592
0.611544
0.694990
0.629425
0.750422
0.738502
0.784993
0.743866
0.649691
0.608563
0.672936
0.476837
0.463724
0.626445
0.664592
0.649691
0.702739
0.718832
0.745654
0.730753
0.864863
0.850558
0.863671
0.698566
0.702739
0.809431
0.722408
0.711679
0.721812
0.831485
0.725985
0.677705
0.819564
0.671744
0.766516
0.805855
0.646710
0.880957
0.855923
0.939965
0.774860
0.802875
0.767708
0.870824
0.820756
0.858903
0.944734
1.018643
0.907779
0.961423
0.881553
0.898838
0.929832
1.114607
0.992417
1.037717
1.264811
1.097918
1.104474
1.110435
1.431704
1.368523
1.577735
1.833439
4.765987
16.021729
59.036613
125.084519
277.755857
427.976847
627.782941
751.078725
830.032825
810.284019
684.185028
539.410710
330.781937
203.332901
93.147755
45.519471
14.362931
6.461740
4.310608
3.739595
3.656745
3.314614
3.095865
2.895594
2.853870
3.080964
3.465414
4.302859
6.530881
9.392500
15.283823
20.616651
29.259920
35.274625
40.919781
43.397546
43.198466
40.514469
35.519600
30.085444
22.553802
17.501712
11.632442
8.245707
5.107522
3.755689
2.784729
##ZVALUE=380
0.594854
0.653863
0.663996
0.666976
0.644922
0.607967
0.449419
0.599623
0.579953
0.631809
0.649691
0.702739
0.737906
0.697970
0.638962
0.630617
0.461936
0.618696
0.693798
0.504851
0.647902
0.729561
0.712872
0.653863
0.767708
0.646710
0.564456
0.687838
0.680685
0.737906
0.706911
0.610948
0.882745
0.852942
0.779629
0.805855
0.817776
0.838637
0.760555
0.694990
0.787973
0.802875
0.727773
0.786781
1.046658
0.712872
0.867844
0.959635
0.919700
0.952482
0.714660
0.878572
0.672936
0.843406
0.922680
0.899434
0.888705
0.846982
0.967979
1.023412
1.063943
1.068711
0.854731
1.104474
1.088977
1.065731
1.466870
1.360774
1.228452
1.615882
1.685619
2.449751
11.374950
35.113692
104.062557
196.460485
377.254486
525.120497
699.697733
777.819753
787.169933
713.326931
557.328463
418.642759
244.679451
144.948959
59.805512
27.135611
8.178949
4.489422
3.620982
3.389716
3.044605
3.022552
2.935529
2.791882
2.751946
2.676845
3.148913
3.588796
5.917549
8.402467
13.024807
18.015504
25.523901
33.000708
37.490726
40.222406
40.929914
38.636923
35.567880
29.322505
24.132729
17.011762
12.958646
8.278489
##ZVALUE=385
0.634789
0.657439
0.621676
0.527501
0.597835
0.518560
0.622869
0.578761
0.606775
0.750422
0.660419
0.703931
0.521541
0.722408
0.621676
0.682473
0.570416
0.534654
0.613928
0.556707
0.591874
0.797510
0.648499
0.652671
0.565648
0.653863
0.625849
0.798702
0.657439
0.697970
0.708699
0.687838
0.790954
0.620484
0.857711
0.783801
0.718832
0.698566
0.930429
0.788569
0.848770
0.817776
0.990629
0.794530
1.040697
0.900626
0.864863
0.726581
0.926852
0.840425
0.742674
0.814795
1.011491
0.803471
0.827909
0.796914
0.836849
0.873804
0.908971
0.975728
0.905991
0.939965
0.927448
0.952482
0.966787
1.026988
0.945926
1.105666
1.280904
1.343489
1.433492
1.585484
1.580715
1.812577
5.098581
16.974807
64.615607
138.402581
292.300582
440.709591
637.760758
741.505027
797.535777
770.355463
649.217963
521.577001
336.312652
214.394927
97.246766
46.963692
15.029907
5.988479
3.784895
3.509521
3.486872
3.120899
3.025532
2.777576
2.800822
2.695918
2.662539
2.823472
3.250837
4.438758
6.981492
10.339618
15.813708
20.424724
26.839972
31.749606
36.355853
37.961602
37.648678
34.813881
29.932857
23.344755
##ZVALUE=390
0.627637
0.449419
0.562668
0.471473
0.492930
0.390410
0.627637
0.629425
0.660419
0.675917
0.742674
0.930429
0.675917
0.673532
0.783801
0.485778
0.578761
0.638962
0.558496
0.558496
0.593662
0.539422
0.644922
0.747442
0.728965
0.660419
0.701547
0.662804
0.682473
0.645518
0.753999
0.678897
0.725985
0.760555
0.769496
0.790954
0.691414
0.769496
0.896454
0.838637
0.982881
0.873804
0.884533
0.807643
0.782609
0.720620
0.924468
0.750422
0.898838
0.796914
0.825524
0.827909
0.786781
1.092553
0.872612
0.855923
0.983477
0.975728
0.857711
0.951886
1.070499
0.907779
1.032948
0.946522
0.926852
1.020432
1.028776
1.214743
1.231432
1.282692
1.250505
1.378655
1.390576
1.380444
1.478791
1.629591
2.872944
10.815859
48.093796
104.046464
229.325891
362.725854
549.862981
678.829551
801.131725
821.988583
744.612813
630.610585
436.164737
291.164517
138.621926
70.377588
23.619533
9.342432
4.107952
3.655553
3.367662
3.419518
3.174543
3.282428
3.165603
2.866983
2.669692
2.584457
2.605915
2.821684
3.958941
5.977750
8.450747
12.879968
17.078519
23.551583
27.879477
32.957792
35.010576
35.876632
##ZVALUE=395
0.644922
0.729561
0.742674
0.659823
0.833869
0.777841
0.594854
0.678897
0.609756
0.541806
0.599623
0.551939
0.651479
0.648499
0.507832
0.672936
0.547767
0.601411
0.572801
0.495911
0.740886
0.639558
0.803471
0.635982
0.646710
0.737906
0.752807
0.599623
0.740886
0.731945
0.731945
0.666976
0.853539
0.643730
0.910759
0.745654
0.819564
0.943542
0.867844
0.994802
0.898838
1.112819
0.761747
0.916719
0.996590
0.832677
0.924468
0.782609
0.954866
0.925660
0.810623
0.883937
0.863671
0.926852
0.838637
0.862479
0.893474
0.852942
0.936985
0.895858
0.897646
0.967979
0.828505
1.025796
0.936985
0.956655
1.164675
0.892878
1.183748
1.154542
1.267791
1.302958
1.207590
1.388788
1.395941
1.500845
1.464486
1.499653
1.952648
5.385876
28.553605
69.744587
165.642500
276.238918
462.232828
604.196787
760.169625
812.658668
781.989694
684.865713
503.945947
357.508659
191.924572
104.214549
38.021803
16.486645
5.315542
3.866553
3.514886
3.576875
3.504753
3.351569
3.308654
3.101826
3.041625
2.898574
2.608895
2.633929
2.750754
3.581643
4.686713
7.271767
10.188818
15.519857
19.610524
26.136637
##ZVALUE=400
0.756979
0.779629
0.772476
0.686646
0.476837
0.551939
0.603795
0.524521
0.663996
0.643730
0.544786
0.452995
0.598431
0.675917
0.615716
0.551939
0.511408
0.654459
0.676513
0.642538
0.712872
0.566840
0.621676
0.593662
0.609756
0.657439
0.601411
0.774860
0.785589
0.683665
0.789762
0.789762
0.820756
0.870824
0.890493
0.751615
0.724792
0.819564
0.968575
0.912547
0.884533
0.903606
1.010895
0.869632
1.003742
0.813603
1.025796
0.981688
0.855923
0.852942
0.807643
1.012683
0.814795
0.826716
1.025796
0.965595
0.863671
0.921488
0.892878
0.939965
0.887513
0.798702
0.914931
0.916719
1.034737
1.038909
1.089573
1.173615
1.194477
1.313686
1.201630
1.348853
1.237988
1.381636
1.383424
1.180768
1.103878
1.361966
1.316667
1.528859
1.615882
3.115535
14.346838
41.110516
114.104748
208.102465
383.170843
534.025431
716.000795
800.302625
814.211965
740.786791
570.089817
419.551730
239.179730
141.869783
61.429739
27.514696
8.190870
4.299879
3.562570
3.473759
3.532767
3.434420
3.517866
3.393888
3.065467
2.989769
2.839565
2.655983
2.386570
2.418756
2.928972
4.081726
5.795956
9.185672
##END
