##TITLE=11-2
##FORMAT=SPECTACLE-ASCII V-1.2
##DATA TYPE=ULTRAVIOLET SPECTRUM
##SECOND TYPE=ULTRAVIOLET SPECTRUM
##DATE=04/11/18
##TIME=11:13:51
##SPECTROMETER/DATA SYSTEM=SPECTACLE
##XUNITS=NM EM
##YUNITS=ENERGY
##YFACTOR=1
##FIRSTX=220
##LASTX=450
##NPOINTS=116
##3DDATA=Equidistant
##ZUNITS=NM EX
##FIRSTZ=210
##LASTZ=400
##ZPOINTS=39
##XYDATA=(Y..Y)
##ZVALUE=210
15.156865
14.929771
13.441443
12.885928
10.674000
10.208488
8.677840
8.083582
8.513927
4.949570
5.132556
3.422499
2.891421
2.660751
3.337860
3.158450
3.298521
3.016591
2.686977
3.211498
3.431439
3.277659
3.266931
3.482699
3.624558
3.472567
4.091859
3.847480
4.011989
4.750490
5.101562
4.600883
5.263686
5.393624
5.462766
5.307794
5.055666
7.347465
6.323457
6.167889
6.959438
6.782413
7.213950
6.779432
6.833673
6.207824
5.825758
6.421804
7.969737
6.781816
6.434917
6.946921
7.663965
7.528663
7.720590
7.565618
6.342530
7.440448
7.732511
8.093715
7.066727
6.753802
7.142425
7.258654
6.901622
7.755756
7.498860
8.091927
8.775592
8.437634
10.264516
11.457801
11.089444
13.193488
14.237761
13.675690
15.311837
14.340878
13.778806
13.097525
12.379885
11.910796
10.380745
9.468794
8.188486
8.204579
6.261468
6.243587
6.417632
7.334948
9.850860
11.359453
14.899969
17.952919
23.295879
28.705001
34.537911
38.283467
44.810772
43.632984
48.427582
49.464703
50.977468
48.659444
47.789812
44.001937
41.574836
35.131574
32.469630
30.574799
23.984909
20.227432
16.204715
14.653802
14.096498
13.343692
##ZVALUE=215
37.773848
36.625862
30.403733
25.131702
21.036863
18.149614
15.461445
16.201735
16.162992
14.405847
11.823773
9.108782
7.415414
4.740953
4.344583
3.174543
3.300905
3.165603
2.815723
3.243685
3.250837
2.784729
4.250407
3.768802
3.981590
3.688931
3.788471
4.550815
4.572868
4.450679
5.402565
4.959702
5.433559
5.860925
5.923510
6.247759
6.507635
6.691813
6.370544
7.044673
7.047653
7.271767
7.070899
7.363558
7.234812
7.975698
7.878542
7.265806
8.104444
8.178949
8.042455
9.003878
8.863807
8.508563
9.372830
8.493662
8.998513
9.378791
8.760691
8.250475
8.858442
8.854866
8.303523
8.179545
8.078814
8.364916
8.963943
8.712411
8.390546
9.916425
10.824800
11.509657
11.724830
11.863708
12.567639
13.555884
12.489557
13.170838
11.265874
11.871457
10.411739
9.377599
9.784698
8.103848
7.625818
7.122755
6.955862
6.124973
5.523562
5.229712
4.605651
5.506873
5.765557
6.063581
8.356571
11.205673
15.189648
20.212531
23.592710
31.032562
42.344928
47.012568
52.548647
60.554743
64.848661
72.354674
74.461699
73.592663
70.058703
67.576766
64.224601
59.172511
55.479407
47.275424
38.410425
29.530525
##ZVALUE=220
79.681873
79.042912
77.350736
71.193576
61.202645
46.509504
36.274791
28.276443
25.575757
23.145676
25.449991
23.848414
21.811724
16.260743
14.992952
10.531545
8.200407
5.128980
4.435778
3.547668
3.523827
3.549457
3.736615
3.716946
4.265904
3.984571
4.295707
4.452467
4.876852
4.860759
5.370975
5.305409
5.862713
6.090999
6.440878
7.181764
8.234978
6.983876
7.105470
7.282495
8.442998
7.697940
8.386970
8.567572
8.586645
7.958412
8.803606
8.993745
8.963943
10.140538
10.827780
9.705424
11.730790
9.986758
11.491776
12.415648
12.006760
11.214614
10.898709
11.678934
11.581779
10.393858
11.215806
9.916425
10.662675
9.924769
10.458827
10.651946
10.086894
12.137890
12.061000
11.902452
12.573600
13.402700
13.611913
13.956428
13.924837
13.168454
13.603568
12.065768
11.386871
11.387467
9.124875
8.416772
8.360744
7.169843
7.688999
6.794930
6.090999
6.258488
5.080700
6.061792
6.005764
5.575418
5.651712
5.778670
5.687475
5.373955
6.755590
9.584427
11.960864
16.057491
26.000738
31.199455
43.940544
53.030849
67.370534
81.751943
87.715983
100.531578
107.702613
112.507939
109.112859
108.527541
105.801821
94.707608
##ZVALUE=225
103.808641
104.132891
127.371550
131.309628
131.581426
120.179653
105.893612
80.238581
61.034560
45.766830
40.809512
38.710833
38.856864
41.514635
35.029650
30.959845
27.897954
19.968748
16.090870
9.601712
7.312894
5.595684
4.332662
5.070567
4.068613
4.386902
4.764795
5.224943
5.744696
5.475879
6.278753
5.777478
5.387664
6.509423
6.426573
6.793737
8.111000
7.573962
7.819533
8.827448
8.695722
10.318756
9.573698
9.385943
10.300875
10.308623
10.090470
9.878874
10.698438
11.600852
11.723638
12.923479
13.605952
13.946891
13.971925
14.343858
14.244914
13.610721
13.189912
13.911724
13.725758
15.144944
13.067722
14.036894
12.682676
11.508465
11.413693
13.746619
12.670755
12.727976
12.337565
13.065934
13.509989
15.535951
16.103983
13.367534
14.326572
14.053583
11.723638
10.864735
10.134578
10.531545
9.846687
8.424520
8.383989
7.369518
7.421970
6.861687
6.449819
6.488562
6.096959
6.007552
6.536841
6.679893
5.481839
6.800890
6.125569
6.005764
6.104708
6.416440
6.122589
6.052852
6.013513
7.524490
10.833740
15.879869
23.058653
37.045479
45.299530
61.239600
74.090958
92.724562
111.841559
137.578845
149.526596
160.471797
##ZVALUE=230
68.594813
68.266988
114.374757
145.966411
186.800957
221.891999
227.698684
209.122896
179.592967
145.256519
104.873776
71.139932
60.005784
53.690672
57.632923
60.157776
56.366920
54.072738
49.929619
37.231445
28.989911
17.471910
13.637543
8.241534
5.734563
5.136728
4.789829
4.951954
6.298423
5.756617
6.530881
5.892515
7.096529
6.391406
6.182790
7.890463
8.154511
8.545518
8.937716
9.279847
9.136796
8.681417
10.334849
10.213852
11.013746
10.818839
10.565519
10.495782
10.984540
12.787580
12.208819
11.865497
12.811422
12.501478
13.904572
14.146566
13.559461
13.261437
13.855696
14.776587
13.837814
14.822483
15.047789
14.110804
14.531612
12.947917
13.501644
14.423728
12.838840
14.195442
13.043880
15.021563
15.915632
15.111566
16.248822
16.464591
14.291406
13.829470
13.470650
13.827682
11.421442
12.684464
10.216832
10.897517
9.064674
8.007884
7.708669
9.068847
8.640885
8.483529
7.349849
7.754564
6.974936
7.511973
7.006526
7.592440
6.597638
6.141663
7.140636
6.997585
6.105900
5.927682
6.623864
6.844997
6.550550
6.057620
6.917715
6.768703
9.305477
13.357997
18.801689
27.651787
42.463541
62.396526
84.237456
108.684897
##ZVALUE=235
18.210411
21.864772
48.904419
87.089539
135.802627
213.561654
270.902514
337.390900
361.762643
335.940719
302.569866
236.359835
172.366500
114.663839
90.296865
77.096820
76.665878
82.201958
89.022517
86.663961
80.912709
68.710446
50.530434
39.591789
22.283792
15.811920
9.977818
7.124543
5.769730
5.616546
5.574822
6.426573
7.191896
6.772876
7.394552
7.273555
8.527637
8.059740
9.156466
9.565949
9.366870
8.408427
8.821487
10.476708
10.010600
9.905696
10.758638
10.835528
10.095835
10.370612
12.703538
12.226701
13.387799
13.221502
11.478662
12.549758
12.087822
12.983680
12.653470
13.021827
12.466908
13.164878
12.864470
12.868643
12.504458
12.916923
12.454987
13.178587
13.213754
14.533997
14.814734
14.999509
16.823411
16.347766
17.007589
16.322732
16.344786
15.463829
13.985634
14.298558
13.585687
11.346936
12.974739
12.732744
10.710955
10.283589
9.746552
10.094643
8.595586
8.372664
8.657575
9.423494
8.450747
9.246469
7.689595
8.430481
7.922649
7.953644
7.803440
7.127523
9.366870
8.079410
7.288456
8.388758
9.258986
8.417964
7.609725
7.288456
7.969737
7.217526
7.670522
7.412434
7.414818
9.652972
13.848543
24.536848
##ZVALUE=240
2.812743
2.493858
7.775426
19.727945
57.433844
99.854469
172.629952
281.681418
371.559858
451.340675
491.227508
502.489805
447.250009
361.176729
274.998546
179.064870
132.364631
102.755427
93.050003
102.771521
111.687779
117.914677
115.642548
99.822879
87.037683
62.773824
44.668913
28.610826
18.205643
11.832714
8.630753
6.824732
7.028580
7.262826
8.243918
7.637739
7.907748
8.969903
8.124709
8.310676
8.436441
9.592772
8.627772
10.700822
9.049773
11.069775
11.366606
10.729432
9.644628
11.707544
12.799501
11.108518
11.359453
11.709929
10.741949
10.910630
12.417436
10.728836
10.050535
12.956858
11.760592
13.106465
12.697577
11.882782
12.786984
11.835694
13.273954
12.835860
12.311935
14.006495
13.856888
14.143586
15.755892
16.011596
14.738441
15.037656
15.994906
16.006827
14.743805
14.544725
14.379621
13.799667
12.762547
11.702776
11.091828
10.919571
11.253953
9.424686
9.585619
9.416938
9.636879
9.237528
9.558797
8.449554
9.151697
9.032488
8.455515
7.454753
9.300709
9.434819
8.249879
9.836555
9.020567
8.489490
9.204745
9.577870
8.782744
8.342862
8.228421
9.241700
9.065866
8.302927
7.302761
7.182956
8.163452
7.452965
##ZVALUE=245
2.057552
1.782775
2.049804
2.549887
3.967881
14.138818
35.306811
87.960958
158.870816
269.622803
372.553468
511.139631
573.894978
596.401691
561.808944
467.461944
388.705730
264.884830
190.103650
125.213861
104.528666
100.680590
111.143589
126.038790
133.231878
125.722885
112.542510
97.136497
71.556568
52.494407
33.806562
23.837686
12.886524
9.144545
7.574558
7.144809
7.347465
8.487701
8.420944
8.854866
8.743405
9.058714
8.861423
9.520650
9.864569
9.924769
10.246634
10.581613
10.907650
10.624528
9.784698
9.750724
10.490417
11.026859
9.334683
9.718537
10.394454
11.089444
10.803938
11.223555
10.948777
10.020733
10.467768
10.244846
10.963678
10.814667
11.436939
9.976625
11.338592
13.208985
12.480617
12.493730
12.682676
13.697743
13.902783
13.897419
13.300776
13.193488
12.692809
11.422634
11.364818
11.692643
9.971857
9.858608
9.104609
8.812547
9.502769
8.708835
8.388758
8.659959
8.808970
7.355809
7.365942
7.003546
8.365512
7.819533
7.861853
7.790923
7.521510
7.397532
7.737875
6.971955
7.238984
7.650852
6.894469
6.901622
7.508993
7.947683
7.362962
7.165670
7.128716
6.938577
7.965565
7.152557
7.051826
7.291436
##ZVALUE=250
1.906753
2.128482
1.676679
1.825690
1.779795
1.928806
2.519488
8.909702
23.976564
69.170594
131.144524
261.922479
370.327830
515.958667
603.470802
668.279529
668.423772
591.401458
498.246551
344.913602
240.737796
147.654414
109.553933
92.597604
101.294518
124.523640
136.425495
142.393708
135.536790
123.838782
98.255873
78.483820
54.463744
39.261580
21.699667
14.261603
9.728670
8.154511
8.270741
7.663965
9.120703
8.505583
9.583831
9.520650
9.591579
9.516478
10.332465
10.447502
10.364652
10.107756
10.253787
10.666847
10.558963
9.680986
10.294914
11.007786
9.461641
9.484887
10.279417
9.610653
9.867549
9.891987
10.015965
10.268688
9.509921
8.253455
9.615421
9.378791
9.525418
9.308457
10.169744
10.886788
12.185574
10.951757
12.097955
11.085868
11.559725
10.111928
10.249615
9.475946
10.206699
8.383989
9.591579
8.475780
7.450581
7.829666
7.581711
7.235408
6.886721
6.540418
7.026792
6.748438
5.990863
6.189942
6.228685
6.939769
6.859899
6.371737
6.047487
6.186962
6.158948
6.093979
5.976558
6.209612
6.117821
5.940795
6.225705
6.285906
6.704926
6.595850
5.677938
5.808473
6.431937
6.639957
6.048679
6.398559
##ZVALUE=255
1.730919
1.349449
1.553893
1.692772
1.739860
2.007484
1.768470
1.655817
2.205968
4.783869
16.252398
53.874850
107.148886
222.447515
331.205726
498.510599
608.252883
717.186928
751.502514
704.456568
613.146424
495.463610
315.287709
202.341676
111.628771
88.156462
87.430477
102.555752
126.826763
138.823986
146.613717
144.301653
130.376816
104.700923
83.248615
56.347847
39.070845
22.705793
15.585423
10.867715
10.114908
9.252429
9.799600
10.152459
10.160804
9.863973
10.404587
10.616779
10.723472
11.023879
10.905862
10.918975
10.511875
10.298491
10.003448
10.906458
9.852648
11.235476
10.053515
10.301471
9.287596
9.251833
8.913875
9.546876
9.040833
8.308887
8.272529
8.987784
8.635521
8.626580
8.520484
10.955930
10.237694
10.588765
9.520650
10.135770
9.200573
8.522868
8.798838
8.292794
7.436872
6.854534
6.941557
6.160736
6.080866
6.284714
6.066561
5.918741
5.858541
5.452633
5.608797
5.372763
5.878806
5.370975
5.384684
5.904436
5.023479
5.763769
5.561709
5.647540
5.014539
6.362796
5.238652
5.417466
5.552769
5.325675
5.086660
4.915595
5.213618
5.606413
5.203485
5.280972
4.977584
5.780458
5.373955
4.873872
##ZVALUE=260
1.319647
1.401901
1.257658
1.435876
1.761913
1.441836
1.568794
1.897812
1.897812
1.928806
2.092719
2.899766
9.093881
33.484697
71.190596
166.903734
270.640850
442.332625
580.425858
746.361017
824.162960
807.690024
736.804008
562.639832
422.805548
249.984860
165.903568
98.100901
78.589916
81.334710
104.538798
125.367641
145.029426
155.074596
150.226951
135.917664
111.413002
88.305473
60.365796
42.775869
28.410554
18.575788
14.626980
12.066960
11.786819
11.916757
12.291670
11.619925
12.166500
13.187528
13.601780
12.578964
13.020635
11.835694
13.334751
12.144446
11.985898
12.154579
11.378527
11.071563
11.216998
10.461807
10.733604
10.063648
10.011792
9.588599
8.912683
9.586811
9.145737
9.721518
8.412600
8.811951
9.567738
9.440780
9.704828
9.041429
8.461475
8.165836
8.270741
8.413792
6.963611
6.881952
6.364584
6.164908
6.175637
5.778670
5.356669
5.645752
5.178452
5.342960
4.821420
5.059838
4.962683
4.730821
4.690886
4.999638
4.806519
5.278587
4.724860
4.875660
5.104542
4.829764
5.097985
4.918575
5.342960
4.928708
4.979968
5.033612
4.864931
5.253553
4.450679
4.755855
4.211664
4.435778
4.503727
4.357696
##ZVALUE=265
1.423955
1.224875
1.222491
1.490712
1.393557
1.554489
1.486540
1.492500
1.461506
1.600981
1.746416
1.763701
1.877546
2.258420
4.582405
21.334887
51.043630
128.663778
228.431821
414.555669
575.964451
756.670833
864.091516
884.127617
832.992792
685.111880
542.088747
350.003839
228.823423
144.428611
85.521936
71.182847
85.289478
108.187795
134.667754
151.968598
158.973932
158.018470
136.505961
116.396546
95.409751
66.419840
46.412945
30.082464
21.921992
16.517639
15.825629
14.691949
14.982820
14.972687
14.218688
15.100837
14.871955
14.159679
14.362931
13.754964
13.607740
13.436675
13.390779
12.583733
12.404919
12.145638
11.806488
11.044741
10.803938
10.487437
10.854602
10.002851
9.999871
10.295510
10.409951
9.642839
10.000467
9.925961
9.093881
9.401441
8.898973
8.832812
8.515716
7.596612
6.712675
6.823540
6.656647
6.114841
6.016493
5.633831
5.839467
5.351901
5.836487
5.097985
5.324483
4.760623
5.414486
4.624724
4.955530
4.568696
4.400611
4.531741
4.646778
4.320741
4.604459
4.816651
4.430413
4.368424
4.348755
4.229546
4.401803
4.394650
4.334450
4.219413
4.410744
4.422665
4.288554
4.369617
4.141927
3.987551
##ZVALUE=270
1.373887
1.108646
1.207590
1.308918
1.030564
1.326799
1.065731
1.487732
1.514554
1.660585
1.485944
1.534820
1.861453
1.789927
1.703501
2.020597
2.403855
10.259748
28.873682
92.651844
178.004503
347.516537
515.771508
736.224651
869.200826
958.970785
945.039988
826.463699
704.178810
500.398874
349.552631
192.676783
118.697882
69.557428
64.851642
88.344812
109.998584
139.986873
155.367851
161.920786
158.308744
142.192841
122.385621
92.754960
70.152879
47.633648
34.785867
23.820996
19.726753
17.187595
16.975999
16.657710
17.460585
16.121864
16.702414
15.994906
15.384555
14.611483
14.760494
14.455914
14.426708
13.725758
12.657642
12.417436
11.867881
12.083650
11.796951
11.285543
11.480451
10.384917
10.334849
10.511875
10.209680
10.583997
10.151863
9.710789
9.136796
8.784533
8.206964
7.990599
7.474422
7.007718
6.699562
6.267428
6.049871
5.816817
6.082654
5.252957
5.381703
5.112886
4.743934
4.600883
4.681945
4.687905
4.335642
4.933476
4.668832
4.486442
4.343987
4.844666
4.850626
4.855990
4.614592
4.392862
4.389882
4.195571
4.105568
3.987551
4.171729
4.496574
4.055500
4.557967
3.994703
3.937483
3.790855
4.162788
##ZVALUE=275
1.178980
1.259446
1.108646
1.136661
1.351833
1.213551
1.298785
1.266599
1.334548
1.244545
1.354814
1.411438
1.478791
1.612902
1.528859
1.690984
1.635551
1.715422
2.095699
5.341768
17.467737
62.572956
137.330890
257.579684
478.546619
645.153522
833.355784
953.595638
1009.816527
954.814553
811.070800
658.986568
432.786942
276.398659
138.273835
82.540512
54.681897
62.238574
89.020729
111.841559
140.141845
155.300498
164.629817
159.732699
143.701434
121.889710
91.601610
72.320700
49.293637
36.060810
25.917888
21.149516
18.435717
17.039776
17.480850
16.356707
16.136765
16.184449
15.968680
14.933944
14.744997
13.845563
13.675690
13.182759
12.597442
12.083650
11.528730
11.581779
10.836720
11.226535
10.593534
10.168552
10.767579
10.022521
9.788871
9.420514
9.404421
8.284450
7.983446
8.126497
7.437468
7.222891
6.751418
6.733537
6.127954
5.996823
5.992651
5.640984
5.389452
5.454421
5.430579
5.190969
4.959702
4.998446
4.584789
4.268885
4.369617
4.624724
4.530549
4.429817
4.517436
4.267693
4.450679
4.257560
4.363656
4.420877
4.456639
4.156828
4.144907
4.464984
4.209876
4.545450
4.221797
4.072785
3.961921
3.881454
##ZVALUE=280
1.085997
1.100898
1.013875
1.317859
1.123548
1.156926
1.055598
1.255870
1.169443
1.356602
1.234412
1.408458
1.301765
1.298785
1.425743
1.536608
1.453757
1.479983
1.656413
1.780987
1.884699
2.762675
10.252595
45.187473
101.351738
230.337977
366.135836
527.921915
755.096674
904.835463
1014.119983
1014.229655
912.456512
759.601593
519.898534
353.892446
184.560418
104.918480
52.467585
46.487451
63.876510
84.538460
115.304589
134.093761
152.739882
161.546469
154.802799
139.845610
116.890669
93.892813
66.603422
50.366521
33.051968
25.169849
19.022822
16.977787
15.457869
14.829636
14.476776
14.356971
13.488531
13.218522
12.553930
12.513995
12.442470
12.276769
11.507869
11.327863
10.997653
10.892749
10.523796
10.864735
10.525584
9.838939
9.952784
9.463429
9.250641
8.373857
7.947683
7.770658
7.466674
7.332563
7.115602
6.788969
6.338954
6.242990
6.097555
5.475879
6.036758
5.373955
5.409718
5.465746
5.020499
4.929900
5.109906
4.561543
4.946589
4.401803
4.654527
4.697442
4.571676
4.677773
4.315972
4.588962
4.571676
4.209876
4.278421
4.240870
4.200935
4.577637
4.078746
4.275441
4.033446
4.191995
3.699660
4.036427
##ZVALUE=285
1.085997
1.069903
1.242757
1.044869
1.177788
1.034737
1.042485
1.058578
1.099706
1.298785
1.206994
1.202822
1.062751
1.233816
1.223683
1.378655
1.387596
1.435876
1.409650
1.617670
1.656413
1.778603
2.039671
2.345443
4.803538
24.026632
57.650805
122.177005
266.018510
421.292782
654.286742
821.356773
988.935828
1015.712619
976.339579
853.564739
635.944009
452.335477
248.711705
147.213936
66.023469
40.615797
41.512847
54.454803
82.054734
105.718970
132.173896
144.653916
154.458880
150.913000
134.541988
115.150809
89.418888
68.495870
46.161413
32.487512
21.451712
16.725659
13.683438
12.772679
12.050867
11.354685
11.291504
10.730624
10.624528
10.700822
10.620952
9.943843
10.352731
10.395646
9.683967
9.666681
9.546876
9.587407
8.859634
8.722544
8.529425
8.240938
8.015633
7.810593
7.417798
7.065535
6.435513
6.491542
6.279945
6.299615
5.864501
5.992651
5.743504
5.632639
5.188584
5.091429
4.992485
4.777908
5.262494
4.659891
4.663467
4.768968
4.779696
4.888773
4.340410
4.746914
4.389882
4.444718
4.504919
4.445910
4.330873
4.302859
4.414916
4.153848
4.460812
4.099607
4.172921
4.037619
4.290938
4.347563
##ZVALUE=290
1.157522
1.069903
0.951886
1.041889
1.061559
0.915527
1.202822
1.070499
0.986457
1.132488
1.213551
1.069903
1.098514
1.178980
1.162887
1.216531
1.231432
1.273751
1.213551
1.352429
1.342893
1.563430
1.539588
1.740456
1.847744
1.979470
2.775788
8.055568
35.488605
80.303550
192.976594
324.534774
555.578470
743.317604
947.386622
1015.712023
1015.712023
934.083462
720.082521
547.387600
326.088667
199.092627
86.412430
44.099689
28.309822
33.965707
53.684711
70.946813
99.300742
119.722486
138.642788
146.001577
143.131614
133.384466
110.650659
88.567734
59.789419
44.620633
28.388500
19.978881
13.265610
11.180639
9.349585
8.985996
9.156466
8.932948
8.652806
8.634925
8.781552
8.808970
8.506775
8.489490
9.008646
8.333921
8.208752
7.704496
7.883906
7.444620
7.164478
6.751418
6.677508
6.399751
6.269813
6.536841
6.137490
5.926490
6.235838
5.553961
6.091595
5.784631
5.478859
5.238652
5.193949
5.017519
5.103946
5.060434
4.718900
4.679561
4.627705
5.038977
4.548430
4.833937
4.756451
4.844666
4.611611
4.843473
4.628897
4.377961
4.592538
4.019737
4.631877
4.044771
4.491806
4.468560
4.186630
3.838539
##ZVALUE=295
0.949502
0.974536
0.994802
0.960827
1.020432
0.955462
0.952482
0.883937
0.995994
1.066923
1.041889
0.943542
1.133680
1.271963
0.982881
1.000762
1.135468
1.072884
1.052618
1.110435
1.126528
1.253486
1.253486
1.726747
1.648664
1.625419
1.689792
1.876950
2.156496
3.803968
17.627478
47.912598
134.781599
249.534845
465.494990
647.062659
873.662829
997.283459
1015.712619
993.083715
819.100738
650.807619
409.040451
256.807804
117.798448
58.194995
24.598837
21.736622
32.343864
46.185851
69.574714
89.599490
115.238428
128.827691
139.313936
138.390660
121.335983
104.757547
81.238747
62.449574
39.577484
27.304888
16.920567
11.928678
9.036660
7.855892
7.184744
7.262826
7.069707
7.242560
7.571578
7.558465
7.262826
7.753968
7.444620
7.294416
6.848574
7.026792
6.743670
6.441474
6.513000
6.192923
6.321669
5.890727
6.033778
5.731583
5.663633
5.621910
5.518794
5.300641
5.406737
4.748702
4.914999
5.209446
4.974604
4.994869
4.726648
4.915595
4.606843
4.834533
4.881620
4.817843
4.950762
4.873872
4.763603
4.550815
4.441738
4.617572
4.527569
4.410744
4.386902
4.199743
4.467964
4.167557
4.167557
4.188418
##ZVALUE=300
0.947714
0.963807
0.909567
0.918508
0.965595
0.764728
0.921488
0.895858
0.960827
1.079440
0.991821
1.166463
1.155734
1.107454
1.076460
1.106858
1.176596
0.948906
1.265407
1.252890
1.329780
1.215935
1.097918
1.312494
1.306534
1.364946
1.603961
1.557469
1.791716
1.814961
1.892447
2.357960
8.160472
26.567578
88.061690
171.738863
356.262922
536.666512
782.265663
926.792026
1015.712619
1015.712619
898.424983
741.526484
497.404933
324.198008
165.478587
87.381601
33.029914
18.041730
18.524528
26.744604
41.944981
58.392882
83.557963
103.328824
122.622848
129.928589
129.130483
119.259953
98.805428
80.623627
57.547688
41.706562
25.440454
16.790628
10.302663
8.043647
6.679893
6.430745
6.403923
6.758571
6.889701
6.614923
6.506443
6.687641
6.084442
6.437898
6.290674
6.033778
6.117821
5.933642
5.472898
5.723834
5.593896
5.553961
5.458593
5.498528
5.257726
4.982948
5.211830
4.915595
4.666448
4.621744
4.778504
4.569888
4.669428
4.676580
4.682541
4.620552
4.515648
4.624724
4.639626
4.616976
4.207492
4.463792
4.435778
4.621744
4.392862
4.574656
4.358888
3.908873
4.392862
4.259944
4.151464
4.160404
##ZVALUE=305
0.824928
0.801682
1.005530
0.793934
0.776649
0.943542
0.753999
0.954866
0.865459
0.901818
0.899434
0.916719
1.015663
1.023412
1.028776
0.912547
1.113415
0.847578
0.955462
1.110435
0.968575
1.072884
1.253486
1.226664
1.218915
1.362562
1.374483
1.327991
1.309514
1.550913
1.490712
1.649857
1.794696
2.072453
4.242659
14.582872
55.200458
125.543475
281.745791
442.427993
681.195855
848.333836
1004.689932
1015.712023
941.057801
795.924664
564.813614
395.515561
208.186507
114.741921
46.607852
20.973682
13.108850
16.106963
25.438666
37.227869
59.047937
77.165961
98.839998
114.408731
121.553540
120.727420
110.055804
96.833706
74.205995
57.274699
36.705732
24.805665
14.402866
9.831786
7.304549
6.281734
6.129742
5.865693
5.481839
5.558729
5.521774
5.421638
5.456805
5.478859
5.085468
5.300641
5.446672
4.925728
5.110502
4.841685
4.989505
5.023479
5.023479
4.689693
4.543662
4.668832
4.771948
4.359484
4.405975
4.203916
4.592538
4.382730
4.295707
4.269481
4.284978
4.196763
4.220605
4.309416
4.555583
4.204512
3.882647
4.263520
4.499555
4.115701
4.275441
3.899932
4.174709
3.939867
3.875494
4.029870
##ZVALUE=310
0.821948
0.735521
0.689626
0.884533
0.858903
0.813603
0.807643
0.926852
0.907779
0.920892
0.913739
0.909567
0.947714
0.908971
0.949502
0.898838
0.957847
0.952482
0.999570
1.048446
0.983477
0.888705
0.995994
1.025796
1.115799
1.287460
1.141429
1.208782
1.319647
1.392961
1.493692
1.507998
1.486540
1.614690
1.646876
1.748800
2.328753
6.215572
31.925440
75.025558
188.148618
322.748423
561.752915
746.783018
951.290727
1015.712023
1006.698012
903.111696
687.395930
506.779552
290.986896
173.234940
73.217750
34.665465
13.664961
10.907650
14.439821
20.932555
34.206510
47.630668
70.081949
87.125897
104.673505
113.995671
113.664865
108.497739
91.480613
76.292753
51.932931
37.178993
23.047924
15.140772
9.789467
7.225871
5.857944
5.525947
5.031824
5.126595
4.673600
4.663467
4.706979
4.838705
4.573464
4.508495
4.744530
4.370809
4.442930
4.210472
4.568696
4.298687
4.265904
4.305840
4.148483
3.943443
4.085898
3.745556
3.841519
4.056692
4.141927
3.960729
3.799796
4.112720
4.057884
3.965497
4.017949
3.858805
3.610849
3.700852
3.641844
3.742576
3.911853
3.736615
3.665686
3.962517
3.614426
3.538728
##ZVALUE=315
0.926852
0.793934
0.807643
0.710487
0.819564
0.816584
0.700951
0.840425
0.909567
0.808835
1.012683
0.814795
0.949502
0.960827
0.824928
0.795722
0.903606
0.978708
0.945926
1.059771
1.005530
0.954866
1.074672
1.204610
0.996590
0.911951
1.123548
1.168847
1.242757
1.230836
1.296997
1.288652
1.366735
1.420975
1.488924
1.411438
1.687407
1.610518
1.970530
3.363490
11.463761
50.341487
114.795566
267.799497
437.110662
695.632696
858.262777
999.834538
1015.712023
973.758698
788.759589
616.120696
381.354690
236.924887
105.420947
51.267743
18.811822
10.185838
9.904504
12.519956
20.226836
28.987527
46.716928
61.668754
83.926916
97.652674
107.671618
108.699799
99.740624
87.846518
68.219900
52.610636
33.461452
22.900701
14.045835
9.287000
6.423593
4.971623
4.482865
4.389882
3.800988
3.726482
3.956556
3.896952
3.899932
3.965497
4.001856
3.754497
3.829598
3.732443
3.785491
3.863573
3.717542
3.689528
3.664494
3.676414
3.518462
3.426671
3.674626
3.388524
3.478527
3.646612
3.593564
3.480911
3.463626
3.467798
3.653765
3.719926
3.725886
3.555417
3.420711
3.323555
3.290772
3.285408
3.550649
3.372431
##ZVALUE=320
0.875592
0.814795
0.774860
0.790954
0.684857
0.754595
0.853539
0.659823
0.897646
0.728965
0.873804
0.791550
0.898838
0.987649
0.928640
0.830889
0.766516
0.792742
0.905991
1.023412
0.919700
0.873804
0.912547
1.019835
1.029968
1.043677
0.938773
0.977516
0.938773
0.974536
0.985861
1.078844
1.164675
1.211762
1.251698
1.228452
1.520514
1.516938
1.663566
1.645684
1.765490
2.036691
7.393956
24.377704
86.039901
175.158978
354.513526
530.477762
778.016448
925.330520
1015.712619
1008.894444
865.639448
705.210567
471.956730
304.301977
140.033960
74.018836
27.655959
12.839437
8.265972
8.674860
11.705756
16.425848
27.291775
38.962960
58.654547
73.964000
92.575550
99.991560
101.262927
96.010566
82.096457
67.830682
48.388839
34.692883
20.706654
13.599992
7.925630
5.426407
4.153848
3.771782
3.384948
3.476739
3.407598
3.195405
3.340840
3.329515
3.510714
3.181696
3.188848
3.285408
3.245473
3.152490
3.259778
3.231764
3.258586
3.311634
3.142953
3.272891
3.031492
3.321767
2.988577
3.195405
3.092885
3.212690
3.137589
3.165603
3.004670
3.031492
2.951622
2.915859
3.127456
3.161430
2.955794
2.859831
##ZVALUE=325
0.711679
0.719428
0.756979
0.857711
0.769496
0.775456
0.780821
0.881553
0.849962
0.821948
0.751615
0.739694
0.797510
0.871420
0.863671
0.847578
0.860691
0.898838
0.856519
0.835657
0.807643
0.897646
1.020432
0.860691
0.986457
0.879765
0.864863
0.920892
0.975728
1.007915
1.063943
1.098514
0.920892
1.040697
1.016855
1.156926
1.250505
1.602769
1.200438
1.279712
1.458526
1.575947
1.733899
1.897812
4.158616
14.620423
56.457520
125.836730
288.525820
453.442931
706.414580
873.844028
1006.946564
1015.712023
923.409462
766.156912
522.367954
358.621478
187.260509
102.659464
38.844943
16.783476
7.867813
7.084608
8.195639
10.515451
16.586781
24.862885
40.713549
55.538416
75.584650
86.753964
94.909668
95.638633
88.999867
76.912642
58.853626
44.912696
28.266907
19.758940
11.433959
7.705688
5.274415
4.224777
3.525615
3.252625
3.018975
3.056526
3.050566
3.066659
2.745986
2.823472
2.839565
2.933741
2.770424
2.997518
2.945662
2.904534
2.904534
2.836585
3.056526
3.005862
2.893806
2.764463
2.910495
2.917647
2.840757
2.818704
2.680421
2.789497
2.907515
2.836585
2.594590
2.846718
2.555847
2.834797
##ZVALUE=330
0.750422
0.803471
0.774860
0.725985
0.697970
0.739694
0.748634
0.697970
0.714660
0.778437
0.743866
0.693798
0.793934
0.769496
0.721812
0.823736
0.776649
0.817776
0.840425
0.883937
0.863671
0.962615
0.856519
0.894666
0.912547
0.877976
0.925660
0.857711
0.939965
0.812411
0.941753
0.845790
1.076460
1.046658
1.128912
1.120567
1.227856
1.110435
1.191497
1.424551
1.356602
1.345873
1.310706
1.330972
1.734495
1.761913
2.482533
6.880760
33.634901
83.134770
209.429860
356.689692
608.744621
796.936750
980.267525
1015.712023
971.481800
840.245485
620.934963
450.539589
250.768661
138.183832
54.654479
24.556518
9.407997
6.802678
6.631613
7.138848
10.461807
15.639663
26.071668
36.496520
52.890778
66.871643
80.876946
86.858869
87.746978
82.437992
68.623424
56.179762
40.181875
29.027462
17.570853
12.196898
7.261634
5.100965
3.626943
3.130436
2.943873
2.864599
2.611876
2.764463
2.633929
2.771616
2.484918
2.650619
2.666712
2.622604
2.620816
2.715588
2.708435
2.820492
2.869964
2.899766
2.797842
2.652407
2.676845
2.517700
2.774596
2.484918
2.652407
2.557635
2.661943
2.620816
2.512932
2.578497
##ZVALUE=335
0.810623
0.698566
0.804663
0.754595
0.743866
0.726581
0.714660
0.844598
0.736713
0.777841
0.654459
0.593662
0.840425
0.786781
0.642538
0.734925
0.868440
0.767708
0.705719
0.885725
0.818968
0.809431
0.774860
0.916719
0.883937
0.913739
0.883937
0.853539
0.953674
0.968575
0.954866
0.890493
0.955462
0.911951
0.912547
1.056790
1.044869
1.061559
1.233816
0.988841
1.288652
1.188517
1.289845
1.448989
1.368523
1.402497
1.561642
1.599789
1.893640
3.402829
17.663836
48.107505
145.819783
274.633765
521.895885
738.129020
973.567963
1015.712023
1015.712023
941.401720
714.719892
522.445440
303.598642
184.652805
80.912709
36.828518
12.335777
7.222891
6.306767
6.061792
7.021427
9.284616
14.990568
21.958947
35.190582
47.185421
61.742663
74.357986
82.180500
82.741976
75.633526
68.032742
52.588582
41.246414
28.036833
19.297600
11.540651
7.904768
4.938841
4.058480
3.131628
2.914667
2.827644
2.466440
2.485514
2.505779
2.496839
2.544522
2.669692
2.602935
2.606511
2.461672
2.695918
2.663732
2.589822
2.374649
2.631545
2.506971
2.601743
2.808571
2.508759
2.659559
2.415776
2.476573
2.416968
2.463460
##ZVALUE=340
0.680685
0.741482
0.669956
0.782609
0.786781
0.864863
0.785589
0.711679
0.667572
0.757575
0.710487
0.716448
0.836849
0.751615
0.792742
0.727773
0.654459
0.706911
0.668764
0.865459
0.925660
1.006722
1.016855
0.756979
1.041889
0.825524
0.836849
0.994802
0.922680
0.864863
0.787973
0.907779
0.956655
1.039505
0.993609
1.115799
0.983477
1.063943
1.058578
0.981688
1.078844
1.209974
1.139641
1.138449
1.308918
1.233816
1.346469
1.336932
1.574755
1.599789
1.658797
2.229810
9.524822
28.900504
95.351934
207.568407
455.293655
673.206449
948.601961
1015.712023
1015.712023
1015.712023
805.390477
613.374710
373.947620
232.417583
105.510950
50.964952
15.755892
7.932782
6.225705
6.120801
5.960464
6.623864
9.282827
13.197660
22.136569
31.988621
46.927929
57.659745
70.352554
76.579452
76.931715
72.070956
62.342882
51.869750
37.803650
28.841496
18.011928
12.471676
7.062554
4.814863
3.502965
2.973676
2.556443
2.726912
2.497435
2.439618
2.584457
2.452731
2.431870
2.352595
2.386570
2.518892
2.512932
2.484918
2.383590
2.353787
2.414584
2.417564
2.418756
2.544522
2.442598
2.408624
2.362728
2.362728
##ZVALUE=345
0.755787
0.735521
0.729561
0.596642
0.736713
0.726581
0.656843
0.622869
0.706911
0.584722
0.715852
0.668764
0.764728
0.778437
0.715852
0.817776
0.782609
0.756979
0.697970
0.715852
0.789762
0.770688
0.707507
0.826716
0.800490
0.785589
0.895858
0.855923
0.762939
0.780821
0.767708
1.051426
0.908971
0.837445
1.069903
0.914931
1.068711
0.843406
1.101494
0.995994
1.139641
1.058578
1.126528
1.263618
1.025796
1.059771
1.239777
1.007915
1.382828
1.325607
1.313686
1.477599
1.627803
1.820922
4.039407
14.510751
61.322451
132.782459
310.373902
510.958433
811.683536
997.715592
1015.712023
1015.712023
912.424922
719.044805
463.865995
299.002528
137.088895
67.319870
22.333860
10.523796
6.454587
5.850792
5.541444
5.215406
5.943775
7.784963
12.410879
18.719435
30.734539
40.347576
53.090453
61.478615
69.701672
70.724487
67.785978
60.245991
48.939586
38.827658
27.297735
19.408464
11.562705
7.764697
5.002618
3.884435
3.094673
2.797842
2.542734
2.521873
2.532601
2.466440
2.471805
2.443790
2.255440
2.492666
2.402663
2.334714
2.471805
2.283454
2.365708
2.458692
2.376437
2.282858
2.405643
2.282858
##ZVALUE=350
0.725985
0.834465
0.929832
0.710487
0.670552
0.652671
0.549555
0.667572
0.621676
0.695586
0.606775
0.667572
0.732541
0.788569
0.719428
0.680685
0.739694
0.738502
0.589490
0.713468
0.598431
0.760555
0.742674
0.721812
0.845790
0.777841
0.876784
0.858903
0.801682
0.860691
0.737906
0.700951
0.817776
0.937581
1.101494
0.934601
0.885725
0.946522
0.869632
0.914931
0.845790
0.909567
0.778437
0.855923
1.150966
1.063943
1.229644
1.011491
1.091957
1.270771
1.281500
1.391768
1.364946
1.325607
1.459718
1.662970
2.315640
7.624626
33.282638
78.670979
206.588507
379.949808
680.829883
888.713598
1015.712619
1015.712619
996.973515
816.218853
523.138642
338.642597
168.800950
92.589855
35.806894
15.027523
6.564856
5.438924
5.140901
4.644990
4.755855
5.036592
7.495880
10.906458
17.538667
24.579763
36.027431
45.064688
56.442618
61.971545
64.837933
62.496662
55.053830
46.832561
35.422444
27.001500
17.667413
12.706518
7.709861
5.386472
3.641844
2.993941
2.478957
2.469420
2.423525
2.454519
2.434850
2.457500
2.177954
2.210736
2.296567
2.220869
2.243519
2.361536
2.264977
2.258420
2.252460
2.284646
##ZVALUE=355
0.746846
0.759959
0.788569
0.739694
0.552535
0.717640
0.613928
0.732541
0.728965
0.682473
0.677705
0.711679
0.733733
0.737906
0.795722
0.766516
0.794530
0.803471
0.732541
0.739694
0.839829
0.768900
0.781417
0.744462
0.782609
0.799894
0.782609
0.900626
0.949502
0.708699
0.699759
0.835657
0.757575
0.898838
1.007915
0.902414
1.002550
0.914931
0.860691
0.900626
0.813603
0.946522
0.908971
0.964999
0.913739
0.914931
1.143813
1.144409
1.195669
1.171827
1.148582
1.297593
1.193881
1.245737
1.384616
1.368523
1.540780
1.672506
1.921654
3.694892
18.292665
51.995516
145.008564
262.300968
505.004525
725.767016
969.770551
1015.712023
1002.092957
851.113796
588.768721
412.760973
226.171613
123.891830
47.616959
20.401478
7.406473
5.358458
5.073547
4.597902
4.437566
4.502535
5.034804
6.195903
9.476542
13.969541
22.296906
29.719472
41.156411
48.615932
56.382418
58.857799
56.845546
52.635670
43.724775
35.883784
25.764704
19.009709
12.176633
8.301735
5.443692
3.809929
3.065467
2.644658
2.337694
2.553463
2.474785
2.147555
2.373457
2.248883
2.249479
2.142787
2.034903
2.145767
2.338886
2.148747
##ZVALUE=360
0.716448
0.712872
0.662804
0.679493
0.531673
0.846982
0.736713
0.813603
0.710487
0.656843
0.723600
0.546575
0.762939
0.684857
0.673532
0.668764
0.710487
0.816584
0.758767
0.737906
0.777841
0.828505
0.774860
0.910759
0.886917
0.879765
0.803471
0.780821
0.766516
0.710487
0.615716
0.838637
0.787973
0.666976
1.003742
0.736713
0.671744
0.748634
0.752807
0.882745
0.956655
0.940561
0.882745
1.002550
0.891685
0.834465
0.886917
0.936985
0.928640
0.859499
1.052618
1.064539
1.203418
1.162887
1.292825
1.386404
1.315475
1.377463
1.438856
1.899600
2.092719
2.331734
8.388758
26.838779
88.833570
174.390674
356.101990
544.998050
812.386870
940.608978
977.067947
905.456543
681.845546
494.789481
289.711952
169.343948
71.336627
31.259656
9.873509
5.738735
4.905462
4.562736
4.187822
3.945827
3.863573
4.204512
5.185604
7.271767
11.982918
16.705990
25.132895
33.361912
43.296814
49.423575
53.293705
53.139925
49.239993
43.606758
35.798550
28.495789
19.766688
13.991594
8.563995
6.042719
4.137754
3.240705
2.606511
2.397895
2.083778
2.352595
2.236962
2.206564
1.873970
2.023578
2.036691
2.138615
##ZVALUE=365
0.615716
0.653863
0.732541
0.658631
0.669956
0.773668
0.691414
0.655651
0.759959
0.660419
0.671744
0.702739
0.610948
0.604987
0.687838
0.719428
0.780821
0.801682
0.714660
0.839829
0.896454
0.671744
0.731945
0.877976
0.867844
0.802875
0.779629
0.749826
0.830889
0.646710
0.629425
0.900626
0.889897
0.777841
0.725985
0.831485
0.874996
0.788569
0.845790
0.687838
0.861883
0.740886
0.868440
0.909567
0.947714
0.951886
0.859499
0.950694
0.929832
0.902414
1.098514
1.129508
1.138449
1.099706
1.049638
1.145601
1.083612
1.229644
1.317859
1.408458
1.670718
1.707673
1.754761
2.070665
4.182458
13.930798
53.058863
116.921663
271.845460
437.978506
673.829913
820.093751
917.573571
900.439620
754.090548
587.498546
365.209579
216.563940
95.109940
44.559836
13.829470
6.815791
4.865527
4.816651
4.290938
3.931522
3.557801
3.625751
3.597736
4.313588
6.429553
9.038448
14.502406
20.675659
29.666424
35.875440
43.320656
47.319531
48.850775
47.506690
41.760802
35.496950
27.077794
20.755529
14.121532
9.923577
6.314516
4.264712
3.431439
2.704859
2.465844
2.258420
2.069473
2.046824
2.043843
1.982450
##ZVALUE=370
0.595450
0.662804
0.685453
0.773668
0.747442
0.768900
0.890493
0.797510
0.758767
0.754595
0.734925
0.733733
0.649691
0.785589
0.695586
0.862479
0.791550
0.810623
0.673532
0.765920
0.741482
0.615716
0.637770
0.732541
0.557899
0.647902
0.770688
0.751615
0.657439
0.793934
0.695586
0.803471
0.689626
0.741482
0.918508
0.744462
0.824928
0.711679
0.875592
0.819564
0.793934
0.952482
0.875592
0.743866
0.950694
0.851750
1.006722
0.992417
1.018643
1.068711
0.917912
1.061559
0.942945
0.997782
1.038909
0.962615
1.127720
1.178980
1.135468
1.149774
1.434684
1.306534
1.517534
1.556873
1.640916
1.699924
2.615452
7.795691
37.865639
92.127919
218.346715
350.617766
559.743643
721.375942
863.241553
886.467695
792.335868
651.669502
422.763824
270.686746
122.597814
61.578751
22.900701
10.124445
5.029440
4.304647
3.867745
3.709793
3.563762
3.314614
3.081560
3.225803
3.784895
5.190969
8.079410
11.716485
18.380880
24.390817
33.282638
39.048791
45.339465
46.027899
44.497848
41.451454
34.693480
28.266907
20.684600
14.129877
10.398626
6.744862
4.857779
3.397465
2.754927
2.329946
2.068877
1.898408
##ZVALUE=375
0.673532
0.732541
0.794530
0.641942
0.600815
0.724792
0.615716
0.823736
0.747442
0.710487
0.737906
0.661612
0.717640
0.644922
0.705719
0.590682
0.570416
0.781417
0.753999
0.717640
0.738502
0.724792
0.813603
0.715852
0.717640
0.675917
0.634789
0.808835
0.483990
0.681877
0.605583
0.739694
0.784993
0.628829
0.726581
0.837445
0.749826
0.908971
0.785589
0.837445
0.678897
0.748634
0.763535
0.867844
0.749826
0.710487
0.822544
0.760555
0.852942
1.053810
0.922680
0.896454
0.922680
0.880957
0.997782
1.000762
0.947714
1.150966
1.008511
1.145601
1.020432
1.236796
1.076460
1.257658
1.089573
1.310706
1.509786
1.640916
1.946688
4.232526
19.808412
53.765774
152.500868
269.698501
464.906693
626.654029
799.444914
866.692662
818.540454
700.187683
492.568612
343.277454
187.599659
104.570985
40.415525
17.145872
5.831718
4.239678
3.837943
3.560781
3.435612
3.124475
3.025532
2.888441
2.841949
3.294945
4.306436
6.110668
9.632707
13.939738
20.798445
27.201772
35.251975
39.961934
43.191910
43.620467
39.761662
34.128428
29.278994
23.444891
16.632676
12.264848
7.704496
5.546808
3.708601
2.657771
##ZVALUE=380
0.599623
0.712872
0.576973
0.629425
0.545979
0.631809
0.606775
0.761747
0.654459
0.713468
0.705719
0.786781
0.780821
0.748634
0.577569
0.590682
0.641942
0.541806
0.658631
0.526905
0.715852
0.580549
0.618696
0.598431
0.789762
0.652671
0.674725
0.783801
0.825524
0.655651
0.673532
0.548959
0.492930
0.641942
0.634789
0.736713
0.861883
0.618696
0.779629
0.803471
0.616908
0.682473
0.770688
0.797510
0.804663
0.805855
0.805855
0.872612
0.824928
0.967979
0.834465
0.809431
0.834465
0.870824
0.898838
0.941753
0.936985
0.972748
0.926852
0.967979
0.936985
0.996590
0.931621
0.956655
1.115799
1.094937
1.244545
1.401901
1.389980
1.795888
1.750588
2.679825
11.269450
34.851432
107.777715
202.512741
387.362838
563.185811
759.943724
844.604969
836.027861
747.445822
576.836467
425.604582
244.456530
143.336654
58.982968
26.880503
8.412600
4.598498
3.870726
3.813505
3.386736
3.014803
3.217459
2.988577
2.547503
2.736449
3.048778
3.775954
5.787611
8.187890
13.365746
18.405914
25.482774
31.247735
37.558675
40.960908
40.665865
39.309859
35.319924
29.570460
24.333596
16.964674
12.812614
8.413792
##ZVALUE=385
0.570416
0.606775
0.704527
0.612736
0.657439
0.595450
0.587702
0.655651
0.656843
0.667572
0.627637
0.856519
0.530481
0.751615
0.676513
0.668764
0.727773
0.494719
0.678897
0.739694
0.577569
0.697970
0.749826
0.664592
0.675917
0.487566
0.522733
0.981688
0.752807
0.790954
0.668764
0.719428
0.643730
0.730753
0.659823
0.800490
0.716448
0.879765
0.635982
0.803471
0.749826
0.712872
0.744462
0.790954
0.699759
0.825524
0.812411
0.886917
0.905991
0.978708
0.911951
0.905991
0.916719
0.918508
0.932813
0.909567
0.762939
1.008511
0.837445
0.867844
1.027584
1.016855
0.938773
0.996590
0.853539
1.143813
1.064539
1.106858
1.262426
1.352429
1.515746
1.584888
1.714826
1.838803
5.024672
17.748475
69.089532
149.261951
317.718983
476.524830
682.667494
803.179741
865.678787
830.426812
692.513585
550.730824
347.299576
218.984485
99.283457
46.049953
13.863444
5.923510
3.806949
3.634691
3.249645
3.238916
2.998710
3.118515
2.962947
2.951622
2.587438
2.720952
3.380775
4.593730
6.960630
11.271834
15.415549
21.862984
26.525855
32.523870
36.133528
38.285851
37.711859
34.305453
30.227900
23.527741
##ZVALUE=390
0.634789
0.611544
0.653863
0.594854
0.576973
0.532866
0.541806
0.658631
0.560880
0.627637
0.597835
0.842810
0.596642
0.569820
0.678897
0.644922
0.751615
0.627637
0.678897
0.798702
0.696778
0.651479
0.473857
0.804663
0.649691
0.621676
0.712872
0.587702
0.656843
0.668764
0.934601
0.764728
0.715852
0.704527
0.834465
0.656843
0.693798
0.833869
0.889897
0.771880
0.909567
0.742674
0.818968
0.930429
0.810623
0.788569
0.806451
0.797510
0.828505
0.883937
0.907779
0.838637
0.903606
0.993609
0.835657
1.022816
0.776649
1.041889
0.902414
0.942945
0.876784
1.028776
1.067519
0.941753
0.915527
1.121759
1.185536
1.189709
1.265407
1.129508
1.477599
1.528859
1.499653
1.464486
1.610518
1.783967
2.679825
10.084510
44.917464
105.599761
244.223475
387.691855
591.864586
735.725760
854.864717
868.694782
772.617459
643.704534
433.575511
288.414955
145.742893
74.044466
25.095940
9.646416
4.122853
3.678799
3.460646
3.338456
3.339648
3.352761
3.174543
3.031492
2.688766
2.634525
3.001690
2.949834
3.813505
5.424619
8.686781
12.252927
18.089414
23.065805
28.831959
32.612681
35.641789
35.519600
##ZVALUE=395
0.650883
0.711679
0.625849
0.628829
0.602603
0.771880
0.740886
0.542998
0.651479
0.689626
0.685453
0.590682
0.502467
0.524521
0.499487
0.582933
0.566840
0.860691
0.724792
0.580549
0.661612
0.433922
0.504851
0.600815
0.636578
0.503659
0.747442
0.528693
0.579953
0.851750
0.747442
0.835657
0.725985
0.695586
0.746846
0.788569
0.865459
0.851750
0.896454
0.704527
0.799894
0.838637
0.890493
0.717640
0.888705
0.716448
0.833869
0.868440
0.950694
0.953674
0.988841
0.881553
0.939965
0.904799
0.753999
0.973940
0.893474
1.034737
0.867844
0.959635
0.911951
0.934601
0.899434
0.805855
0.992417
1.055598
1.143813
1.219511
1.146793
1.325607
1.165867
1.186728
1.337528
1.427531
1.452565
1.315475
1.462698
1.640916
1.959801
5.372763
29.060841
70.280433
169.712901
288.887620
497.047901
661.343932
830.778480
894.227028
852.228999
736.058950
533.377528
369.526744
191.509724
101.074576
37.446618
16.326904
5.307794
3.766418
3.494620
3.533959
3.359914
3.349781
3.368855
3.181696
2.970695
2.812743
2.722740
2.538562
2.978444
3.379583
4.896522
6.743670
10.574460
14.484525
20.573735
26.614666
##ZVALUE=400
0.747442
0.872612
0.482798
0.483990
0.486970
0.525713
0.685453
0.514984
0.528693
0.596642
0.649691
0.650883
0.630617
0.586510
0.670552
0.655651
0.695586
0.619888
0.537634
0.695586
0.626445
0.486970
0.759959
0.668764
0.742674
0.534654
0.610948
0.655651
0.775456
0.820756
0.788569
0.674725
0.807643
0.809431
0.840425
0.722408
0.776649
0.780821
0.835657
0.817776
0.894666
0.927448
0.950694
0.862479
0.914931
0.953674
1.032948
0.837445
0.896454
0.956655
0.953674
0.993609
0.943542
0.779629
0.871420
0.844598
1.151562
0.938773
0.967979
0.888705
0.952482
0.885725
0.854731
0.833869
1.019835
1.011491
1.037717
1.087785
1.199841
1.169443
1.251698
1.259446
1.216531
1.273751
1.292825
1.331568
1.199841
1.302958
1.432896
1.491904
1.862645
3.076792
14.109612
40.483475
114.485621
211.219788
396.782756
557.273626
754.425526
853.547454
861.592889
781.278014
589.261651
431.049466
251.728892
147.524476
61.807632
28.520823
8.572936
4.391670
3.678799
3.385544
3.560781
3.482699
3.374815
3.402829
3.186464
3.012419
2.906919
2.645850
2.377629
2.446771
2.967715
4.105568
6.053448
9.033680
##END
