##TITLE=12-2
##FORMAT=SPECTACLE-ASCII V-1.2
##DATA TYPE=ULTRAVIOLET SPECTRUM
##SECOND TYPE=ULTRAVIOLET SPECTRUM
##DATE=04/11/18
##TIME=11:03:02
##SPECTROMETER/DATA SYSTEM=SPECTACLE
##XUNITS=NM EM
##YUNITS=ENERGY
##YFACTOR=1
##FIRSTX=220
##LASTX=450
##NPOINTS=116
##3DDATA=Equidistant
##ZUNITS=NM EX
##FIRSTZ=210
##LASTZ=400
##ZPOINTS=39
##XYDATA=(Y..Y)
##ZVALUE=210
12.568831
14.034510
12.619495
10.238886
11.287928
10.169744
9.107590
7.511973
7.053614
5.648732
4.682541
3.230572
2.994537
2.545714
2.843738
2.954602
2.645850
3.688931
2.389550
3.102422
2.704859
3.560781
3.687739
3.263950
3.598928
3.754497
4.119873
3.625751
4.237890
4.081726
4.381537
4.219413
5.419850
5.137920
5.061626
5.528927
5.950928
6.571412
6.696582
5.914569
6.708503
6.726980
6.596446
6.238818
7.452965
7.175803
7.161498
5.903840
7.221699
7.732511
7.455945
7.678866
7.994771
8.367896
7.506609
7.755756
7.362962
7.241964
7.954836
8.096695
7.760525
8.303523
7.103682
8.002520
7.884502
8.182526
7.680655
7.680655
7.980466
9.804964
10.073781
12.144446
13.550520
13.552904
14.285445
14.935732
14.494658
15.649796
13.910532
12.607574
12.438893
11.685491
8.663535
8.722544
7.421970
7.024407
5.900860
5.639791
5.934834
7.514954
10.601878
11.740923
15.505552
18.513799
23.901463
28.439760
32.546520
35.948753
39.734840
44.584870
46.802759
49.490929
51.554441
48.816800
48.451424
45.424700
37.846565
38.031936
33.484697
31.618476
24.352670
17.969608
18.229485
14.462471
12.664795
12.561679
##ZVALUE=215
38.045645
37.454963
32.417774
24.881959
21.587610
17.514825
15.820861
14.733672
13.808608
13.663769
12.235641
8.707643
7.987618
5.438924
3.691912
3.802776
2.810955
3.205538
3.466606
2.746582
4.144907
3.967881
3.799796
3.073812
3.840923
3.995895
4.025698
4.192591
4.931688
4.342794
4.632473
4.907846
6.046891
5.178452
6.043911
6.544590
6.507635
6.861687
7.496476
6.902814
6.866455
7.628798
7.573962
7.106662
8.050799
7.603765
7.544756
8.620620
9.174943
8.543730
10.225773
9.532571
10.268688
9.643435
9.836555
9.617805
8.908510
10.861754
9.722710
9.322762
9.646416
9.065866
8.930564
8.764863
9.276867
8.498430
9.333491
9.951591
9.910464
10.477901
11.779666
11.977553
13.098717
13.712645
14.230609
14.558434
14.001727
14.661551
13.836622
14.342666
11.534691
11.173487
9.675622
10.276437
8.142591
6.988645
7.178783
6.350875
5.345941
5.463958
5.623698
5.924702
6.225705
6.969571
9.240508
10.518432
14.841557
18.862486
24.815798
29.940605
40.170550
43.330789
54.031610
63.021779
68.888664
73.706508
75.301528
72.167516
73.118806
69.363713
66.357851
59.917569
54.137707
46.816468
40.328503
31.649470
##ZVALUE=220
84.161758
80.896616
74.224472
70.544481
59.590936
47.163963
35.632849
28.460622
26.254654
23.857951
25.132895
25.017858
22.349954
17.425418
14.836788
10.071993
8.400679
4.778504
4.152656
3.750920
3.860593
3.819466
3.869534
3.883839
3.984571
3.890991
4.297495
4.301667
4.703999
5.168915
6.232858
6.273985
6.319880
7.252693
7.161498
7.020831
7.611513
6.920695
9.170771
8.765459
9.249449
7.618666
9.588599
9.592772
8.334517
9.377599
9.599924
11.146665
10.440946
10.997653
12.209415
11.169910
11.925697
10.780692
12.906790
12.646914
12.238622
12.880564
13.099909
13.002753
11.745691
12.121797
11.616945
10.484457
11.457801
10.614991
11.158586
11.853576
11.500716
12.630820
12.942553
13.092756
13.657808
14.462471
15.158653
16.026497
16.026497
15.709996
14.636517
13.597608
14.493465
12.245774
11.403561
10.946989
9.732842
8.026958
7.401705
7.319450
6.366968
6.424785
6.830692
6.258488
5.938411
5.908608
5.599856
5.660653
6.414652
7.023811
7.690787
8.789897
13.720989
17.555952
28.030872
33.218861
45.620799
54.332614
65.670609
81.142783
89.226961
98.705888
109.437704
112.121701
114.206672
107.329488
106.875896
97.497702
##ZVALUE=225
102.228522
109.666586
126.663446
137.516856
141.906738
123.241544
109.435916
76.274872
63.601732
47.011971
38.770437
36.591887
38.930774
38.494468
36.215782
32.149553
25.858879
20.781755
15.879869
9.308457
6.088614
4.765987
4.742742
3.917813
4.802942
5.066991
4.397631
4.321933
4.699826
4.697442
5.170703
5.748868
5.914569
6.851554
7.650852
7.699728
8.450747
9.531975
9.860992
10.534525
10.275841
10.824800
11.155605
11.169910
11.168718
11.208653
11.239648
11.987686
13.549924
11.829734
11.861920
15.496612
15.432835
14.709830
15.068650
14.836788
14.567971
15.127659
15.143752
14.458895
15.601516
14.636517
14.869571
14.414787
12.536645
13.314486
13.901591
13.887882
13.159513
14.545918
14.633536
13.941526
15.527606
15.643835
17.869473
16.452670
15.309453
14.949441
14.245510
13.993979
14.963746
12.717843
11.108518
11.706948
8.221865
8.554459
7.829666
8.012652
8.578897
7.943511
7.682443
6.712675
6.961823
6.248951
5.972981
6.390810
6.121993
6.602407
6.873608
6.201863
6.317496
7.380843
7.261634
9.009838
11.535883
16.206503
25.000572
36.273599
47.444701
64.346790
77.168941
98.914504
112.003684
134.057999
148.863792
161.139965
##ZVALUE=230
69.371462
76.561570
120.474696
157.539845
199.805498
232.286453
234.837532
215.329528
187.417865
143.157840
109.783411
72.077513
61.911941
53.868890
55.972934
60.758591
60.746670
59.009790
49.661994
37.710667
26.937723
19.001961
13.033748
8.498430
6.734729
5.557537
4.535913
5.471706
5.181432
4.986525
6.048679
5.928874
6.760955
7.091761
7.109642
7.131696
9.212494
9.270906
10.283589
10.544658
11.082888
10.284781
11.551976
11.822581
11.349916
11.536479
11.867881
13.268590
13.424754
13.593435
12.349486
14.529824
14.233589
15.702844
17.355680
16.074777
15.938878
15.777946
15.343428
15.374422
16.949773
15.118718
15.007854
14.866590
14.141798
15.316606
14.946461
14.340878
15.860796
14.650822
14.860630
16.413927
15.708804
17.763972
17.194748
16.873479
17.334819
15.699863
15.307665
14.699697
13.850927
13.303757
12.519956
11.009574
9.186864
10.275841
8.444786
8.778572
7.495880
8.535981
8.158684
7.762909
7.838607
7.764697
6.694794
7.186532
6.881952
7.088780
6.434917
6.992817
7.817745
7.316470
7.445812
6.870627
6.454587
7.347465
7.764697
9.048581
10.026693
12.872815
19.228458
29.546618
42.218566
63.118935
82.359910
113.945603
##ZVALUE=235
20.319819
22.635460
48.924685
89.986920
142.230988
217.873454
286.813974
350.124836
364.066958
350.636840
312.454700
230.473876
176.037550
115.483999
92.879534
79.771876
79.174638
84.024668
90.581775
85.752606
78.833699
66.979527
51.860809
38.802624
22.968650
15.885830
10.060668
7.542968
6.207824
6.079674
6.176829
6.824732
7.217526
7.648468
7.642508
8.440614
8.780956
9.133816
8.727908
10.032654
10.235906
10.785460
11.210442
11.870861
11.950731
11.768937
11.520982
13.361573
12.755990
12.047887
14.235973
13.004541
13.918877
14.003515
13.008714
14.724731
14.067888
15.103817
13.893843
15.486479
14.406443
14.488697
14.376640
13.040900
14.051795
14.107823
15.714765
15.241504
15.425682
15.937686
15.615821
17.527938
17.064810
17.959476
17.350912
18.190742
18.972754
17.256737
15.610456
16.997457
14.595985
13.800859
12.769699
11.924505
11.473894
10.345578
10.010600
10.144711
9.859800
8.105636
9.330511
9.857416
8.122921
8.587837
8.456707
8.594990
9.486675
8.051991
8.852482
8.216500
7.366538
8.827448
8.771420
8.678436
8.029938
8.364916
7.746816
8.412600
8.695722
8.175969
7.496476
8.584857
8.709431
11.942983
16.580820
26.385784
##ZVALUE=240
2.633929
2.621412
8.649826
21.421909
49.089789
108.555555
177.488923
292.031765
384.217501
477.517843
507.351756
507.154465
455.103517
360.362530
288.462639
183.865428
138.135552
98.242760
95.877647
105.744004
116.077662
117.391944
117.699504
101.993680
80.066919
65.663457
45.523643
32.377839
17.721653
11.430979
8.107424
6.528497
7.106662
7.322431
7.724762
7.774830
8.149743
9.805560
9.715557
9.228587
9.726882
10.685921
11.758804
11.551976
10.791421
10.719895
11.158586
11.890531
12.476444
13.391972
12.471676
13.401508
13.519526
12.329817
12.589693
12.347698
13.749599
12.549758
13.628602
13.973713
13.776422
13.212562
13.459921
13.212562
12.800694
12.536645
12.459755
13.673902
13.793707
16.236901
16.276836
16.115904
17.670989
18.783808
18.324852
18.505454
18.912554
18.754601
16.237497
16.921759
14.267564
14.152527
14.038682
12.434721
12.312531
10.419488
10.294914
11.202693
10.279417
9.702444
9.817481
9.391904
9.564757
9.421706
9.697676
9.111762
9.738803
9.609461
9.065866
8.568764
8.490682
9.157658
8.593798
8.646846
8.007884
9.260774
8.957982
9.006858
9.530783
8.084774
7.293820
8.107424
9.045601
8.438826
8.721948
8.171797
##ZVALUE=245
2.265573
2.316833
1.909733
2.274513
4.230738
15.149713
34.906864
97.465515
164.828897
293.462873
395.717621
532.954931
603.375435
613.604784
577.091575
475.422740
382.816792
254.417658
176.226497
114.101768
99.536777
98.684430
112.753510
124.217868
129.586458
124.018788
111.140609
91.349483
68.768859
52.776933
33.817887
21.017790
11.729598
9.667873
7.893443
8.040667
8.299947
7.787943
8.849502
8.760691
9.698868
10.625720
9.808540
10.805726
10.765791
11.192560
11.398792
11.086464
12.056828
11.059642
11.228919
12.016892
11.883974
12.010932
12.000799
12.063980
12.837648
12.326837
11.273623
12.210608
12.110472
12.973547
11.239648
11.671782
12.413859
11.282563
12.039542
12.662411
12.491941
13.559461
13.969541
13.715625
15.476942
14.406443
15.461445
15.554428
16.623735
14.457703
14.429688
14.458895
13.075471
12.242794
11.116862
10.675788
10.617971
10.787845
8.957982
9.552836
9.412766
8.601546
9.470582
7.479787
7.941723
7.656813
8.144975
8.096695
7.930994
8.141994
8.043647
9.047985
7.062554
7.746816
7.403493
8.072853
7.943511
8.048415
8.440614
7.609725
7.478595
7.841587
7.365942
7.626414
7.040501
7.196665
7.967949
7.698536
##ZVALUE=250
1.478791
1.715422
2.153516
2.088547
1.806617
1.868606
2.437830
10.702610
28.010607
74.781775
142.733455
274.166465
394.650698
538.183451
636.620522
697.571635
681.474805
605.760813
496.432781
342.859626
237.295628
140.488744
104.243755
89.854002
102.310777
119.195580
132.650733
135.743618
130.267739
120.077729
97.900629
79.630613
54.877996
36.828518
21.837950
14.607906
10.538697
9.860992
9.494424
9.461641
10.800958
11.634827
11.346936
12.233853
11.832714
12.413859
12.258887
12.625456
12.822747
13.370514
13.341904
13.717413
13.565421
13.247728
14.071465
12.502670
12.376904
12.783408
12.327433
12.257695
12.338758
12.492537
12.180805
12.508631
11.667609
11.873841
11.270642
11.306405
11.702776
12.415648
12.875795
12.183785
13.816953
14.630556
14.840961
13.453960
13.372898
13.070703
11.849999
11.923909
10.568500
10.557771
9.737611
9.760857
9.011626
9.101629
8.208752
8.318424
8.096695
7.233620
6.954670
6.823540
6.591678
6.955862
7.086992
6.895661
6.632805
7.525682
7.321835
7.225871
7.125735
6.057620
6.799698
6.011724
6.927848
6.349683
6.765723
6.801486
6.504655
6.904602
6.564856
6.076694
5.925894
6.598830
7.480979
7.010698
##ZVALUE=255
1.681447
1.533628
1.668930
1.479983
1.605749
1.727939
1.967549
1.656413
2.080798
5.908608
16.393661
58.191419
114.390850
238.653421
355.469584
535.071492
652.332902
770.077705
796.728730
733.783841
629.241467
462.339520
317.089558
200.451612
115.281940
87.322593
85.623860
104.408860
124.567747
137.952566
144.573450
143.220425
121.662617
106.421709
80.839992
58.811903
37.933588
25.702715
16.619563
14.260411
12.887716
12.474656
13.035536
13.809800
14.862418
15.209913
14.320612
14.835596
15.874505
15.849471
15.706420
15.037656
15.962720
17.056465
15.207529
14.387965
14.493465
14.548898
14.854670
14.673471
14.665723
14.414787
12.295842
12.686849
12.775660
12.685657
12.096763
11.621714
12.506843
12.944937
13.086796
12.966990
13.375878
13.355613
12.381673
12.679696
12.773871
10.999441
11.607409
10.493994
10.494590
9.792447
8.698702
8.535981
7.820725
7.348657
7.682443
7.765889
6.894469
6.378889
6.594658
6.631613
6.602407
6.287694
6.168485
5.965829
5.850792
5.801916
6.016493
6.469488
5.937815
6.247759
6.466508
5.816817
6.026626
6.011724
5.432963
5.672574
6.055832
6.419420
5.678535
5.859733
6.002784
5.557537
5.589724
6.084442
##ZVALUE=260
1.645684
1.436472
1.656413
1.360774
1.519918
1.808405
1.774430
1.605749
1.618862
1.845956
2.095699
3.165603
9.541512
37.520528
79.375505
183.777809
302.041769
480.759740
632.610917
812.618732
883.823633
870.485902
784.830451
606.411695
453.741550
262.384415
169.669986
112.939477
78.169703
82.342625
104.894638
123.730898
144.919753
152.024627
148.932934
136.970878
113.255978
90.669990
62.566996
46.585798
31.641722
24.709702
20.069480
17.824769
18.198490
18.899441
18.581748
18.668771
19.670725
18.888712
19.878745
19.509792
19.122958
19.539595
19.194484
18.441677
18.476844
18.715858
18.608570
18.069744
16.639829
17.073750
16.114712
15.539527
14.861822
15.977621
14.058948
14.211535
13.171434
13.880730
13.704896
14.405847
14.594793
14.210939
13.776422
13.249516
12.813807
11.943579
11.113882
10.271668
9.314418
10.482669
8.908510
8.514524
8.118749
7.568598
7.752776
7.198453
6.954670
6.666780
6.337762
6.237626
6.210804
6.159544
5.928874
5.642772
5.787611
5.951524
6.059408
5.579591
5.871654
5.439520
5.581975
5.978942
6.005764
5.688667
5.249977
5.811453
5.827546
5.520582
5.209446
5.358458
5.595684
5.370975
5.390644
5.476475
##ZVALUE=265
1.338720
1.434684
1.573563
1.633763
1.477599
1.464486
1.552701
1.338720
1.576543
1.840591
1.762509
1.723766
1.914501
2.198815
4.983544
23.134947
56.673884
143.269897
250.450969
453.260541
616.093874
819.963813
932.129622
964.456797
915.946960
751.539469
604.445934
447.289944
249.363780
150.917768
83.422661
69.247484
85.873604
107.727647
136.929750
155.168772
161.733627
157.597661
139.903426
121.490955
92.765689
73.316693
50.461888
40.919781
29.898882
26.176572
24.444461
24.520755
23.533702
24.175644
23.386478
23.962855
23.356676
24.204850
23.679733
23.007989
22.294521
22.191405
21.888614
21.742582
20.450950
20.343661
18.738508
18.080473
17.846823
16.670823
16.300678
15.856624
15.964508
15.624762
15.241504
15.183687
14.743805
15.281439
14.895797
13.324618
13.012886
12.796521
11.258721
10.989904
10.323524
9.780526
9.009838
8.455515
7.962584
7.681847
7.404685
7.467866
6.868839
6.632805
6.720424
6.390810
5.876422
6.226897
6.339550
5.479455
6.002784
5.447865
5.412698
5.860925
5.699992
5.687475
5.111694
5.909801
5.653501
5.166531
5.434752
5.328655
5.219579
4.659891
5.159974
5.089641
4.870892
4.914999
4.896522
5.447865
##ZVALUE=270
1.280904
1.183748
1.439452
1.364946
1.272559
1.263618
1.454949
1.523495
1.554489
1.564622
1.546741
1.239777
1.556873
1.842976
1.976490
2.077818
2.746582
11.027455
33.019781
104.368925
199.275613
387.714505
577.414632
766.865611
948.172808
1015.554667
991.528034
896.708965
704.856515
537.604690
339.401960
215.395689
106.437802
69.202781
68.317652
87.260604
118.852854
142.845511
162.186623
168.819427
163.263679
151.773691
126.530528
105.023980
77.137947
59.319735
42.410493
34.489632
28.607845
27.526617
27.095675
26.150942
25.871992
25.507808
25.518537
25.612712
25.830865
23.576617
24.082661
23.048520
23.020506
21.790862
20.890832
19.284487
19.482970
18.046498
17.922521
17.695427
17.262697
16.597509
15.879869
15.211701
15.606880
16.116500
14.337897
14.299750
13.674498
12.466908
11.402965
11.241436
10.374784
10.200739
9.297729
9.193420
8.989573
8.428693
7.672906
7.580519
7.148981
6.872416
6.610751
6.498694
6.067753
5.945563
6.061792
5.777478
5.605817
5.882978
5.442500
5.569458
5.217791
5.087852
5.259514
5.644560
4.705787
5.172491
5.132556
5.092621
4.753470
4.958510
4.930496
4.968643
5.086660
4.567504
4.508495
4.460812
##ZVALUE=275
1.060963
1.073480
1.159906
1.063943
1.277924
1.288652
1.370907
1.408458
1.229644
1.410842
1.425743
1.375675
1.438856
1.627803
1.673698
1.701713
1.603961
1.915693
1.991987
5.154610
19.006729
71.498752
154.936910
341.234803
534.192920
794.318914
957.280993
1015.712023
1015.712023
1010.378599
830.516815
661.017895
431.675911
274.688005
135.538578
82.759857
58.468580
66.215992
94.897747
117.683411
139.758587
163.977742
169.639587
164.455771
152.068734
122.602582
102.537870
76.804757
60.353875
46.009421
33.724904
28.278828
25.196671
24.262667
24.181604
23.332834
22.448897
22.043586
22.021532
21.477938
21.659732
20.654798
19.789934
19.976497
18.223524
17.824769
17.497540
17.145872
16.166568
15.375614
15.295744
15.635490
14.973879
14.885664
14.883876
13.792515
13.084412
12.369752
11.453629
10.867715
10.736585
9.203553
9.258986
8.765459
7.633567
7.829666
7.611513
7.435679
6.965995
7.047653
6.653666
6.443858
6.135702
6.070733
6.023645
5.559921
6.077886
5.611777
5.089641
5.310774
5.379915
5.412698
5.108714
5.123615
4.881620
4.976988
4.582405
5.264878
5.256534
4.845858
4.990697
5.044937
4.789829
4.471540
5.010962
4.519820
##ZVALUE=280
1.143813
1.200438
1.166463
1.077652
1.180768
1.166463
1.165867
1.187921
1.317859
1.292825
1.296997
1.288652
1.287460
1.467466
1.494884
1.467466
1.584888
1.635551
1.624823
2.128482
2.125502
3.247857
11.231899
51.085949
123.687983
303.396583
482.497811
695.229769
983.278751
1015.712023
1015.712023
1015.712023
962.258577
759.956837
491.089821
323.894620
167.528987
95.991492
54.511428
51.728487
68.341494
89.982748
119.799972
140.353441
159.382820
165.885687
158.088803
144.396424
120.916963
97.155571
70.474744
54.507852
37.511587
29.999614
24.091601
21.824837
19.059777
20.564795
19.458532
19.441843
18.681884
17.729998
17.149448
16.745925
16.689897
16.727448
15.301704
15.648603
15.289783
15.376806
14.544725
14.499426
14.675856
13.461709
13.856888
13.015866
12.056828
11.992455
11.156797
10.163784
9.878874
9.007454
8.786917
8.495450
8.883476
8.035898
7.544756
7.209778
7.020831
6.897449
6.480813
6.322861
6.059408
5.967617
6.039739
5.738735
5.350709
5.090833
5.881786
5.216599
5.387664
5.258918
5.300641
5.385876
4.839897
4.671812
5.050898
5.473495
5.045533
5.164742
5.268455
4.667640
4.655719
4.371405
4.426837
4.153848
##ZVALUE=285
1.166463
0.976920
1.067519
1.121759
1.118779
1.142621
1.222491
1.247525
1.328588
1.318455
1.265407
1.172423
1.271963
1.215935
1.327991
1.670718
1.530647
1.452565
1.520514
1.754761
1.757741
1.721978
2.177954
2.271533
5.140901
25.466681
67.474842
146.432519
345.317721
563.600659
889.959931
1015.712619
1015.712619
1015.712619
1015.712619
940.159559
640.636683
432.165861
225.384831
131.349564
61.046481
41.372776
44.505596
60.104728
85.545778
107.464790
132.600665
149.156451
155.321956
152.834654
137.982965
120.970607
93.490481
71.808696
50.093532
36.253929
25.621653
21.093488
17.479658
16.830564
16.060472
16.268492
15.376806
15.089512
15.064478
14.685988
14.265776
13.538599
13.776422
14.112592
13.840795
13.431907
13.438463
13.405681
13.121963
11.804700
12.024641
11.579990
10.861754
9.696484
9.390712
9.242892
8.821487
8.711815
8.236766
7.836819
7.375479
7.297993
6.977916
6.957650
6.575584
5.999804
6.223917
6.089807
5.857944
5.771518
5.665421
5.556941
5.582571
5.628467
5.368590
5.374551
5.229712
5.052686
5.611777
5.264878
4.992485
5.154610
5.242825
4.866719
4.679561
5.068779
4.645586
4.801750
4.398823
4.395843
##ZVALUE=290
1.013875
1.003742
0.924468
1.049638
0.978708
0.948906
1.101494
1.149774
1.214743
1.260638
1.182556
1.222491
1.206994
1.266599
1.117587
1.305938
1.176000
1.397729
1.378655
1.402497
1.606941
1.514554
1.824498
1.857877
2.016425
2.381802
3.126860
8.956790
40.481687
95.672607
238.034725
424.733758
757.159591
1005.388498
1015.712023
1015.712023
1015.712023
1015.712023
829.381943
587.460995
326.162577
189.282894
82.587600
43.730736
30.532479
36.780834
54.484606
73.245764
100.988746
120.885968
141.113997
149.035454
146.963596
134.158731
112.075806
91.347694
63.209534
47.767758
31.894445
22.935867
16.991496
14.652610
12.997985
13.057590
12.463927
12.697577
12.180805
11.983514
11.963844
12.196898
12.779832
12.503862
12.258887
11.680722
11.507869
11.203885
10.705590
10.687709
9.819865
9.563565
9.078979
8.733869
8.086562
8.229613
7.842779
7.349849
7.352829
6.779432
6.762743
6.912947
6.566644
6.225705
6.117821
6.150603
6.300807
5.942583
5.870461
5.757809
5.536675
5.420446
5.696416
5.553961
5.448461
5.375743
5.355477
5.676746
5.014539
4.992485
5.246997
5.309582
4.833937
5.123615
5.073547
4.684925
4.643798
4.552603
##ZVALUE=295
1.031756
1.073480
1.163483
1.153946
1.019835
1.064539
1.105666
1.126528
1.091957
1.000762
1.065731
1.110435
1.081824
1.170635
1.064539
1.197457
1.276731
1.428723
1.324415
1.330972
1.428723
1.476407
1.443624
1.634955
1.600981
1.647472
2.005696
2.231598
2.342463
3.835559
17.926693
51.172972
151.865482
300.375819
603.086948
870.422721
1015.712619
1015.712619
1015.712619
1015.712619
1015.712619
737.522840
485.363603
240.486860
128.504634
48.144460
26.322603
23.445487
30.871630
43.857694
68.269968
87.657571
113.361478
129.596591
139.680505
137.664676
124.563575
106.939673
81.498623
64.861774
42.291880
29.493570
19.165874
13.969541
11.428595
10.062456
9.177923
9.309649
10.148883
9.802580
9.773970
10.063648
10.110736
9.987950
9.865761
9.667873
9.317994
8.608699
8.444786
8.256435
7.868409
7.670522
7.638931
7.205606
6.987453
6.990433
6.683469
6.889701
6.631613
6.429553
6.133914
5.931854
6.122589
5.886555
5.853772
5.397797
5.520582
5.385876
5.492568
5.464554
5.396605
5.410910
5.489588
5.354881
5.138516
5.337000
5.067587
5.055666
5.144477
4.649758
5.013943
4.943609
4.659891
4.682541
4.459620
4.681945
##ZVALUE=300
0.987649
0.955462
0.944734
0.955462
0.965595
1.022816
0.861883
0.840425
0.871420
1.046658
1.117587
0.979900
1.035929
1.083612
0.947714
1.184940
1.211762
1.173615
0.975728
1.153946
1.263618
1.301765
1.233816
1.363754
1.646876
1.522899
1.715422
1.474619
1.871586
1.956820
2.159476
2.646446
8.683801
29.022694
97.712874
194.898844
421.310663
660.147667
987.318754
1015.712023
1015.712023
1015.712023
1015.712023
948.796868
599.995852
370.610952
175.674558
92.112422
34.671426
19.213557
20.300746
26.793480
43.143630
59.386492
84.023476
102.714896
122.638941
128.925443
126.753449
119.886994
101.010799
81.870556
58.065653
41.977763
25.902987
17.939806
12.081861
9.723902
8.433461
8.173585
7.984638
8.368492
8.252859
7.948875
8.114576
7.667542
7.316470
7.877946
7.055998
6.848574
7.110834
6.713867
6.648898
6.517768
6.358624
6.012917
6.291866
5.975962
6.087422
5.631447
5.620718
5.459785
5.415678
5.362630
5.221963
5.228519
5.402565
5.276799
4.965663
4.966855
4.903674
4.748702
4.928708
4.913807
5.298853
4.946589
4.728436
5.010962
5.026460
4.773736
4.861951
4.891753
4.469752
4.519820
4.706979
4.266500
##ZVALUE=305
0.939965
0.938773
0.904799
1.098514
1.021624
0.983477
0.914931
0.847578
0.993609
1.024604
0.902414
0.891685
0.893474
0.861883
1.031756
0.979900
0.887513
1.072884
1.122952
0.995994
0.910759
1.164675
1.310706
1.232624
1.370907
1.149774
1.503825
1.390576
1.471639
1.710653
1.784563
1.941919
2.007484
2.198815
4.696846
15.567541
62.501431
137.035847
316.476822
503.020883
802.400708
1001.977921
1015.712619
1015.712619
1015.712619
978.576541
685.439706
465.634465
232.968926
126.054883
48.144460
23.210645
13.840795
17.386675
26.187897
38.256645
59.475899
76.947808
97.358823
111.874938
122.261643
120.951533
109.635592
96.407533
74.510574
56.777000
37.713647
25.742650
15.052557
10.447502
7.979870
7.279515
6.611943
6.865859
6.829500
6.394982
6.095767
6.111860
5.957484
5.872846
5.744696
5.704761
5.655885
5.695820
5.423427
5.367994
5.381703
5.379915
5.088449
5.004406
5.049706
5.076528
5.028844
4.849434
4.815459
4.371405
4.706979
4.642606
4.557967
4.854798
4.698634
4.709959
4.802942
4.618764
4.910827
4.436970
4.286766
4.395843
4.386902
4.484653
4.116893
4.108548
4.402995
4.218817
4.209876
3.998876
##ZVALUE=310
0.862479
0.844598
0.823736
0.984669
0.938773
0.804663
0.889897
1.081824
0.930429
0.794530
1.073480
0.973940
0.832677
1.021624
0.930429
1.014471
0.909567
0.905991
0.802875
0.960827
0.880957
0.921488
1.072884
1.285672
1.279712
1.006722
1.161695
1.173615
1.401901
1.125932
1.410842
1.247525
1.619458
1.751781
1.862645
2.034903
2.525449
7.171631
34.104586
79.299808
198.210478
344.617963
601.354837
808.721781
1013.932824
1015.712023
1015.712023
984.027982
738.692880
542.186499
310.979486
183.914900
77.489614
36.164522
14.401674
11.062622
15.003681
20.923615
33.339858
47.258735
69.283843
85.701942
103.555918
112.555623
114.295483
107.609630
90.390444
76.291561
52.230954
37.731528
23.083687
16.161799
9.944439
7.775426
6.105900
5.869865
5.389452
5.188584
5.035996
4.763603
4.725456
4.915595
4.875660
4.819632
4.862547
4.739761
4.763603
4.629493
4.578829
4.426837
4.389882
4.412532
4.381537
4.251599
4.522800
4.128814
4.179478
4.172921
4.325509
4.362464
4.234910
4.209876
4.173517
4.321933
4.460812
4.032850
4.223585
4.100800
3.935695
4.000664
3.983974
4.056692
3.828406
4.054904
3.843904
3.796816
##ZVALUE=315
0.824928
0.868440
0.863671
0.837445
0.869632
0.821948
0.821948
0.715852
0.711679
0.759959
0.687838
0.885725
0.915527
0.898838
1.006722
0.816584
1.006722
0.881553
0.900626
0.718832
0.920892
1.080632
1.020432
1.058578
0.965595
0.992417
1.193881
1.131892
1.238585
1.134872
1.179576
1.267791
1.397729
1.274943
1.509786
1.442432
1.728535
1.877546
2.238750
3.420711
17.837882
49.954653
141.465664
257.422924
495.016575
705.416799
955.399871
1015.712619
1015.712619
1015.712619
857.532620
658.329725
400.025845
247.031450
112.930536
53.680539
17.163754
10.150671
10.133982
12.870431
20.175576
29.772520
47.629476
63.148737
81.920624
96.022487
105.014443
108.595490
99.565983
87.122917
66.152811
51.357746
34.316778
24.125576
14.120936
9.458661
6.200671
5.205870
4.762411
4.554987
4.295707
4.309416
4.225969
4.146695
4.133582
4.170537
4.100800
4.177690
4.051924
4.161596
4.025698
4.066825
3.936887
4.065633
3.841519
3.846884
3.811717
3.667474
3.690720
3.815889
3.815889
3.900528
3.950000
3.771782
3.647804
3.690720
3.740788
3.705621
3.802776
3.664494
3.741980
3.754497
3.502965
3.707409
3.452897
3.275871
##ZVALUE=320
0.882745
0.865459
0.764728
0.903606
0.751615
0.687838
0.823736
0.678897
0.731945
0.762939
0.763535
0.806451
0.824928
0.809431
0.906587
0.935793
0.962615
0.881553
0.803471
0.941753
0.873804
0.784993
1.033545
1.099706
0.872612
0.899434
0.940561
1.107454
0.969768
1.074672
1.096725
1.283884
1.288652
1.299977
1.309514
1.246929
1.481771
1.499653
1.519918
1.721978
2.000928
2.269745
8.478761
27.906895
92.866421
186.041594
368.034840
556.559563
831.076503
996.557474
1015.712023
1015.712023
963.207483
777.626634
512.787700
325.601697
146.969557
75.485706
28.700829
13.227463
8.351803
8.732677
11.986494
16.834736
27.352571
39.035678
58.009624
73.656440
90.924501
99.691749
99.762678
94.689727
81.920624
66.513419
47.665834
34.841895
20.248890
13.226867
7.858872
5.968809
4.513860
4.005432
3.626943
3.987551
3.622770
3.642440
3.498793
3.445745
3.541708
3.499985
3.328919
3.404617
3.363490
3.566742
3.493428
3.404617
3.443956
3.338456
3.675818
3.517866
3.563762
3.474951
3.371835
3.314614
3.373623
3.555417
3.420711
3.404617
3.236532
3.248453
3.101826
3.210902
3.171563
3.242493
3.399849
3.200769
##ZVALUE=325
0.704527
0.814795
0.860691
0.752807
0.630617
0.791550
0.517964
0.782609
0.596642
0.854731
0.830889
0.764728
0.712872
0.811815
0.768900
0.870824
0.741482
0.847578
0.828505
0.869632
0.883937
0.913739
0.914931
0.979900
1.013875
0.968575
0.929832
1.056790
0.863671
1.077652
0.982881
1.013875
1.162887
1.152754
1.140833
1.367927
1.344681
1.287460
1.485944
1.565814
1.514554
1.568794
1.684427
1.951456
4.421473
16.109943
61.681867
128.498673
286.095738
453.533530
712.585449
891.528726
1015.712023
1015.712023
994.587541
829.049945
556.159616
377.481580
194.712877
105.694532
39.371848
17.417669
7.996559
7.137656
8.237958
10.445714
16.694665
24.862885
40.779710
55.528879
73.943734
84.859729
94.303489
94.926953
87.112784
76.887608
59.466958
45.567751
28.760433
18.889904
10.874867
7.610917
5.126595
4.282594
3.518462
3.392696
3.134608
3.254414
3.313422
3.104806
3.035665
3.069639
3.311634
3.127456
2.969503
3.004670
3.143549
3.313422
3.214478
3.127456
3.134608
3.244877
3.141761
3.090501
3.023744
3.044605
2.969503
2.924800
3.253818
2.997518
3.039837
2.979636
3.010631
2.870560
2.927780
2.889633
##ZVALUE=330
0.653863
0.825524
0.621676
0.775456
0.783801
0.715852
0.612736
0.815988
0.581741
0.679493
0.782609
0.787973
0.758767
0.736713
0.726581
0.814795
0.787973
0.776649
0.749826
0.797510
0.824928
0.900626
0.902414
1.007915
0.940561
0.861883
0.980496
0.918508
0.920892
0.828505
0.711679
1.083612
0.997782
1.127720
1.053810
0.959635
1.171827
1.154542
1.351833
1.122952
1.336932
1.386404
1.494884
1.487732
1.602769
1.732707
2.575517
7.621646
35.888553
84.120631
203.844905
334.558487
567.992926
747.648478
944.080949
1015.712023
988.596678
869.956017
649.182796
470.353961
255.150795
140.717626
54.525733
24.582744
9.635687
6.795526
6.363988
6.917715
10.185838
15.121698
25.551915
36.042929
51.700473
66.039562
79.533458
86.004734
85.350871
80.500841
68.544745
56.006908
40.271878
28.747916
18.133521
12.186766
7.422566
5.307794
3.968477
3.318787
3.112555
3.085732
2.824664
2.923608
2.810955
2.708435
2.835989
2.865791
2.872944
2.757907
2.800822
2.765656
3.042817
3.108978
3.111959
2.981424
2.854466
2.961755
2.935529
2.772808
2.697706
2.789497
2.926588
2.821684
2.758503
2.806783
2.715588
2.846718
##ZVALUE=335
0.710487
0.752807
0.574589
0.741482
0.758767
0.707507
0.667572
0.721812
0.672936
0.793934
0.622869
0.658631
0.632405
0.739694
0.797510
0.679493
0.857711
0.800490
0.656843
0.729561
0.878572
0.845790
0.898838
0.772476
0.753999
0.902414
0.819564
0.988841
0.987649
0.859499
0.861883
0.967979
1.004934
0.976920
0.968575
0.976920
1.126528
1.095533
1.067519
1.092553
1.075864
1.142621
1.299977
1.249909
1.427531
1.633763
1.650453
1.702905
1.774430
3.699660
20.277500
53.057671
142.670870
252.727866
459.856987
649.621487
883.742571
989.725590
1015.254855
946.780443
744.154453
554.452538
317.959785
191.600919
82.840919
37.291646
12.224913
7.406473
5.972981
6.148815
7.277727
8.848906
14.539957
21.918416
34.450889
46.466589
63.234568
73.754787
81.457496
82.141757
75.420737
66.009760
52.081943
40.954947
27.666688
19.537807
11.755824
7.771850
5.032420
3.729463
3.180504
3.149509
2.801418
2.683997
2.713799
2.688766
2.849698
2.816916
2.916455
2.693534
2.697706
2.669692
2.804995
2.864599
3.001690
2.664924
2.824664
2.890825
2.934933
2.800822
2.700686
2.849698
2.733469
2.725720
2.607703
2.719760
##ZVALUE=340
0.679493
0.652671
0.662804
0.732541
0.583529
0.624657
0.688434
0.746846
0.699759
0.758767
0.649691
0.543594
0.684857
0.825524
0.832677
0.842810
0.680685
0.786781
0.727773
0.675917
0.827909
0.782609
0.847578
0.765920
0.616908
0.815988
0.651479
0.942945
0.707507
0.985861
0.905991
1.059771
0.972748
0.962615
1.056790
0.988841
1.029968
0.900626
0.823736
0.967979
0.899434
1.012683
1.103878
1.283884
1.206994
1.374483
1.333952
1.264811
1.335740
1.517534
1.759529
2.180934
10.838509
34.215450
106.009841
202.966928
401.030779
566.728711
782.694817
910.921693
990.910530
954.366922
788.222551
629.627705
400.621891
248.395801
111.161470
53.127408
15.780926
7.925630
6.085634
6.021857
5.917549
6.320477
9.084940
12.808442
21.812916
31.833649
47.014952
57.692528
69.996715
75.435638
76.021552
71.610808
62.380433
52.111745
38.113594
28.683543
17.741919
12.180805
7.032752
4.992485
3.581643
3.055930
2.895594
2.786517
2.687573
2.756715
2.607703
2.447963
2.428889
2.547503
2.592802
2.523661
2.849698
2.669692
2.720952
2.706647
2.723932
2.652407
2.660751
2.671480
2.503991
2.596974
2.532601
2.704859
##ZVALUE=345
0.631809
0.822544
0.632405
0.746846
0.691414
0.772476
0.580549
0.779629
0.655651
0.716448
0.682473
0.851750
0.824928
0.746846
0.626445
0.641942
0.672936
0.759959
0.664592
0.793934
0.794530
0.756979
0.689626
0.729561
0.936985
0.802875
0.696778
0.701547
0.732541
0.811815
0.751615
0.942945
0.773668
0.810623
0.874996
0.898838
0.848770
0.884533
0.824928
0.906587
1.167655
1.040697
1.055598
1.164675
1.048446
1.072884
1.088977
1.241565
1.287460
1.277924
1.217723
1.559854
1.719594
1.690984
4.633665
18.539429
74.663758
148.347616
302.113891
455.940962
681.075454
832.881927
952.420831
963.057876
851.005912
704.482794
477.176905
315.202475
145.934820
71.327686
24.472475
10.759830
6.407499
5.796552
5.149841
5.346537
5.689859
7.627606
12.173653
18.782616
30.053854
39.624572
52.437782
61.296821
68.302751
69.968700
66.089630
60.439706
47.783852
39.155483
27.074814
19.179583
11.612773
7.641912
4.923940
3.824830
3.123879
2.827644
2.734661
2.640486
2.589822
2.760887
2.564788
2.486706
2.379417
2.522469
2.537966
2.541542
2.508759
2.503991
2.561808
2.586842
2.435446
2.521873
2.670884
2.525449
##ZVALUE=350
0.711679
0.700951
0.772476
0.796914
0.568628
0.686646
0.683665
0.704527
0.879765
0.680685
0.677705
0.658631
0.672936
0.791550
0.715852
0.729561
0.840425
0.645518
0.760555
0.730753
0.774860
0.775456
0.697970
0.791550
0.725985
0.814795
0.746846
0.841618
0.886917
0.785589
0.901818
1.024604
0.960827
0.746846
0.723600
0.813603
0.889897
0.948906
0.986457
0.992417
0.904799
0.919700
0.911951
0.965595
1.001954
1.160502
1.047850
1.139641
1.281500
1.197457
1.308918
1.283884
1.356602
1.394749
1.384616
1.686811
2.727509
8.975863
42.617917
97.102523
225.604773
375.036001
601.543784
756.698847
908.211470
951.618552
877.807736
748.067498
518.955588
349.732637
177.951455
97.832680
37.901998
15.915632
6.887913
5.533695
5.003810
4.707575
4.665852
5.159974
7.471442
10.594726
17.036796
24.383664
35.202503
43.781996
55.689812
61.078668
64.176917
62.394738
55.148602
47.014952
35.392642
26.964545
17.773509
12.434721
7.973909
5.408525
3.810525
3.139973
3.066659
2.637506
2.579689
2.581477
2.368689
2.303720
2.541542
2.769828
2.541542
2.459884
2.388954
2.459884
2.482533
2.347827
2.467632
2.374649
##ZVALUE=355
0.715852
0.657439
0.857711
0.603795
0.696778
0.753999
0.639558
0.616908
0.627637
0.683665
0.696778
0.600815
0.757575
0.855923
0.634789
0.828505
0.808835
0.701547
0.675917
0.790954
0.808835
0.753999
0.803471
0.682473
0.742674
0.720620
0.620484
0.755787
0.842810
0.849962
0.842810
0.771880
0.820756
0.922680
0.800490
0.765920
0.972748
0.922680
0.879765
0.776649
1.044869
0.978708
1.024604
0.984669
1.008511
1.033545
0.965595
1.015663
1.127720
1.085997
1.226664
1.250505
1.341701
1.191497
1.227856
1.456738
1.622438
1.688600
1.862645
3.932714
23.301840
65.341592
173.390508
291.533470
506.241918
680.399537
869.489908
942.322612
905.803442
783.663988
567.957759
411.437750
229.490995
125.817657
49.083829
20.937920
7.223487
5.294681
4.806519
4.514456
4.409552
4.252791
4.794598
6.118417
9.403825
13.545752
21.634698
29.424429
40.472746
47.935843
55.625439
57.934523
56.365728
52.129626
43.253899
35.843849
25.884509
19.374490
12.438893
8.418560
5.500913
3.881454
3.124475
2.904534
2.683997
2.649426
2.767444
2.557635
2.640486
2.530813
2.545714
2.416968
2.414584
2.370477
2.389550
2.198815
##ZVALUE=360
0.681877
0.627637
0.666976
0.698566
0.668764
0.751615
0.604987
0.610948
0.673532
0.719428
0.682473
0.707507
0.605583
0.679493
0.708699
0.775456
0.799894
0.807643
0.717640
0.717640
0.697970
0.813603
0.749826
0.909567
0.719428
0.838637
0.734925
0.795722
0.992417
0.782609
0.727773
0.804663
1.022816
0.917912
0.663996
0.882745
0.847578
0.894666
0.843406
0.850558
0.885725
0.783801
0.854731
0.921488
0.836849
0.899434
0.967979
0.952482
1.002550
1.002550
1.010895
1.133680
1.168847
1.196861
1.317859
1.234412
1.302958
1.374483
1.561642
1.550913
1.925826
2.482533
10.765791
33.673644
109.778643
207.901001
407.176614
587.943792
818.156004
926.964879
949.727893
868.332982
676.987767
501.232743
290.385485
169.709921
67.113638
29.586554
9.450912
5.896688
5.005598
4.541874
4.174709
3.815889
4.096627
4.464984
5.415678
7.223487
11.740923
16.699433
26.174784
33.566952
43.076873
48.841834
52.246451
52.450895
49.072504
43.576956
35.040975
27.816892
19.225478
13.997555
9.270906
6.329417
4.381537
3.414750
2.977848
2.659559
2.537966
2.529621
2.426505
2.362728
2.393723
2.257824
2.330542
2.340674
##ZVALUE=365
0.828505
0.706911
0.657439
0.622869
0.609756
0.592470
0.691414
0.652671
0.828505
0.821948
0.668764
0.713468
0.642538
0.715852
0.628829
0.749826
0.711679
0.855923
0.726581
0.791550
0.856519
0.711679
0.790954
0.734925
0.759959
0.745654
0.793934
0.844598
0.828505
0.751615
0.776649
0.938773
0.861883
0.891685
0.875592
0.871420
0.897646
0.986457
0.992417
0.831485
0.654459
0.767708
0.909567
0.913739
0.899434
0.924468
0.852942
0.916719
1.008511
0.944734
0.973940
1.132488
1.033545
1.223683
1.226664
1.183748
1.191497
1.172423
1.409650
1.422763
1.797676
1.704693
1.788735
2.073646
5.137920
18.644929
71.002841
151.818991
333.595872
514.583588
751.934648
883.406997
960.488915
924.631953
762.425661
596.608520
375.186801
224.585533
97.864866
45.862794
14.347434
6.718636
5.009770
4.499555
4.101992
3.971457
3.781915
3.473759
3.744960
4.514456
6.187558
8.939505
14.398694
20.480752
29.317737
35.571456
43.174624
46.790838
49.092770
47.175884
41.963458
36.168694
27.600527
21.186471
14.088750
9.989738
6.273985
4.267693
3.652573
3.011823
2.806783
2.358556
2.528429
2.131462
2.272725
2.237558
##ZVALUE=370
0.695586
0.693798
0.612736
0.783801
0.678897
0.781417
0.761747
0.730753
0.754595
0.596642
0.657439
0.553727
0.501871
0.709891
0.626445
0.682473
0.780821
0.674725
0.774860
0.764728
0.781417
0.686646
0.868440
0.777841
0.828505
0.688434
0.800490
0.798702
0.681877
0.624657
0.684857
0.649691
0.816584
0.812411
0.747442
0.850558
0.932813
0.871420
0.752807
0.781417
0.867844
0.813603
0.926852
0.869632
0.811815
0.955462
0.859499
0.946522
0.838637
0.893474
1.126528
1.130700
0.951886
1.070499
0.974536
1.040697
1.092553
1.089573
1.408458
1.298785
1.459718
1.255870
1.531839
1.634955
1.738667
1.806617
3.304482
11.359453
53.695440
123.890638
276.192427
426.859856
652.267933
818.339586
940.452814
948.028564
814.191699
648.585558
413.609743
265.083909
128.041506
64.553618
23.184419
10.337830
5.063415
4.345775
3.928542
3.927946
3.499985
3.261566
3.229976
3.346801
4.084706
5.481839
8.236766
11.655688
18.197894
24.311543
32.903552
38.740635
43.928623
45.506954
44.463873
41.277409
34.618974
28.538704
20.546913
14.114976
10.614991
7.118583
5.116463
3.601909
2.913475
2.474785
2.441406
2.356768
##ZVALUE=375
0.687838
0.724792
0.737906
0.670552
0.639558
0.772476
0.691414
0.742674
0.632405
0.682473
0.779629
0.645518
0.591874
0.741482
0.700951
0.551939
0.654459
0.784993
0.811815
0.590682
0.733733
0.724792
0.739694
0.718832
0.740886
0.630617
0.710487
0.644922
0.722408
0.499487
0.727773
0.764728
0.709891
0.797510
0.758767
0.622869
0.731945
0.793934
0.723600
0.880957
0.734925
0.871420
0.867844
0.770688
0.887513
0.795722
0.943542
0.769496
0.887513
0.856519
0.856519
1.006722
0.854731
0.875592
0.977516
0.962615
0.879765
0.922680
0.898838
0.983477
1.148582
1.081824
1.057982
1.265407
1.319647
1.350641
1.534820
1.831651
2.302527
5.902648
31.311512
74.971914
183.817744
318.729877
543.478727
711.010695
885.626674
947.598815
887.406468
751.330853
519.548655
357.716680
190.984607
104.953647
40.193796
17.214417
6.010532
4.566908
4.107952
3.704429
3.629923
3.355742
3.083944
2.914667
3.027916
3.471971
4.509687
6.402731
9.987950
14.432669
21.450520
27.923584
35.142899
39.358735
43.382645
43.397546
40.353537
34.719706
29.561520
22.627711
17.389655
11.930466
8.664727
5.461574
4.238486
2.837777
##ZVALUE=380
0.655651
0.532866
0.645518
0.644922
0.731945
0.722408
0.712872
0.690818
0.557899
0.572801
0.703931
0.630617
0.644922
0.549555
0.659823
0.720620
0.692606
0.724792
0.719428
0.608563
0.679493
0.664592
0.704527
0.790954
0.626445
0.632405
0.591874
0.750422
0.775456
0.737906
0.801682
0.624657
0.744462
0.755787
0.791550
0.705719
0.689626
0.816584
0.938773
0.823736
0.826716
0.893474
0.812411
1.023412
1.005530
0.785589
0.795722
0.922680
0.865459
0.726581
0.783801
0.790954
0.960827
0.932813
0.937581
0.937581
1.063943
0.931621
0.855923
1.094937
1.023412
1.087785
1.087785
1.062751
0.977516
1.183748
1.406670
1.410842
1.664758
1.599789
2.043843
3.077984
16.073585
49.205422
144.275427
257.956982
469.809771
657.006502
865.335464
950.870514
936.448574
832.153559
635.109544
465.449691
263.045430
152.143836
61.925650
27.560592
8.534789
4.709959
3.926754
3.756881
3.285408
3.362894
3.330708
3.065467
2.965927
2.945662
3.177524
3.951788
5.688667
8.156896
13.090968
18.038750
25.438666
31.215549
37.208796
40.603876
40.966868
38.898587
35.424829
29.266477
23.826957
17.334819
12.817979
8.419752
##ZVALUE=385
0.591874
0.617504
0.543594
0.589490
0.524521
0.675917
0.592470
0.560880
0.649691
0.646710
0.554919
0.764728
0.650883
0.543594
0.696778
0.666976
0.636578
0.612736
0.745654
0.686646
0.792742
0.791550
0.618696
0.630617
0.698566
0.644922
0.940561
0.630617
0.572801
0.723600
0.671744
0.571609
0.784993
0.885725
0.671744
0.758767
0.906587
0.840425
0.821948
0.967979
0.791550
0.959635
0.940561
0.886917
0.837445
0.826716
0.985861
0.870824
0.932813
0.864863
0.855923
0.886917
0.972748
0.905991
0.910759
0.934601
0.882745
1.121759
0.958443
0.977516
1.046658
0.881553
0.860691
1.067519
0.921488
1.032948
1.251698
1.107454
1.414418
1.307726
1.622438
1.815557
1.780987
2.104640
6.445646
22.713542
85.279942
183.309913
380.025506
562.505722
793.632865
909.782648
957.212448
903.237462
741.088986
575.903654
355.861783
221.730471
97.288489
46.379566
15.102625
6.404519
3.979802
3.672838
3.572702
3.511906
3.266931
3.328919
3.134608
2.898574
2.778769
2.960563
3.375411
4.493594
7.041693
10.025501
15.736818
21.936893
26.540756
32.510757
35.830736
37.752986
37.462711
33.552647
29.676557
23.739934
##ZVALUE=390
0.552535
0.695586
0.711679
0.557899
0.634789
0.637770
0.706911
0.554919
0.557899
0.538826
0.520945
0.582933
0.680685
0.627637
0.563860
0.568628
0.615716
0.641942
0.581741
0.641942
0.645518
0.662804
0.667572
0.708699
0.797510
0.646710
0.712872
0.714660
0.727773
0.796914
0.718832
0.666976
0.816584
0.853539
0.686646
0.811815
0.924468
0.925660
0.817776
0.819564
0.764728
1.003742
0.877976
0.864863
0.924468
1.030564
0.954866
0.913739
0.869632
0.970960
0.913739
1.097918
0.996590
0.775456
0.906587
0.877976
0.825524
1.072884
0.885725
0.957847
0.942945
0.906587
0.923872
1.003742
1.071692
1.018643
1.268983
1.125932
1.425743
1.539588
1.446605
1.499653
1.786947
1.647472
1.709461
1.876950
3.147721
11.650920
57.093501
131.896734
301.272869
470.919013
699.924827
851.013660
972.682834
975.401998
857.361555
708.957911
472.937822
312.869549
154.590607
77.074766
26.067495
10.219812
4.138947
3.738999
3.658533
3.459454
3.563762
3.225803
3.303885
3.207922
2.834797
2.913475
2.819896
2.932549
4.114509
5.799532
8.794665
12.267828
17.913580
22.426844
28.631687
31.969547
35.234690
35.657883
##ZVALUE=395
0.728965
0.622869
0.656843
0.582933
0.808835
0.587702
0.648499
0.631809
0.592470
0.670552
0.736713
0.665784
0.730753
0.704527
0.622869
0.615716
0.605583
0.602603
0.554919
0.563860
0.580549
0.667572
0.759959
0.816584
0.709891
0.701547
0.645518
0.672936
0.633597
0.728965
0.723600
0.488758
0.785589
0.895858
0.792742
0.882745
0.860691
0.913739
0.978708
0.871420
0.902414
1.025796
1.021624
1.071692
1.015663
0.963807
0.892878
0.789762
0.941753
0.895858
1.033545
0.797510
0.825524
0.935793
0.977516
0.919700
1.007915
0.958443
1.113415
0.983477
0.888705
1.070499
0.921488
0.960827
0.984669
1.119971
0.958443
1.230836
1.356602
1.274943
1.454949
1.413822
1.391768
1.396537
1.632571
1.510978
1.439452
1.751781
2.356768
6.615520
31.891465
81.913471
203.809738
339.898467
570.156574
744.772553
925.577879
984.598994
936.406851
807.772875
570.663810
393.213630
203.195810
108.738542
42.010546
18.096566
5.778670
4.197955
3.910661
3.675818
3.448725
3.487468
3.514886
3.309846
3.185868
2.861619
2.790689
2.699494
2.813935
3.672838
4.628897
7.494688
10.223985
15.295744
20.068884
25.852919
##ZVALUE=400
0.880957
0.830889
0.651479
0.602603
0.672936
0.711679
0.500679
0.456572
0.616908
0.508428
0.603795
0.431538
0.676513
0.691414
0.690818
0.659823
0.628829
0.566840
0.669956
0.534654
0.618696
0.742674
0.667572
0.684857
0.650883
0.737906
0.712872
0.707507
0.784993
0.684857
0.716448
0.658631
0.733733
0.710487
0.806451
0.748634
0.905991
0.706911
0.921488
0.951886
0.910759
0.984669
1.060963
0.909567
1.036525
0.922680
0.865459
0.900626
0.969768
1.003742
1.102686
0.991821
1.018643
0.994802
1.077652
0.980496
0.983477
0.902414
0.874996
0.966787
0.979900
0.893474
0.946522
1.122952
1.030564
1.040697
1.084805
1.264811
1.224875
1.405478
1.357794
1.504421
1.259446
1.362562
1.324415
1.361966
1.414418
1.434684
1.675487
1.659989
1.981854
3.782511
17.884970
49.560666
137.319565
249.606967
454.635620
625.808835
826.810002
911.991596
922.808647
834.509730
646.718740
478.279591
273.541808
161.320567
67.051649
30.146837
10.063648
4.823804
3.725886
3.525615
3.425479
3.644824
3.487468
3.611445
3.417730
3.162622
2.964735
2.624989
2.540946
2.596974
3.012419
3.984571
5.927682
9.575486
##END
