##TITLE=14-2
##FORMAT=SPECTACLE-ASCII V-1.2
##DATA TYPE=ULTRAVIOLET SPECTRUM
##SECOND TYPE=ULTRAVIOLET SPECTRUM
##DATE=04/11/18
##TIME=10:38:33
##SPECTROMETER/DATA SYSTEM=SPECTACLE
##XUNITS=NM EM
##YUNITS=ENERGY
##YFACTOR=1
##FIRSTX=220
##LASTX=450
##NPOINTS=116
##3DDATA=Equidistant
##ZUNITS=NM EX
##FIRSTZ=210
##LASTZ=400
##ZPOINTS=39
##XYDATA=(Y..Y)
##ZVALUE=210
15.111566
13.578534
11.667609
11.467934
11.088848
10.846853
10.085702
9.440780
6.892681
5.465746
3.378987
2.873540
2.357960
2.775788
2.306700
2.247691
2.502799
2.247691
2.736449
2.395511
2.642870
2.471805
2.813935
3.919601
3.105998
2.838969
3.285408
3.548861
3.875494
4.000664
3.999472
3.830791
4.137754
5.069971
5.233884
5.080700
5.723834
6.061792
6.175637
5.760789
5.863905
5.359650
5.725622
6.551743
6.181598
6.626844
6.923676
5.877614
6.050467
5.482435
7.007718
6.364584
6.469488
6.923676
6.347895
6.840825
7.701516
6.483793
6.909966
7.008910
7.859468
6.404519
6.740689
7.167459
6.932616
6.103516
7.536411
6.940961
7.974505
7.681847
9.062886
10.730624
11.676550
11.658669
12.773871
13.452768
12.693405
13.210773
12.862682
11.899471
11.315942
10.095835
8.899570
7.675886
7.735491
5.837679
5.411506
5.461574
6.960630
7.388592
9.438992
11.893511
15.952587
18.638968
23.393631
29.729605
33.190846
37.478805
42.595863
48.512816
48.176646
49.122572
51.170588
48.624873
47.935843
45.803785
41.635633
41.415691
35.362840
26.899576
24.135709
19.561648
16.703606
14.864802
15.704632
14.380813
##ZVALUE=215
39.497614
35.689473
29.879808
25.933981
21.947622
17.568469
17.463565
16.561747
15.116930
14.261603
12.838840
9.260774
7.084608
4.527569
4.084706
2.719760
2.629757
2.603531
2.670884
3.039837
3.237724
3.488660
3.774762
2.325773
3.237724
3.396869
3.452897
3.726482
5.100965
4.297495
4.418492
4.474521
5.073547
4.849434
5.864501
6.044507
5.587935
5.946755
5.685687
6.310940
5.566478
6.753802
6.467700
7.068515
6.750822
6.786585
6.568432
6.913543
8.005500
8.011460
8.599758
9.074807
8.262992
9.484887
8.229613
9.202957
9.166598
9.089708
8.444786
8.392930
7.576942
8.986592
7.574558
7.622838
8.459687
8.455515
7.632971
7.887483
8.550882
8.158684
9.716749
10.420680
11.586547
12.460947
11.388659
12.831688
11.966825
12.540817
11.610985
11.469722
11.058450
9.045601
8.510947
7.415414
6.475449
5.937815
6.163716
5.551577
4.353523
5.102754
4.496574
5.211830
5.289912
5.419850
8.475780
9.658933
12.992620
19.147992
26.198626
31.664968
41.133761
49.248934
56.092739
62.777996
68.127513
72.952509
75.695515
73.280931
70.590973
68.503618
61.211586
60.396791
54.777861
43.906569
39.854646
30.762553
##ZVALUE=220
83.556771
78.128576
76.183677
73.210597
60.268641
46.851635
36.831498
29.612780
25.712848
24.752617
25.741458
24.645925
22.906661
18.410683
14.003515
10.315776
7.168651
4.471540
3.326535
3.122687
3.111959
3.605485
3.636479
4.005432
4.502535
3.700852
4.241467
4.004836
4.683733
4.708767
4.882812
4.922748
6.227493
5.576611
5.906820
6.159544
8.135438
7.318854
7.457733
8.167624
7.260442
8.187890
7.231832
7.071495
8.112788
10.004640
8.411407
9.784698
9.351969
9.181499
10.346770
11.669993
11.748672
11.788607
11.670589
11.181831
12.048483
11.923909
12.195706
12.214780
11.640787
11.995435
10.413527
9.714961
11.301637
9.729862
9.372830
9.768605
10.103583
10.617971
11.134744
11.746883
11.872649
12.509823
13.481975
12.759566
11.764765
12.363791
11.440516
12.553930
10.466576
9.416938
9.003878
7.924438
6.999969
7.135868
6.681681
5.468726
5.527735
5.306602
5.121827
5.306602
4.353523
5.011559
5.812645
4.808903
4.865527
5.431771
5.962849
6.722808
12.901425
17.317533
26.584864
32.524467
46.345592
54.620504
67.183971
82.137585
89.779496
99.428892
108.643770
116.154552
109.773874
111.356974
107.340813
99.044442
##ZVALUE=225
101.915002
103.105903
126.320720
139.358640
138.282776
131.628513
106.934905
80.184937
61.511993
46.916604
39.495826
39.660931
39.904714
41.736960
38.782954
33.951998
27.914643
20.117760
14.417768
9.698868
7.576942
4.748702
3.938675
4.007816
3.605485
4.285574
4.552603
4.502535
4.369617
4.306436
4.902482
4.842877
5.051494
6.259680
6.855726
7.439852
8.246899
8.033514
8.746982
8.246899
8.050799
9.796619
10.084510
9.929538
9.989738
9.457469
11.068583
10.773540
10.434985
11.593699
13.027787
12.052655
14.215708
13.553500
14.760494
14.911890
13.646483
14.384985
15.312433
13.269782
14.076829
14.173985
12.210608
12.656450
13.550520
12.742877
11.928678
12.714863
12.720823
11.975765
13.405681
13.263822
13.225675
14.965534
13.862848
13.844967
13.376474
13.427734
12.216568
11.786819
10.254979
9.874701
9.709597
8.605719
8.404851
6.887913
6.783605
6.162524
6.617904
6.647706
6.458759
6.204844
5.257726
6.321669
5.378723
5.526543
5.320907
5.444884
5.912781
4.984736
5.461574
5.573630
5.915761
7.051826
11.287928
15.220642
25.612712
35.270452
46.715736
64.231753
78.066587
96.759796
117.934942
136.727691
151.327848
170.220733
##ZVALUE=230
70.344806
72.926879
119.961500
153.643489
189.291835
232.013464
237.140656
225.999951
192.368627
153.950453
114.713907
77.851415
61.921477
55.981874
59.371591
60.864687
64.768791
55.513978
52.344799
37.198663
28.170943
18.844604
12.479424
7.054806
6.028414
4.935861
4.853606
4.691482
4.330873
4.997849
4.781485
5.964637
6.097555
6.189942
6.041527
7.121563
7.506609
8.236766
9.741783
8.580685
9.995699
10.236502
10.449886
10.301471
11.783838
10.185838
10.793805
12.163520
11.378527
11.452436
13.032556
13.235807
14.675856
13.548732
14.230609
14.516711
14.852881
14.912486
15.477538
14.944673
15.206933
13.907552
14.905930
13.851523
14.384985
13.458729
13.131499
12.401938
12.374520
13.077855
14.495850
14.592409
13.964772
14.580488
14.884472
15.901923
14.517903
13.936758
12.629628
12.813807
10.548830
11.008978
10.689497
10.027885
9.308457
7.792711
7.988811
8.057952
7.824898
7.928610
6.944537
6.485581
6.519556
6.744862
6.626844
6.009936
7.112622
6.561875
7.088780
5.388856
6.657839
6.066561
5.425811
5.644560
6.009936
6.700754
5.997419
7.160902
7.809997
12.527704
19.095540
30.160546
43.455958
70.075989
90.484619
118.721724
##ZVALUE=235
19.910932
19.706488
49.548745
92.974901
149.456859
224.674940
290.676951
352.634788
372.744799
360.046625
324.561596
243.512988
187.514424
128.684640
98.007917
80.732703
83.845854
84.541440
92.020631
89.808702
84.021688
65.458417
52.900910
38.757920
23.797750
14.948845
10.450482
5.931854
6.377697
5.874634
6.253719
6.441474
6.231666
6.853938
6.026626
7.521510
7.340908
8.598566
8.511543
8.674860
9.360909
9.947419
9.551644
10.341406
9.744763
9.801984
9.855628
10.780692
11.295676
11.044741
10.751486
12.661815
12.411475
11.931658
12.687445
11.701584
12.421608
12.130737
14.140606
12.197495
11.854768
11.471510
12.391806
12.758970
13.079643
12.401938
12.316704
13.654828
12.066960
13.202429
13.350844
14.798641
14.863610
16.426444
16.035438
14.613867
14.942884
14.684796
13.506413
12.400746
13.239980
11.248589
10.905862
11.651516
9.879470
9.869933
8.384585
9.220839
8.244514
7.850528
8.153915
7.211566
6.501675
7.663965
8.162856
9.099841
6.685853
6.556511
7.976890
7.119775
6.413460
7.117987
6.732941
7.030964
7.623434
6.378889
6.318688
6.542802
6.587505
7.823706
7.124543
6.308556
8.205771
10.216832
14.001727
25.584698
##ZVALUE=240
1.856685
2.174973
7.494688
19.316673
42.508841
99.089742
169.673562
278.619528
357.107520
457.582474
503.071547
490.803719
452.944636
351.990461
278.871655
181.051493
131.475925
100.737810
92.031956
102.121830
111.684799
117.826462
109.692812
101.648569
81.913471
60.055852
45.779943
29.318929
18.236637
13.444424
8.084774
7.470846
6.867647
6.493926
7.084608
7.353425
7.030964
7.200837
8.541942
7.017851
7.953644
9.320974
7.832646
9.595752
9.066463
8.542538
9.095669
9.181499
10.225773
9.501576
9.522438
10.637641
9.381771
10.689497
10.535717
10.494590
10.910630
10.163784
10.554790
11.113882
10.826588
10.205507
10.811687
11.397600
10.484457
11.023879
11.087656
12.264848
11.423826
12.076497
13.016462
13.781786
14.760494
13.993979
15.146732
14.605522
13.789535
14.150739
13.091564
13.959408
12.198687
12.531877
11.070967
9.378791
8.706450
8.858442
9.969473
8.636713
7.839799
8.229613
7.877946
7.623434
7.488728
7.259846
7.258654
7.366538
6.779432
7.080436
7.614493
7.062554
7.413626
7.993579
8.175969
7.423759
7.087588
7.492900
7.782578
6.970763
7.320642
7.096529
7.166862
8.292794
7.625818
7.049441
7.176995
6.850958
##ZVALUE=245
1.441836
1.564622
1.709461
1.792908
3.634691
13.706684
34.530759
88.490844
154.866576
266.631842
372.681618
493.725538
559.585690
586.839914
555.112958
470.194817
374.327898
256.218910
181.953907
117.999911
101.761818
98.121762
111.433864
126.016736
126.940608
120.238662
110.831857
94.105601
70.631504
51.276684
30.974746
21.472573
12.929440
7.550716
6.529689
6.328821
6.980896
8.039474
7.921457
7.489920
8.676648
7.932782
7.953644
9.118915
9.066463
8.622408
8.591413
8.920431
9.148717
9.501576
9.197593
9.596944
9.025931
9.679794
9.205937
9.243488
9.013414
9.511709
9.451509
8.806586
9.767413
8.520484
9.384751
9.878874
8.857846
9.095669
10.142922
9.542704
9.969473
10.858774
10.594726
13.153553
12.090802
12.370944
12.540817
13.015866
13.160706
11.555552
10.395646
11.776686
9.843707
9.327531
8.234978
8.826852
8.541942
6.452799
7.300973
8.308887
7.528663
6.773472
7.058978
7.047653
6.292462
6.920695
6.437898
6.729960
6.817579
7.160902
6.121993
5.926490
6.420612
5.924702
6.157756
6.561875
6.558895
6.864667
6.515980
6.079674
6.163716
5.856752
6.180406
6.369948
6.401539
5.996823
6.045699
5.793571
##ZVALUE=250
1.465678
1.478791
1.632571
1.576543
1.770854
1.568794
2.494454
8.952618
22.978783
65.803528
126.368999
247.346759
363.397002
506.290793
591.291785
653.975010
645.560026
578.355789
483.281016
334.323645
236.085653
142.259002
102.472901
88.991523
99.112988
116.032958
130.173564
134.132504
128.431916
120.308995
97.203851
75.726509
51.647425
33.402443
20.791888
12.735724
8.469820
7.784963
7.571578
7.681847
7.991791
8.457899
8.503795
8.732677
8.554459
8.925796
8.898973
8.975863
9.330511
8.549690
9.223819
8.921623
9.366870
9.120703
8.854866
9.416938
9.372830
9.297729
9.692907
7.911921
8.598566
8.327961
8.087754
8.756518
8.482933
8.388758
7.853508
8.435845
8.720756
8.960962
9.687543
9.486675
10.953546
10.193586
10.672808
9.829998
10.195971
9.521842
8.912683
7.994771
8.271933
7.252693
7.045865
6.445646
5.957484
5.741715
6.848574
5.997419
6.069541
5.267859
5.619526
5.371571
5.430579
5.711913
5.111694
5.201697
5.485415
5.651712
5.644560
5.011559
5.390644
5.639791
5.602837
5.368590
5.501509
5.668998
5.490780
5.802512
5.393624
6.031990
5.252957
4.755855
5.360842
5.515814
5.012751
5.634427
##ZVALUE=255
1.255870
1.231432
1.213551
1.325607
1.443624
1.651645
1.604557
1.680851
1.682639
5.024672
15.066862
52.059889
102.878809
209.951997
319.330692
485.056639
601.260662
709.529519
733.195543
679.878592
599.166751
433.267951
300.195813
196.812749
113.500953
84.454417
84.469914
99.160671
121.050477
135.686994
142.481923
135.474801
123.407841
103.409886
74.892640
55.697560
33.827424
22.974610
14.649630
11.008978
9.223819
9.382963
8.563995
8.894801
9.373426
9.436607
9.479523
10.278821
10.224581
10.475516
10.379553
10.317564
10.080934
9.182692
9.433627
9.680986
9.780526
8.945465
8.527637
9.038448
8.758903
8.177757
8.497834
8.685589
7.712841
8.453727
8.473992
8.841753
7.632971
7.909536
8.224845
8.710623
8.871555
9.106994
8.448958
7.941723
8.558631
7.571578
7.419586
6.857514
6.371737
6.254911
6.209612
5.908608
5.361438
4.614592
5.359650
5.167723
4.466772
5.328655
4.333854
4.308820
4.340410
3.995895
4.302859
4.208684
4.450679
4.166961
4.180670
4.775524
4.404783
4.555583
4.545450
4.778504
4.433990
4.830956
4.280806
4.358888
5.040765
4.753470
4.692674
4.232526
4.314780
4.178882
4.105568
4.648566
##ZVALUE=260
1.156926
1.070499
1.246929
1.215935
1.334548
1.208782
1.257658
1.414418
1.493692
1.444817
1.574755
2.941489
9.198785
32.349825
71.135759
161.055923
270.266533
435.352921
572.775602
733.750463
807.209611
789.635777
712.878704
546.777844
403.670669
239.840746
155.936480
103.794932
75.405836
76.734424
100.158453
119.227767
137.316585
146.625638
142.251849
128.775835
105.271935
84.283948
56.350827
39.518476
24.568439
17.314553
12.958646
11.447668
10.850430
10.131598
10.749698
10.172725
11.369586
11.483431
11.697412
10.664463
11.139512
11.022687
10.202527
10.581613
11.025667
9.661913
10.568500
9.680986
10.159612
9.521842
9.085536
8.847713
8.433461
8.153915
7.874966
8.287430
7.906556
7.803440
7.733703
7.747412
8.639693
8.760691
8.019805
8.156896
7.576942
7.253885
7.346869
6.655455
6.231666
6.350875
5.714893
5.389452
5.359650
4.753470
4.902482
4.593730
4.441738
3.833771
4.163980
4.217625
4.119873
4.270673
4.224777
3.998876
4.270673
4.006624
4.159808
3.536940
3.976822
4.319549
4.060864
4.074574
3.946424
4.135966
4.075766
4.166961
3.960729
3.627539
3.904700
4.117489
3.930926
4.068613
3.878474
3.901720
##ZVALUE=265
1.235604
1.126528
0.960827
1.129508
1.220703
1.152754
1.198649
1.414418
1.315475
1.640916
1.358986
1.655817
1.760721
1.743436
4.602671
20.334721
50.625801
129.299760
222.179890
414.248705
561.448932
751.233697
849.992037
870.922804
808.908939
657.019615
517.442822
331.166983
210.526586
128.623843
74.130893
65.129995
81.016421
102.056861
128.578544
142.406821
149.552822
147.620440
130.786896
110.635757
89.206696
61.269999
44.945478
27.352571
19.780993
14.281869
13.174415
12.655854
12.354851
11.777878
12.493730
12.200475
12.961626
12.862682
12.642741
11.966825
11.816621
11.469722
11.266470
10.969639
11.138916
9.932518
9.898543
9.774566
9.540915
9.602904
8.897781
9.301901
9.042621
8.906722
8.476973
8.449554
8.021593
8.777976
8.327961
7.755756
7.741451
7.263422
6.711483
6.746650
5.945563
6.045699
5.467534
5.335808
5.130768
4.800558
4.858971
4.398823
4.679561
4.014969
4.387498
4.238486
4.343987
3.848672
3.686547
4.243851
3.615618
3.900528
3.834963
3.969669
3.565550
3.773570
3.745556
3.863573
3.565550
3.580451
3.504753
3.553629
3.822446
3.786683
3.700852
3.393888
3.565550
3.770590
3.370643
3.653765
##ZVALUE=270
0.807643
1.112819
1.074672
0.943542
1.182556
1.130700
0.951886
1.050830
1.296997
1.191497
1.461506
1.359582
1.385808
1.383424
1.648664
1.782775
2.589822
10.229945
29.815435
92.699528
175.596476
344.668627
506.039858
723.711848
858.938694
938.257575
911.213756
825.647712
649.691820
492.136478
291.918516
186.076760
93.084574
62.335730
62.016845
78.379512
107.577443
129.684806
149.508715
154.149532
149.169564
137.350559
112.682581
90.597868
62.576532
45.349598
30.545592
22.424459
17.873645
15.435815
14.627576
15.153885
14.570951
13.889670
14.094710
13.796687
13.730526
13.115406
13.223886
12.382865
12.585521
11.706948
11.498928
10.324717
10.716915
10.722876
9.857416
9.350777
9.160638
8.974671
9.401441
9.027719
8.887649
9.212494
8.620620
8.782744
7.671714
7.679462
7.349849
6.832480
5.856752
5.965829
5.654693
5.275607
4.903674
5.153418
4.804730
4.537702
4.652739
4.552603
4.366636
4.566908
4.154444
3.864765
3.826618
3.655553
3.821850
3.726482
3.765821
3.619790
3.754497
3.301501
3.564954
3.757477
3.645420
3.663898
3.654957
3.579855
3.594756
3.314614
3.696680
3.167987
3.473759
3.321767
3.259778
3.499985
##ZVALUE=275
1.051426
1.055598
0.985861
0.931621
1.295805
1.208782
1.243949
1.184940
0.969768
0.982881
1.134872
1.098514
1.299977
1.350641
1.211762
1.331568
1.360774
1.727939
1.757741
4.954934
17.693639
63.170791
133.545995
286.006927
441.579819
659.242868
798.716545
909.230709
963.222980
911.145806
761.928558
603.982806
388.105512
243.511796
118.386745
70.369840
50.403476
59.051514
83.247423
105.009675
130.219460
146.640539
155.670643
151.242614
136.272907
115.070939
86.366534
68.055987
45.316815
33.425689
23.138523
18.519759
16.062856
15.350580
14.688969
14.726520
13.301969
14.385581
13.513565
12.992620
13.173819
12.742877
12.005568
11.779666
10.632873
10.656714
10.831952
10.513663
9.690523
10.260940
9.648800
9.609461
9.075999
8.739829
8.608699
8.628964
7.688999
7.446408
7.362962
6.502867
6.563663
6.217957
5.698800
5.526543
5.461574
4.895926
4.533529
4.767776
4.567504
4.469752
4.245639
4.161596
4.124641
4.026890
4.100800
3.612638
3.937483
3.831983
3.788471
3.801584
3.696680
3.410578
3.736615
3.338456
3.407598
3.597736
3.481507
3.452897
3.280640
3.630519
3.520846
3.209710
3.399849
3.233552
3.211498
3.210902
##ZVALUE=280
0.964999
0.987649
0.919700
0.965595
0.964999
0.919700
1.092553
0.953674
1.074672
1.166463
1.111627
1.018643
1.287460
1.240969
1.140833
1.272559
1.302958
1.406670
1.504421
1.540780
1.863837
2.662539
9.544492
43.518543
100.391507
226.311684
355.565548
521.237850
738.629699
878.046751
981.542468
964.839458
845.936537
693.299770
459.942818
309.954882
159.737468
88.218451
46.620965
44.380426
59.864521
79.423785
108.292699
125.795603
146.868825
149.917603
145.630836
132.766962
108.260512
86.305737
61.828494
46.183467
30.318499
22.613406
17.124414
14.914870
13.967752
12.910962
12.872815
12.412667
11.821985
11.927485
11.820793
11.502504
10.908842
10.165572
9.952784
9.913445
9.802580
9.183884
9.143949
9.358525
9.064674
8.597970
8.843541
8.319616
7.972717
7.348657
6.709695
6.672740
6.289482
6.178617
5.875826
5.422831
5.080700
5.052686
4.690886
4.528761
4.722476
4.239678
4.199743
4.194975
4.096627
3.818870
3.655553
3.955960
4.004836
3.826618
3.733635
3.777742
3.659725
3.559589
3.672838
3.761649
3.371835
3.603697
3.735423
3.306866
3.500581
3.234744
3.466606
3.219843
3.219843
3.229976
3.329515
3.364682
##ZVALUE=285
0.891685
0.901818
0.918508
0.902414
0.854731
0.912547
0.963807
0.998974
1.147985
1.197457
1.021624
1.038909
1.102686
1.103878
1.088977
1.155734
1.181960
1.174808
0.992417
1.369715
1.312494
1.536608
1.589656
2.133846
4.235506
22.440553
56.130886
118.933916
261.970758
411.134958
648.506880
810.681581
959.979892
1000.503898
924.267769
795.964003
574.142933
399.327874
214.616656
124.488473
57.984591
36.687851
38.009882
51.274896
76.101422
98.684430
122.970939
136.647820
144.555569
143.067837
128.395557
109.993815
84.666610
64.850450
43.433905
30.506849
19.422770
14.667511
12.039542
11.540651
10.378957
10.569692
10.315776
10.013580
10.131598
9.801984
9.332895
9.233952
8.800626
8.788705
8.465648
8.801818
8.678436
8.346438
8.372664
8.024573
7.643700
7.176995
6.904602
6.418824
5.894899
5.805492
5.733967
5.465746
5.494952
5.043745
4.858971
4.823804
4.743934
4.517436
4.448891
4.154444
4.236698
4.049540
3.915429
3.784895
4.002452
4.123449
3.866553
3.569722
3.925562
3.891587
3.574491
3.821850
3.771782
3.599524
3.471971
3.461838
3.539920
3.606677
3.343821
3.150702
3.395677
3.407598
3.068447
3.344417
##ZVALUE=290
0.857711
0.946522
0.899434
0.817776
1.012683
0.855923
0.925660
0.968575
0.974536
0.991821
0.925660
1.200438
1.023412
1.086593
1.017451
1.061559
0.958443
1.126528
1.207590
1.192689
1.170635
1.263618
1.458526
1.493692
1.712441
1.953840
2.550483
6.946921
33.302903
78.129768
182.469487
311.051607
532.315969
712.814927
911.307931
987.998843
972.885489
876.263976
668.278933
497.739911
288.117528
171.196461
74.963570
39.666891
25.296807
31.395555
48.830509
64.651966
92.862844
113.077760
132.047534
138.292909
135.135651
125.657916
102.754831
83.791614
56.760907
42.067766
27.067661
18.820763
12.161732
9.866953
8.613467
8.027554
7.971525
8.161664
8.028746
8.070469
7.469654
7.530451
7.639527
7.536411
7.739663
7.298589
7.277727
6.872416
6.352663
6.498694
6.163716
5.992651
5.577803
5.493760
5.503893
5.307794
4.992485
4.891753
4.728436
4.563928
4.756451
4.335642
4.424453
4.304647
3.984571
3.869534
3.815889
3.962517
3.863573
4.055500
4.022717
3.919601
3.670454
3.811717
3.621578
3.731847
3.827810
3.703833
3.335476
3.653765
3.507733
3.636479
3.237724
3.625751
3.171563
3.314614
3.312826
3.364682
##ZVALUE=295
0.760555
0.808835
0.859499
0.917912
0.919700
0.802875
0.790954
0.831485
0.750422
1.012683
0.971556
0.872612
0.848770
0.977516
0.937581
1.008511
1.094937
1.001954
0.905991
1.042485
1.201630
1.136661
1.229644
1.244545
1.340508
1.434684
1.510978
1.696944
2.167821
3.257990
14.814734
42.799711
122.796893
237.823725
453.049541
633.745790
860.193968
982.281566
1014.433503
951.373577
767.889619
597.404838
369.870663
230.627656
104.877949
51.877499
23.337603
20.337701
29.388666
41.702986
64.762831
83.251595
107.756853
122.342706
131.563544
129.578710
114.324689
100.484490
77.152848
58.696866
37.625432
25.069714
15.128851
10.949969
7.888675
6.737709
6.390810
6.397963
6.681681
6.429553
6.333590
6.698966
6.713867
6.635785
6.093979
6.174445
5.878806
5.840659
5.595684
5.438924
4.825592
5.072951
5.006790
4.930496
4.354715
4.572868
4.650950
4.249811
4.388690
4.258752
4.100800
3.930926
4.043579
4.056692
3.757477
3.662705
3.668666
3.715754
3.743768
3.734827
3.685951
3.740788
3.546476
3.684759
3.535748
3.739595
3.635883
3.613830
3.415942
3.354549
3.620982
3.767610
3.330708
3.157854
3.259778
3.273487
##ZVALUE=300
0.731945
0.713468
0.877976
0.652671
0.866652
0.642538
0.818968
0.780821
0.711679
0.915527
0.767708
0.810623
0.819564
0.918508
0.830889
0.784993
0.863671
1.065731
0.891685
1.018643
1.139641
0.946522
1.132488
1.083612
1.246929
1.226664
1.314878
1.382828
1.519918
1.599789
1.711845
2.017617
6.376505
23.597479
82.997680
160.341859
335.160494
508.700609
755.267739
902.806520
995.413661
984.053612
880.921483
671.857595
491.026640
268.581510
160.825849
71.717501
36.047697
17.602444
17.261505
23.519993
39.273500
54.415464
78.595877
96.021891
115.516782
122.021437
121.316910
112.590790
93.724728
78.165531
53.412914
39.249659
23.571849
16.023517
9.197593
7.082820
5.814433
5.461574
5.269647
5.573630
5.330443
5.922914
5.476475
5.536675
5.228519
5.030632
5.148649
4.809499
4.654527
4.576445
4.701614
4.210472
4.219413
4.100800
4.220605
4.016757
4.012585
4.126430
3.838539
3.665686
3.861785
3.974438
3.313422
3.619790
3.678799
3.880858
3.615618
3.858805
3.560781
3.605485
3.829598
3.666878
3.470778
3.754497
3.627539
3.591776
3.615618
3.489852
3.553629
3.523827
3.382564
3.413558
3.310442
3.425479
##ZVALUE=305
0.724792
0.825524
0.705719
0.832677
0.527501
0.818968
0.777841
0.873804
0.807643
0.790954
0.729561
0.740886
0.851750
0.831485
0.869632
0.730753
0.895858
1.022816
0.822544
0.997782
1.009703
0.943542
1.039505
0.999570
1.038909
1.016855
1.072884
1.143813
1.128912
1.362562
1.377463
1.536608
1.402497
1.766682
2.999902
16.299486
45.269728
132.996440
236.038566
435.346961
608.545542
821.712613
937.686563
979.251862
916.857719
735.600591
563.161969
346.807837
218.071938
100.683570
50.614476
18.547773
12.207627
15.891790
22.641420
38.688779
53.168535
75.689554
92.181563
108.909607
116.284490
114.697814
106.192827
90.699792
72.499514
51.496625
36.362410
21.327734
14.125705
8.803606
6.858706
5.775690
5.281568
5.017519
4.779696
5.122423
4.855990
4.760623
4.597902
4.292727
4.468560
4.343987
4.123449
4.339814
4.108548
4.157424
3.797412
3.985763
3.839731
3.797412
3.603697
3.592968
3.491640
3.249645
3.314614
3.415942
3.501773
3.388524
3.357530
3.454685
3.458858
3.547668
3.467798
3.564954
3.597736
3.511906
3.638864
3.348589
3.438592
3.503561
3.405809
3.445745
3.501773
3.311634
3.667474
3.156662
##ZVALUE=310
0.749826
0.716448
0.734925
0.797510
0.772476
0.739694
0.567436
0.670552
0.818968
0.817776
0.644922
0.756979
0.721812
0.814795
0.831485
0.786781
0.849962
0.843406
0.879765
0.845790
0.828505
0.957847
0.878572
0.844598
0.993609
1.096725
1.003742
0.951886
1.176596
1.050830
1.115799
1.245737
1.384616
1.494884
1.502633
1.602769
2.271533
5.476475
28.040409
70.176721
145.739913
311.470628
478.897691
710.473657
860.138535
972.553492
961.994529
839.945674
689.131021
511.586666
297.490954
174.260736
75.246692
34.398437
12.872815
10.527968
13.737679
19.728541
32.134652
45.265555
65.349936
82.092881
98.053813
106.885433
108.283758
102.375746
86.172819
71.003437
49.327612
35.059452
21.362901
14.845729
8.531809
6.588697
5.332828
4.562736
4.219413
3.873706
3.765821
3.877878
3.893971
3.538728
3.621578
3.682971
3.557801
3.643632
3.700852
3.715754
3.139973
3.375411
3.504753
3.354549
3.494620
3.317595
3.249645
3.034472
3.346801
3.369451
3.021955
3.117919
3.113747
3.252625
3.216863
3.090501
3.361702
3.338456
3.327727
3.071427
3.235936
3.038645
3.210902
3.005862
3.108978
3.178716
2.822876
2.971888
##ZVALUE=315
0.690818
0.733733
0.761747
0.632405
0.791550
0.724792
0.746846
0.689626
0.474453
0.648499
0.833869
0.737906
0.703931
0.847578
0.672936
0.806451
0.733733
0.897646
0.781417
0.751615
0.577569
0.889897
0.907779
0.843406
0.947714
0.983477
0.899434
0.974536
1.048446
1.276731
0.983477
1.091957
1.156926
1.185536
1.264811
1.416802
1.642704
1.549721
1.658797
2.849698
14.225841
40.776730
119.741559
220.126510
419.667959
595.782995
804.257989
919.328928
970.304608
907.585621
741.998553
576.495528
358.791947
225.314498
104.257464
49.750805
16.222000
9.123683
9.188652
11.570454
19.005537
27.535558
43.520927
57.866573
78.523755
92.142820
101.507902
101.404786
94.785690
82.083941
62.837601
48.973560
32.608509
22.092462
13.247728
8.579493
5.268455
4.287958
3.589988
3.509521
3.329515
3.320575
3.228784
3.121495
3.047585
3.144741
3.246665
3.165603
3.159642
3.225803
2.917647
2.895594
3.105998
2.969503
2.766848
2.903938
2.724528
2.728701
2.866983
2.830625
2.752542
2.736449
3.009439
3.029704
2.859831
3.046989
2.923608
3.033876
3.056526
2.715588
3.089905
2.744794
2.691746
2.768636
2.993941
2.662539
##ZVALUE=320
0.707507
0.774860
0.458956
0.719428
0.635982
0.856519
0.685453
0.698566
0.787973
0.778437
0.898838
0.868440
0.765920
0.560880
0.718832
0.730753
0.781417
0.821948
0.773668
0.765920
0.806451
0.892878
0.943542
0.762939
0.912547
0.889897
0.970960
0.797510
0.895858
1.115799
0.881553
1.012683
0.957847
1.129508
1.092553
1.034737
1.017451
1.106858
1.354814
1.531839
1.494884
1.919866
4.568696
26.369691
68.283677
180.257559
302.279592
505.585670
688.908696
846.230984
971.350670
971.761942
846.668482
686.542988
452.630520
297.258496
143.500566
73.434711
25.846958
11.993647
7.636547
8.015633
10.613799
15.398860
26.239753
36.541820
55.841804
69.712996
87.080002
94.834566
96.482635
91.056824
77.219605
62.876940
45.829415
33.490658
20.099878
12.774467
7.450581
5.029440
3.555417
3.105998
2.831817
2.879500
2.806783
2.746582
2.686977
2.656579
2.667904
2.622604
2.637506
2.515912
2.611876
2.499819
2.605915
2.491474
2.459884
2.588630
2.695918
2.706647
2.747774
2.675653
2.528429
2.411604
2.507567
2.500415
2.418756
2.485514
2.540946
2.687573
2.515912
2.560616
2.748966
2.547503
2.621412
2.425909
##ZVALUE=325
0.610948
0.677705
0.615716
0.562668
0.635982
0.656843
0.682473
0.700951
0.761747
0.667572
0.673532
0.564456
0.550747
0.701547
0.610948
0.707507
0.832677
0.695586
0.700951
0.740886
0.792742
0.711679
0.966787
0.824928
0.966787
0.852942
0.784993
0.755787
0.774860
0.889897
0.870824
0.736713
0.845790
0.947714
1.062751
1.046658
0.963807
1.117587
1.239777
1.331568
1.310706
1.400709
1.565814
1.608729
3.695488
13.353825
52.113533
111.820698
251.757503
398.696661
619.356632
775.290728
912.953019
944.751501
863.408446
729.362965
501.274467
344.714522
183.925629
100.964904
37.845969
15.815496
7.416606
6.701946
7.315874
9.623766
15.091896
22.980571
38.199425
52.799582
70.245862
80.129504
89.823604
89.174509
82.208514
72.826743
56.404471
42.687654
27.654767
18.587708
10.369420
6.791949
4.387498
3.305674
2.867579
2.641678
2.431870
2.559423
2.368689
2.400875
2.648830
2.252460
2.265573
2.439618
2.579689
2.621412
2.340674
2.374649
2.370477
2.497435
2.365708
2.330542
2.294779
2.211928
2.353787
2.381802
2.356768
2.418756
2.295971
2.451539
2.349615
2.306700
2.445579
2.151728
2.300739
2.166629
##ZVALUE=330
0.545979
0.508428
0.553727
0.510812
0.492930
0.670552
0.641942
0.719428
0.476837
0.680685
0.860691
0.696778
0.620484
0.678897
0.597835
0.728965
0.572801
0.622869
0.654459
0.652671
0.740886
0.782609
0.695586
0.753999
0.750422
0.767708
0.801682
0.743866
0.898838
0.796914
0.829697
0.858903
0.927448
0.833869
1.004934
0.936985
0.938773
0.998974
1.048446
1.013875
1.247525
1.127720
1.169443
1.485944
1.531839
1.402497
2.119541
7.500648
25.522709
65.361857
168.938637
291.333795
504.253507
671.843886
850.609541
914.301872
884.178877
778.815746
579.694510
425.398946
236.750841
135.293007
55.384636
25.053620
8.737445
6.361604
5.989671
6.518960
9.533763
14.046431
22.804737
32.744408
49.256682
62.298775
74.741840
82.388520
83.190799
78.437924
65.362453
53.456426
37.182570
27.430654
17.094612
11.667609
6.644726
4.822612
3.227592
2.754927
2.601743
2.357960
2.212524
2.200603
2.070665
2.328753
2.308488
2.033710
2.392530
2.338886
2.313852
2.213717
2.212524
2.322793
2.312660
2.332926
2.500415
2.298951
2.284646
2.146959
2.155900
2.261996
2.221465
2.248883
2.247691
2.187490
2.119541
2.135634
##ZVALUE=335
0.640750
0.602603
0.667572
0.655651
0.733733
0.426769
0.573993
0.504851
0.653863
0.572801
0.577569
0.742674
0.649691
0.670552
0.737906
0.634789
0.657439
0.722408
0.634789
0.621676
0.627637
0.595450
0.783801
0.791550
0.839829
0.750422
0.681877
0.793934
0.754595
0.727773
0.920892
0.703931
0.716448
0.942945
0.927448
0.876784
0.806451
1.017451
0.958443
1.114607
0.907779
1.150966
1.146793
1.208782
1.252890
1.324415
1.345873
1.460910
1.725554
3.169775
17.597675
49.062967
135.536790
237.699747
427.151918
595.563650
793.159604
884.707570
901.051760
832.290649
658.911467
493.685603
289.542675
177.497864
78.154802
35.996437
11.817813
6.638765
5.772710
5.743504
6.711483
8.625984
13.442636
20.320415
32.437444
43.737888
60.072541
69.698691
76.999664
77.670813
71.006417
63.233972
49.722791
38.454533
26.424527
19.040704
10.971427
7.175803
4.451871
3.348589
2.412796
2.343655
2.208948
2.081990
2.105832
2.063513
2.047420
2.231598
2.149940
2.034903
2.078414
2.237558
2.043843
2.178550
2.120733
2.201796
2.013445
2.104640
1.985431
2.110600
2.110600
1.917481
2.154708
1.940727
2.000928
1.988411
##ZVALUE=340
0.655651
0.579953
0.802875
0.620484
0.576973
0.573993
0.599623
0.626445
0.563860
0.623465
0.619888
0.625849
0.656843
0.480413
0.573993
0.628829
0.598431
0.685453
0.554919
0.640750
0.525713
0.703931
0.551939
0.660419
0.619888
0.685453
0.602603
0.672936
0.781417
0.563860
0.888705
0.897646
0.841618
0.816584
0.646710
0.912547
0.834465
0.905991
0.856519
0.966787
1.066923
0.876784
0.932813
1.061559
1.048446
1.093745
1.297593
1.134872
1.313686
1.394749
1.524687
1.917481
7.565618
27.565956
97.946525
194.506645
385.619998
544.762015
738.894939
849.252939
908.997655
865.852833
719.525814
567.708611
354.758501
221.699476
102.532506
49.522519
14.757514
7.260442
5.888939
5.396605
5.366802
5.886555
8.444786
11.775494
20.075440
29.343963
43.666959
54.141879
66.270828
71.428418
72.470903
68.274736
60.042739
49.935579
36.055446
26.685596
16.590953
11.224747
6.743670
4.425645
3.158450
2.603531
2.330542
2.305508
2.047420
2.167821
1.991987
1.986623
1.831651
2.162457
2.076626
2.178550
2.124906
2.043843
2.141595
2.032518
2.090931
2.129674
1.881719
1.999736
1.980662
1.955628
2.078414
1.812577
##ZVALUE=345
0.589490
0.658631
0.640750
0.559688
0.604987
0.602603
0.515580
0.537634
0.592470
0.586510
0.771880
0.617504
0.609756
0.598431
0.611544
0.669956
0.589490
0.673532
0.637770
0.628829
0.602603
0.650883
0.624657
0.654459
0.643730
0.614524
0.807643
0.687838
0.726581
0.708699
0.768900
0.742674
0.688434
0.846982
0.677705
0.760555
0.727773
0.589490
0.767708
0.779629
0.844598
0.856519
0.924468
0.933409
1.003742
0.846982
1.095533
1.108646
1.043677
1.126528
1.156926
1.352429
1.445413
1.604557
3.700852
13.792515
59.021711
125.127435
270.968676
416.828990
637.205839
783.581734
886.235833
888.320804
780.704618
641.290545
432.889462
281.989574
130.509734
63.865781
22.124648
10.218620
5.837679
5.232692
5.036592
4.944801
5.286932
7.113814
11.775494
17.236471
27.509928
37.292838
49.638748
57.971478
64.995885
66.492558
63.092709
57.569742
46.314001
36.774874
24.939775
17.900467
10.582805
7.111430
4.789829
3.392696
2.615452
2.522469
2.171993
2.143979
1.953840
2.023578
1.978874
1.974702
1.981854
1.977682
2.057552
2.030730
2.112985
2.018809
2.187490
2.085567
1.994967
2.049804
1.953840
2.082586
##ZVALUE=350
0.546575
0.508428
0.564456
0.541806
0.618696
0.683665
0.495911
0.597835
0.643730
0.605583
0.563860
0.503659
0.682473
0.694990
0.506639
0.810623
0.617504
0.740886
0.703931
0.595450
0.735521
0.471473
0.535846
0.641942
0.560880
0.761747
0.743866
0.730753
0.647902
0.827909
0.720620
0.673532
0.786781
0.599623
0.888705
0.747442
0.739694
0.771880
0.640750
0.831485
0.774860
0.921488
0.946522
0.849962
0.885725
0.863671
0.975728
0.792742
0.844598
0.855923
1.135468
1.226664
1.284480
1.378655
1.378655
1.619458
2.201796
7.250905
36.677718
86.437464
211.270452
350.638628
570.470691
727.501512
868.351460
898.373723
831.019878
708.274841
481.267571
325.525999
171.358585
91.821551
31.955838
13.734698
6.416440
5.081892
4.569888
4.301667
4.146695
4.755855
6.926656
9.647608
16.150475
22.821426
33.465624
42.602420
53.425431
58.921576
61.930418
59.438944
52.648783
44.615865
33.729672
25.316477
16.149879
11.759996
6.891489
5.016923
3.531575
2.762675
2.321601
2.306700
1.981854
1.981854
1.915693
1.911521
2.068877
2.043843
1.911521
1.930594
1.848936
1.890659
1.928806
1.937747
1.905560
1.982450
##ZVALUE=355
0.564456
0.609756
0.820756
0.502467
0.575781
0.539422
0.562668
0.624657
0.431538
0.503659
0.464916
0.390410
0.588894
0.556707
0.620484
0.561476
0.563860
0.816584
0.713468
0.658631
0.796914
0.560880
0.752807
0.713468
0.611544
0.649691
0.689626
0.605583
0.621676
0.677705
0.650883
0.789762
0.602603
0.739694
0.629425
0.666976
0.720620
0.789762
0.748634
0.877976
0.709891
0.798702
0.869632
0.839829
0.702739
0.878572
0.888705
1.004934
1.074672
0.929832
1.063943
1.034737
1.123548
1.174808
1.308918
1.325607
1.449585
1.402497
1.735687
3.284812
18.653870
53.969622
154.859424
281.050801
513.662696
692.169666
869.784951
933.203697
885.234475
763.219595
563.562512
401.927829
213.750601
117.183924
48.344731
20.720959
7.117987
5.145669
4.630685
4.283786
3.926754
3.816485
4.430413
5.798936
8.987784
12.714863
20.888448
27.976632
38.534999
45.759678
52.682757
55.147409
54.245591
50.014853
41.176677
33.606887
23.921728
17.941594
11.842847
8.315444
4.981756
3.657937
2.709627
2.227426
2.063513
2.083778
2.008677
2.098680
1.945496
1.887679
1.976490
1.822710
1.933575
1.945496
1.684427
1.753569
##ZVALUE=360
0.609756
0.507832
0.584722
0.529885
0.585914
0.546575
0.533462
0.741482
0.540614
0.649691
0.506639
0.647902
0.637770
0.637770
0.653863
0.573993
0.743866
0.497699
0.647902
0.716448
0.694990
0.719428
0.662804
0.840425
0.753999
0.830889
0.610948
0.679493
0.573993
0.747442
0.772476
0.900626
0.654459
0.798702
0.649691
0.709891
0.863671
0.689626
0.725985
0.768900
0.791550
0.809431
0.751615
0.861883
0.843406
0.831485
0.970960
0.952482
0.966787
1.085997
0.942945
1.001954
1.029968
1.130700
1.018643
1.157522
1.190901
1.246929
1.527667
1.411438
1.657605
2.059937
8.583665
25.854707
89.511871
182.994604
388.178825
584.890842
844.165683
965.901017
978.468657
885.039568
680.860877
496.991873
286.120772
167.157650
71.128607
30.687451
9.498000
5.450845
4.500747
4.214644
3.918409
3.620982
3.679991
3.748536
4.989505
6.712675
10.877848
15.665889
24.270415
31.459928
40.077567
46.483874
50.387979
49.740672
46.890974
41.653514
32.909513
26.419759
18.384457
12.919903
8.038878
5.658865
3.557801
2.835989
2.379417
2.288818
1.964569
2.023578
1.918674
1.828671
1.774430
1.886487
1.888871
1.738667
##ZVALUE=365
0.571609
0.550747
0.619888
0.650883
0.592470
0.722408
0.684857
0.635982
0.531673
0.548959
0.592470
0.517964
0.627637
0.702739
0.588894
0.657439
0.562668
0.608563
0.645518
0.611544
0.763535
0.513792
0.786781
0.581741
0.712872
0.740886
0.677705
0.788569
0.734925
0.766516
0.738502
0.801682
0.626445
0.740886
0.774860
0.785589
0.839829
0.677705
0.703931
0.858903
0.774860
0.717640
0.794530
0.890493
0.977516
0.837445
0.957847
0.949502
0.864863
0.974536
1.002550
0.938773
0.860691
0.862479
0.919700
1.047850
1.016855
1.147985
1.042485
1.249909
1.353621
1.487732
1.612902
1.692772
3.815889
12.295842
49.108863
111.743808
272.264481
450.782776
705.940723
859.823823
961.670876
939.210653
776.159763
595.342517
351.141691
206.887722
89.768767
44.045448
14.471412
6.779432
4.547834
4.208684
3.777742
3.817677
3.441572
3.242493
3.355742
4.084706
5.815625
8.593798
13.913512
19.043684
27.780533
34.116507
40.726662
44.264793
45.964718
44.725537
39.405823
33.568740
26.091933
20.017624
13.186932
9.172559
5.728602
3.807545
2.917647
2.236962
2.242923
1.870990
1.815557
1.666546
1.781583
1.612902
##ZVALUE=370
0.550747
0.603795
0.517964
0.642538
0.632405
0.507832
0.480413
0.446439
0.426769
0.638962
0.661612
0.675917
0.747442
0.734925
0.714660
0.596642
0.638962
0.693798
0.639558
0.667572
0.651479
0.627637
0.626445
0.592470
0.667572
0.615716
0.639558
0.655651
0.756979
0.817776
0.866652
0.697970
0.809431
0.718832
0.682473
0.759959
0.706911
0.823736
0.708699
0.668764
0.714660
0.772476
0.655651
0.744462
0.640750
0.897646
1.015663
0.802875
0.919700
0.852942
0.827909
0.791550
0.934601
0.899434
0.816584
0.929832
0.772476
1.134872
0.755787
0.940561
1.097918
1.072884
1.277924
1.329780
1.449585
1.614690
2.124906
6.922483
33.915639
81.204772
194.633603
319.538713
531.358719
707.626939
872.414708
910.190940
811.107755
653.725863
417.864919
265.554786
126.374960
64.765811
23.256540
9.580851
4.609823
4.079938
3.790855
3.302693
3.079772
2.943873
2.966523
3.010631
3.720522
4.988909
7.641912
11.030436
16.997457
22.844672
31.170845
37.059784
42.130947
44.075847
42.639971
39.631724
33.222437
27.086735
19.315481
13.548732
9.656549
6.379485
4.416704
3.100634
2.534986
1.895428
1.800656
1.729727
##ZVALUE=375
0.612736
0.498891
0.513792
0.467896
0.566840
0.545979
0.618696
0.738502
0.601411
0.625849
0.509620
0.462532
0.718832
0.626445
0.551939
0.686646
0.543594
0.511408
0.579953
0.687838
0.606775
0.682473
0.587702
0.674725
0.714660
0.543594
0.593662
0.477433
0.727773
0.632405
0.573993
0.737906
0.617504
0.663996
0.740886
0.643730
0.624657
0.791550
0.670552
0.744462
0.884533
0.546575
0.652671
0.876784
0.719428
0.750422
0.706911
0.758767
0.797510
0.790954
0.752807
0.744462
0.857711
0.925660
0.823736
0.745654
0.826716
0.857711
0.809431
0.970960
1.004934
0.963807
0.923872
1.152754
1.180768
1.128912
1.305938
1.415610
1.774430
3.816485
17.733574
48.368573
133.213997
234.820843
412.465930
570.081472
760.570765
847.914815
830.330849
721.745491
509.151816
352.708697
188.008547
103.107691
39.543509
17.305613
6.015897
4.055500
3.497601
3.441572
3.200769
3.060699
2.700686
2.722740
2.727509
3.036857
4.008412
5.490780
8.970499
12.727976
19.537807
25.862455
33.393502
37.400723
40.845871
40.913820
38.066506
32.897592
27.942657
22.381544
15.139580
11.336803
6.959438
5.166531
3.483891
2.523661
##ZVALUE=380
0.579953
0.557899
0.557899
0.558496
0.635982
0.499487
0.621676
0.491738
0.532866
0.537634
0.567436
0.479817
0.445843
0.678897
0.584722
0.609756
0.651479
0.571609
0.628829
0.562668
0.544786
0.656843
0.629425
0.718832
0.635982
0.583529
0.781417
0.759959
0.816584
0.704527
0.588894
0.636578
0.574589
0.731945
0.567436
0.575781
0.607967
0.677705
0.584722
0.653863
0.685453
0.730753
0.603795
0.525713
0.517964
0.682473
0.666976
0.757575
0.913739
0.747442
0.766516
0.762939
0.774860
0.691414
0.833869
0.843406
0.765920
0.773668
0.863671
0.877976
0.826716
0.932813
0.790954
0.998974
1.042485
1.015663
1.107454
1.229644
1.529455
1.648664
1.670718
2.362728
10.406971
32.168627
97.461939
182.863474
355.792642
509.573817
692.989826
786.211491
803.599954
743.110776
579.556823
433.412790
249.038935
144.456625
59.019923
26.599765
8.111596
4.322529
3.355742
3.243685
3.179908
2.938509
2.902746
2.574921
2.499819
2.641678
2.571940
3.457665
5.247593
7.623434
12.182593
16.732812
24.011731
30.991435
35.422444
38.628578
38.981438
37.204623
34.014583
27.534962
22.911429
16.462803
12.335777
7.570982
##ZVALUE=385
0.595450
0.424981
0.615716
0.631809
0.601411
0.507832
0.601411
0.699759
0.586510
0.469685
0.699759
0.586510
0.590682
0.634789
0.688434
0.658631
0.626445
0.486970
0.532866
0.503659
0.535846
0.480413
0.393987
0.556707
0.501871
0.416636
0.586510
0.472665
0.520945
0.536442
0.631809
0.674725
0.725985
0.642538
0.691414
0.712872
0.658631
0.560880
0.669956
0.682473
0.595450
0.548959
0.650883
0.765920
0.674725
0.783801
0.720620
0.718832
0.812411
0.700951
0.828505
0.697970
0.642538
0.654459
0.704527
0.830889
0.787973
0.772476
0.822544
0.797510
1.005530
0.943542
0.893474
0.819564
1.097918
1.029968
1.034737
1.000762
1.188517
1.231432
1.194477
1.428723
1.527667
1.656413
4.579425
16.065836
60.212612
128.937960
274.640918
414.686799
602.636933
710.179806
771.311522
747.286677
634.315014
506.175756
318.710804
201.178789
90.511441
44.115782
14.288425
5.962849
3.563762
3.253818
2.985597
2.972484
2.845526
2.751946
2.783537
2.548695
2.512932
2.456903
2.980828
4.124641
6.489754
9.341836
14.475584
20.592809
25.624633
30.248761
34.407973
35.962462
35.465956
32.938719
27.571917
21.782517
##ZVALUE=390
0.475645
0.434518
0.433922
0.421405
0.531673
0.495911
0.584722
0.481606
0.589490
0.696778
0.644922
0.545979
0.569820
0.396967
0.670552
0.478625
0.464916
0.419617
0.558496
0.442863
0.513792
0.613928
0.529885
0.606775
0.520945
0.598431
0.635982
0.517964
0.545979
0.558496
0.447631
0.551939
0.614524
0.652671
0.713468
0.623465
0.620484
0.633597
0.696778
0.644922
0.738502
0.721812
0.828505
0.755787
0.641942
0.786781
0.728965
0.838637
0.626445
0.612736
0.778437
0.705719
0.748634
0.714660
0.679493
0.795722
0.691414
0.839829
0.858903
0.925660
0.848770
0.842810
0.780821
0.839829
0.808835
0.793934
0.793934
0.926852
1.109838
1.149774
1.202822
1.341701
1.320839
1.367927
1.405478
1.387596
2.578497
9.079576
41.539669
95.265508
216.856599
341.040492
514.650941
631.910563
739.431977
758.758783
685.117841
579.325557
400.827527
271.696448
137.551427
69.669485
24.181604
9.418726
4.115701
3.355742
3.166795
2.997518
2.977848
2.819896
3.112555
2.882481
2.451539
2.198815
2.297759
2.899766
3.682971
5.525947
8.006692
11.133552
16.541481
21.006465
26.964545
30.743480
33.489466
33.780932
##ZVALUE=395
0.673532
0.495911
0.570416
0.483990
0.478625
0.494719
0.486970
0.568628
0.538826
0.519753
0.412464
0.611544
0.576973
0.531673
0.607967
0.588894
0.566840
0.635982
0.612736
0.577569
0.588894
0.572801
0.551939
0.525713
0.504851
0.493526
0.596642
0.695586
0.616908
0.447631
0.633597
0.735521
0.741482
0.658631
0.815988
0.834465
0.773668
0.822544
0.703931
0.706911
0.745654
0.666976
0.787973
0.636578
0.719428
0.719428
0.849962
0.903606
0.827909
0.810623
0.740886
0.801682
0.865459
0.807643
0.809431
0.837445
0.800490
0.920892
0.805855
0.846982
0.650883
0.883937
0.826716
0.717640
0.914931
0.923872
1.029968
1.029968
1.083612
1.145601
1.254678
1.192689
1.099706
1.124740
1.051426
1.193881
1.137853
1.286864
1.679659
5.003810
26.976466
65.872669
155.648589
260.503888
435.395837
570.254922
711.516738
761.681795
731.514692
643.196702
478.268862
336.876512
182.240009
98.457932
36.401749
15.745759
5.326867
3.543496
3.223419
3.261566
3.369451
3.309846
2.903938
2.872944
2.779961
2.659559
2.488494
2.412796
2.339482
3.230572
4.146695
6.653666
9.319782
14.488697
18.507838
24.530888
##ZVALUE=400
0.732541
0.644922
0.724792
0.446439
0.681877
0.656843
0.586510
0.576973
0.686646
0.546575
0.430942
0.554919
0.547767
0.477433
0.431538
0.431538
0.492930
0.660419
0.624657
0.653863
0.566840
0.542998
0.632405
0.621676
0.574589
0.612736
0.680685
0.451803
0.612736
0.388622
0.707507
0.647902
0.716448
0.750422
0.726581
0.794530
0.655651
0.765920
0.773668
0.889897
0.614524
0.931621
0.828505
0.795722
0.803471
0.676513
0.691414
0.588894
0.795722
0.650883
0.838637
0.943542
0.937581
0.726581
0.824928
0.842810
0.814795
1.033545
0.786781
0.851750
0.740886
0.850558
0.707507
0.835657
0.981688
0.867844
0.910759
1.097918
1.158714
1.087785
1.133680
1.083612
1.208782
1.144409
1.122952
1.102686
1.313686
1.150966
1.243949
1.246929
1.591444
2.917647
14.916658
42.895675
119.941831
212.492943
383.939743
518.629551
678.235888
742.831826
742.144585
670.735836
515.630841
378.858447
220.319629
132.251978
57.254434
27.250648
9.322762
4.522800
3.250837
3.270507
2.996922
3.153682
3.090501
3.101826
2.870560
3.065467
2.563000
2.362728
2.356768
2.106428
2.737641
3.764629
5.550981
8.532405
##END
