##TITLE=14-2
##FORMAT=SPECTACLE-ASCII V-1.2
##DATA TYPE=ULTRAVIOLET SPECTRUM
##SECOND TYPE=ULTRAVIOLET SPECTRUM
##DATE=04/11/18
##TIME=10:42:08
##SPECTROMETER/DATA SYSTEM=SPECTACLE
##XUNITS=NM EM
##YUNITS=ENERGY
##YFACTOR=1
##FIRSTX=220
##LASTX=450
##NPOINTS=116
##3DDATA=Equidistant
##ZUNITS=NM EX
##FIRSTZ=210
##LASTZ=400
##ZPOINTS=39
##XYDATA=(Y..Y)
##ZVALUE=210
14.346838
13.634562
12.981892
12.495518
11.467934
9.448528
9.523630
7.905960
6.731749
4.809499
4.404783
2.852678
2.772808
2.318621
1.885891
2.187490
2.413988
2.499819
2.847910
2.441406
3.147721
3.004670
3.539920
2.898574
3.110766
3.335476
3.801584
3.662705
3.801584
4.710555
4.647970
4.441738
4.330873
4.427433
4.311800
5.393624
4.956722
5.316734
5.565882
5.306602
6.475449
5.243421
6.138682
5.895495
5.544424
6.282926
6.418824
6.099939
6.379485
6.943941
7.165670
6.647706
6.161928
7.094741
7.889867
6.305575
7.388592
6.996989
7.807612
6.975532
6.281734
6.746650
7.011890
6.648898
6.695986
6.413460
6.813407
7.190704
8.032918
8.171797
8.786917
9.800792
10.693669
11.882782
12.502670
12.609959
12.225509
12.586713
11.953712
11.622906
10.189414
9.713769
9.315610
7.972717
7.408857
6.556511
5.561709
6.114841
6.407499
7.613897
8.749962
9.494424
13.237000
18.876791
24.146438
29.355884
31.977892
38.433671
43.873787
47.902465
47.571659
50.132871
50.395727
47.957897
46.394467
43.530464
39.442778
36.847591
33.417940
27.762651
23.824573
20.727515
15.746951
15.563965
12.962818
13.416409
##ZVALUE=215
36.106706
36.692619
29.561520
24.701953
18.894672
18.746853
16.007423
16.025901
15.493631
12.837648
11.344552
8.675456
6.269813
4.342794
3.649592
3.111959
3.141761
2.651811
2.622604
2.858639
2.691746
2.946854
3.114939
2.917647
3.474951
3.885627
3.294945
3.897548
3.831983
4.347563
4.861951
4.843473
5.161762
5.419850
5.189776
5.325675
5.551577
6.609559
6.424785
6.825924
6.510615
7.050633
6.799698
7.312894
5.997419
7.460713
8.245707
7.559657
7.703900
7.424951
8.719563
8.175969
9.893775
9.157658
8.986592
9.145737
8.623600
8.399487
10.292530
8.947849
9.467602
9.494424
8.390546
9.255409
8.811951
9.125471
9.189844
8.582473
9.074807
9.733438
9.462833
10.252595
12.272000
11.368990
12.214780
13.698936
13.059974
13.078451
13.093948
11.453629
10.162592
9.913445
8.618832
7.602572
6.633997
5.803704
5.570650
5.618930
5.346537
5.337596
4.917979
4.646778
5.660653
6.001592
7.443428
11.038780
13.137460
19.583702
25.784969
29.811859
39.311647
48.067570
55.174828
63.973665
69.407821
70.889592
73.504448
73.759556
73.237419
69.638491
68.683624
61.227679
55.418611
44.361949
40.138960
30.076504
##ZVALUE=220
82.203746
81.458688
79.521537
68.583488
59.973598
44.406652
36.627650
30.024648
26.929975
25.079846
24.821758
23.846626
20.379424
16.696453
14.325976
10.493994
7.250905
5.374551
3.411770
3.370643
3.479719
3.554821
3.136992
3.758669
4.059672
4.210472
3.570914
4.461408
4.889965
4.200935
5.213618
4.519820
6.182790
5.999804
5.990863
7.684827
7.723570
6.832480
8.453727
8.685589
8.262992
8.580685
8.505583
8.597970
8.404851
9.226799
9.024739
9.317994
9.254813
10.824800
11.174679
11.022687
12.100935
12.158751
11.909604
12.265444
12.193918
11.659861
12.511611
12.671947
12.061596
11.174679
11.291504
11.522770
10.822415
10.393858
11.418462
11.397600
11.157990
11.029840
11.137724
13.214946
12.450814
12.911558
13.815761
13.502836
13.777614
13.044477
12.701750
10.655522
10.969639
9.346604
8.716583
8.453727
8.331537
6.777644
6.510615
5.229712
5.529523
5.050898
4.730821
5.215406
5.510449
5.039573
4.283786
4.698634
4.967451
5.669594
8.071661
8.496642
12.493730
16.526580
24.891496
31.338930
45.235753
54.448843
65.701604
80.651641
88.733435
103.376508
107.606649
116.758943
115.195513
113.855600
105.105639
96.869469
##ZVALUE=225
104.350448
104.852915
122.668743
135.226846
136.926770
127.902627
110.928416
79.958439
61.135888
46.963692
41.160583
38.934946
39.303899
41.787624
37.071705
32.365918
27.328730
19.830465
15.207529
9.836555
6.384850
4.798770
4.333854
3.591776
4.554987
3.561974
4.567504
4.212856
4.964471
5.087852
5.318522
6.069541
5.783439
5.707741
6.700754
7.196665
7.489920
7.601976
8.873940
9.447932
8.839965
9.416938
9.249449
10.555983
9.892583
10.838509
9.903908
11.408925
10.690689
11.590719
12.915730
13.682842
14.095902
14.243722
14.831424
15.884638
13.401508
14.422536
15.206933
15.056729
14.684796
14.549494
14.027953
13.916492
13.999939
13.009906
13.215542
12.980700
12.215972
13.605952
12.902617
13.551712
14.086962
13.752580
15.055537
13.928413
12.904406
13.776422
12.599826
12.054443
10.600686
10.143518
9.459853
8.855462
7.724762
7.796884
7.559657
6.774664
6.705523
6.709695
6.696582
6.182790
5.558729
5.236864
5.910993
5.888939
5.788803
5.674958
5.686879
4.933476
5.435944
5.238652
7.102489
7.363558
11.176467
17.086864
23.205876
36.905408
45.826435
63.579679
78.716874
102.224946
116.845965
139.136910
152.573586
164.606571
##ZVALUE=230
67.785978
70.364475
116.950870
146.395564
191.111565
221.145749
230.035782
213.826895
191.399455
140.681863
105.503798
78.054667
65.605640
55.736899
57.579875
60.090423
62.128901
56.935549
52.464604
39.033890
31.764507
19.318461
12.552738
8.133650
5.927682
4.951954
4.084706
5.138516
4.877448
4.951954
5.369782
5.525947
6.250739
6.294847
6.783605
8.197427
8.480549
9.171963
9.984970
9.172559
10.340810
9.582639
10.098815
10.909438
10.223985
11.650920
10.886788
11.913776
10.677576
11.401772
12.175441
13.376474
14.262795
15.374422
15.317798
15.080571
15.418530
15.046597
15.117526
14.442801
15.794635
14.807582
14.447570
14.066696
12.948513
13.479590
15.264750
13.686419
12.940764
13.616681
14.206767
15.147924
15.863776
15.743971
15.111566
16.703606
14.595985
15.042424
13.669729
13.221502
12.305975
11.022687
10.274649
9.459853
9.448528
8.131862
8.055568
8.367896
8.004904
7.070899
7.128716
6.365776
6.662607
6.160736
6.673932
6.666780
7.711649
6.815791
7.091761
5.926490
5.905628
5.941987
6.179810
6.470680
6.221533
5.850792
5.313754
6.295443
8.788705
14.406443
19.101501
31.021833
42.647719
67.130923
88.432431
113.539696
##ZVALUE=235
20.513535
21.077991
52.538514
90.628862
139.375925
218.860507
277.082920
342.791677
363.095999
347.816944
305.555463
233.085752
181.387663
120.834708
94.898939
78.300834
80.927610
86.442828
90.771914
94.523430
82.295537
72.685480
54.492950
38.212538
25.209785
16.599894
9.022951
6.215572
5.681515
6.090999
6.462932
5.111694
5.815625
6.498694
7.132888
8.032918
8.146763
7.964969
7.546544
7.965565
9.016991
10.561943
9.734631
10.708570
10.082722
10.029674
10.505915
9.892583
11.712909
12.627840
12.355447
11.122823
12.844801
13.777614
13.924837
12.276769
13.569593
13.355613
13.593435
13.696551
12.044907
13.518929
13.907552
13.005733
11.996627
11.544824
13.299584
12.815595
13.375878
14.315844
13.718605
15.866756
15.606880
16.850829
15.754700
15.616417
15.451908
14.107823
14.469624
13.486743
12.918711
11.516809
10.663867
11.281967
9.483695
9.852648
9.144545
8.292794
8.793473
7.994771
8.752942
7.469654
7.413626
8.558631
7.109642
7.402897
6.985664
6.561875
7.444620
6.864667
8.088946
7.071495
7.735491
6.617904
7.464886
7.117987
6.385446
6.821752
6.340742
6.112456
6.463528
8.029938
8.068681
10.512471
15.360713
24.561882
##ZVALUE=240
2.149940
2.587438
7.449985
18.539429
42.519569
94.490647
158.200860
270.428658
358.266830
451.232791
492.766500
492.803454
448.285937
346.556902
266.479850
179.788470
129.293799
101.036429
94.523430
102.601647
112.543702
113.082528
113.855600
98.153949
80.908537
60.862899
43.309927
30.495524
18.252730
12.783408
7.404685
6.718636
6.547570
6.647706
6.389618
6.892681
7.659793
6.945729
8.025765
8.239746
8.067489
8.251667
8.249879
9.378791
8.670688
9.293556
9.119511
9.776950
10.613799
10.228753
10.102987
10.564923
10.217428
10.370612
11.107922
11.433959
10.683537
11.515617
11.589527
10.360479
11.126995
11.484623
12.310743
10.186434
10.512471
11.470914
11.693835
10.574460
13.433695
12.418628
12.876987
12.922883
15.248656
14.955997
13.992786
14.523864
13.767481
13.990998
12.337565
13.451576
11.917949
10.923743
10.442734
10.926723
10.017753
9.849668
8.873940
9.240508
8.170605
8.111596
8.840561
7.638931
8.378625
7.624626
7.348657
7.868409
7.262826
7.417798
7.807612
7.884502
7.095933
8.021593
8.173585
7.641912
8.405447
7.410645
7.201433
6.818771
7.541776
7.130504
7.387996
6.717443
7.802844
7.345676
6.954670
6.672740
##ZVALUE=245
1.815557
1.571774
1.535416
1.867414
3.575683
12.691617
31.738877
83.736777
149.315596
260.624886
368.689895
487.467647
549.080968
576.536655
545.005798
452.964902
367.246866
249.795914
173.079967
113.198757
97.932816
96.423626
111.508965
121.485591
127.793550
121.156573
109.543800
91.704726
65.411925
50.116777
32.174587
21.817684
11.930466
8.501410
6.394982
7.310510
6.745458
7.192492
7.087588
7.405877
7.937551
7.684827
9.188652
8.635521
7.807612
8.861423
8.868575
8.944869
9.000897
9.368658
8.942485
10.392666
9.499788
9.511709
10.187626
8.519888
10.042787
9.437799
9.668469
10.028481
9.959936
9.457469
10.236502
9.464622
9.865761
9.391904
8.788705
9.381771
9.489655
10.173917
10.643601
11.253953
11.240840
12.321472
11.095405
11.862516
11.603832
11.213422
11.202693
11.275411
9.550452
9.628534
9.101629
8.188486
7.936954
7.035732
7.565618
8.290410
7.596612
6.751418
7.339716
6.256700
7.103682
6.975532
6.410480
6.660819
7.055998
6.437898
7.248521
6.231666
6.657839
6.766915
6.360412
6.690621
5.765557
6.738901
7.130504
6.517768
6.626844
6.425977
6.863475
6.741881
6.342530
6.435513
6.146431
6.093979
##ZVALUE=250
1.556873
1.812577
1.413822
1.589656
1.798868
1.869798
2.399683
8.588433
23.283958
65.077543
125.834942
247.356892
354.772806
500.910878
590.966940
655.426979
645.633936
569.449663
476.742983
327.335000
228.783488
136.793852
100.107789
90.239644
101.221800
117.532611
127.996802
134.306550
129.526854
116.437674
95.703602
78.330636
52.277446
34.151673
20.353794
13.269782
9.338856
8.146763
7.151961
7.978678
8.219481
7.793903
8.929968
8.828640
8.171797
8.823872
9.206533
8.977652
9.468794
8.919835
9.301901
9.867549
9.154677
8.934736
9.325743
8.907914
9.339452
9.893775
9.124875
8.224845
8.931756
9.159446
8.735657
8.275509
8.739829
8.680820
9.207726
8.231997
8.970499
8.931756
9.380579
9.654760
10.680556
10.123849
10.318756
10.008812
10.736585
9.881854
8.758903
8.359551
7.624626
8.208752
7.522702
7.258654
6.990433
6.700754
6.880760
5.866885
6.218553
5.789995
5.317926
6.022453
5.614758
5.250573
5.433559
4.734993
5.717874
5.406737
5.644560
5.697608
5.433559
6.372929
5.192757
5.399585
5.382895
6.048679
5.717874
5.224943
5.138516
5.307794
5.837679
5.146861
5.755424
5.304813
5.797744
5.545616
##ZVALUE=255
1.289845
1.274943
1.506805
1.447797
1.290441
1.238585
1.705885
1.755953
1.925826
4.468560
14.446974
47.556758
98.378658
206.692815
317.353010
476.691723
588.957667
707.301497
735.659599
684.209466
580.240488
433.951616
306.069851
174.781680
114.617944
82.951784
83.275437
101.024508
117.206573
133.436918
141.663551
139.259696
125.042796
104.718804
76.865554
57.679415
35.420656
23.756623
13.415813
10.614991
9.663701
8.730888
8.924603
8.905530
9.906888
9.440780
9.499788
9.560585
10.181665
10.395646
10.392666
10.080934
10.243654
10.249615
9.663701
10.189414
9.516478
9.960532
9.488463
10.013580
9.287596
9.483695
9.103417
9.041429
8.883476
9.415746
8.464456
8.785725
8.620620
8.019805
8.423924
8.349419
9.166598
9.136796
9.739995
9.416938
8.586645
8.088946
8.069873
7.237792
7.259846
6.465912
5.344748
5.869865
5.784631
5.328655
5.371571
4.860759
5.198717
4.828572
5.448461
5.232692
4.495978
5.093813
4.908442
5.081892
4.770756
4.158616
4.700422
4.207492
4.616976
4.918575
4.686713
4.818439
4.726648
4.937649
4.534721
4.164577
4.408956
4.732609
4.346967
4.827976
4.599690
4.789829
4.337430
4.557967
##ZVALUE=260
1.356602
1.158714
1.300573
1.315475
1.523495
1.504421
1.268983
1.570582
1.796484
1.414418
1.807809
2.615452
7.690787
31.207800
68.579912
160.641670
266.587734
434.033871
569.088459
734.812021
801.365972
789.901614
708.688498
540.706515
402.552485
239.842534
153.044462
102.122426
73.581934
78.300834
103.030801
121.388435
141.171813
144.284964
144.698620
130.410790
106.162429
85.189939
58.632493
42.284727
26.319623
18.677711
14.013648
11.058450
11.180639
11.551976
11.257529
11.690855
11.755824
12.112856
11.895895
12.507439
11.772513
11.970997
12.366772
11.220574
11.172891
11.421442
10.046959
11.002421
10.285974
10.450482
9.722710
9.183884
9.153485
8.915663
9.130836
9.503961
9.209514
8.987784
8.512735
8.800626
8.664727
8.760691
8.384585
7.614493
8.527637
8.333921
7.400513
6.259680
6.413460
6.458759
6.077886
5.397797
5.810857
5.200505
4.750490
4.422665
4.705787
4.848838
4.346967
4.551411
4.463792
4.664660
4.195571
4.486442
4.158616
4.481673
4.325509
3.851652
3.980994
4.231930
3.914833
4.420877
3.958941
4.271865
4.031658
4.306436
4.224777
4.105568
4.286766
4.133582
3.924966
3.906488
4.287958
4.181862
##ZVALUE=265
1.255870
1.176596
1.217723
1.148582
1.274943
1.124740
1.204610
1.273751
1.200438
1.421571
1.400709
1.613498
1.681447
1.842976
4.164577
19.111633
48.427582
124.355555
218.559504
397.926569
552.174449
743.812919
845.964551
875.072479
807.739496
655.632019
515.154004
327.093601
207.980871
129.635930
72.900653
65.077543
82.328916
100.896955
127.744675
144.106746
152.859688
147.331953
130.511522
110.886693
89.908838
61.529875
44.727921
29.551983
20.864606
15.731454
14.690757
13.619661
14.066696
14.102459
14.772415
13.967752
12.722611
13.791919
13.274550
13.497472
12.802482
12.592673
12.709498
11.866689
11.782646
10.940433
11.192560
10.723472
10.742545
10.608435
10.125637
9.597540
9.519458
9.922981
9.859800
9.756684
8.986592
9.220839
8.349419
8.134842
8.290410
8.250475
7.274747
7.205606
6.248951
6.160736
5.634427
5.631447
5.527735
5.141497
5.027652
4.646778
4.817843
4.786849
4.370809
4.452467
4.440546
4.083514
4.143715
4.096627
4.121661
4.154444
4.002452
3.920794
3.801584
4.006624
3.688931
3.690720
3.857613
4.071593
3.859997
3.597736
4.223585
3.986955
3.787875
3.634691
3.656745
3.672838
3.549457
3.423691
##ZVALUE=270
0.981688
0.984669
1.015663
1.123548
0.968575
1.317859
1.123548
1.154542
1.236796
1.250505
1.449585
1.466870
1.511574
1.714826
1.511574
1.999736
2.037883
9.597540
27.848482
88.296533
169.004798
332.577825
505.867600
685.980916
867.848992
940.435529
916.066766
825.555921
634.062886
476.984978
290.340781
180.200934
90.715885
62.751770
62.510967
78.842640
108.724833
130.555630
151.298642
155.839920
150.215626
139.748454
114.683509
93.175769
64.549446
47.769547
32.084584
23.491979
18.073916
16.506910
15.441775
15.758872
15.428662
15.275478
14.692545
14.601946
14.294982
14.389753
13.708472
14.342666
13.307929
13.168454
11.548996
11.796951
12.112856
11.168718
10.971427
10.924935
10.693669
10.168552
10.638833
10.067821
10.080934
9.396672
9.063482
8.931756
8.525848
8.039474
7.825494
7.453561
6.919503
6.092787
5.630851
6.159544
5.331635
5.654693
4.951954
5.027652
4.796982
4.545450
4.780889
4.459620
4.352927
4.116893
3.887415
3.853440
4.052520
3.966689
3.612638
3.752708
3.639460
3.979802
3.880858
4.160404
3.736615
3.825426
3.818870
3.956556
3.647804
3.536940
3.385544
3.362894
3.679991
3.500581
3.220439
3.536940
##ZVALUE=275
1.182556
1.127720
1.168847
0.988841
1.114607
1.168847
1.127720
1.193881
1.268983
1.191497
1.331568
1.159906
1.483560
1.226664
1.480579
1.525879
1.563430
1.667738
2.029538
4.461408
16.054511
56.799650
125.649571
276.491642
434.081554
656.639934
806.336999
922.193527
979.241729
937.332511
773.904920
613.591671
394.756794
244.389772
117.156506
69.968700
51.133633
58.681965
85.168481
105.709434
133.367777
147.633553
156.295896
153.802633
136.048794
116.039515
89.172721
69.334507
45.080781
34.489632
24.061799
19.636750
16.701818
15.943646
15.207529
15.861988
15.315413
15.077591
14.861822
14.148951
13.940930
13.238788
12.986660
12.909770
11.412501
11.587739
10.849833
10.674596
10.719895
10.131598
9.947419
10.523796
9.858608
9.422898
9.510517
8.980632
8.481741
8.651614
7.820725
7.166862
6.851554
6.580949
5.969405
5.857944
6.085634
5.313754
5.269647
4.683733
4.754663
4.590750
4.517436
4.190803
4.373789
4.218817
4.117489
4.389882
3.859997
4.019737
4.014969
3.993511
3.935695
4.202724
3.848672
3.930926
3.721714
3.927946
3.986955
3.998876
3.687739
3.639460
3.622770
3.733635
3.708601
3.439784
3.735423
3.436804
##ZVALUE=280
0.916719
0.817776
0.836849
0.940561
0.876784
0.979900
1.000762
1.093745
1.078844
0.977516
1.308918
1.241565
1.051426
1.268983
1.337528
1.301765
1.284480
1.257658
1.424551
1.568794
1.790524
2.906919
8.871555
41.024685
93.002915
213.652849
345.705748
502.521992
729.045868
871.448517
985.313654
979.420543
858.299732
699.867010
467.356443
307.075977
158.345699
89.625716
48.009753
44.476986
59.915781
79.944730
109.476447
128.094554
146.918893
152.669549
146.614909
135.226846
110.026598
89.907646
63.621998
47.395825
30.825734
23.198724
17.691851
15.228987
14.692545
14.530420
13.433695
13.646483
13.547540
12.632608
11.868477
12.234449
11.205673
11.284947
11.297464
10.750890
10.387897
10.209680
9.991527
9.956956
9.637475
9.212494
8.917451
8.529425
8.378625
7.768869
7.731915
7.155538
6.688833
6.527901
6.255507
6.086826
5.570650
5.718470
5.568862
5.004406
4.777908
4.719496
4.631877
4.364848
4.312992
4.510880
4.069805
4.003644
4.042983
4.210472
4.088879
3.818870
3.876686
3.987551
4.079938
3.892779
4.047751
3.795624
4.097819
3.969669
3.649592
4.053712
3.548861
3.847480
3.608465
3.685951
3.860593
3.363490
##ZVALUE=285
0.829697
0.966787
0.828505
0.772476
1.021624
0.974536
1.015663
1.019835
0.902414
0.945926
1.002550
1.035929
1.055598
1.018643
1.039505
1.126528
1.054406
1.152754
1.246929
1.491904
1.432896
1.384616
1.828671
1.938939
3.920794
21.328926
52.337646
137.838721
239.377618
432.844758
601.141453
822.476745
940.334797
1003.126502
957.497954
784.227848
613.145828
381.456614
239.839554
114.963651
62.121749
35.285950
37.426949
54.611564
74.543953
102.950931
120.130777
139.576793
146.435499
142.832994
133.586526
110.709667
90.608001
63.370466
46.968460
29.795766
21.821856
15.603900
12.768507
11.583567
10.873675
11.057854
10.524988
10.257959
10.376573
10.307431
9.949803
9.755492
9.783506
9.364486
9.408593
9.368658
8.900762
8.807778
8.437634
8.092523
7.760525
7.606745
7.309914
7.147789
6.589890
6.575584
5.912781
5.674958
5.621910
5.305409
5.055666
4.962683
4.920959
4.528761
4.738569
4.751682
4.506707
4.146695
4.413724
4.286766
3.912449
4.266500
3.959537
3.891587
3.976822
4.053712
3.911853
3.892779
3.693700
4.088879
3.778934
3.719926
3.976822
3.708601
3.517866
3.354549
3.392696
3.567934
3.631711
3.419518
##ZVALUE=290
0.793934
0.878572
0.960827
0.832677
0.837445
0.915527
1.014471
0.913739
0.870824
0.854731
0.965595
1.113415
0.957847
1.016855
1.051426
1.193881
1.075864
1.077652
1.154542
1.197457
1.451969
1.359582
1.444817
1.472831
1.739860
1.989603
2.540946
7.380843
31.617880
75.204968
177.027583
301.949978
521.145463
703.597665
901.975632
992.175937
989.681482
890.797973
680.539608
510.262847
299.072862
178.054571
78.763962
41.326880
26.074648
31.499863
48.713684
66.665411
93.873739
113.384724
132.324696
138.000846
137.133598
126.964450
105.775595
84.961653
58.354735
42.428970
27.107596
19.743443
12.877584
10.553598
8.812547
8.563995
8.462667
8.537769
8.334517
8.025765
7.888675
8.166432
7.997751
8.039474
8.107424
8.088946
7.769465
7.374883
7.135868
6.973743
6.312728
5.989671
5.924702
5.570650
5.720854
5.630851
5.087852
5.154610
5.005598
4.875660
5.133748
4.580617
4.316568
4.545450
4.334450
4.273653
4.130602
4.159808
3.928542
4.261732
4.199743
3.908873
3.907681
3.906488
3.775954
4.163980
3.834963
3.718734
3.939867
3.746748
3.534555
3.710985
3.776550
3.628731
3.374815
3.441572
3.244877
3.480911
##ZVALUE=295
0.907779
0.907779
0.851750
0.728965
0.885725
0.868440
0.944734
0.938773
0.820756
0.985861
0.842810
0.885725
0.815988
0.941753
0.887513
0.771880
0.947714
0.975728
1.040697
1.057982
1.289845
1.228452
1.364946
1.412630
1.429915
1.496673
1.660585
1.715422
1.899600
2.756715
15.217662
41.747689
119.533539
227.673650
430.054665
605.630875
821.893811
945.502520
992.623568
938.619971
771.950483
602.892637
377.949476
237.542987
108.090639
53.745508
23.848414
20.375848
30.533671
43.058991
64.259768
84.188581
108.175874
122.142434
131.053925
130.410790
115.746856
100.982785
77.316761
59.270859
38.786530
26.651621
15.979409
11.789799
8.309484
7.548928
7.059574
6.726980
6.776452
6.614923
6.826520
6.808639
6.777644
6.757975
6.533861
6.913543
6.310940
6.006956
5.816817
5.317926
5.260706
5.424619
5.233884
5.161762
4.695654
4.903674
4.616976
4.314780
4.482865
4.227757
4.137754
4.206896
3.910661
3.975630
3.892779
3.928542
3.678799
4.132986
4.185438
3.919601
4.084706
3.784895
3.927946
3.983974
3.832579
3.802776
3.782511
3.763437
3.648996
3.959537
3.617406
3.519654
3.782511
3.825426
3.546476
3.435612
##ZVALUE=300
0.724792
0.694990
0.594854
0.641942
0.702739
0.810623
0.744462
0.766516
0.830889
0.866652
0.838637
0.757575
0.758767
0.914931
0.730753
0.944734
0.940561
1.028776
1.104474
1.072884
1.112819
1.005530
0.962615
1.172423
1.131892
1.216531
1.334548
1.425743
1.418591
1.369715
1.792908
1.839995
7.267594
24.182796
81.037879
158.336759
326.000452
494.544506
727.537870
870.317817
977.932811
973.345637
846.039653
695.118904
459.476709
302.033424
151.979923
82.302690
32.059550
17.166734
17.093420
24.479628
40.062666
56.028962
78.381896
96.310973
116.351843
123.250484
121.845603
114.189982
94.505548
78.482628
54.649711
39.738417
23.477674
16.363859
10.256767
7.505417
6.147623
5.927682
5.944967
5.582571
5.788803
5.867481
5.607605
5.713701
5.504489
5.045533
5.256534
4.941821
4.760623
4.768968
4.913807
4.881620
4.602671
4.570484
4.419684
4.331470
4.374981
4.308820
4.008412
3.883839
3.864765
3.858805
3.755689
3.687739
3.598928
3.617406
3.516674
3.700852
3.604889
3.941655
3.924966
3.836751
3.806949
3.898740
3.842711
3.812909
3.515482
3.478527
3.824830
3.699660
3.400445
3.508925
3.601909
3.236532
##ZVALUE=305
0.675917
0.753999
0.698566
0.657439
0.787973
0.781417
0.884533
0.762939
0.886917
0.849962
0.733733
0.931621
0.800490
0.770688
0.829697
0.631809
0.917912
0.841618
0.881553
0.885725
0.978708
1.162887
1.093745
1.023412
1.059771
1.097918
1.021624
1.239777
1.360774
1.230836
1.358986
1.658797
1.536608
1.884699
3.838539
12.322664
50.899982
114.587545
256.064534
406.167507
627.506971
789.339542
946.321487
974.679589
895.023942
765.107870
551.909804
385.406017
202.906728
113.425851
44.996738
21.353960
12.198687
14.791489
23.696423
35.072565
55.494905
71.226954
93.382597
107.692480
118.059516
117.092729
104.715824
92.472434
70.469975
54.708719
35.531521
24.370551
13.740659
9.476542
6.860495
5.774498
5.308986
5.125999
5.377531
5.231500
4.762411
4.832745
4.524589
4.559755
4.483461
4.623532
4.563928
4.588962
4.143715
4.118681
3.954768
3.986955
3.992915
3.859997
3.817677
3.543496
3.631711
3.454685
3.571510
3.529787
3.558993
3.434420
3.515482
3.579855
3.603697
3.469586
3.592968
3.591776
3.493428
3.552437
3.521442
3.711581
3.619790
3.533959
3.677607
3.461838
3.596544
3.258586
3.221631
3.210902
##ZVALUE=310
0.740886
0.651479
0.735521
0.831485
0.627637
0.825524
0.720620
0.800490
0.815988
0.887513
0.784993
0.977516
0.679493
0.788569
0.717640
0.729561
0.911951
0.724792
0.887513
1.042485
1.030564
0.830889
1.091957
0.985861
0.965595
0.963807
1.079440
1.056790
0.903606
1.088977
1.117587
1.416802
1.245737
1.385808
1.579523
1.704693
2.249479
5.612969
28.065443
67.890882
170.298815
290.609002
512.450933
687.182546
890.827775
974.078774
958.409905
861.455798
658.630729
488.422513
282.434821
168.097615
71.101785
33.990741
13.380647
10.761619
13.963580
19.875765
32.054782
44.328570
66.006780
81.470609
100.137591
108.850598
110.143423
103.993416
87.549686
73.128939
50.309896
35.774708
21.218657
14.548898
8.695722
6.894469
5.205870
4.721880
4.264712
4.219413
3.801584
4.095435
4.014969
3.799796
3.683567
3.636479
3.760457
3.836751
3.881454
3.789663
3.973842
3.744960
3.579855
3.517866
3.451705
3.314614
3.351569
3.384948
3.233552
3.434420
3.334880
3.212690
3.387928
3.425479
3.015995
3.226995
3.316998
3.532767
3.240705
3.406405
3.264546
3.246665
3.307462
3.209710
3.250837
3.193617
3.074408
3.048778
##ZVALUE=315
0.541806
0.615716
0.628829
0.782609
0.561476
0.762939
0.790954
0.922680
0.701547
0.740886
0.729561
0.824928
0.616908
0.698566
0.759959
0.967979
0.917912
0.899434
0.832677
0.857711
0.937581
0.884533
0.722408
0.829697
0.951886
1.056790
0.899434
1.025796
0.948906
1.024604
1.088977
1.322627
1.159906
1.165867
1.168847
1.431704
1.540780
1.524687
1.849532
2.677441
14.443398
41.061640
120.481849
221.023560
425.068736
605.650544
818.458796
933.550000
978.944898
921.877027
743.401647
581.497550
361.062884
224.102736
103.924870
49.872994
16.300678
9.738803
9.348989
11.167526
18.764734
27.460456
44.411421
57.813525
78.223944
91.785789
101.465583
103.654861
94.885826
83.606839
64.287782
49.911737
32.748580
22.750497
12.937784
8.795857
5.464554
4.614592
4.101992
3.600717
3.341436
3.567934
3.383756
3.238916
3.245473
3.201962
3.115535
3.104806
3.265738
3.119707
3.215671
2.847910
2.818704
3.018975
3.214478
3.222823
3.032684
2.866983
3.026724
3.194809
2.978444
3.094673
3.183484
2.917647
3.085732
2.796650
3.000498
3.058910
2.951622
3.105998
3.032684
2.912879
2.836585
2.839565
2.977848
3.116727
##ZVALUE=320
0.797510
0.607967
0.665784
0.845790
0.533462
0.714660
0.716448
0.764728
0.729561
0.581741
0.596642
0.832677
0.766516
0.872612
0.927448
0.764728
0.895858
0.685453
0.764728
0.737906
0.837445
0.792742
0.855923
0.798702
0.789762
1.067519
0.896454
0.950694
0.926852
1.057982
0.981688
0.998974
1.129508
1.021624
1.145601
1.097918
1.348853
1.366735
1.331568
1.432896
1.619458
1.964569
4.671812
26.257634
68.582892
181.945562
305.060744
512.365699
691.887736
853.529572
979.887843
986.840725
856.342912
697.736740
459.847450
299.997926
148.928761
75.819492
26.537776
12.385845
7.885695
8.192658
10.999441
15.532970
26.142001
37.055612
55.159926
69.940686
87.584853
95.451474
97.550750
92.982650
77.904463
63.932538
45.962930
33.556819
20.280480
13.012886
7.406473
5.294681
3.865957
3.460646
3.249645
3.106594
2.879500
2.967715
2.845526
2.644658
2.687573
2.585649
2.747774
2.750754
2.780557
2.656579
2.863407
2.796650
2.692938
2.933741
2.861619
2.557635
2.794862
2.516508
2.480745
2.599955
2.820492
2.714992
2.667904
2.608895
2.793670
2.692938
2.642870
2.531409
2.505779
2.658963
2.612472
2.609491
##ZVALUE=325
0.768900
0.693798
0.767708
0.630617
0.610948
0.614524
0.657439
0.747442
0.601411
0.776649
0.645518
0.582933
0.514984
0.661612
0.798702
0.662804
0.736713
0.640750
0.598431
0.631809
0.750422
0.757575
0.623465
0.925660
0.923872
0.972748
0.879765
0.978708
0.979900
0.901818
1.069903
0.918508
0.883937
1.076460
1.125932
1.311898
1.144409
1.199841
1.298785
1.305938
1.343489
1.501441
1.502633
1.911521
2.986789
17.073750
48.165917
131.652951
235.145688
432.883501
602.210760
817.937851
932.821035
971.801877
909.386873
718.776584
544.663668
330.070853
200.293660
90.458989
42.424798
14.035702
7.685423
6.915927
7.318854
10.445714
14.842749
25.603771
36.633611
53.750873
67.604780
82.660913
88.438988
90.340972
83.981752
69.897771
58.211684
41.218996
29.965639
17.593503
11.224747
6.710887
4.677773
3.677607
3.044605
2.756715
2.665520
2.612472
2.691746
2.377629
2.420545
2.547503
2.643466
2.531409
2.416968
2.482533
2.519488
2.547503
2.610683
2.375841
2.522469
2.584457
2.465844
2.514720
2.679825
2.543926
2.596974
2.559423
2.588630
2.316833
2.664924
2.601743
2.420545
2.517700
2.239943
2.458692
##ZVALUE=330
0.671744
0.667572
0.612736
0.596642
0.740886
0.666976
0.692606
0.647902
0.521541
0.544786
0.650883
0.709891
0.458956
0.717640
0.697970
0.782609
0.528693
0.643730
0.638962
0.658631
0.705719
0.820756
0.712872
0.762939
0.737906
0.852942
0.784993
0.940561
0.887513
0.914931
0.831485
0.890493
0.913739
0.913739
0.955462
0.974536
1.068711
1.056790
1.147985
1.184940
1.248717
1.231432
1.231432
1.506805
1.538992
1.739860
2.294779
5.996823
30.127764
74.020624
184.536576
312.679410
539.513826
714.424849
901.580453
982.298851
944.882035
832.080841
624.875426
452.510715
251.908898
139.750838
54.605603
25.021434
9.363890
6.527901
6.035566
6.734729
9.748936
13.941526
23.954511
33.709407
49.791932
62.962770
76.370835
83.567500
83.336830
78.831911
65.919757
53.772926
38.347840
27.971864
17.066598
11.643767
6.838441
4.701614
3.251433
3.057718
2.807975
2.603531
2.848506
2.480745
2.621412
2.444983
2.318621
2.414584
2.353787
2.487898
2.404451
2.465844
2.431870
2.618432
2.622604
2.638698
2.558827
2.042651
2.534986
2.236962
2.313852
2.564788
2.298951
2.343655
2.164841
2.297759
2.249479
2.326965
##ZVALUE=335
0.611544
0.579953
0.634789
0.637770
0.726581
0.608563
0.565648
0.602603
0.671744
0.644922
0.494719
0.767708
0.646710
0.619888
0.710487
0.568628
0.706911
0.658631
0.628829
0.769496
0.666976
0.668764
0.698566
0.763535
0.768900
0.729561
0.802875
0.726581
0.727773
0.824928
0.837445
0.788569
0.980496
0.948906
0.946522
0.949502
1.073480
1.035929
0.964999
0.967979
0.983477
1.057982
1.131892
1.158714
1.298785
1.498461
1.386404
1.694560
1.789927
2.649426
14.009476
40.455461
119.203925
222.544670
427.977443
607.460737
831.008554
957.235694
1000.899673
941.877961
761.704445
583.506823
354.924798
214.632750
89.569688
40.231943
12.924671
7.058978
5.761981
5.829930
6.785989
8.615851
14.679432
20.624995
32.639503
43.560863
59.978962
69.415569
77.847838
79.183578
72.050691
63.438416
50.217509
39.199591
26.469827
19.021630
11.376739
7.443428
4.745722
3.549457
2.957582
2.637506
2.566576
2.443790
2.430677
2.414584
2.491474
2.392530
2.470613
2.571940
2.600551
2.207756
2.454519
2.478957
2.460480
2.344847
2.542734
2.408624
2.364516
2.345443
2.445579
2.277493
2.231598
2.409816
2.104640
2.407432
##ZVALUE=340
0.733733
0.655651
0.636578
0.511408
0.571609
0.553727
0.691414
0.608563
0.622869
0.628829
0.577569
0.708699
0.644922
0.763535
0.641942
0.772476
0.673532
0.534654
0.562668
0.797510
0.694990
0.516772
0.768900
0.776649
0.759959
0.781417
0.868440
0.676513
0.812411
0.815988
0.661612
0.784993
0.851750
0.933409
0.978708
0.868440
0.928640
0.901818
0.869632
0.952482
0.963807
1.073480
1.105666
1.005530
1.120567
1.124740
1.362562
1.157522
1.439452
1.496673
1.777411
2.019405
7.367730
24.675727
82.952976
163.646936
333.104730
496.357679
716.222525
842.447877
929.418802
911.377668
776.844621
627.759695
403.658748
257.204771
120.799541
58.777928
17.288923
7.829666
5.911589
5.649924
5.737543
6.093979
8.444786
11.783838
20.177960
29.551983
43.583512
54.981709
67.723989
72.177649
72.933435
68.854690
59.479475
49.964786
36.680698
27.263761
17.366409
11.771917
6.872416
4.660487
3.332496
2.843738
2.364516
2.487898
2.456903
2.475977
2.250671
2.059937
2.185702
2.420545
2.057552
2.155900
2.340674
2.232790
2.248883
2.312660
2.246499
2.142787
2.268553
2.444983
2.173781
2.237558
2.095699
2.107620
##ZVALUE=345
0.662804
0.607967
0.764728
0.654459
0.586510
0.618696
0.587702
0.537634
0.525713
0.759959
0.711679
0.594854
0.666976
0.650883
0.688434
0.711679
0.695586
0.631809
0.548959
0.721812
0.673532
0.685453
0.565648
0.652671
0.611544
0.648499
0.780821
0.702739
0.711679
0.805855
0.770688
0.785589
0.892878
0.698566
0.894666
0.782609
0.761747
0.863671
0.923872
0.888705
0.932813
0.949502
0.951886
0.869632
1.105666
1.012683
0.962615
1.114607
1.185536
1.142621
1.221895
1.433492
1.595616
1.717806
3.476739
13.677478
54.205656
113.373995
243.103504
381.179452
599.755645
750.195980
879.171491
895.186663
802.537799
674.737692
467.398763
312.834978
147.792697
73.872805
24.119616
10.912418
5.900860
5.345941
4.811883
4.903674
5.479455
6.946921
11.501908
17.732978
27.953982
37.637949
50.021410
58.433414
66.225529
67.927837
63.901544
58.504939
46.246648
37.583709
26.354790
17.992854
11.019707
7.619858
4.294515
3.476739
2.739429
2.386570
2.223849
2.229810
2.185702
2.208948
2.154708
1.930594
2.211928
1.837611
1.860857
2.014637
1.922846
2.004504
1.894832
1.842976
2.000928
2.027750
2.060533
1.992583
##ZVALUE=350
0.541806
0.638962
0.606775
0.494719
0.445843
0.502467
0.809431
0.764728
0.798702
0.643730
0.625849
0.721812
0.702739
0.585914
0.624657
0.591874
0.568628
0.443459
0.571609
0.612736
0.424981
0.677705
0.671744
0.772476
0.732541
0.749826
0.543594
0.672936
0.730753
0.646710
0.897646
0.635982
0.844598
0.722408
0.766516
0.729561
0.818968
0.760555
0.736713
0.830889
0.882745
0.778437
0.718832
0.836849
0.994802
1.004934
1.077652
1.000762
0.987649
1.027584
1.002550
1.093745
1.163483
1.266599
1.267791
1.550913
2.261996
6.652474
30.964613
71.894526
175.123811
293.300748
493.226647
644.716024
809.199810
861.635804
818.791986
706.343651
498.581529
344.290733
184.722543
100.581646
35.344958
14.466643
6.422997
5.249977
4.581809
4.375577
4.050732
4.795790
6.910563
9.871721
15.898943
23.004413
33.930540
42.589903
53.540468
58.935881
61.836839
59.242845
52.996874
45.144558
34.226775
25.642514
16.737580
12.140870
7.179976
4.950762
3.425479
2.657771
2.334714
2.107620
2.245903
2.095699
2.219677
2.033710
1.981854
2.083778
2.116561
2.022982
2.086759
1.911521
1.937747
2.055764
1.938939
1.897812
##ZVALUE=355
0.586510
0.611544
0.615716
0.655651
0.640750
0.531673
0.641942
0.552535
0.583529
0.624657
0.579953
0.610948
0.759959
0.377893
0.549555
0.543594
0.573993
0.606775
0.499487
0.590682
0.589490
0.586510
0.642538
0.594854
0.657439
0.911951
0.740886
0.744462
0.648499
0.736713
0.783801
0.750422
0.758767
0.605583
0.744462
0.714660
0.679493
0.667572
0.751615
0.845790
0.872612
0.761747
0.857711
0.817776
0.743866
0.920892
0.934601
0.912547
1.009703
0.919700
0.945926
1.095533
1.094937
1.069903
1.166463
1.151562
1.288652
1.403689
1.581907
3.128648
16.381741
45.721531
128.330588
223.161578
401.407480
553.515553
734.352469
812.963843
807.956457
716.838837
540.723801
399.962664
228.753686
128.637552
51.091909
21.438599
6.918907
5.127788
4.496574
4.139543
4.068613
4.002452
4.423857
5.586743
8.799434
12.739897
20.647645
27.845502
38.698912
46.212673
53.563714
56.087971
54.056644
50.247908
42.060614
34.042001
24.796724
18.436909
11.358857
7.907748
5.121827
3.712773
2.836585
2.280474
2.289414
2.200603
2.053976
2.039671
1.852512
1.745820
1.838803
2.040863
1.922846
1.904964
1.868606
1.747608
##ZVALUE=360
0.563860
0.559688
0.630617
0.725985
0.670552
0.768900
0.578761
0.472665
0.638962
0.677705
0.558496
0.713468
0.632405
0.594854
0.576973
0.559688
0.570416
0.672936
0.518560
0.660419
0.785589
0.610948
0.634789
0.583529
0.682473
0.800490
0.700951
0.538826
0.757575
0.556707
0.651479
0.716448
0.594854
0.772476
0.764728
0.667572
0.773668
0.649691
0.614524
0.707507
0.693798
0.781417
0.767708
0.922680
0.800490
0.900626
0.833869
0.847578
1.010895
0.975728
0.941753
0.904799
0.948906
1.025796
1.006722
1.017451
0.962615
1.237988
1.477599
1.376867
1.652837
2.419949
6.479621
28.631687
68.061948
169.221759
288.411975
482.073426
629.037619
765.608549
798.831582
740.005970
625.355840
429.885983
287.488699
142.889619
75.428486
28.063655
11.513829
5.307794
4.507899
4.161596
3.854632
3.576875
3.574491
3.651977
4.628897
6.895661
9.789467
16.721487
23.482442
32.935739
40.041804
46.794415
50.127506
50.982833
47.260523
41.349530
34.385920
25.589466
18.908978
12.116432
8.269548
5.435944
3.882647
2.676845
2.633929
2.149940
2.238750
1.950860
1.608729
1.900792
1.775622
1.671910
1.938939
1.773834
##ZVALUE=365
0.570416
0.716448
0.597835
0.502467
0.627637
0.581741
0.616908
0.662804
0.406504
0.674725
0.644922
0.613928
0.591874
0.553727
0.613928
0.562668
0.521541
0.575781
0.547767
0.592470
0.566840
0.615716
0.615716
0.677705
0.617504
0.728965
0.698566
0.800490
0.579953
0.747442
0.690818
0.797510
0.722408
0.645518
0.536442
0.601411
0.622869
0.663996
0.629425
0.717640
0.752807
0.799894
0.758767
0.870824
0.840425
0.854731
0.756979
0.756979
0.838637
0.942945
0.859499
0.937581
0.866652
0.799894
1.020432
0.947714
1.006722
0.989437
1.011491
1.177788
1.279712
1.369715
1.624823
1.649857
3.751516
12.605786
49.111843
106.914639
241.581798
378.182530
562.067628
684.270859
782.373548
771.117806
666.208863
534.395576
342.488885
211.863518
93.920827
45.123696
13.986826
6.438494
4.382730
4.068613
3.789663
3.641844
3.337860
3.137589
3.254414
4.053712
5.901456
8.402467
13.875961
19.648671
28.192997
33.896565
41.734576
44.929981
46.261549
45.147538
40.169954
34.683943
25.927424
19.648671
13.233423
9.185672
5.872846
3.883839
3.040433
2.399683
1.928806
1.954436
1.775622
1.799464
1.648664
1.556873
##ZVALUE=370
0.537634
0.597835
0.526905
0.517964
0.632405
0.622869
0.513792
0.551939
0.566840
0.611544
0.417829
0.541806
0.607967
0.602603
0.739694
0.541806
0.442863
0.713468
0.541806
0.604987
0.620484
0.536442
0.682473
0.612736
0.566840
0.628829
0.690818
0.627637
0.736713
0.664592
0.815988
0.615716
0.588894
0.662804
0.707507
0.655651
0.601411
0.654459
0.765920
0.722408
0.615716
0.741482
0.835657
0.812411
0.848770
0.866652
0.832677
0.762939
0.795722
0.802875
0.875592
0.996590
0.899434
0.976920
1.040697
0.960827
0.985861
0.862479
0.884533
1.022816
1.041889
1.052618
1.225471
1.326799
1.254678
1.559854
2.337694
6.599426
33.384562
79.061985
180.048943
298.388004
490.397811
622.439981
735.187531
758.267641
687.662959
571.037531
383.342505
251.171589
119.148493
61.605573
22.992492
9.842515
4.609823
4.076958
3.805757
3.426671
3.169775
3.000498
2.867579
3.049970
3.658533
4.776716
7.584691
11.092424
17.539859
23.030639
30.979514
35.850406
41.813850
43.790936
42.891502
39.121509
32.759905
27.292967
19.153953
13.608932
9.842515
6.770492
4.410744
3.071427
2.507567
2.021790
1.811981
1.584888
##ZVALUE=375
0.515580
0.622869
0.505447
0.624657
0.574589
0.474453
0.571609
0.519753
0.600815
0.642538
0.629425
0.754595
0.703931
0.580549
0.589490
0.653863
0.661612
0.653863
0.631809
0.639558
0.618696
0.638962
0.832677
0.633597
0.536442
0.637770
0.497699
0.648499
0.565648
0.491738
0.686646
0.636578
0.638962
0.667572
0.679493
0.486970
0.772476
0.702739
0.508428
0.490546
0.673532
0.595450
0.699759
0.599623
0.774860
0.764728
0.600815
0.819564
0.799894
0.776649
0.821948
0.595450
0.725985
0.786781
0.731945
0.763535
0.926852
0.865459
1.073480
0.876784
1.014471
0.822544
0.915527
1.036525
0.980496
1.199841
1.206994
1.437664
1.758933
3.888607
19.501448
49.239993
129.954815
232.179761
410.809517
548.020601
692.499876
754.777789
726.431608
628.156662
452.019572
318.265557
179.886818
101.464987
39.630532
17.188787
5.935431
4.191995
3.557801
3.341436
3.294945
3.010631
2.791882
2.639890
2.661943
2.936721
4.068613
5.642772
9.618998
13.393760
20.348430
26.023984
33.609867
38.252473
40.742755
41.126609
38.219690
33.000708
28.134584
21.234751
16.589761
11.379719
7.960796
4.954934
3.583431
2.508759
##ZVALUE=380
0.579953
0.480413
0.446439
0.492930
0.630617
0.557899
0.509620
0.661612
0.491738
0.505447
0.618696
0.570416
0.580549
0.529885
0.546575
0.547767
0.577569
0.710487
0.494719
0.620484
0.483990
0.500679
0.586510
0.680685
0.678897
0.504851
0.595450
0.626445
0.481606
0.595450
0.566840
0.515580
0.616908
0.594854
0.745654
0.675917
0.641942
0.613928
0.871420
0.732541
0.687838
0.604987
0.816584
0.613928
0.570416
0.700951
0.691414
0.755787
0.669956
0.874996
0.831485
0.834465
0.649691
0.764728
0.766516
0.911951
0.655651
0.871420
0.869632
0.778437
0.794530
0.874996
0.853539
1.027584
0.945926
1.069903
1.101494
1.275539
1.281500
1.420975
1.539588
2.285838
9.829998
30.210614
93.804598
175.646544
338.518620
486.921668
662.199855
736.428499
741.788745
669.307709
525.729656
395.280719
231.441855
138.422847
58.684945
27.020574
8.182526
4.456639
3.399849
3.043413
2.979636
3.259778
2.819896
2.584457
2.664924
2.671480
2.919436
3.546476
5.228519
7.617474
12.379885
17.068982
23.907423
29.693842
35.279989
38.424730
38.973689
37.229657
34.107566
28.380752
23.106933
16.464591
12.021661
7.803440
##ZVALUE=385
0.552535
0.534654
0.575781
0.507832
0.456572
0.583529
0.638962
0.432730
0.629425
0.577569
0.609756
0.473857
0.478625
0.578761
0.545979
0.425577
0.516772
0.557899
0.421405
0.605583
0.527501
0.633597
0.639558
0.600815
0.649691
0.579953
0.607967
0.579953
0.553727
0.622869
0.701547
0.525713
0.658631
0.623465
0.667572
0.779629
0.621676
0.659823
0.707507
0.714660
0.719428
0.782609
0.839829
0.839829
0.717640
0.843406
0.794530
0.791550
0.825524
0.747442
0.811815
0.750422
0.740886
0.785589
0.763535
0.847578
0.816584
0.845790
0.786781
0.812411
0.735521
0.801682
0.981688
0.864863
0.946522
0.937581
1.099706
0.914931
1.045465
1.280904
1.208782
1.363754
1.506805
1.570582
4.332662
15.485883
60.651898
128.666759
270.599723
403.517485
576.569438
678.942800
733.920932
706.239939
590.240955
468.495488
299.159884
193.618536
89.695454
43.974519
13.108850
5.818605
3.510714
3.073812
3.208518
2.924800
2.775788
2.788901
2.647638
2.497435
2.374649
2.406836
3.018975
4.096627
6.385446
9.284616
14.335513
20.758510
25.558472
30.825734
34.253597
36.371946
35.473704
32.615662
28.911829
22.716522
##ZVALUE=390
0.495911
0.539422
0.707507
0.573993
0.493526
0.514984
0.446439
0.598431
0.530481
0.609756
0.531673
0.631809
0.569820
0.479817
0.499487
0.581741
0.459552
0.567436
0.661612
0.538826
0.567436
0.517964
0.501871
0.527501
0.496507
0.445843
0.454783
0.536442
0.723600
0.542998
0.500679
0.734925
0.702739
0.775456
0.700951
0.741482
0.774860
0.763535
0.782609
0.750422
0.795722
0.700951
0.867844
0.798702
0.791550
0.855923
0.881553
0.789762
0.747442
0.727773
0.711679
0.908971
0.716448
0.807643
1.052618
0.805855
0.759959
0.702739
0.708699
0.793934
0.803471
0.826716
0.842810
0.683665
0.920892
0.780821
1.046658
1.020432
1.142621
1.122952
1.023412
1.200438
1.211762
1.149774
1.292825
1.554489
2.436638
8.774996
39.565563
91.863871
217.822790
345.822573
524.327755
652.223825
760.701895
770.977736
680.828691
565.756559
388.375521
262.574553
134.749413
70.721507
24.698973
9.489655
3.744960
3.151894
3.266931
3.157854
3.142953
3.051758
2.730489
2.598763
2.572536
2.517700
2.527833
2.711415
3.707409
5.542636
8.197427
11.488795
16.777515
21.233559
27.393699
31.028986
33.961535
34.360886
##ZVALUE=395
0.621676
0.550747
0.531673
0.552535
0.607967
0.520945
0.561476
0.480413
0.618696
0.481606
0.575781
0.438690
0.499487
0.609756
0.373721
0.480413
0.445843
0.454783
0.528693
0.572801
0.615716
0.611544
0.466704
0.547767
0.622869
0.490546
0.576973
0.575781
0.482798
0.713468
0.634789
0.702739
0.504851
0.620484
0.688434
0.761747
0.697970
0.793934
0.740886
0.662804
0.761747
0.769496
0.775456
0.806451
0.808835
0.743866
0.836849
0.727773
0.697970
0.938773
0.835657
0.843406
0.861883
0.824928
0.787973
0.757575
0.949502
0.804663
0.721812
0.817776
0.910759
0.838637
0.868440
0.808835
0.892878
0.863671
1.052618
1.004934
1.074672
1.225471
1.291633
1.146793
1.164675
1.202822
1.204610
1.190901
1.321435
1.410842
1.713634
5.075932
24.864674
62.520504
152.593851
256.446004
431.652665
566.805005
710.278749
759.651661
726.503730
629.853606
451.119542
313.706994
167.014003
92.491508
38.029552
16.692877
5.482435
3.634691
3.354549
3.123879
3.321767
3.218651
3.094673
2.848506
2.799630
2.513528
2.389550
2.351999
2.549887
3.178716
4.189610
6.533861
9.501576
14.543533
18.561482
24.296641
##ZVALUE=400
0.631809
0.635982
0.493526
0.467896
0.549555
0.602603
0.391603
0.434518
0.545979
0.592470
0.594854
0.637770
0.465512
0.461936
0.555515
0.516772
0.615716
0.626445
0.688434
0.612736
0.618696
0.410676
0.444651
0.445843
0.455976
0.530481
0.598431
0.591874
0.631809
0.726581
0.731945
0.830889
0.747442
0.604987
0.638962
0.642538
0.799894
0.805855
0.814795
0.810623
0.788569
0.756979
0.917912
0.882745
0.771880
0.747442
0.682473
0.848770
0.837445
0.825524
0.689626
0.863671
0.770688
0.773668
0.661612
0.688434
0.800490
0.801682
0.576973
0.855923
0.824928
0.912547
0.956655
0.858903
0.850558
0.872612
0.905991
1.078844
0.800490
0.873804
0.990629
0.990629
1.174808
1.108646
1.307726
1.125932
1.243949
1.235604
1.189709
1.359582
1.510978
2.744794
13.372898
37.170649
104.037523
191.737413
353.798866
484.860539
647.896528
723.013878
727.612972
659.353733
503.527522
370.759964
212.960839
128.070712
56.896806
25.586486
7.957816
4.117489
3.211498
3.173947
3.134608
3.279448
3.261566
3.318787
3.076792
2.632737
2.533793
2.093911
2.170801
2.206564
2.517700
3.716946
5.203485
8.576512
##END
