##TITLE=6-3
##FORMAT=SPECTACLE-ASCII V-1.2
##DATA TYPE=ULTRAVIOLET SPECTRUM
##SECOND TYPE=ULTRAVIOLET SPECTRUM
##DATE=04/11/18
##TIME=13:57:42
##SPECTROMETER/DATA SYSTEM=SPECTACLE
##XUNITS=NM EM
##YUNITS=ENERGY
##YFACTOR=1
##FIRSTX=220
##LASTX=450
##NPOINTS=116
##3DDATA=Equidistant
##ZUNITS=NM EX
##FIRSTZ=210
##LASTZ=400
##ZPOINTS=39
##XYDATA=(Y..Y)
##ZVALUE=210
16.733408
15.711784
13.909936
12.628436
10.710955
10.410547
10.710955
10.339618
7.407665
6.939769
4.410744
4.131794
3.070831
3.324747
3.185868
2.719760
3.023744
3.348589
3.381968
3.351569
3.951788
3.626943
3.422499
3.704429
4.046559
5.199909
4.224777
4.754663
5.117655
5.337000
4.938841
5.539656
4.797578
6.447434
6.188750
6.664991
6.896853
7.140636
7.170439
7.720590
7.863641
8.220673
8.170605
8.666515
8.745790
8.508563
8.600950
8.314848
9.611845
10.076761
9.385943
9.208918
7.767677
8.660555
7.784963
8.508563
8.689761
9.682775
8.653998
7.165670
7.890463
8.284450
9.942651
8.129478
8.215904
8.071661
7.888675
8.279681
9.062886
9.316802
10.593534
12.621880
12.438893
14.319420
13.990998
13.562441
13.411641
14.607906
14.436841
13.220906
11.887550
10.331869
10.036826
9.835958
7.876754
7.400513
6.705523
6.692410
7.582903
9.012818
10.328889
13.734698
15.972853
21.427870
22.537708
30.660629
36.547780
37.334561
44.459701
45.508742
49.438477
50.731897
48.782825
50.849915
49.645901
45.894980
43.524504
39.630532
34.539700
29.522777
23.825765
19.003749
16.551614
14.251471
13.474822
14.204979
##ZVALUE=215
38.687587
39.272904
32.115579
25.811791
22.296906
17.924905
17.676950
16.097426
15.461445
13.755560
12.222528
9.263754
8.026958
5.305409
6.460547
4.100800
3.749728
3.205538
3.755689
3.231764
3.351569
3.143549
4.020929
3.724694
4.075766
4.673600
4.517436
4.921556
4.465580
4.896522
6.177425
5.987883
6.081462
5.940795
6.844997
7.467866
6.622672
8.354783
8.499622
8.075833
9.755492
7.963777
9.541512
9.612441
9.628534
9.994507
9.049773
9.138584
9.348989
10.349751
10.675788
10.695457
10.453463
10.807514
11.637807
11.562705
10.914803
10.982752
10.939837
9.954572
10.665655
10.306835
9.815693
9.944439
9.247661
8.960962
10.215640
9.881854
9.898543
9.689927
10.853410
11.268854
12.106895
14.349818
12.978911
13.477802
14.391541
13.457537
12.383461
11.728406
12.419820
11.038780
9.762645
9.273887
8.202791
7.379651
6.535649
6.835461
6.820560
5.817413
6.657839
5.833507
6.631613
6.797910
8.697510
10.204911
16.526580
18.116832
26.521683
31.269789
38.514733
47.223568
53.195953
59.818625
66.745877
71.561933
73.397756
73.095560
73.909760
71.841478
67.334771
62.857866
58.437586
45.115948
42.596459
33.383965
##ZVALUE=220
79.165697
78.966618
75.614452
69.016814
61.948895
46.518445
37.763715
29.542446
26.172996
24.529696
25.928617
23.775697
22.408962
18.581748
13.396740
11.470914
7.878542
5.767941
4.719496
3.780723
4.500747
4.430413
4.728436
4.254580
4.252791
5.178452
5.341768
4.708767
5.852580
5.001426
6.317496
6.276965
6.532669
7.508993
8.445978
8.162856
9.077787
9.881854
10.132790
11.632442
9.582639
11.437535
11.946559
11.764765
10.996461
11.257529
12.932420
11.353493
11.896491
13.126731
13.830662
13.155937
12.249947
13.653636
14.041662
12.648702
15.075803
14.240742
13.916492
13.778806
13.822913
13.388991
14.342666
12.126565
12.657642
12.260675
12.251735
11.168718
11.564493
12.343526
11.873841
14.539957
15.104413
15.788674
14.180541
16.117692
16.051531
15.100837
14.414787
13.052821
12.999773
11.198521
10.761619
11.748672
8.905530
8.477569
7.724762
7.435679
6.928444
6.744862
6.217957
6.508827
6.051660
6.436706
6.064773
6.927848
5.907416
6.422997
8.084774
9.236932
12.852550
16.890764
24.600625
32.251477
44.081807
54.456592
67.750812
79.881549
91.132522
99.292994
107.707977
118.225813
116.921663
114.241838
107.863545
100.998878
##ZVALUE=225
101.580620
118.193626
130.877495
132.075548
137.241483
123.986602
108.337998
83.070993
63.380599
46.755672
39.611459
39.265752
39.201975
38.735867
36.523938
32.661557
26.790500
21.335483
15.435815
10.999441
6.668568
5.430579
4.231930
4.535913
4.689693
5.318522
5.731583
4.556775
5.218983
6.049871
6.349683
6.469488
7.410645
8.801818
9.012818
9.097457
9.694695
11.666417
12.138486
11.949539
12.092590
11.949539
14.932752
14.057755
13.289452
12.364984
13.738871
13.714433
15.022755
16.114712
15.234947
17.326474
18.908978
16.790628
17.346740
17.932653
15.861988
15.751719
17.483830
16.168952
15.802979
15.444756
15.658736
14.723539
14.614463
13.663769
14.114976
14.726520
14.255643
13.609529
14.941692
14.569759
14.917850
15.703440
15.610456
16.153455
14.495850
14.015436
13.431907
12.319684
12.784600
11.112690
11.006594
8.490682
9.745955
8.722544
8.481741
7.551908
8.297563
6.701946
7.625818
6.635785
6.753802
6.905794
6.493926
5.954504
7.231832
6.107688
7.330775
6.876588
6.446838
7.519722
7.767677
8.591413
11.321902
17.086864
23.368001
34.403801
44.875741
63.743591
75.812936
98.146796
115.371943
136.127472
150.148869
161.708593
##ZVALUE=230
66.394806
72.175860
110.158920
153.866410
189.589858
221.529007
226.123929
211.921930
186.416507
139.452815
106.088519
74.884892
59.731603
57.801604
60.002804
59.820414
62.207580
59.167743
49.394965
40.134788
29.043555
20.280480
13.870597
9.589791
6.042719
4.690886
4.909635
5.071759
5.520582
5.664825
5.510449
6.770492
7.243752
8.318424
9.710789
10.005832
10.642409
13.413429
13.187528
14.394522
15.148520
13.694763
13.208985
15.627742
15.218854
14.195442
15.586615
13.886690
15.754700
17.123818
15.402436
17.383695
17.984509
17.124414
18.229485
18.123984
17.102957
18.531680
18.594861
17.401576
16.858578
15.823841
16.118884
16.365647
16.495585
16.361475
15.602708
15.901923
16.145706
15.561581
17.133951
16.585588
18.141866
16.663671
15.816689
15.922785
15.824437
14.456511
15.713573
14.724731
13.488531
12.401938
10.975599
9.971857
11.135936
11.065602
8.844733
9.545684
8.555651
8.688569
7.764697
8.742809
7.808805
8.118749
7.300973
8.200407
7.859468
7.822514
8.021593
7.228851
7.346869
8.218884
7.434487
7.452965
6.605983
7.085800
7.531643
8.436441
10.137558
14.613867
18.315911
32.599568
40.524602
63.942671
85.052848
109.757781
##ZVALUE=235
20.713806
21.160841
49.905777
89.138746
143.729448
209.184885
274.604559
334.632993
359.428525
339.959860
304.747820
226.504803
172.254443
117.645860
92.058778
76.460838
79.675913
82.731843
89.126825
85.404515
81.321001
70.964694
52.637458
38.528442
23.236871
15.558600
10.885000
7.645488
6.626844
6.091595
6.840825
6.575584
7.903576
8.070469
10.097623
10.610819
11.683702
13.521910
13.549924
14.050603
13.416409
15.378594
15.549660
15.268922
16.971827
16.694665
16.179681
17.542839
16.219616
16.932487
16.574860
16.818643
17.325878
16.672611
16.820431
15.700459
16.614795
15.388727
16.384721
17.475486
16.391873
14.084578
14.554858
15.684962
15.555620
14.746785
15.063882
15.218854
15.550852
16.157627
15.124679
17.100573
17.705560
16.515851
16.791821
16.250610
15.912652
15.454888
15.353560
14.116764
14.292598
14.049411
12.947917
11.639595
11.901855
10.871887
10.719895
11.100769
10.376573
9.720922
9.858608
10.392666
9.469986
9.240508
9.502769
8.555651
9.091496
10.496974
8.931756
9.492636
9.104609
8.726716
8.513927
8.979440
8.818507
7.932782
8.797646
8.574724
8.452535
8.317828
8.516908
7.584691
9.119511
10.145903
15.750527
23.065805
##ZVALUE=240
3.253818
3.599524
7.490516
21.718740
45.757890
104.448795
172.027946
283.544660
369.255543
468.512774
514.732003
509.535670
452.316999
352.497697
280.316472
179.095864
135.975480
101.629496
95.930696
108.302832
115.531683
118.392706
119.088888
108.398795
87.573528
67.269802
45.957565
32.387972
17.699599
13.542771
8.601546
8.117557
9.530783
9.140968
10.322928
10.811687
11.782646
12.734532
14.813542
16.521811
15.910864
18.156767
17.908812
18.142462
17.718673
17.015934
17.139912
19.099712
17.362833
17.054677
15.600920
17.136931
16.526580
16.297698
16.345978
16.536713
14.913678
15.851855
15.738606
15.135407
15.415549
14.462471
14.027953
15.798807
16.123652
14.010668
14.660954
14.260411
15.177727
15.598536
16.158819
16.346574
16.666651
19.478798
18.786788
17.025471
18.496513
17.660856
15.501976
16.845465
14.889836
14.741421
13.354421
13.395548
11.870861
11.986494
11.904836
11.730790
10.450482
10.897517
9.900928
10.283589
10.200739
9.930730
9.998679
9.495616
9.654760
9.886622
9.666681
10.571480
10.404587
8.902550
9.056926
10.501742
9.162426
10.045767
9.246469
9.532571
9.220839
8.882880
9.790659
9.473562
9.873509
8.983612
9.054542
9.639859
##ZVALUE=245
2.192855
2.023578
2.643466
2.697706
3.961921
14.618635
34.061670
86.430907
156.321526
272.004604
383.107662
507.211685
579.961538
603.404641
571.728945
481.806993
381.642580
259.425640
181.949735
119.082928
100.629926
102.068782
112.967491
128.779411
131.110549
125.490427
113.154650
91.114640
75.128675
50.406456
35.088658
20.602942
15.025735
11.236668
10.574460
10.883808
12.302995
14.342666
15.156865
14.696717
17.794967
17.754436
18.858910
18.042922
18.398762
19.202828
18.684864
18.815994
17.376542
16.268492
16.349554
17.329454
16.542673
16.277432
15.023947
15.907884
13.601780
14.526844
14.212728
14.316440
12.878776
12.210608
12.033582
12.634993
12.620687
12.697577
11.546612
12.680888
12.928843
12.709498
13.720989
13.487935
15.113950
15.850663
14.543533
13.964772
13.972521
14.846921
13.681650
13.298988
11.198521
12.305975
11.199713
10.644794
9.989738
9.183884
9.903908
9.781718
9.392500
8.140802
9.600520
8.971691
8.859634
8.584857
8.690953
8.131862
8.145571
8.463860
8.373857
8.347631
8.676648
7.752776
9.092689
8.774996
7.960796
8.616447
8.456707
8.092523
8.562803
8.180737
8.773804
7.783771
8.090734
7.821918
7.774830
7.034540
##ZVALUE=250
2.060533
2.045631
2.036691
1.867414
1.655817
2.123713
2.749562
9.185672
26.515722
68.754554
132.226944
256.042480
370.100737
518.457890
612.528920
678.504705
666.029453
588.056445
495.291948
340.439677
239.051580
142.691731
104.542971
92.024803
105.710626
122.266412
135.515928
141.053796
133.934617
121.643543
101.509690
78.902841
55.302978
38.561821
24.132729
18.665791
14.464855
14.731884
15.440583
15.893579
16.654730
16.917586
18.338561
19.586682
19.072890
18.457770
17.238855
17.797947
18.181801
17.569661
17.199516
17.820597
16.995668
16.755462
15.917420
15.310645
14.700890
13.911724
13.409853
13.143420
13.049841
12.681484
11.844635
12.267828
11.336803
11.353493
11.387467
10.614991
11.166930
11.802912
11.347532
12.313724
13.198853
11.943579
12.610555
12.566447
13.074875
11.597872
11.379719
11.260509
10.136962
10.326505
9.494424
9.546876
9.146929
7.651448
7.266998
7.611513
7.847548
7.582903
7.966757
7.134676
7.704496
7.160902
6.808639
7.689595
7.197857
6.724000
7.407665
7.150769
7.541776
6.538630
7.424951
6.513000
6.841421
7.468462
7.562637
7.249713
7.193685
7.025599
6.432533
7.305741
7.405877
6.237626
6.536841
6.792545
##ZVALUE=255
1.695752
2.104640
1.847744
1.773834
1.645684
1.941919
1.944900
2.297759
2.238750
5.370975
16.539693
52.138567
108.223557
219.312906
327.670574
497.218966
625.762939
727.146864
754.444003
695.173740
609.913468
449.202657
317.330956
184.993744
121.902823
86.223483
87.046623
102.148652
127.877593
139.202476
148.362517
143.839717
129.686594
113.564730
83.060861
62.763691
42.766929
30.272603
21.196604
18.765926
17.492771
17.353892
18.987656
19.030571
18.676519
18.101931
19.005537
19.132495
17.388463
18.144846
17.450452
17.090440
16.560555
16.687512
15.275478
14.643669
15.004873
14.944673
14.570951
13.620853
12.983680
12.128949
12.214780
11.409521
11.066794
10.747910
10.789633
10.097623
10.565519
11.096597
10.564923
11.764765
11.274815
10.694861
10.849833
11.427999
10.698438
9.414554
9.593964
9.070635
8.685589
8.099675
8.425713
7.455945
7.370710
6.895661
6.886721
6.784797
6.475449
5.988479
6.306767
6.087422
5.954504
6.218553
6.021857
6.450415
5.893707
5.881786
5.852580
6.346703
5.409718
5.701780
6.037951
6.070733
6.282926
5.932450
5.791783
5.901456
6.169677
5.860925
6.618500
5.642772
6.023645
6.023645
5.545616
5.607605
##ZVALUE=260
1.646876
1.453757
1.514554
1.686811
1.533628
1.535416
1.698732
1.981854
1.957417
2.458692
2.266765
3.247857
8.399487
32.934546
70.069432
171.000957
274.139643
452.503562
591.959953
758.576989
826.493502
822.878480
743.439794
571.251512
425.782800
255.352855
169.389844
95.945001
79.740882
81.849694
105.518699
128.412843
148.139000
155.586600
156.604648
141.433477
117.553473
95.287561
63.860416
48.440695
36.891699
25.865436
20.428896
18.996596
19.304752
18.861890
18.744469
18.427968
18.484592
18.042922
18.529892
17.953515
17.476678
16.866922
16.247630
16.038418
15.245676
15.391707
15.651584
14.016628
13.639927
14.097691
12.582541
13.240576
12.134910
11.284947
10.708570
10.581613
10.717511
11.266470
10.865927
10.687709
10.932684
10.597706
10.442734
11.050701
10.235906
9.763837
8.628964
8.290410
8.712411
7.723570
7.278919
7.406473
6.973743
6.481409
6.122589
6.191730
6.704926
5.953908
5.686879
5.686879
5.505681
5.171895
4.994869
5.166531
5.537868
5.590916
5.599856
5.120635
5.601645
5.437732
4.978776
5.298853
5.145669
5.596876
4.972816
5.625486
5.332828
5.020499
5.209446
4.819632
5.363822
5.215406
5.425811
5.070567
##ZVALUE=265
1.486540
1.391768
1.634955
1.534820
1.806617
1.358986
1.711845
1.617670
1.577735
1.620650
1.868606
2.171993
2.263784
2.329946
4.782677
21.344423
52.975416
132.113695
229.382515
423.449874
581.282973
777.665973
877.036452
907.166600
846.249461
681.797862
540.033579
391.723514
221.760869
137.682557
78.622699
70.190430
86.366534
110.434890
141.244531
155.433416
166.420937
162.839890
142.798424
125.296712
98.442435
74.059963
50.308704
38.003922
26.922822
22.825599
20.538568
20.659566
20.159483
20.186901
19.782782
19.982457
19.598603
19.136667
19.356608
17.650723
17.400980
16.238689
16.449690
15.523434
15.278459
14.117956
13.175607
13.742447
13.051629
12.777448
11.954904
11.738539
11.284947
11.853576
11.508465
11.235476
10.664463
10.637641
11.321902
9.965897
9.824634
9.394884
8.805990
8.671880
8.744597
8.262992
7.676482
6.669760
6.879568
6.698966
6.050467
6.163716
5.993843
5.571842
5.820990
5.513430
5.221963
5.600452
5.514622
5.312562
5.079508
5.208850
4.934669
5.080700
5.285740
5.118847
5.575418
4.667640
4.737973
4.840493
4.616976
5.108714
4.969835
4.897714
4.890561
5.013943
4.830956
4.640818
4.519820
4.751682
##ZVALUE=270
1.338720
1.506805
1.362562
1.253486
1.330972
1.554489
1.555681
1.300573
1.528859
1.704693
1.387596
1.724958
1.894832
1.988411
1.732707
2.118945
2.681613
10.410547
30.063987
94.430447
182.939768
353.967547
524.053574
749.220848
888.742805
963.924527
942.469835
860.862732
671.589971
508.438945
302.780867
189.947486
99.431872
67.843795
69.854856
88.047981
119.859576
145.539641
164.561868
174.105763
167.321563
155.428648
126.455426
104.691982
75.124502
56.332946
39.926767
32.037497
26.177764
23.208857
22.164583
22.423863
21.886826
21.280646
21.220446
20.697713
19.720793
19.351840
18.209815
18.468499
16.532540
16.611814
16.605854
14.763474
14.869571
13.787746
14.219880
13.520718
12.683868
12.800694
12.576580
11.823773
11.885762
11.680722
12.138486
10.772943
10.885596
10.241866
9.536743
9.079576
8.510947
8.252859
7.602572
7.447600
6.963611
6.944537
6.262660
6.188750
6.418824
6.297827
5.875826
5.650520
5.828738
5.480647
4.968643
5.156994
5.175471
5.147457
5.122423
4.883409
4.765987
4.670620
5.204678
5.026460
5.017519
4.611611
4.750490
4.841685
4.881620
4.937649
4.937649
4.993677
4.889965
4.724860
4.234910
4.529953
##ZVALUE=275
1.294613
1.401901
1.292825
1.605749
1.465678
1.520514
1.373887
1.467466
1.445413
1.523495
1.291633
1.444817
1.427531
1.681447
1.752973
1.794696
1.773834
1.978874
2.146959
5.418658
18.103719
64.144731
137.048960
293.026567
459.805727
683.076978
838.226676
947.381854
1004.660726
954.559445
798.021555
633.077621
405.667424
255.074501
128.050447
77.604651
57.442784
69.003701
96.319914
118.321776
149.832964
162.979960
175.255537
170.589685
154.700875
130.333900
103.386641
78.858733
56.499839
42.115450
31.419992
27.295947
23.481846
23.698807
21.354556
21.178722
20.768642
20.553470
19.399524
18.758774
17.647743
17.641783
16.431808
16.609430
15.267730
14.700890
14.421940
13.773441
12.889504
13.399720
12.528896
12.286901
12.277961
11.925697
12.055635
11.994839
10.825992
10.036826
9.706616
9.730458
8.739829
8.487701
8.327961
8.076429
7.395744
7.406473
6.709695
6.887913
6.795526
6.358624
6.546974
5.948544
5.911589
5.990863
5.409718
5.755424
5.374551
5.235672
5.464554
5.106926
5.033612
5.562901
5.491972
4.818439
5.339980
5.188584
4.932880
4.460812
4.609823
4.452467
4.388690
4.653931
4.771948
4.426837
4.311800
4.744530
##ZVALUE=280
1.428723
1.087785
1.129508
1.143813
1.279712
1.368523
1.224875
1.262426
1.225471
1.182556
1.292825
1.197457
1.406670
1.298785
1.390576
1.707673
1.676679
1.753569
1.834631
2.000928
2.097487
3.205538
10.737777
47.687888
103.534460
236.682892
369.905829
542.745590
773.280859
919.300914
1015.712619
1014.112830
893.886685
730.703473
488.666892
324.565768
167.784691
96.246600
54.762959
51.807761
71.041584
92.717409
121.789575
144.944787
162.892938
170.448422
164.755583
149.762630
123.206973
101.092458
73.267817
56.399703
39.193630
30.254722
24.057627
21.034479
19.867420
19.430518
18.818974
17.814636
17.074943
16.978979
15.432835
15.624762
15.025735
14.598966
13.827682
13.569593
13.623834
13.029575
13.084412
12.902617
11.998415
12.109876
12.077689
11.805892
10.527968
10.122657
9.461641
9.459853
9.124875
8.693933
8.203983
7.993579
7.559657
7.354617
7.330775
6.876588
7.029772
6.578565
6.646514
6.522536
6.089807
6.294847
5.889535
6.171465
5.914569
5.605817
5.858541
5.545616
5.643964
5.388856
5.211830
5.753636
5.053878
5.345941
4.889965
5.324483
4.915595
5.125999
4.787445
4.944801
4.893541
4.929900
4.718900
4.517436
##ZVALUE=285
1.193881
1.074672
1.066923
1.143813
1.069903
1.364946
1.188517
1.150966
1.277924
1.437664
1.262426
1.154542
1.289845
1.105666
1.453757
1.479983
1.403689
1.270771
1.318455
1.652837
1.686811
1.995564
2.081990
2.464652
4.869699
24.677515
59.611797
123.138428
263.824463
422.704816
666.316748
830.701590
998.643637
1015.712619
966.397524
843.066573
605.342984
425.595641
230.458975
135.389566
64.781904
43.389797
44.910908
59.890747
87.261796
110.526681
134.730935
152.530670
160.552859
159.068704
141.837597
125.254989
97.057819
74.735880
51.435828
36.442876
24.798512
19.892454
16.494989
15.395880
14.615655
14.542937
13.383627
13.130903
13.448596
13.009906
12.661815
12.438893
11.815429
11.682510
11.419654
11.329651
11.283755
11.109710
10.620952
10.592937
10.777712
9.524822
9.736419
9.461641
9.100437
8.320808
8.268952
8.311868
7.801652
7.771850
7.557869
7.183552
6.981492
6.771684
6.849766
6.195903
6.376505
6.005764
5.921721
5.675554
5.918741
5.836487
5.638599
5.477667
5.608797
5.768538
5.846620
5.607605
5.190969
5.312562
5.486608
5.403757
5.209446
5.342960
4.979968
5.017519
5.087852
5.091429
4.926920
4.504919
##ZVALUE=290
1.096725
1.022816
1.086593
1.088977
1.002550
1.128912
1.071692
1.329780
1.274943
1.248717
1.113415
1.157522
1.195669
1.265407
1.217723
1.358986
1.390576
1.328588
1.361966
1.517534
1.360774
1.654625
1.624823
1.623631
2.008677
1.990795
2.628565
7.021427
33.129454
78.340769
189.629793
323.000550
554.323792
749.290586
962.579846
1015.712023
1015.712023
928.497910
706.260800
524.135828
310.320854
184.232593
80.771446
44.087768
29.237866
36.400557
54.726601
73.818564
103.782415
123.048425
144.375563
152.804852
147.846937
139.319897
113.242865
93.331933
63.324571
46.012998
29.949546
22.044778
14.941692
12.984872
11.623502
11.140704
10.806918
10.495782
10.642409
10.470748
10.532737
10.366440
10.340810
10.325909
10.236502
9.704828
9.783506
9.682775
9.418726
8.790493
9.104609
8.485913
8.578897
8.079410
8.041859
7.970929
7.569790
7.609725
7.283688
7.017851
7.049441
6.737709
6.693602
6.317496
6.543994
5.894899
5.934834
5.876422
6.363988
6.139874
6.053448
6.259680
6.108880
5.751848
5.862713
5.617738
5.962849
5.525947
5.737543
5.793571
5.384684
5.219579
5.057454
5.117655
5.070567
4.539490
4.697442
4.995465
##ZVALUE=295
0.896454
1.090765
1.143813
1.118779
0.940561
1.069903
0.876784
1.146793
1.021624
0.934601
1.069903
1.028776
1.136661
1.139641
1.106858
1.172423
1.290441
1.192689
1.341701
1.239777
1.524687
1.439452
1.563430
1.632571
1.587868
1.737475
1.747608
1.831651
2.149940
3.527999
17.076731
47.305822
131.262541
249.355435
463.452935
651.875734
884.689689
1003.727913
1015.712023
995.619893
810.518861
628.961921
391.618013
244.327784
110.830665
55.500865
25.408864
22.413731
32.637715
45.876503
70.690513
91.027617
118.670464
133.666992
142.638683
141.286850
126.236677
107.890964
83.649755
65.105557
42.744875
28.986931
17.956495
13.569593
9.909868
8.826852
9.031892
8.178949
8.202791
8.584857
8.574724
8.806586
8.815527
8.898973
8.842945
8.750558
8.527637
8.886456
8.019805
8.018613
7.333755
7.763505
7.204413
7.143617
7.230639
7.124543
7.029772
6.956458
6.639957
6.597638
6.540418
6.601810
6.290674
6.021857
6.093979
6.016493
5.760789
6.155968
5.916953
6.048679
5.961657
5.834699
6.043911
5.591512
5.523562
5.655885
5.382895
5.185604
5.599856
5.386472
5.259514
5.407929
5.181432
5.289912
5.069971
4.993677
##ZVALUE=300
1.078844
0.991821
0.985861
0.854731
1.101494
1.048446
1.044869
1.087785
0.855923
0.956655
1.017451
1.020432
0.933409
0.933409
1.066923
1.248717
1.017451
1.211762
1.126528
1.304746
1.319647
1.338720
1.293421
1.289845
1.401901
1.431704
1.586676
1.527667
1.632571
1.859665
1.964569
2.573729
6.662607
32.345653
77.064633
192.789435
330.003500
577.967763
756.492019
956.383944
1015.712023
1014.987826
921.169519
697.786808
511.730909
286.555886
166.425705
73.037744
36.018491
17.954707
18.577576
28.189421
41.055679
63.242912
83.209872
108.934641
123.624802
132.712722
132.336617
119.780898
104.367733
79.251528
60.957670
40.390491
27.548671
17.063618
12.173653
8.577704
7.793903
7.348657
7.168651
7.445812
7.477999
7.904768
7.062554
7.469654
7.449985
7.426739
7.113814
7.199645
7.014871
6.972551
6.885529
6.574988
6.549954
6.407499
6.348491
6.206632
6.107688
5.935431
6.115437
6.279945
5.908608
5.666614
6.066561
5.746484
5.536675
5.417466
5.615950
5.644560
5.343556
5.371571
5.533695
5.571842
5.590916
5.566478
5.685687
5.473495
5.297661
5.225539
5.317926
5.340576
4.988909
4.948974
4.914999
5.105734
##ZVALUE=305
0.895858
0.871420
0.787973
0.847578
0.845790
0.825524
1.072884
0.870824
0.956655
0.918508
1.055598
0.810623
0.992417
0.893474
0.913739
1.170635
1.045465
0.981688
1.096725
1.073480
1.036525
1.096725
1.130700
1.215935
1.279712
1.258850
1.383424
1.422763
1.428723
1.466870
1.505613
1.849532
1.949668
2.162457
4.379749
14.949441
58.836937
129.394531
285.539627
443.672538
686.314702
861.248970
1011.757851
1015.712619
952.989459
808.861852
577.426553
402.102470
209.623575
117.634535
47.144890
21.924973
13.472438
16.543865
25.957823
38.300753
61.628819
78.336596
101.530552
116.255879
124.202967
124.740005
114.251971
99.780560
76.763630
58.291554
38.338900
26.275516
15.372634
10.868907
8.285642
7.081628
6.922483
6.804466
6.787777
6.470680
6.633997
6.524920
6.265640
6.317496
6.296635
6.332994
6.250739
6.220937
6.639957
5.860925
5.946755
5.802512
5.873442
5.726814
5.738735
5.522966
5.269647
5.104542
5.210638
5.113482
5.328655
5.113482
5.179644
5.243421
5.217791
5.258918
5.098581
5.292892
5.240440
5.305409
5.270839
5.227923
4.974604
5.041957
5.103946
4.980564
4.844666
4.565716
4.646778
4.477501
##ZVALUE=310
1.033545
0.878572
0.889897
0.827909
0.767708
0.988841
0.909567
0.884533
0.991821
0.944734
0.911951
1.086593
0.837445
1.039505
0.875592
0.996590
1.050830
0.986457
1.028776
0.988841
0.996590
1.162887
1.101494
1.221895
1.258850
1.061559
1.361966
1.086593
1.180768
1.274943
1.560450
1.476407
1.582503
1.591444
1.777411
1.721978
2.462864
6.350875
31.768680
75.470805
186.867714
319.173932
555.108786
738.505721
947.421789
1015.712619
1008.414030
914.463997
708.204508
518.043637
295.792818
175.723433
75.040460
34.711957
14.140606
11.150837
15.521646
21.755695
35.494566
49.105883
71.906447
87.721944
106.666684
116.313696
117.064714
112.389922
94.097853
77.305436
54.182410
38.500428
24.191737
16.225576
10.743737
8.310676
6.756783
5.909801
5.757809
5.411506
5.342960
5.440712
5.427599
5.230904
5.118847
5.238652
5.013943
5.223751
4.953742
5.064607
5.256534
5.206466
5.037785
4.530549
4.851818
4.884601
4.727840
4.728436
4.700422
4.772544
4.717708
4.652739
4.620552
5.100965
4.740953
4.792809
4.804730
4.746914
4.832745
4.654527
4.690886
4.763603
4.542470
4.591942
4.346967
4.228950
4.145503
4.014969
##ZVALUE=315
0.801682
0.889897
0.947714
0.811815
0.795722
1.064539
0.926852
0.899434
0.956655
0.886917
0.877976
0.966787
0.777841
0.976920
0.983477
1.101494
0.830889
0.948906
1.086593
0.900626
0.988841
0.968575
1.042485
1.029968
1.128912
1.073480
1.163483
1.067519
1.130700
1.287460
1.346469
1.332760
1.409650
1.320839
1.458526
1.379848
1.773834
1.726747
1.985431
3.224611
16.190410
45.095682
130.607486
240.936875
460.380912
648.595691
871.710777
996.363759
1015.712619
978.755951
792.904496
618.280768
381.139517
237.254500
109.778643
52.398443
17.343760
10.454655
10.602474
13.548732
20.771623
30.075908
48.688650
63.982606
85.858703
99.833608
110.539794
112.039447
101.180673
89.365840
68.640709
53.990483
35.760999
24.944544
14.477968
10.124445
6.575584
5.373955
4.896522
4.623532
4.400611
4.278421
4.731417
4.479885
4.273653
4.364848
4.247427
4.164577
4.397631
4.321933
4.216433
4.207492
4.186630
4.198551
4.085898
4.249811
4.337430
3.918409
4.137754
4.034638
4.028678
4.153848
3.758669
4.113913
4.078746
4.114509
4.118681
4.036427
3.715754
4.096627
3.776550
4.020929
4.047751
3.910661
4.107952
3.914833
##ZVALUE=320
0.830889
0.683665
1.003742
0.819564
0.827909
0.798702
0.932813
0.732541
0.853539
0.765920
0.920892
0.760555
0.792742
0.936985
0.923872
0.991821
0.870824
0.900626
0.866652
0.823736
0.974536
0.940561
0.924468
1.011491
1.016855
0.896454
1.043677
1.124740
1.169443
1.327991
1.035929
1.247525
1.407862
1.395941
1.542568
1.326799
1.381636
1.625419
1.626611
1.852512
1.854897
2.116561
7.652640
24.513602
87.479949
173.981786
349.525809
521.720648
766.038895
915.137529
1015.712023
1008.818746
871.527791
714.928508
479.649901
309.321880
144.746900
76.780915
28.240681
13.126731
8.432865
9.141564
11.985898
17.144680
27.739406
39.823651
59.184432
75.544715
94.119906
102.828741
105.249882
98.227859
84.348917
68.994761
49.433708
36.485791
21.319985
13.593435
8.352995
5.689859
4.560947
4.037619
3.739595
3.761649
3.619790
3.772974
3.635883
3.449917
3.510714
3.612638
3.579855
3.525615
3.744960
3.456473
3.685951
3.409982
3.749728
3.524423
3.563762
3.458858
3.330708
3.615618
3.663898
3.686547
3.446937
3.653765
3.583431
3.704429
3.477931
3.423691
3.460646
3.425479
3.369451
3.460646
3.174543
3.025532
##ZVALUE=325
0.710487
0.570416
0.760555
0.988841
0.842810
0.791550
0.688434
0.761747
0.890493
0.787973
1.009703
0.901818
0.894666
0.943542
0.633597
0.678897
0.694990
0.973940
0.974536
0.903606
0.885725
0.860691
0.939965
0.933409
1.020432
0.933409
1.024604
1.094937
0.944734
1.160502
1.000762
1.287460
1.107454
1.169443
1.236796
1.143813
1.230836
1.333952
1.332760
1.458526
1.696944
1.516938
1.837611
2.167821
3.583431
19.622445
51.494837
133.273602
246.182680
404.940844
650.141835
821.725726
977.277756
1005.086899
910.408497
768.525004
539.473891
367.019773
190.993547
105.040669
39.769411
17.135739
8.459687
7.335544
8.134842
10.738969
16.784668
25.158525
42.417645
57.447553
74.455738
86.845756
97.358823
96.519589
90.330839
79.450607
62.157512
47.079921
29.535890
20.491481
11.205673
7.930994
4.989505
4.345775
3.517866
3.302693
3.227592
3.297925
3.141761
3.070831
2.883673
2.826452
2.844930
2.884865
3.061891
3.072619
3.240705
3.245473
3.231764
3.310442
3.247857
3.183484
3.032684
3.386736
2.960563
3.014803
2.976656
2.972484
2.965927
3.046989
3.059506
2.760887
2.958775
2.876520
2.857447
2.704859
##ZVALUE=330
0.802875
0.765920
0.793934
0.769496
0.723600
0.751615
0.835657
0.711679
0.765920
0.878572
0.803471
0.834465
0.921488
0.764728
0.827909
0.848770
0.725985
0.833869
0.772476
0.905991
0.815988
0.784993
0.967979
0.826716
0.972748
1.031756
0.908971
1.148582
1.049638
0.925660
1.099706
1.033545
0.998974
1.069903
1.049638
1.018643
1.152754
1.103878
1.257658
1.246929
1.410842
1.372695
1.366735
1.565814
1.676679
1.766682
2.601743
7.050633
33.969879
81.108809
195.971727
328.821540
556.678772
729.905963
913.287997
986.119509
945.323706
834.823847
623.031855
454.850793
252.152681
140.072703
55.997968
25.397539
9.430647
7.074475
6.702542
7.252693
10.327697
15.525818
26.626587
36.391616
53.040981
68.088770
81.094503
88.694692
89.685917
83.739758
70.569515
58.043599
41.432977
29.848814
19.020438
12.882948
7.343888
5.278587
3.872514
3.342628
3.124475
2.829432
2.918839
2.916455
2.705455
2.580881
2.633929
2.928972
2.695918
2.869964
2.962947
2.895594
2.734661
2.758503
2.731681
2.944469
2.649426
2.785921
2.677441
2.912879
2.861619
2.880692
2.857447
2.741814
2.614856
2.759695
2.453923
2.523661
##ZVALUE=335
0.638962
0.610948
0.677705
0.777841
0.751615
0.704527
0.646710
0.701547
0.706911
0.786781
0.736713
0.584722
0.794530
0.639558
0.607967
0.725985
0.707507
0.752807
0.758767
0.945926
0.826716
0.876784
1.001954
0.777841
0.859499
0.930429
0.930429
0.994802
0.999570
1.016855
0.903606
1.007915
0.699759
0.895858
1.101494
0.935793
1.055598
1.124740
1.124740
1.234412
1.165867
1.286864
1.233816
1.353621
1.485944
1.358986
1.496673
1.691580
1.987815
3.367662
17.957687
48.987865
135.455728
242.509842
443.243980
626.766682
844.888687
943.066478
961.538553
887.748599
698.914528
530.579686
320.230722
190.876722
80.737472
37.490726
12.862682
7.313490
6.447434
6.149411
7.270575
9.531975
14.637709
22.230744
35.648942
47.901869
64.415932
74.900985
83.437562
84.258914
76.859593
68.965554
53.868890
42.711496
28.890967
20.243526
12.261868
8.235574
4.844666
3.849864
3.045797
3.085732
2.681613
2.593994
2.636909
2.432466
2.564788
2.581477
2.518892
2.641678
2.560616
2.502799
2.634525
2.425909
2.544522
2.557635
2.709627
2.602935
2.697706
2.676845
2.597570
2.471805
2.613664
2.488494
2.536774
2.281666
##ZVALUE=340
0.804663
0.780821
0.731945
0.788569
0.974536
0.612736
0.772476
0.634789
0.793934
0.788569
0.669956
0.794530
0.822544
0.757575
0.838637
0.865459
0.791550
0.881553
0.884533
0.589490
0.645518
0.666976
0.703931
0.713468
0.757575
0.878572
0.869632
0.851750
0.893474
0.948906
0.934601
1.034737
0.859499
0.919700
0.992417
1.046658
1.043677
1.044869
1.010895
0.999570
1.003742
1.009703
1.349449
1.096725
1.256466
1.129508
1.421571
1.278520
1.409650
1.620650
1.841784
2.275705
8.373857
28.800964
95.341802
184.092522
364.199877
535.430908
753.892660
871.748924
940.909982
903.044939
749.152899
590.917468
369.161963
231.539011
108.291507
51.463842
15.816689
7.969737
6.099939
6.048679
5.865693
6.525517
9.384751
12.946725
22.325516
31.961799
47.815442
59.282780
72.464943
77.258945
78.288913
73.988438
63.396692
53.385496
38.770437
29.096603
18.488765
12.575984
7.297993
5.158782
3.434420
3.121495
2.716780
2.566576
2.653599
2.540946
2.454519
2.527833
2.649426
2.671480
2.539754
2.477765
2.493858
2.248883
2.511740
2.431870
2.381802
2.530813
2.642870
2.495646
2.436638
2.522469
2.407432
2.287626
##ZVALUE=345
0.740886
0.638962
0.770688
0.605583
0.615716
0.617504
0.689626
0.822544
0.738502
0.916719
0.817776
0.776649
0.771880
0.624657
0.647902
0.726581
0.703931
0.731945
0.897646
0.731945
0.853539
0.776649
0.757575
0.720620
0.718832
0.804663
0.958443
0.815988
0.895858
0.845790
0.844598
0.776649
0.862479
0.863671
0.806451
0.772476
0.880957
0.981688
1.019835
1.082420
0.980496
1.018643
1.064539
1.127720
0.971556
1.020432
1.159906
1.199841
1.106858
1.375675
1.489520
1.506805
1.532435
1.694560
4.019737
14.739633
60.358644
125.977993
266.767740
412.726998
633.726716
786.916018
906.284451
919.783711
812.800527
675.377846
457.469821
301.642418
140.586495
68.616867
22.741556
10.479689
6.187558
5.813837
5.279779
5.171895
6.104708
7.960796
13.047457
19.211769
30.286908
40.461421
54.102540
62.979460
70.534945
71.894526
68.052411
61.727762
50.173998
40.039420
26.518703
18.518567
11.294484
8.018613
4.899502
3.657937
2.962947
2.534986
2.584457
2.307892
2.520680
2.440810
2.339482
2.287626
2.495646
2.458692
2.507567
2.427697
2.574921
2.417564
2.191663
2.209544
2.296567
2.229810
2.269745
2.400875
##ZVALUE=350
0.679493
0.697970
0.721812
0.597835
0.719428
0.589490
0.737906
0.780821
0.810623
0.748634
0.840425
0.774860
0.775456
0.603795
0.828505
0.746846
0.816584
0.830889
0.750422
0.916719
0.782609
0.496507
0.680685
0.808835
0.732541
0.731945
0.755787
0.850558
0.708699
0.781417
0.928640
0.774860
0.838637
0.878572
0.818968
0.811815
1.008511
0.897646
0.853539
0.941753
1.052618
1.085997
1.034737
0.875592
1.203418
1.062751
1.123548
1.143813
1.364946
1.266599
1.162887
1.204610
1.421571
1.350641
1.574755
1.683831
2.557635
7.668734
33.849478
78.280568
190.347433
323.809981
539.691448
689.253807
844.174623
896.480680
840.965509
721.611977
506.481528
338.788629
171.765685
94.073415
36.170483
15.047789
6.779432
5.596876
5.085468
4.699826
4.929900
5.381703
7.324815
10.839701
17.818809
24.863482
36.900640
46.131611
57.407618
62.662959
65.622926
63.801408
56.174994
48.004985
35.604835
26.934743
18.121600
12.887716
7.786751
5.599856
3.871918
3.109574
2.625585
2.670884
2.399683
2.571940
2.504587
2.357960
2.226830
2.348423
2.479553
2.209544
2.185702
2.317429
2.299547
2.104640
2.218485
2.225637
##ZVALUE=355
0.797510
0.757575
0.702739
0.590682
0.702739
0.732541
0.703931
0.691414
0.696778
0.733733
0.785589
0.695586
0.660419
0.727773
0.800490
0.687838
0.842810
0.830889
0.608563
0.729561
0.752807
0.883937
0.942945
0.693798
0.740886
0.781417
0.810623
0.686646
0.795722
0.800490
0.869632
0.799894
0.873804
0.875592
0.841618
0.939965
0.891685
0.996590
0.993609
0.848770
0.892878
0.840425
0.979900
1.013875
0.967979
0.997782
0.910759
0.997782
1.184940
1.064539
1.142621
1.191497
1.359582
1.282692
1.332760
1.403689
1.494884
1.523495
1.754761
3.422499
18.615723
52.691698
139.908791
241.800547
431.642532
591.885448
777.129531
858.372450
846.959949
750.197768
555.099845
408.802629
229.566693
127.545595
50.899982
21.442771
7.256866
5.366802
4.802942
4.532933
4.015565
4.160404
4.732609
6.322861
9.639859
13.917685
22.170544
29.865503
41.487813
50.179958
57.387948
60.480833
58.561563
53.028464
45.047998
36.808848
26.983619
19.829869
12.376904
8.713603
5.243421
4.169941
2.870560
2.677441
2.430677
2.401471
2.236962
2.262592
2.395511
2.252460
2.284646
2.198815
2.122521
2.064705
2.056956
2.109408
##ZVALUE=360
0.716448
0.672936
0.761747
0.643730
0.834465
0.719428
0.741482
0.754595
0.697970
0.677705
0.694990
0.709891
0.716448
0.754595
0.884533
0.709891
0.599623
0.787973
0.833869
0.855923
0.870824
0.740886
0.674725
0.830889
0.816584
0.762939
0.751615
0.706911
0.736713
0.855923
0.803471
0.772476
0.819564
0.885725
0.728965
0.760555
0.834465
0.947714
0.936985
0.962615
0.914931
0.971556
0.834465
0.951886
0.888705
0.900626
1.044869
0.872612
1.120567
1.063943
1.017451
0.995994
1.258850
1.139641
1.015663
1.327991
1.307726
1.444817
1.355410
1.572967
1.541972
2.171993
8.809566
26.607513
84.379911
163.749456
328.884721
484.810472
696.962476
808.326602
847.993493
793.019533
639.085770
483.369827
288.864970
171.673894
69.731474
30.110478
9.413958
5.662441
4.596710
4.186630
3.940463
3.942847
3.847480
3.967881
5.248785
7.123947
12.232661
17.513633
26.010871
33.884645
43.835640
49.943924
54.753423
54.634809
50.734878
45.011640
35.645962
29.090643
19.646883
13.862848
8.950830
6.287694
3.971457
3.181696
2.704859
2.316833
2.138615
2.373457
2.226830
2.189875
2.014637
2.069473
1.870990
2.036691
##ZVALUE=365
0.730753
0.729561
0.689626
0.673532
0.730753
0.720620
0.618696
0.737906
0.619888
0.621676
0.567436
0.751615
0.605583
0.796914
0.666976
0.785589
0.706911
0.619888
0.714660
0.625849
0.691414
0.805855
0.788569
0.727773
0.839829
0.774860
0.734925
0.878572
0.823736
0.723600
0.879765
0.793934
0.869632
1.016855
0.884533
0.873804
0.853539
0.810623
0.960827
0.762939
0.860691
0.799894
0.882745
0.846982
0.861883
1.036525
1.104474
0.976920
1.027584
0.968575
0.897646
1.066923
1.113415
1.047850
1.176000
1.056790
1.188517
1.191497
1.052618
1.232624
1.496673
1.516938
1.704693
1.792908
4.020929
12.881756
52.169561
113.924742
258.951783
409.298539
612.288713
732.165575
821.636915
813.241601
697.823763
561.644435
350.811481
215.532780
95.567703
46.388507
15.238523
7.046461
4.641414
4.367828
4.075766
3.930926
3.634691
3.533959
3.568530
4.114509
6.571412
9.407997
15.317798
21.619797
30.095577
36.812425
44.418573
48.504472
50.405860
48.478842
42.304993
36.889911
28.434992
21.385550
14.444590
10.456443
6.203651
4.258752
3.325939
2.679825
2.407432
2.202988
2.028942
1.957417
2.074838
1.805425
##ZVALUE=370
0.662804
0.613928
0.696778
0.741482
0.684857
0.686646
0.581741
0.705719
0.864863
0.492930
0.727773
0.618696
0.529885
0.633597
0.696778
0.664592
0.687838
0.708699
0.802875
0.754595
0.630617
0.834465
0.786781
0.639558
0.749826
0.785589
0.762939
0.841618
0.835657
0.756979
0.892878
0.694990
0.848770
0.790954
0.832677
0.908971
0.777841
0.659823
0.736713
0.825524
0.792742
0.834465
0.903606
0.809431
0.792742
0.961423
0.849962
0.807643
0.950694
0.897646
0.925660
1.047850
0.827909
0.997782
0.969768
1.003742
1.104474
1.120567
1.146793
1.331568
1.234412
1.289845
1.256466
1.273751
1.479983
1.518726
2.414584
7.482767
36.277771
87.151527
207.908750
330.334902
522.672534
666.681528
791.575909
812.836885
733.099580
599.715710
401.053429
262.340903
122.609735
63.516498
23.678541
10.097623
4.830956
4.367828
4.113913
3.592968
3.546476
3.371835
3.060699
3.032684
3.939867
5.195737
8.388758
12.029409
18.480420
24.717450
33.566952
39.500594
45.349002
46.928525
46.067834
42.512417
34.775734
28.979778
20.666718
14.396906
10.710955
6.947517
5.075932
3.268719
2.832413
2.392530
2.130866
1.923442
##ZVALUE=375
0.713468
0.662804
0.718832
0.631809
0.587702
0.620484
0.757575
0.680685
0.742674
0.665784
0.686646
0.652671
0.680685
0.730753
0.799894
0.725985
0.583529
0.734925
0.663996
0.692606
0.769496
0.799894
0.697970
0.640750
0.672936
0.788569
0.797510
0.733733
0.784993
0.680685
0.764728
0.751615
0.633597
0.729561
0.668764
0.647902
0.683665
0.853539
0.812411
0.751615
0.800490
0.892878
0.837445
0.814795
0.805855
0.733733
0.961423
0.946522
0.808835
0.896454
1.030564
0.971556
0.917912
0.935793
0.875592
0.914931
1.047850
0.958443
1.035929
1.022816
1.173615
1.123548
1.081824
1.177788
1.192689
1.351833
1.247525
1.627803
1.885891
4.167557
21.024942
52.637458
137.335658
244.381428
432.160497
579.066873
737.771988
797.575712
760.475993
657.539964
469.002724
328.179002
183.032751
103.692412
40.458441
17.584562
5.957484
4.318953
3.892779
3.537536
3.530979
3.129840
3.031492
2.973676
2.889633
3.218651
4.413724
6.301999
10.210872
14.644861
21.749735
27.973652
36.084652
40.993690
44.533610
43.818951
41.048527
35.039783
30.243993
23.053885
17.693639
11.818409
8.505583
5.367994
3.891587
2.691746
##ZVALUE=380
0.661612
0.589490
0.643730
0.763535
0.763535
0.712872
0.654459
0.647902
0.666976
0.590682
0.722408
0.643730
0.536442
0.703931
0.683665
0.682473
0.570416
0.600815
0.677705
0.562668
0.600815
0.636578
0.722408
0.622869
0.676513
0.830889
0.684857
0.767708
0.886917
0.695586
0.828505
0.663996
0.899434
0.794530
0.720620
0.714660
0.807643
0.897646
0.702739
0.696778
0.858903
0.751615
0.723600
0.771880
0.752807
0.852942
0.838637
0.773668
0.807643
0.862479
0.895858
0.799894
0.806451
0.974536
0.810623
0.992417
0.821948
0.834465
0.959635
0.903606
1.144409
0.992417
0.996590
1.029968
0.928640
1.153946
1.246929
1.261830
1.354814
1.665950
1.687407
2.487898
11.943579
34.566522
99.218488
187.123418
357.518792
515.244603
697.391033
782.612562
786.205530
708.159804
550.092459
410.015583
237.797499
143.099427
60.203671
26.966929
8.442998
4.555583
3.769994
3.483891
3.257990
3.290772
2.948642
2.906919
2.698898
2.734661
2.998710
3.560781
5.582571
8.279681
13.638735
18.747449
25.893450
32.127500
37.982464
41.362643
42.185783
40.217638
35.448670
30.984879
24.033785
17.965436
12.336969
7.819533
##ZVALUE=385
0.581741
0.711679
0.616908
0.569820
0.549555
0.770688
0.519753
0.624657
0.755787
0.556707
0.669956
0.854731
0.643730
0.807643
0.797510
0.640750
0.626445
0.695586
0.582933
0.580549
0.699759
0.659823
0.682473
0.759959
0.687838
0.768900
0.679493
0.657439
0.554919
0.632405
0.831485
0.749826
0.910759
0.807643
0.845790
0.890493
0.899434
0.783801
0.659823
0.884533
0.987649
0.884533
0.697970
0.879765
0.783801
0.746846
0.839829
0.758767
0.921488
0.852942
0.949502
0.792742
0.870824
0.906587
0.865459
0.891685
0.974536
0.972748
0.937581
0.804663
0.987649
0.938773
1.022816
1.017451
0.985861
0.959635
1.171827
1.165867
1.231432
1.369715
1.609921
1.525879
1.644492
1.718998
4.919767
17.439723
66.559911
140.392780
292.443633
434.563756
617.366433
727.034807
782.064795
753.667951
629.362464
500.789881
316.314697
201.085806
92.022419
44.059753
13.619661
5.944967
3.943443
3.458858
3.397465
3.432631
3.052950
3.035665
2.870560
2.881885
2.799630
2.703667
3.452897
4.417896
6.944537
11.357665
15.971661
21.887422
26.979446
32.706857
36.541820
38.651824
38.115978
34.499764
30.585527
24.517775
##ZVALUE=390
0.587702
0.683665
0.582933
0.636578
0.598431
0.666976
0.633597
0.572801
0.553727
0.763535
0.644922
0.543594
0.689626
0.617504
0.547767
0.648499
0.587702
0.646710
0.570416
0.480413
0.645518
0.559688
0.672936
0.741482
0.702739
0.703931
0.701547
0.652671
0.587702
0.678897
0.713468
0.756979
0.722408
0.790954
0.790954
0.824928
0.940561
1.001954
0.809431
1.000762
0.937581
0.882745
1.033545
0.954866
0.965595
0.844598
0.908971
1.017451
0.777841
0.951886
0.919700
1.006722
0.887513
0.853539
1.005530
0.897646
0.969768
1.045465
0.934601
1.089573
1.025796
0.930429
0.934601
0.987649
1.102686
0.976920
1.092553
1.226664
1.415610
1.332760
1.344681
1.296997
1.423955
1.439452
1.522899
1.544952
2.790689
9.788871
43.904781
100.110769
229.485631
359.573960
540.974736
667.861700
772.489905
781.435966
694.921613
579.464436
396.433473
267.852545
136.995912
70.856810
24.316907
9.856820
4.233718
3.587604
3.434420
3.368855
3.361702
3.211498
3.065467
3.038645
2.914667
2.634525
2.663732
2.927780
3.848672
6.162524
8.509755
13.323426
17.711520
23.528934
28.403997
33.566952
36.011934
36.458969
##ZVALUE=395
0.635982
0.736713
0.562668
0.485778
0.649691
0.499487
0.599623
0.739694
0.692606
0.659823
0.725985
0.676513
0.677705
0.587702
0.626445
0.509620
0.611544
0.572801
0.522733
0.445843
0.674725
0.654459
0.712872
0.680685
0.775456
0.769496
0.719428
0.627637
0.802875
0.778437
0.753999
0.701547
0.868440
0.836849
0.800490
0.938773
0.920892
0.878572
1.000762
1.069903
0.980496
1.257658
1.032948
0.921488
0.927448
1.064539
1.032948
1.132488
1.144409
1.027584
0.986457
1.013875
1.078844
1.017451
0.775456
0.876784
1.025796
0.932813
0.830889
0.989437
1.050830
1.064539
1.136661
1.089573
1.006722
1.007915
1.053810
1.026988
1.131892
1.133680
1.524687
1.401901
1.375675
1.360774
1.339912
1.417994
1.329780
1.476407
2.012849
5.427599
28.396845
68.400502
160.678625
271.174908
456.207991
596.988797
744.696856
794.556737
759.128928
662.959814
484.531522
338.394642
178.314447
95.578432
35.571456
15.386939
5.388856
3.876686
3.582835
3.572702
3.407598
3.436804
3.322959
3.335476
3.058910
2.759695
2.758503
2.514720
2.890825
3.201962
4.875660
6.590486
10.886788
14.910698
21.515489
27.593970
##ZVALUE=400
0.809431
0.742674
0.754595
0.654459
0.707507
0.611544
0.717640
0.718832
0.653863
0.662804
0.535846
0.607967
0.653863
0.644922
0.560880
0.633597
0.598431
0.607967
0.641942
0.522733
0.712872
0.572801
0.738502
0.573993
0.568628
0.620484
0.633597
0.733733
0.613928
0.877976
0.734925
0.637770
0.667572
0.814795
0.795722
0.984669
0.890493
0.837445
0.997782
0.948906
0.983477
0.854731
1.137853
1.077652
0.971556
1.165867
0.900626
0.848770
1.128912
1.045465
0.952482
1.057982
0.927448
0.938773
0.994802
0.949502
0.920892
0.984669
1.020432
0.974536
1.059771
0.986457
0.943542
0.909567
1.013875
0.988841
1.283884
0.998974
1.133680
1.222491
1.391768
1.230836
1.365542
1.197457
1.226664
1.240969
1.380444
1.304746
1.467466
1.500845
1.751781
2.847910
14.614463
40.347576
113.608837
206.534863
378.651619
520.009995
686.515570
764.345527
767.761469
696.156621
535.650849
392.716527
224.447846
135.679841
58.166981
27.634501
9.401441
4.926920
3.468990
3.617406
3.541708
3.470778
3.479719
3.533959
3.323555
3.016591
2.817512
2.499819
2.437830
2.501607
3.064871
3.831983
6.037951
9.620786
##END
