##TITLE=QP00601
##FORMAT=SPECTACLE-ASCII V-1.2
##DATA TYPE=ULTRAVIOLET SPECTRUM
##SECOND TYPE=ULTRAVIOLET SPECTRUM
##DATE=10/03/17
##TIME=12:25:29
##SPECTROMETER/DATA SYSTEM=SPECTACLE
##XUNITS=NM EM
##YUNITS=ENERGY
##YFACTOR=1
##FIRSTX=220
##LASTX=410
##NPOINTS=96
##3DDATA=Equidistant
##ZUNITS=NM EX
##FIRSTZ=210
##LASTZ=400
##ZPOINTS=39
##XYDATA=(Y..Y)
##ZVALUE=210
2.981424
2.771616
2.633929
2.720952
2.949834
2.808571
2.993941
3.447533
3.055930
3.297925
3.686547
2.951622
2.915859
3.234744
3.427863
3.236532
3.504753
3.408790
3.641844
3.944635
4.208684
4.685521
4.646778
4.925728
5.243421
4.919767
4.777908
4.550815
5.045533
5.368590
5.914569
5.889535
5.585551
5.629659
6.177425
6.241798
6.027818
6.592870
6.400943
6.312728
6.559491
6.562471
6.684661
6.078482
7.575750
7.670522
6.582737
6.968975
6.848574
6.546974
6.963611
7.587671
6.465912
7.327795
8.140802
7.437468
6.694794
7.310510
6.907582
7.517934
7.890463
7.503629
7.281899
7.056594
7.447600
7.336736
8.279681
8.321404
10.579824
11.393428
12.665987
15.023947
16.087890
18.043518
18.745661
19.278526
20.507574
20.095706
19.285679
19.589663
16.883612
15.214682
13.223886
11.858940
11.980534
9.646416
9.045601
8.577704
7.905960
7.382631
7.169843
6.364584
7.689595
7.018447
7.598996
7.760525
##ZVALUE=215
6.173849
6.146431
6.006956
5.641580
5.175471
3.737807
4.153848
5.110502
5.826950
5.857944
4.814863
5.607605
4.462600
3.959537
3.996491
3.807545
3.562570
4.074574
4.264712
4.360676
4.808903
4.745722
4.821420
5.444884
5.503893
5.074739
4.911423
5.992651
6.111860
6.010532
5.869865
5.937815
6.051660
5.836487
6.501675
6.182790
6.610751
6.109476
7.239580
7.562637
6.764531
6.828904
6.547570
6.486773
6.432533
6.504655
7.726550
6.933808
7.000566
7.784963
7.335544
7.747412
7.388592
7.980466
7.851720
7.382631
7.387996
7.417798
7.523894
7.408857
8.332729
8.171797
7.622838
6.568432
7.750988
8.742809
7.458925
9.179711
9.939671
10.991693
13.213754
15.243888
15.538931
17.800927
18.449426
19.696951
19.729733
19.586682
18.237829
17.782450
17.499924
15.019774
12.855530
12.514591
10.562539
10.491610
7.961988
8.021593
8.080602
7.497668
7.260442
7.848740
7.322431
7.076859
7.520914
6.821752
##ZVALUE=220
20.927787
21.326542
20.711422
22.580624
21.768808
17.479658
15.898943
12.225509
10.077953
11.603832
12.343526
11.766553
10.983944
11.139512
9.031892
8.040667
6.703734
5.631447
4.882812
4.677773
4.771948
4.916787
4.947782
5.448461
5.386472
5.567670
6.092787
6.791949
5.798936
5.762577
5.558729
5.533695
6.242990
5.995631
7.103682
6.404519
6.849766
7.582903
6.585717
7.422566
7.148981
7.267594
7.288456
7.297993
6.980896
7.678866
7.343888
6.696582
8.693933
7.587671
7.181764
7.879734
7.489920
7.879734
8.408427
7.482767
8.716583
8.717775
8.336902
8.552670
8.087754
7.935762
9.044409
9.102821
8.915663
9.244680
10.156631
10.644794
11.734962
12.827516
12.870431
15.383959
18.310547
19.175410
19.843578
21.260977
20.093918
20.308495
21.550655
18.982887
17.644763
15.855432
16.036630
13.404489
12.253523
12.567639
10.378957
10.644794
10.529757
9.787679
9.015799
8.905530
9.327531
9.391904
8.874536
8.785725
##ZVALUE=225
36.699772
34.794807
52.303672
61.786771
70.464611
74.003935
68.877935
58.640838
39.995909
32.613873
25.423765
22.370815
23.940802
24.539828
24.132729
22.745728
20.542741
17.058849
14.406443
10.358691
6.751418
5.779862
5.282760
5.321503
5.774498
5.550981
5.923510
6.147623
6.141663
6.935596
7.288456
6.344914
6.750822
7.033944
6.779432
7.302761
6.393790
7.386804
7.870793
8.698702
6.371737
8.132458
8.362532
8.182526
8.319616
8.349419
9.721518
8.236766
8.180737
8.632541
7.950664
9.499788
9.904504
9.419918
10.903478
9.473562
10.257959
8.838773
10.296702
10.930896
10.702610
9.947419
11.667609
11.640787
11.934638
11.507869
12.423992
12.555718
13.213754
14.145970
16.947985
19.159913
19.909739
19.960999
20.718575
22.889972
21.412969
23.890734
21.127462
19.991994
19.432902
17.677546
16.465783
16.044974
15.522838
14.836788
13.529658
12.908578
12.368560
12.526512
11.864901
12.751818
12.250543
11.740923
12.293458
11.600852
##ZVALUE=230
32.481551
37.781596
56.044459
99.483728
133.539438
166.572928
183.403492
190.458894
170.522928
150.025487
104.594827
75.174570
52.728653
47.424436
43.913722
49.388409
48.172474
47.338605
42.272806
36.634803
28.303862
18.696785
13.412833
9.641647
7.781982
5.960464
6.495714
6.906986
7.163882
7.259846
7.213950
7.155538
7.732511
8.685589
7.873774
9.158850
8.504987
8.352995
9.049773
8.283854
8.311868
9.265542
8.411407
9.205937
9.795427
9.528995
9.936690
9.869933
9.849668
10.345578
10.573864
10.201931
11.121631
11.130571
11.910796
12.171865
13.997555
12.812614
13.855696
13.970733
14.515519
16.300678
14.303923
14.985800
15.100837
15.412569
16.442537
17.066598
17.837882
19.233823
21.817684
21.891594
23.690462
27.677417
27.307868
29.265881
27.399659
28.359890
27.747750
28.190613
25.116801
23.696423
23.798943
21.538734
19.845963
19.539595
19.636750
18.687844
18.998981
20.121932
19.985437
19.083619
20.546913
19.066930
18.081665
19.888878
##ZVALUE=235
12.480617
14.525652
29.353499
71.454644
115.795732
198.072791
267.712474
363.783836
391.089916
396.334529
368.067622
312.164426
207.876563
153.140426
103.575587
78.014731
67.293644
74.268579
80.309510
84.163547
77.481866
65.873861
53.197742
35.742521
26.905537
17.267466
11.630654
8.838773
8.519888
7.147789
7.873774
8.121729
8.228421
8.307695
8.727908
8.597970
9.353757
9.073615
9.444952
9.163618
9.282827
9.674430
10.259748
10.374784
9.918809
11.453629
9.237528
10.447502
10.850430
10.782480
13.147593
13.505816
12.732744
12.981892
14.135838
14.567971
15.349984
16.358495
17.105937
18.339753
18.663406
18.097758
18.675923
19.801855
20.090938
21.114945
20.759702
23.137927
24.562478
24.343729
28.250813
31.038523
29.676557
31.587481
34.254789
37.676692
35.285950
35.599470
35.305619
34.376979
32.698512
30.752420
33.564568
27.318001
29.200912
27.924776
28.809905
28.745532
29.297471
27.555823
28.507710
27.391911
27.077794
27.072430
27.769804
28.705597
##ZVALUE=240
2.927780
3.097653
6.774664
16.918778
45.638680
90.451837
187.803507
284.409523
434.794426
541.089773
619.581938
635.237694
590.163469
474.929810
381.694436
239.448547
165.880919
114.296675
101.215839
101.124644
104.732513
110.943913
107.745528
100.958943
82.264543
64.393878
43.331981
31.851530
19.649863
13.444424
9.544492
9.072423
9.252429
8.992553
8.028746
8.131862
9.020567
9.791851
9.042621
10.357499
9.899735
10.893941
9.687543
9.845495
10.652542
10.511875
10.859966
10.912418
11.765957
11.172891
12.557507
14.030933
14.052987
14.737844
16.148686
15.414953
16.336441
17.775893
18.449426
19.458532
18.990636
22.228956
20.188689
21.658540
24.544597
23.973584
25.033951
26.826859
28.543472
29.995441
30.650496
32.372475
34.534931
35.617948
35.786629
38.261414
39.424896
39.813519
39.064884
39.542913
38.160682
37.017465
37.330985
36.697984
36.033988
35.295486
37.324429
36.258698
35.375953
33.787489
34.981966
35.252571
33.424497
32.601953
37.163496
34.599900
##ZVALUE=245
2.209544
2.831817
2.517700
2.886653
5.586743
13.268590
40.062666
89.830756
203.088522
319.045782
511.909723
642.881989
749.769807
807.410479
766.212940
654.914975
527.261496
350.282788
241.354704
145.507455
108.888745
100.269914
109.561682
120.508671
126.240849
120.640993
109.063983
91.401935
69.177747
52.358508
37.776828
21.607876
15.174747
9.728670
9.172559
8.878708
8.603930
9.173751
8.984804
9.140968
8.276701
9.148717
8.943677
9.164810
9.034872
10.421872
9.434819
11.235476
11.652708
11.338592
11.625886
12.705922
13.636947
13.946891
15.173554
15.229583
15.466809
16.522408
17.253757
16.838908
18.836856
19.314885
20.461679
20.555854
21.445751
21.301508
23.311973
25.637746
26.061535
28.133988
29.063821
30.410886
31.586885
35.821795
36.345720
36.147833
35.902858
37.201643
37.876964
38.392544
38.331747
36.677718
38.514733
35.042763
36.431551
34.049749
34.393668
36.593676
36.086440
34.477711
33.283830
35.385489
36.432743
35.095811
33.645630
35.101771
##ZVALUE=250
1.944900
1.941919
2.364516
2.038479
2.378821
2.802610
3.548861
9.736419
32.082796
71.431398
181.664824
311.329961
450.979471
682.811737
826.922655
932.160020
933.655500
844.370723
719.182491
484.483838
335.390568
212.064981
123.165846
97.446442
103.520751
120.685697
130.549669
137.330890
132.681727
118.771791
104.759932
76.420903
57.950616
35.327673
23.843646
14.357567
10.506511
8.871555
8.096695
8.352995
8.283854
8.003712
8.854866
8.813739
8.678436
8.873940
9.347796
9.210706
9.472966
9.714961
10.908842
11.128783
11.787415
11.755824
13.268590
12.423992
13.689995
14.080405
15.284419
15.022755
15.893579
16.501546
16.830564
16.567707
18.496513
19.853711
20.121932
21.115541
22.530556
24.479628
25.059581
27.170777
29.363632
30.237436
32.184720
32.348633
31.885505
32.393932
32.184720
34.303665
33.714771
34.638643
33.469796
32.940507
32.706857
33.896565
32.701492
33.388734
32.723546
34.138560
33.372641
33.561587
31.368732
34.605861
33.389926
32.920837
##ZVALUE=255
2.031922
1.844764
2.021790
2.001524
2.000928
1.968741
2.121925
2.220869
3.022552
5.358458
22.570491
56.009889
120.493770
266.335011
428.023934
672.062635
850.884914
1014.977694
1015.681624
1014.634967
882.688761
699.818730
435.633659
273.413658
143.079758
104.481578
92.853904
100.596547
124.060512
136.331916
142.706633
138.604641
129.398704
102.249980
81.241727
53.219795
38.403869
20.221472
15.285611
10.115504
9.124875
8.347631
8.008480
8.260608
8.353591
8.097887
8.891821
9.361506
8.691549
9.557605
9.345412
10.214448
10.420680
11.448860
11.224747
10.790825
11.510849
11.934638
13.145804
13.763905
13.721585
14.791489
14.716983
15.125871
14.690757
16.632676
17.014742
18.635988
18.852949
20.131469
21.770597
23.573637
24.380684
27.026534
27.263761
28.108954
29.453635
28.408766
29.425621
28.545856
29.299855
28.848648
29.984713
28.600693
30.324459
30.782819
30.064583
30.467510
30.172467
31.254888
30.930638
31.758547
30.595660
31.439662
30.273795
31.860471
##ZVALUE=260
1.887679
1.740456
1.788735
1.739860
1.648664
1.939535
2.052784
2.052784
2.136827
2.158880
2.646446
3.223419
8.982420
36.444664
80.791712
209.948421
358.449817
614.241958
827.340484
1015.681624
1015.681624
1015.681624
1015.681624
897.299647
590.939522
397.056937
218.637586
133.003592
85.767508
82.678795
97.910762
124.054551
140.862465
150.577426
146.621466
125.161409
108.534694
78.433752
58.918595
36.670566
24.399757
15.167594
9.973645
8.121729
7.894635
8.211732
8.368492
8.162856
9.256601
8.842945
9.050965
9.571910
9.627938
10.457635
10.784864
11.044741
11.251569
10.861754
12.151599
11.716485
12.603998
12.878776
13.583899
13.964772
14.386773
15.858412
15.017986
16.435981
16.985536
18.399954
18.738508
21.470785
21.981597
23.821592
24.525523
26.101470
25.776625
26.232600
26.521683
26.571751
26.480556
27.069449
26.678443
27.692914
27.828813
26.542544
27.429461
28.635859
28.373599
28.420687
29.156804
28.979778
28.233528
29.345751
28.320551
30.555725
##ZVALUE=265
1.625419
1.642704
1.829863
1.603961
1.853704
1.685619
1.843572
1.858473
1.965761
1.905560
2.114773
2.330542
2.484918
2.741814
5.673766
23.274422
61.161518
162.450671
296.148658
570.669770
825.870037
1015.681624
1015.681624
1015.681624
1015.681624
1015.681624
768.275857
547.933578
302.514434
179.448724
106.678605
73.776841
82.051754
108.865499
128.795505
148.530602
151.550770
143.414736
130.601525
102.748871
82.190633
54.687858
38.398504
23.091435
14.281869
10.335445
9.098649
8.123517
8.518696
8.934736
9.479523
9.603500
9.896755
10.516644
10.406971
10.649562
11.165738
11.608601
11.559725
12.288690
12.778640
12.286901
13.072491
13.202429
14.360547
14.688969
15.026927
15.611649
16.796589
18.049479
19.354820
19.942522
21.413565
21.751523
21.771789
22.742748
24.157763
23.610592
23.530722
24.173856
24.294853
24.783611
25.255680
24.465919
25.821924
25.705695
25.003552
26.504993
26.149750
26.378632
26.793480
26.638508
26.532412
27.223825
27.357936
26.754737
##ZVALUE=270
1.735687
1.664758
1.834631
1.522899
1.765490
1.530647
1.525879
1.823902
1.721978
1.792908
1.690984
1.903772
1.845956
2.164841
2.534986
2.513528
3.144741
11.357665
33.356547
111.458898
231.936574
420.489907
773.780942
1011.451483
1015.681624
1015.681624
1015.681624
1015.681624
991.390944
742.638707
501.343608
252.076983
142.704844
72.362423
64.521432
84.682703
106.582642
132.229924
146.611929
153.747797
147.979856
131.073594
110.308528
81.802607
60.597658
36.086440
24.420619
15.973449
11.440516
10.224581
8.975863
9.831786
10.081530
10.398626
10.459423
10.976791
11.307597
11.631846
12.478828
12.694597
12.648702
13.555884
14.051795
14.189482
14.482737
14.372468
15.111566
15.798807
16.328692
17.650723
17.605424
19.186735
20.594597
20.899773
21.408796
20.963550
22.774935
23.096800
22.812486
22.306442
22.725463
23.420453
23.391843
22.406578
23.786426
24.254918
24.725795
23.896694
24.420619
24.700761
25.550723
24.059415
25.020838
24.874806
25.294423
25.512576
##ZVALUE=275
1.476407
1.419783
1.476407
1.440644
1.380444
1.486540
1.478791
1.510978
1.385808
1.629591
1.701713
1.557469
1.787543
1.807809
1.976490
2.119541
2.252460
2.362728
2.737641
4.666448
23.447871
65.531731
196.536779
370.336771
698.835850
967.904925
1015.681624
1015.681624
1015.681624
1015.681624
1015.681624
934.802890
654.276609
338.464975
188.792944
81.517696
55.426955
59.352517
78.629851
106.749535
126.440525
146.777630
152.368546
144.720674
131.727457
104.112625
83.963871
58.610439
41.825771
25.982857
18.057823
12.836456
11.636615
10.956526
10.921955
11.031628
11.627674
12.149811
12.510419
13.168454
13.938546
14.231801
14.359951
14.144778
14.527440
14.473796
15.107989
16.438961
16.526580
17.700791
18.896461
19.559860
19.309521
21.227598
21.258593
21.461844
22.531748
22.272468
22.416711
22.064447
22.502542
22.517443
22.196770
22.326708
22.456646
22.846460
23.289919
22.961497
22.807717
22.637844
23.277998
22.878647
23.927689
23.504496
23.244619
23.769736
##ZVALUE=280
1.443624
1.508594
1.408458
1.477599
1.523495
1.554489
1.495481
1.184940
1.563430
1.499653
1.526475
1.598597
1.715422
1.786947
1.729727
1.904964
1.838803
1.957417
1.929998
2.420545
2.714992
3.160834
13.699532
43.259859
145.567656
274.381638
536.185503
817.630887
1015.734673
1015.734673
1015.734673
1015.734673
1015.734673
1015.734673
791.828036
438.211560
254.996419
109.635592
59.031844
44.565797
55.759549
81.934929
103.905797
128.875971
143.241882
148.314834
144.443512
126.920938
107.934475
80.756545
61.273575
41.786432
28.853416
19.508600
14.544725
12.824535
12.582541
12.894869
13.425946
14.132857
14.383793
14.603734
14.539957
15.126467
15.854836
15.549660
16.361475
17.350912
17.612576
18.370748
19.033551
20.097494
20.168424
20.898581
21.461844
21.619797
21.273494
22.343993
21.821856
21.918416
22.563934
22.013783
22.061467
21.562576
22.585988
22.079945
22.459626
22.164583
22.172928
22.008419
21.145940
21.552444
22.328496
22.105575
22.813678
22.415519
##ZVALUE=285
1.234412
1.119971
1.316667
1.123548
1.412630
1.119971
1.330972
1.439452
1.333952
1.515746
1.474619
1.535416
1.253486
1.572967
1.642704
1.474619
1.601577
1.767874
2.017617
1.795888
2.120733
2.553463
2.704859
2.389550
7.160902
26.295781
70.167780
195.620656
348.336697
662.531853
953.561664
1015.681624
1015.681624
1015.681624
1015.681624
1015.681624
978.377461
591.832995
361.294746
165.698528
84.269643
39.322972
36.719441
54.881573
73.280931
103.935599
121.237636
139.334798
146.146417
141.465664
130.050778
108.327866
88.160634
60.215592
44.906735
29.630661
22.471547
17.233491
15.397668
15.386939
14.745593
15.688539
15.617609
16.224980
16.540885
16.831756
17.468929
17.971992
18.014908
18.804669
19.627810
20.420551
21.067858
21.135807
21.468997
21.822453
22.052526
21.599531
22.400618
21.588802
21.587610
21.422505
22.161603
21.938682
21.952987
21.536946
21.217465
21.711588
20.949841
21.491647
21.343827
21.528602
21.063685
21.443963
21.522641
21.658540
##ZVALUE=290
1.140833
1.074672
1.188517
1.283884
1.192689
1.208782
1.127720
1.205802
1.328588
1.223683
1.113415
1.307726
1.298785
1.313686
1.497865
1.450777
1.543760
1.631975
1.631975
1.871586
1.694560
1.864433
2.106428
2.273917
2.171993
2.513528
3.562570
10.388494
47.227740
110.058784
204.250813
479.840040
764.953494
1015.681624
1015.681624
1015.681624
1015.681624
1015.681624
1015.681624
777.150989
500.144958
245.062709
121.970773
45.777559
28.669834
35.589933
49.504638
73.221922
93.743801
118.748546
135.455728
144.083500
141.655803
128.610730
111.208558
83.226562
64.547658
44.522882
33.661723
23.852587
20.977855
18.032789
16.746521
17.669797
17.720461
18.308759
18.042922
19.234419
19.487739
20.511746
20.346642
21.312833
21.648407
21.697879
22.139549
22.308826
22.294521
21.963716
22.555590
22.110939
21.982789
21.959543
22.293925
21.998882
22.230744
21.311641
21.618605
21.655560
21.649599
21.282434
21.407604
20.673871
20.834804
21.329522
21.302700
20.564795
##ZVALUE=295
1.017451
1.107454
1.137853
1.202822
1.118779
1.072884
1.147985
1.153946
1.234412
1.393557
1.106858
1.234412
1.192689
1.385808
1.472831
1.441836
1.485944
1.442432
1.580715
1.704693
1.580715
1.758933
1.794696
1.885891
1.875758
2.002716
2.205968
2.695918
2.843738
4.618764
15.435815
68.978667
160.984993
390.736461
646.206737
1013.318896
1015.681028
1015.681028
1015.681028
1015.681028
1015.681028
959.923863
658.084750
341.133475
180.136561
63.322783
31.574965
24.585724
31.848550
50.415993
68.929791
94.200969
113.528967
131.817460
139.800906
138.185620
127.421618
104.987621
86.845756
63.638687
49.435496
34.230947
26.983619
21.694899
20.383000
19.616485
19.950867
20.421743
20.836592
21.273494
21.160841
21.599531
22.137761
23.017526
22.169948
22.547841
22.357702
22.425652
22.718906
23.065805
22.405982
22.294521
22.270679
22.243857
22.371411
21.937490
21.806955
22.038817
21.231771
21.307468
21.245480
20.867586
20.710826
20.383596
20.407438
20.668507
##ZVALUE=300
1.064539
1.131892
1.000762
0.952482
1.141429
1.118779
1.094937
1.032948
1.183748
1.131892
1.138449
1.285672
1.261830
1.216531
1.232624
1.458526
1.278520
1.270771
1.341701
1.251698
1.528859
1.642704
1.487732
1.457930
1.852512
1.852512
1.824498
1.951456
2.167821
2.316833
2.535582
2.801418
6.826520
39.809942
103.588700
275.683999
485.104918
877.282023
1015.682817
1015.682817
1015.682817
1015.682817
1015.682817
1015.682817
825.755596
449.380875
260.591507
112.805963
53.292513
22.973418
21.711588
32.448769
44.218898
65.322518
85.282922
110.673904
124.440789
134.524703
134.396553
123.131871
109.411478
85.632801
69.733858
49.599409
38.794875
28.616786
23.967624
21.773577
21.164417
21.102428
21.109581
22.138953
22.289753
22.742748
22.903681
22.547841
22.485852
22.912621
22.752881
22.959709
22.950768
23.246408
22.237897
22.555590
22.434592
22.380948
23.410916
21.615624
21.885633
21.683574
21.591783
21.332502
20.761490
20.374656
20.296574
20.306706
##ZVALUE=305
1.044869
1.044869
0.962615
0.956655
0.929832
0.958443
1.102686
0.915527
1.136661
1.062751
1.092553
1.075864
1.319647
1.209974
1.099706
1.196861
1.394749
1.221895
1.205802
1.293421
1.340508
1.213551
1.414418
1.379848
1.662970
1.679659
1.701713
1.679659
1.720786
1.989603
1.971722
2.306700
2.422929
2.710819
4.456639
23.294687
69.921017
204.527974
379.523039
722.590685
1005.574465
1015.675664
1015.675664
1015.675664
1015.675664
1015.675664
978.145003
610.297918
368.930697
164.304972
79.032779
30.405521
19.792914
22.869706
31.024814
47.223568
63.623786
86.666942
104.045868
120.654702
130.181909
127.632618
120.309591
102.974772
86.014867
63.654780
50.404668
37.038922
29.362440
23.477674
22.501945
21.942854
22.532940
22.340417
23.294687
22.735000
22.377968
22.545457
22.131801
22.792816
22.518635
23.229718
23.059845
22.808909
22.994876
23.163557
23.302436
22.467971
22.173524
22.144914
21.759868
21.007657
21.161437
20.883679
19.866824
20.612478
##ZVALUE=310
0.933409
0.872612
0.985861
0.998974
0.907779
0.875592
0.986457
0.931621
0.909567
1.064539
0.917912
1.051426
1.069903
1.090765
1.110435
1.106858
1.220703
0.951886
1.220703
1.152754
1.187921
1.364946
1.387596
1.156926
1.648664
1.527667
1.563430
1.607537
1.669526
1.738667
1.792908
1.889467
1.932979
2.106428
2.188683
2.617836
2.993941
10.989904
35.756826
124.952793
252.912641
540.731549
845.226645
1015.681624
1015.681624
1015.681624
1015.681624
1015.681624
1015.681624
824.666023
538.000464
259.399414
133.870840
49.276948
23.414493
17.729998
21.156669
30.826926
41.222572
58.750510
75.503588
97.337961
110.882521
122.038722
123.735666
114.886761
102.254748
81.270933
66.112876
48.636794
38.306713
29.454827
25.711656
22.105575
22.000670
22.082925
22.227764
22.186637
21.391511
21.651983
22.444725
22.371411
22.570491
22.209883
23.186803
22.817850
22.789836
22.758842
22.563934
22.352934
22.185445
21.312833
21.520853
21.061897
20.760894
20.728707
##ZVALUE=315
1.034737
1.064539
0.949502
1.014471
0.921488
1.118779
0.894666
0.918508
1.114607
0.959635
1.011491
0.915527
1.212955
0.941753
1.190901
0.920892
1.179576
1.188517
1.205802
1.204610
1.097918
1.150966
1.180768
1.414418
1.419783
1.475811
1.504421
1.529455
1.440644
1.509786
1.701713
1.481771
1.587868
1.805425
1.942515
2.082586
2.250671
2.528429
2.843738
5.253553
18.396974
78.970790
180.260539
421.640873
690.096021
1015.732884
1015.732884
1015.732884
1015.732884
1015.732884
1015.732884
987.907648
702.150464
363.298655
191.621780
71.062446
31.357408
16.939640
16.707778
20.471811
26.432872
39.945841
52.165985
72.318912
89.017749
106.642842
114.758611
115.599632
111.451745
95.561743
80.824494
63.927770
50.082803
35.110712
30.055642
23.836493
22.638440
21.858811
21.748543
21.511912
21.995902
22.301674
22.229552
22.489429
22.434592
22.794604
22.349954
22.658706
22.175908
21.975636
22.080541
21.917820
21.416545
20.742416
21.106601
21.040440
##ZVALUE=320
0.819564
0.975728
0.967979
0.816584
0.916719
0.762939
0.928640
1.039505
1.006722
0.987649
0.982881
0.881553
0.725985
0.932813
0.975728
1.121759
1.084805
1.071692
1.011491
1.051426
0.922680
1.171827
1.152754
1.171827
1.168847
1.185536
1.442432
1.445413
1.268983
1.351833
1.410842
1.490712
1.583695
1.628995
1.895428
1.797676
1.903772
1.889467
2.021790
2.221465
2.484918
3.283620
8.608699
46.438575
121.379495
318.414569
531.905890
906.620622
1015.681624
1015.681624
1015.681624
1015.681624
1015.681624
1015.681624
884.112716
481.497645
270.187855
112.142563
50.328970
18.553734
13.666749
15.245676
17.798543
24.246573
32.682419
48.370957
64.320564
84.271431
97.242594
108.584762
110.349655
105.114579
94.010830
75.722933
61.639547
45.845509
36.477447
28.660893
24.886727
22.108555
21.143556
21.298528
21.991730
21.886826
22.139549
22.078753
22.139549
21.825433
22.056699
21.881461
21.848679
21.929741
21.140575
21.059513
20.576715
20.657778
##ZVALUE=325
0.895858
0.761747
0.717640
0.879765
0.965595
0.892878
1.060963
0.766516
0.967979
0.770688
0.900626
0.870824
0.836849
0.833869
1.016855
0.915527
0.922680
0.921488
0.905991
0.935793
0.977516
0.962615
1.083612
0.969768
1.129508
1.112819
1.056790
1.224875
1.234412
1.156926
1.270771
1.233816
1.335740
1.382828
1.371503
1.547933
1.623631
1.635551
1.859665
1.909733
2.057552
1.995564
2.446771
2.867579
5.116463
29.313564
79.656839
214.276910
389.213562
740.338564
1012.336612
1015.668511
1015.668511
1015.668511
1015.668511
1015.668511
980.553031
601.117015
358.868837
155.600905
72.599649
23.702979
13.680458
12.106895
13.028979
17.109513
21.653771
32.261610
44.430494
63.938498
78.041553
95.104575
102.644563
104.877949
99.599957
86.359978
72.976947
56.646466
45.592785
33.608675
27.871728
23.585558
22.128820
21.659732
21.366477
21.437407
21.550655
21.835566
21.114945
21.472573
21.308661
20.887852
20.747781
20.912886
20.475984
20.823479
##ZVALUE=330
0.865459
0.854731
0.766516
0.683665
0.798702
0.930429
0.796914
0.868440
0.821948
0.879765
0.758767
0.867844
0.850558
0.974536
0.961423
0.840425
0.973940
0.835657
1.063943
0.890493
1.062751
0.852942
0.821948
1.007915
1.033545
1.167655
1.072884
1.105666
1.214743
1.178980
1.126528
1.252890
1.350641
1.330972
1.195669
1.347661
1.411438
1.374483
1.636744
1.612902
1.719594
1.935959
2.028942
2.062917
2.298951
2.447963
3.044605
12.509823
42.723417
146.097541
285.439491
584.132671
878.160000
1015.690565
1015.690565
1015.690565
1015.690565
1015.690565
1015.690565
747.369528
472.663641
214.751959
106.363893
36.734939
16.717911
11.405945
11.754632
13.074875
15.912652
22.605658
30.768514
44.712424
58.915615
77.137947
89.018941
98.417997
98.318458
93.338490
84.272623
68.720579
55.760741
42.111874
33.924580
27.781725
24.636984
22.108555
21.363497
20.908713
20.902753
20.947456
20.489693
20.442605
20.687580
20.871758
20.369887
20.215511
##ZVALUE=335
0.766516
0.737906
0.795722
0.802875
0.703931
0.555515
0.697970
0.779629
0.769496
0.779629
0.913739
0.788569
0.886917
0.938773
1.031756
0.894666
0.967979
0.750422
0.815988
0.881553
0.928640
0.817776
0.945926
0.969768
1.134872
0.905991
1.128912
1.086593
1.225471
1.012683
1.171827
0.991821
1.194477
1.161695
1.253486
1.178980
1.350641
1.223683
1.358986
1.404881
1.419783
1.554489
1.500845
1.683831
1.777411
1.801848
2.020597
2.472997
2.600551
6.145835
21.714568
91.093779
196.249485
444.996953
724.692941
1015.681624
1015.681624
1015.681624
1015.681624
1015.681624
1015.681624
905.753970
617.231727
324.964523
169.219971
59.526563
24.042726
12.216568
11.539459
12.388825
13.637543
16.955733
22.012591
32.730699
42.935610
59.251785
72.174668
85.235834
92.665553
93.173981
88.072419
77.153444
67.061782
52.781701
44.230819
33.902526
29.035807
24.734735
22.485852
20.676851
20.452738
20.070672
20.173788
19.705892
19.765496
20.052791
##ZVALUE=340
0.808835
0.703931
0.796914
0.787973
0.596642
0.781417
0.708699
0.734925
0.685453
0.705719
0.936985
0.646710
0.740886
0.769496
0.760555
0.831485
0.858903
0.680685
0.894666
0.792742
0.796914
0.808835
0.943542
0.910759
1.089573
1.068711
1.039505
0.999570
0.871420
1.088977
1.126528
0.901818
1.065731
1.104474
0.978708
1.190901
1.280904
1.219511
1.267791
1.349449
1.298785
1.391768
1.541972
1.557469
1.588464
1.567602
1.796484
1.891851
1.919866
2.327561
2.651811
3.372431
10.437965
53.190589
134.027004
342.867970
589.020848
979.951024
1015.644670
1015.644670
1015.644670
1015.644670
1015.644670
1015.644670
754.485726
397.515893
224.771500
92.249513
37.553906
13.808608
12.024641
12.415648
12.848973
14.613867
16.738772
23.256540
29.832721
42.418838
54.173470
70.493817
80.869794
87.783933
88.284612
83.577633
76.870918
64.530969
54.646730
41.943789
34.295917
27.396679
23.594499
21.140575
20.042658
19.385815
19.106865
19.016862
##ZVALUE=345
0.660419
0.727773
0.662804
0.676513
0.615716
0.468493
0.781417
0.480413
0.591874
0.743866
0.770688
0.781417
0.589490
0.791550
0.875592
0.813603
0.826716
0.708699
0.792742
0.900626
0.931621
0.796914
0.858903
0.867844
0.885725
0.786781
0.947714
0.909567
0.906587
0.880957
0.842810
0.886917
0.997782
0.974536
1.194477
1.247525
1.165867
1.190901
1.254678
1.236796
1.277924
1.281500
1.252890
1.349449
1.342893
1.491904
1.440644
1.618862
1.574755
1.784563
1.892447
2.077818
2.264977
2.571940
4.929900
29.285550
84.162951
226.066709
408.483744
767.545700
1015.681624
1015.681624
1015.681624
1015.681624
1015.681624
1015.681624
894.525647
522.611737
291.802883
114.770532
52.688718
19.140840
12.849569
12.455583
12.770891
12.969971
13.684630
16.801953
20.788908
29.574633
38.904548
53.416491
63.828826
74.525476
80.048442
84.145665
80.015659
71.797967
63.152909
51.772594
42.441487
32.593608
27.512908
22.349954
20.544529
19.308925
##ZVALUE=350
0.789762
0.750422
0.776649
0.790954
0.762939
0.764728
0.680685
0.703931
0.741482
0.718832
0.840425
0.714660
0.599623
0.858903
0.769496
0.751615
0.858903
0.906587
0.874996
0.955462
0.716448
0.586510
0.879765
0.932813
0.865459
0.843406
0.742674
0.899434
0.776649
0.826716
0.825524
0.841618
1.041889
1.108646
0.969768
1.050830
1.075864
1.144409
1.127720
0.984669
1.170635
1.023412
1.184940
1.092553
1.180768
1.327991
1.347661
1.489520
1.475811
1.631975
1.474619
1.807809
1.843572
2.034903
2.194643
2.405643
3.310442
15.445948
49.719810
156.167746
296.888947
597.110987
886.581540
1015.682817
1015.682817
1015.682817
1015.682817
1015.682817
1015.682817
632.171035
382.474661
169.874430
78.156590
23.509860
13.316870
11.717677
11.608601
12.039542
12.616515
13.773441
15.952587
21.312833
26.806593
36.696792
45.086741
57.524443
66.614747
73.576570
76.303482
73.445439
68.508983
58.027506
49.639940
39.634705
32.678843
25.737882
##ZVALUE=355
0.804663
0.693798
0.684857
0.708699
0.712872
0.716448
0.794530
0.828505
0.609756
0.860691
0.786781
0.687838
0.704527
0.776649
0.858903
0.948906
0.907779
0.962615
0.750422
0.894666
0.763535
0.790954
1.090765
0.839829
0.955462
0.830889
1.002550
0.864863
0.846982
0.861883
0.909567
1.023412
0.918508
0.987649
1.044869
0.977516
1.040697
1.032948
0.983477
1.148582
1.022816
1.211762
1.126528
1.192689
1.296997
1.278520
1.340508
1.364946
1.222491
1.408458
1.361966
1.396537
1.579523
1.800656
1.918674
1.976490
1.964569
2.380610
2.912879
7.595420
27.360916
106.940866
217.797756
456.344485
727.898479
1015.681624
1015.681624
1015.681624
1015.681624
1015.681624
1015.681624
784.426928
495.171547
221.171975
105.714798
33.324957
15.202761
11.511445
11.053681
11.332631
11.485815
12.078881
13.099909
15.726686
18.601418
24.535656
31.506419
41.503906
49.907565
60.462952
66.393614
69.483519
68.433881
63.087940
57.108998
47.110915
##ZVALUE=360
0.709891
0.898838
0.727773
0.769496
0.794530
0.670552
0.683665
0.842810
0.593662
0.766516
0.631809
0.744462
0.745654
0.794530
0.776649
0.780821
0.813603
0.825524
0.742674
0.769496
0.825524
0.739694
0.847578
0.864863
0.817776
0.866652
0.895858
0.709891
1.003742
0.853539
0.902414
1.023412
0.866652
0.908971
0.972748
0.870824
1.149774
1.176000
1.027584
1.043677
1.214743
1.027584
1.165867
0.953674
1.064539
1.039505
1.135468
1.244545
1.469851
1.378655
1.583695
1.511574
1.485944
1.627803
1.730919
1.862645
1.833439
1.913905
2.065897
2.339482
2.505779
3.782511
11.397600
53.965449
131.810904
324.664712
554.579496
952.094793
1015.681624
1015.681624
1015.681624
1015.681624
1015.681624
890.258551
597.719550
292.391777
152.495503
55.462718
23.244619
11.458993
10.617971
10.797977
11.028647
11.324883
11.658669
12.478828
13.629794
16.249418
19.896626
26.896596
34.620762
44.610500
51.983595
59.574842
62.612891
63.392520
##ZVALUE=365
0.643730
0.668764
0.588894
0.780821
0.772476
0.924468
0.595450
0.890493
0.724792
0.780821
0.684857
0.843406
0.743866
0.571609
0.765920
0.786781
0.838637
0.765920
0.821948
0.786781
0.792742
0.847578
0.764728
0.698566
0.951886
0.929832
0.946522
0.970960
0.825524
0.962615
0.966787
0.897646
0.922680
1.017451
0.975728
0.888705
1.156926
0.969768
1.007915
1.089573
1.206994
1.010895
1.035929
1.261830
0.992417
1.121759
1.167655
1.052618
1.254678
1.244545
1.381636
1.419783
1.418591
1.303554
1.343489
1.526475
1.626611
1.683831
1.884699
1.954436
2.129674
2.157688
2.697706
3.099442
5.704761
29.449463
80.481768
214.217901
397.219658
745.616555
1002.290845
1015.682817
1015.682817
1015.682817
1015.682817
968.288779
686.312914
370.886922
198.754668
72.678924
29.916763
12.167692
10.209680
10.071993
10.298491
10.214448
10.245442
10.550618
10.813475
12.070537
14.028549
18.168688
22.515655
30.601621
37.512779
46.935678
##ZVALUE=370
0.781417
0.708699
0.784993
0.704527
0.768900
0.831485
0.779629
0.677705
0.708699
0.790954
0.639558
0.598431
0.722408
0.755787
0.791550
0.831485
0.834465
0.661612
0.595450
0.770688
0.703931
0.841618
0.795722
0.876784
0.857711
0.835657
0.810623
0.786781
0.847578
0.794530
0.912547
1.000762
0.883937
0.936985
0.798702
0.948906
0.804663
0.956655
0.961423
1.086593
0.906587
0.886917
1.032948
1.007915
1.008511
1.162887
1.123548
1.219511
1.191497
0.989437
1.200438
1.287460
1.379848
1.216531
1.341701
1.321435
1.398921
1.518726
1.551509
1.617670
1.886487
1.833439
1.950860
2.201796
2.479553
2.588630
3.545880
16.337633
54.127574
166.722536
314.626694
602.227449
884.128809
1015.682817
1015.682817
1015.682817
1015.682817
1015.682817
841.906667
476.049781
268.715620
106.445551
47.711730
15.853643
10.120869
9.229779
9.257793
9.297729
9.210706
9.294748
9.888411
10.035634
11.032820
13.011694
15.384555
20.739436
##ZVALUE=375
0.629425
0.841618
0.629425
0.912547
0.629425
0.673532
0.717640
0.728965
0.781417
0.638962
0.641942
0.770688
0.675917
0.700951
0.637770
0.864863
0.711679
0.806451
0.769496
0.637770
0.697970
0.890493
0.860691
0.783801
0.777841
0.667572
0.797510
0.799894
0.899434
0.846982
0.957847
0.876784
0.883937
0.905991
0.861883
0.711679
0.980496
0.951886
1.002550
1.093745
0.948906
0.913739
0.963807
1.046658
1.000762
1.103878
1.039505
0.893474
0.991821
1.067519
1.118779
1.167655
1.116991
1.025796
1.193881
1.091957
1.269579
1.238585
1.397729
1.467466
1.367927
1.511574
1.522899
1.650453
1.702905
1.928806
2.110600
2.366900
2.913475
6.751418
36.095977
93.372464
243.071914
435.956717
786.080956
1015.681624
1015.681624
1015.681624
1015.681624
1015.681624
888.407826
612.011552
330.450535
181.375742
69.271922
29.855967
11.316538
8.591413
8.477569
8.308887
8.475780
8.742809
8.422732
8.929968
9.234548
9.911656
##ZVALUE=380
0.667572
0.670552
0.776649
0.594854
0.607967
0.627637
0.612736
0.757575
0.637770
0.702739
0.733733
0.633597
0.561476
0.859499
0.596642
0.736713
0.633597
0.628829
0.722408
0.763535
0.725985
0.754595
0.762939
0.731945
0.796914
0.729561
0.626445
0.677705
0.888705
0.863671
0.838637
0.895858
0.840425
0.845790
0.991821
0.996590
0.823736
0.950694
0.759959
0.787973
0.895858
0.944734
0.824928
1.030564
0.940561
0.986457
0.969768
1.097918
0.888705
0.979900
1.113415
0.969768
1.063943
1.094937
1.056790
1.067519
1.157522
1.237988
1.200438
1.160502
1.156926
1.240969
1.250505
1.468658
1.376867
1.439452
1.688600
1.896620
2.016425
2.493858
2.682805
4.466772
15.378594
72.347522
169.874430
392.975807
632.525682
986.142755
1015.681624
1015.681624
1015.681624
1015.681624
1015.681624
714.979768
467.096567
223.943591
113.171935
39.318800
16.731620
8.734465
7.615685
7.706881
7.719994
7.638931
7.863641
8.328557
##ZVALUE=385
0.639558
0.639558
0.683665
0.619888
0.722408
0.637770
0.499487
0.604987
0.706911
0.761747
0.582933
0.633597
0.685453
0.558496
0.675917
0.652671
0.573993
0.769496
0.568628
0.828505
0.740886
0.636578
0.732541
0.760555
0.856519
0.872612
0.774860
0.856519
0.606775
0.868440
0.538826
0.769496
0.842810
0.669956
0.744462
0.838637
0.895858
0.897646
0.789762
0.778437
0.736713
0.799894
0.740886
0.831485
0.881553
0.846982
0.904799
0.899434
0.927448
0.900626
0.909567
0.829697
0.934601
0.903606
0.847578
0.996590
1.040697
1.180768
1.092553
1.185536
1.224875
1.124740
1.130700
1.126528
1.141429
1.343489
1.482964
1.420975
1.789927
1.762509
2.020597
2.339482
2.484918
3.044605
7.550716
42.453408
110.473633
274.419785
478.115678
847.098827
1015.686989
1015.686989
1015.686989
1015.686989
1015.686989
898.051858
624.508858
328.652859
180.612803
72.090626
29.217601
9.832978
7.378459
7.038713
6.958842
7.146597
##ZVALUE=390
0.576973
0.526905
0.616908
0.479817
0.619888
0.687838
0.581741
0.577569
0.696778
0.617504
0.490546
0.557899
0.555515
0.656843
0.699759
0.742674
0.708699
0.608563
0.673532
0.547767
0.475645
0.767708
0.633597
0.623465
0.582933
0.708699
0.584722
0.769496
0.683665
0.677705
0.763535
0.649691
0.669956
0.617504
0.738502
0.740886
0.740886
0.714660
0.682473
0.663996
0.818968
0.878572
0.853539
0.740886
0.765920
0.782609
0.784993
0.856519
0.816584
0.859499
0.789762
0.789762
0.966787
0.858903
0.864863
0.956655
0.791550
0.853539
1.010895
0.921488
1.016855
1.074672
1.125932
1.191497
1.081824
1.131892
1.424551
1.266599
1.484752
1.685619
1.845956
1.816750
1.998544
2.105832
2.149940
2.346635
3.812909
22.568703
74.243546
224.146843
409.501791
746.294856
996.730924
1015.640497
1015.640497
1015.640497
1015.640497
1015.640497
814.557672
479.717851
268.842578
104.392767
48.664808
15.513897
7.900596
6.724596
##ZVALUE=395
0.445843
0.434518
0.394583
0.530481
0.572801
0.456572
0.322461
0.473857
0.328422
0.598431
0.430942
0.337958
0.570416
0.478625
0.377893
0.386834
0.578761
0.487566
0.497699
0.473857
0.489950
0.411868
0.583529
0.591874
0.634789
0.518560
0.494719
0.509620
0.522733
0.529885
0.681877
0.466704
0.742674
0.701547
0.493526
0.622869
0.491738
0.647902
0.531673
0.585914
0.738502
0.607967
0.657439
0.682473
0.710487
0.664592
0.615716
0.678897
0.483990
0.696778
0.573993
0.616908
0.673532
0.741482
0.735521
0.799894
0.729561
0.712872
0.765920
0.817776
0.812411
0.955462
0.879765
0.962615
1.022816
0.959635
1.030564
1.225471
1.239777
1.463890
1.622438
1.654625
1.824498
1.473427
1.678467
1.550913
1.698732
1.975894
2.459884
12.216568
46.116710
159.051418
297.133923
554.054976
816.306472
1015.516520
1015.516520
1015.516520
1015.516520
1015.516520
973.373055
594.717860
362.280011
152.478814
70.745945
22.930503
##ZVALUE=400
0.540614
0.511408
0.601411
0.606775
0.497699
0.678897
0.684857
0.564456
0.586510
0.508428
0.555515
0.619888
0.506639
0.582933
0.574589
0.761747
0.625849
0.653863
0.663996
0.589490
0.697970
0.632405
0.670552
0.664592
0.689626
0.689626
0.735521
0.747442
0.842810
0.645518
0.742674
0.783801
0.677705
0.604987
0.811815
0.624657
0.719428
0.690818
0.731945
0.672936
0.841618
0.741482
0.713468
0.719428
0.640750
0.633597
0.808835
0.693798
0.733733
0.844598
0.802875
1.042485
0.871420
0.775456
0.745654
0.840425
0.994802
0.752807
0.848770
0.958443
0.957847
1.100898
1.104474
0.999570
0.976920
1.172423
1.207590
1.170635
1.498461
1.480579
1.595616
1.612902
1.693964
1.666546
1.644492
1.646876
1.659989
1.711845
1.744628
2.158880
2.387762
6.513596
23.003817
87.251663
188.859701
415.036678
658.330917
995.811820
1015.684605
1015.684605
1015.684605
1015.684605
1015.684605
700.407624
448.956490
219.861865
##END
