##TITLE=QP00602
##FORMAT=SPECTACLE-ASCII V-1.2
##DATA TYPE=ULTRAVIOLET SPECTRUM
##SECOND TYPE=ULTRAVIOLET SPECTRUM
##DATE=10/03/17
##TIME=12:31:38
##SPECTROMETER/DATA SYSTEM=SPECTACLE
##XUNITS=NM EM
##YUNITS=ENERGY
##YFACTOR=1
##FIRSTX=220
##LASTX=410
##NPOINTS=96
##3DDATA=Equidistant
##ZUNITS=NM EX
##FIRSTZ=210
##LASTZ=400
##ZPOINTS=39
##XYDATA=(Y..Y)
##ZVALUE=210
2.687573
3.204942
3.211498
2.960563
2.960563
2.871752
2.999902
3.702641
2.995729
3.519654
3.341436
3.753901
3.555417
3.930926
4.135966
3.614426
3.968477
4.072785
4.603863
4.650950
4.675984
5.406737
4.485846
4.968643
5.996823
5.391836
5.576611
5.769730
5.873442
6.809831
6.030798
6.285906
6.165504
6.232858
6.178617
6.855726
7.275939
6.653666
7.711649
6.729960
7.543564
7.352829
7.850528
7.011890
8.510947
7.262826
8.422732
8.356571
8.516908
7.773638
8.977652
9.208918
8.423924
8.661747
8.056760
8.732677
9.670854
9.252429
8.516908
9.984970
8.675456
8.836985
9.469986
10.970831
9.840727
10.144711
10.507703
11.540651
12.925863
14.046431
17.811656
20.778775
22.877455
26.351810
26.794672
30.269623
29.030442
28.997660
27.166605
24.482608
22.578835
19.996762
18.694997
15.545487
13.290644
11.380911
9.894967
9.079576
8.958578
9.610653
9.111762
9.521842
10.336637
9.126663
9.227991
9.901524
##ZVALUE=215
8.003712
7.906556
7.430911
5.994439
5.697608
5.288720
5.230904
4.904866
5.173683
5.884767
5.212426
4.515648
4.123449
4.400611
4.013777
4.464984
3.993511
4.790425
4.230738
4.599690
4.268885
4.635453
4.732609
5.496740
5.404949
5.741715
5.394816
5.735755
6.204844
5.981922
6.604791
5.988479
6.539822
6.535649
7.711649
7.775426
6.360412
6.460547
7.041693
7.862449
7.975698
7.622838
7.590652
8.279681
7.332563
9.069443
8.479953
8.263588
8.864999
9.196997
8.542538
9.643435
8.654594
9.763837
9.216666
8.678436
8.798838
9.188652
9.422898
8.671880
9.356737
9.957552
10.444522
9.248853
10.096431
9.296536
10.444522
11.870861
11.455417
14.421940
15.220642
17.515421
22.195578
21.920800
24.898648
26.246905
25.447607
25.183558
25.511980
22.171736
19.974709
19.639730
16.760826
14.569759
12.960434
11.975765
11.595488
9.717941
8.849502
8.077621
9.523630
8.866787
8.292794
8.655787
9.347796
8.825660
##ZVALUE=220
22.409558
24.276972
26.582479
26.963949
24.091601
20.097494
16.001463
12.791753
10.273457
10.348558
10.687709
11.879802
11.891723
10.820627
9.493828
7.510781
6.822944
6.072521
4.965663
5.229712
4.863739
5.388856
5.134940
5.268455
6.036758
5.708933
6.251931
6.855726
6.834865
6.374717
7.221699
6.796718
6.463528
7.269979
6.975532
8.540750
8.205771
8.250475
8.931756
8.809566
8.528829
8.227825
7.961988
8.781552
8.584857
8.721948
7.688999
8.996725
8.806586
9.582639
9.354949
8.655787
10.219812
9.904504
9.509921
10.058880
9.765625
10.501742
9.264946
10.313988
9.894967
11.181831
10.321736
11.326671
11.601448
10.375977
10.638833
12.833476
12.523532
15.692711
16.938448
19.346476
19.206405
24.287701
23.931861
27.283430
26.510954
27.419925
26.971698
22.985935
21.498799
19.524693
19.917488
16.745925
15.275478
14.850497
12.456775
11.733770
11.241436
10.489821
10.115504
10.152459
11.547804
10.109544
9.710789
10.384917
##ZVALUE=225
37.935972
39.192438
53.897500
71.753860
79.657435
80.271959
77.061653
63.064694
51.252842
36.523938
25.450587
21.377802
24.390817
25.014877
23.712516
23.075938
21.165609
17.037988
13.267994
9.336472
6.902814
6.437898
6.134510
5.910993
5.920529
6.294847
6.774664
6.814599
6.593466
7.337928
6.898642
7.047653
7.572770
7.832646
8.336902
8.219481
8.891821
8.096695
8.487701
8.424520
9.082556
8.434653
9.750724
8.466840
10.142922
10.033846
9.695888
9.840727
10.916591
10.242462
11.049509
10.136962
10.814667
11.178851
11.175871
12.281537
13.528466
12.392998
12.831688
12.314916
13.889670
14.229417
13.436675
13.413429
13.472438
14.858842
14.603734
15.558600
17.170906
18.347502
20.165443
20.250678
24.283528
24.436712
26.458502
27.094483
26.701689
25.481582
25.535822
24.127960
22.588968
20.194650
19.886494
19.410849
18.908978
16.165972
18.108487
16.855597
15.561581
15.499592
13.997555
14.749765
14.184713
14.786720
14.713407
14.912486
##ZVALUE=230
35.587549
38.206577
72.041750
100.544691
151.187778
183.902979
212.406516
216.569901
194.993615
165.071487
111.180544
80.589652
58.031678
47.310591
42.261481
48.101544
49.698949
47.794580
43.778419
33.683777
27.085543
20.368695
13.185740
10.076761
7.675886
7.217526
8.119941
8.000731
7.662773
7.120967
8.114576
8.083582
8.692741
7.981658
8.554459
8.991957
9.947419
9.016991
9.686947
10.898709
10.229945
9.758472
9.708405
10.505915
10.710955
10.845661
10.683537
11.439919
11.445880
10.912418
12.467504
12.405515
13.508797
13.108850
13.086796
14.659762
15.506744
14.836788
14.685988
16.170740
16.628504
18.203855
17.658472
17.800927
18.589497
18.635988
19.415617
20.918846
20.592809
23.790598
23.418665
26.969910
27.924776
29.810667
31.633973
33.378601
34.626722
31.051636
30.411482
30.791759
29.981732
28.174520
27.942657
24.768710
25.019646
24.437904
24.383664
22.254586
21.874905
22.391677
22.100806
21.824837
21.735430
20.161867
20.845532
21.649599
##ZVALUE=235
14.162660
14.750957
38.248897
73.926449
142.036676
205.307603
309.251547
375.780463
435.241461
438.512564
394.188762
327.608585
252.459645
160.983801
114.858747
74.865818
71.130991
79.879761
82.004666
83.695650
80.291629
66.146851
51.913857
39.283633
23.868680
18.182993
12.579560
10.315776
9.219646
8.689761
9.328723
8.819699
9.104609
9.675622
10.025501
11.321902
10.765791
10.349751
11.244416
10.541677
9.792447
10.679960
10.229945
11.274815
11.480451
12.228489
11.666417
12.235641
12.511611
14.231801
12.820959
14.573932
16.038418
17.160773
15.900731
15.902519
18.693805
18.364787
20.624995
18.724799
20.381808
20.962954
22.878647
21.724701
22.315979
23.653507
26.677847
27.011633
29.864907
29.148459
33.269525
34.975410
36.338568
38.594604
40.216446
42.003989
41.141510
40.782690
39.100647
39.010644
37.582517
35.447478
36.751628
36.643744
35.253763
33.792853
33.831596
34.129620
32.896996
31.390786
30.881763
31.847954
31.650662
31.019449
30.548573
31.083822
##ZVALUE=240
2.482533
2.716780
7.247925
17.134547
52.554607
98.419785
200.559497
314.090848
488.099456
590.850711
694.569945
700.451732
660.300851
531.409979
423.914790
263.690948
188.160539
121.813416
99.430680
100.136995
110.485554
114.416480
108.381510
102.864504
80.175996
64.747930
48.420429
34.752488
22.907853
16.144514
13.549924
12.090802
11.859536
12.334585
11.812449
12.486577
12.103915
11.400580
12.203455
11.526942
11.861920
12.051463
11.732578
12.045503
12.634993
11.588931
12.193918
13.497472
13.739467
13.434887
14.626980
15.407801
16.797781
15.931726
18.592477
19.861460
19.525886
21.773577
20.491481
24.337769
23.517609
24.599433
26.799440
26.751757
24.779439
27.604699
29.748678
29.970407
32.635927
34.226775
37.707686
39.051771
40.545464
44.405460
45.380592
47.664642
47.229528
47.766566
49.446821
47.426820
46.878457
44.369698
44.044852
42.124987
44.509768
39.548874
42.638779
42.382479
40.641427
39.247870
39.063692
39.781928
39.521456
37.619472
35.490990
38.391948
##ZVALUE=245
2.678633
2.784729
2.453923
2.662539
4.390478
16.178489
43.106675
114.280581
205.159783
325.174928
539.112687
679.743886
832.561851
885.954499
826.245546
736.771822
549.301505
404.367447
286.619663
167.101622
117.259622
105.767846
112.379789
124.794841
131.195784
121.531487
114.449859
90.511441
76.681972
52.862763
40.961504
26.004910
19.780993
14.311671
14.174581
12.735724
11.946559
10.728836
11.646748
11.766553
10.797977
10.778904
9.829998
10.248423
11.794567
10.998845
10.711551
11.790991
13.016462
12.518764
13.273954
14.387965
14.921427
15.277863
16.021729
17.037988
17.472506
18.406510
19.078851
21.529794
21.877885
23.360848
21.674633
23.274422
24.328828
24.764538
25.145411
26.396513
28.041601
31.604767
32.305717
36.095977
38.234591
38.840771
40.511489
42.991638
42.124987
42.865872
43.046474
42.156577
41.052699
39.845705
41.233897
40.340424
38.835406
40.457845
40.562749
39.312840
38.000941
38.488507
37.851930
37.661791
37.264824
39.463639
38.124919
37.966967
##ZVALUE=250
2.088547
2.059937
2.219677
2.192855
2.449751
2.276897
3.804564
9.217858
40.205717
87.373853
210.147500
354.978442
517.339706
752.063990
899.368525
1015.682817
1012.928486
911.176801
776.248574
546.937585
372.034907
243.815780
135.989785
106.830001
109.453797
121.534467
137.489438
143.410563
134.018660
123.645663
107.440948
63.316822
55.734515
28.196573
25.344491
18.271804
13.233423
11.065602
11.784434
9.993911
10.089874
10.259748
9.857416
10.253787
11.067986
10.539889
11.040568
10.788441
12.362599
11.997819
13.051629
12.379885
13.367534
14.038682
14.543533
14.967918
15.733838
16.285777
16.880631
18.802881
16.806722
19.446611
19.180775
19.910932
20.907521
21.638870
22.171736
23.931861
25.179982
28.535724
29.157996
30.979514
33.430457
35.494566
35.602450
36.849976
37.000775
39.091706
37.022829
36.842823
37.123561
36.926866
37.040710
37.544966
36.239624
36.659837
37.248731
34.505725
35.344958
36.743879
36.881566
36.939979
34.932494
38.179755
35.959482
35.595894
##ZVALUE=255
2.025962
2.001524
1.974702
2.209544
1.964569
2.182722
2.430677
2.235770
2.706647
7.894635
26.379824
66.198707
170.129538
293.145776
509.447455
702.778697
954.980850
1015.681624
1015.681624
1015.681624
969.656706
784.396529
498.662591
326.099992
206.989646
117.481947
98.398924
109.995604
128.054619
142.904520
149.516463
141.618848
129.151940
103.559494
83.347559
56.707859
41.182637
22.979975
17.190576
11.480451
10.119677
9.041429
9.801984
9.121895
9.268522
9.722710
10.702610
10.436773
10.653734
11.397600
11.207461
12.648702
12.519956
11.707544
12.567639
13.520718
14.726520
14.896989
14.525652
15.535951
16.544461
16.414523
17.367601
17.347932
19.201636
19.483566
20.770431
21.580458
23.222566
24.075508
24.936795
28.335452
28.169751
30.161738
31.460524
33.225417
32.882690
33.733845
33.014417
32.550693
33.561587
32.601953
33.124685
33.194423
34.085512
33.214688
34.277439
33.503771
34.441948
32.552481
34.112930
33.223629
33.105612
34.137964
33.154488
33.708811
##ZVALUE=260
1.799464
1.562834
1.622438
1.811981
1.857877
2.022982
2.079606
2.063513
2.348423
2.465844
2.458692
4.196763
13.072491
50.099492
107.531548
252.586007
415.051579
672.410727
898.248553
1015.681624
1015.681624
1015.681624
1015.681624
986.133814
686.005950
466.981530
268.270969
164.302588
98.231435
87.444782
99.021792
126.085877
145.240426
149.284601
152.698755
129.746795
110.522509
81.384778
59.244633
38.318634
25.350451
16.852617
12.039542
10.090470
9.498596
9.039640
9.744763
9.977818
10.085702
10.194778
10.551810
11.421442
12.111664
11.916757
11.864901
13.105869
12.431741
13.501644
14.078617
14.597774
15.160441
15.912652
15.807748
16.800761
17.850995
18.526912
19.647479
20.057559
19.850731
22.302866
23.564696
25.159717
26.365519
27.299523
28.913617
29.588938
28.676987
29.316545
29.575825
29.716492
31.142831
30.599833
31.005740
31.808615
31.407475
31.313896
31.626821
30.366778
32.287836
30.987859
32.143593
31.371713
30.966997
30.073524
31.677485
32.915473
##ZVALUE=265
1.609921
1.541972
1.687407
1.901984
1.781583
1.767874
1.926422
1.896620
1.945496
1.770854
1.964569
2.249479
2.549887
2.918839
9.027719
27.920604
92.129707
177.886486
314.247012
605.023503
864.776969
1015.681624
1015.681624
1015.681624
1015.681624
1015.681624
930.578709
596.545935
390.391946
203.591585
119.127631
79.139471
83.974004
111.627579
131.343007
148.112774
155.296922
146.994591
132.185817
105.128884
83.905458
56.430697
38.445592
24.196506
16.477704
11.145473
10.053515
10.790825
10.177493
10.359883
10.910630
10.937452
11.045933
12.339950
12.391806
13.268590
13.223886
14.434457
15.075803
14.910698
15.614629
15.658736
15.790462
16.929507
16.611814
17.783642
18.415451
19.273758
20.438433
21.344423
21.810532
23.792982
24.074912
26.958585
26.179552
27.387738
27.801991
27.437806
28.611422
28.024912
27.792454
28.738976
29.608607
29.491782
28.982759
28.935671
29.488802
29.762983
29.670000
29.896498
28.132796
29.519796
30.180812
30.206442
29.809475
29.550791
##ZVALUE=270
1.147985
1.275539
1.343489
1.301765
1.403689
1.373887
1.707673
1.559854
1.423955
1.772642
1.819730
1.730919
1.873970
1.997948
2.151728
2.317429
3.295541
14.840961
41.770935
128.721595
255.732536
452.474952
813.691616
1015.481949
1015.481949
1015.481949
1015.481949
1015.481949
1015.481949
866.335034
598.297715
310.787559
175.627470
80.609918
67.254901
86.042881
105.640888
135.605931
150.102973
156.127810
151.605606
132.214427
113.224983
83.183646
60.468912
36.727786
26.632547
17.290711
13.685822
11.668801
11.527538
12.230873
12.347698
12.143850
12.679696
13.372898
13.966560
14.901757
14.744997
15.504956
15.519857
15.711784
17.241836
17.480850
17.596483
17.590523
18.996596
19.075871
19.155741
20.874739
21.285415
23.017526
23.935437
24.653673
25.680661
25.720000
25.921464
26.606917
26.431680
27.081966
26.880503
26.998520
27.404428
27.832985
28.336644
27.281642
27.616620
27.841926
27.555823
27.021766
27.565956
28.391480
27.749538
28.236508
27.834773
28.151870
##ZVALUE=275
1.472831
1.284480
1.461506
1.512766
1.628995
1.442432
1.299977
1.426935
1.531839
1.690984
1.644492
1.612902
1.984835
1.705885
1.881719
1.997948
2.356768
2.399683
2.743602
7.008910
24.609566
67.263842
201.754570
381.647944
726.474524
991.455913
1015.681624
1015.681624
1015.681624
1015.681624
1015.681624
1015.681624
789.665580
418.872833
237.393975
102.839470
63.655972
63.306689
80.503821
107.367635
129.737854
147.497654
153.537989
148.001909
133.467913
105.796456
85.018873
60.365796
43.819547
28.429627
21.073818
16.520619
13.984442
13.537407
13.742447
14.438629
14.648438
15.380979
16.626716
16.195774
17.134547
16.536713
17.607808
17.604828
18.480420
17.667413
18.819571
19.912720
20.566583
21.256804
22.632480
23.036599
23.797750
25.790930
25.486946
26.122928
26.755929
26.326776
26.684999
27.037859
25.867820
26.295781
27.207732
27.110577
27.259588
26.578903
26.369691
26.683807
27.472973
27.058721
26.873946
27.247667
26.412606
26.399493
26.989579
26.916862
##ZVALUE=280
1.315475
1.200438
1.441836
1.307726
1.234412
1.379848
1.373887
1.443624
1.459718
1.468658
1.655817
1.527667
1.482964
1.738667
1.762509
1.823902
1.833439
2.013445
1.821518
2.392530
2.480745
3.118515
14.915466
49.988627
160.229802
301.876664
583.599806
872.739553
1015.625000
1015.625000
1015.625000
1015.625000
1015.625000
1015.625000
927.679539
533.023477
315.155983
135.994554
70.681572
47.539473
57.539940
84.638596
106.095672
132.753849
147.072673
150.384903
145.354867
129.472613
110.931993
84.021688
63.977838
42.950511
31.378865
21.943450
17.209649
15.515685
15.967488
16.035438
17.254949
17.174482
18.037558
18.402934
18.296838
19.231439
18.729568
19.731522
20.296574
19.991994
20.898581
21.726489
22.448897
23.082495
24.006963
24.677515
24.877787
25.342703
25.318861
26.209950
25.689602
25.319457
26.402473
26.301742
25.857687
25.244951
26.183724
25.718808
24.906993
25.956631
26.148558
25.630593
26.299953
25.260448
26.041865
25.282502
25.498867
26.358962
##ZVALUE=285
1.253486
1.223683
1.223683
1.342893
1.305938
1.121759
1.174808
1.310706
1.242757
1.146793
1.395941
1.563430
1.390576
1.558661
1.572967
1.702905
1.782775
2.014637
1.635551
2.142787
2.211928
2.577901
2.625585
2.835989
7.502437
25.396943
89.990497
192.573667
430.234671
685.477853
969.091654
1015.684009
1015.684009
1015.684009
1015.684009
1015.684009
1015.684009
736.941695
466.929674
220.212936
110.318661
46.500564
39.165616
55.293441
75.598955
105.204582
125.544667
142.306685
148.310661
143.385530
134.363770
111.298561
90.727806
65.296888
48.011541
32.627583
25.276542
20.051599
19.233823
18.081665
18.449426
18.344522
19.566417
19.220710
20.036697
20.579696
21.154881
21.274686
22.040606
22.940636
23.876429
24.158955
24.569631
24.882555
25.375485
25.646687
26.521683
26.351810
25.898814
26.361942
26.877522
25.861859
26.181936
26.497841
25.568604
24.964809
25.332570
25.810599
25.491714
26.024580
24.910569
25.024414
25.421977
24.288893
24.837852
25.015473
##ZVALUE=290
1.257658
1.100898
1.246929
1.149774
0.971556
1.244545
1.282692
1.238585
1.118779
1.321435
1.326799
1.336932
1.423955
1.524687
1.320839
1.501441
1.443624
1.538992
1.559854
1.881719
1.963973
1.761913
2.081990
2.268553
2.487898
2.867579
3.845692
10.581613
51.763654
123.648643
298.569798
520.022511
926.954746
1015.681624
1015.681624
1015.681624
1015.681624
1015.681624
1015.681624
981.948972
593.920946
355.283618
151.056647
68.610907
31.514764
34.401417
52.889585
71.795583
99.860430
119.310617
138.988495
145.631433
144.878626
133.468509
111.991763
90.422630
64.414740
49.069524
35.285950
28.295517
22.746921
20.525455
20.584464
20.293593
20.913482
21.065474
22.019744
22.798777
22.681952
24.080873
24.604797
24.279952
25.017858
25.456548
25.915504
25.649667
25.676489
26.234984
26.247501
25.872588
26.533604
26.484728
26.470423
25.622845
26.043653
26.530623
25.943518
25.600791
25.884509
25.354624
25.357604
25.013685
25.012493
25.207996
24.415851
24.306774
##ZVALUE=295
1.110435
1.026988
1.087785
1.173615
1.112819
1.157522
1.158714
1.203418
1.241565
1.246929
1.344681
1.310706
1.235604
1.122952
1.220703
1.301765
1.426935
1.470447
1.597404
1.529455
1.652837
1.813769
1.944900
1.875758
2.060533
2.169609
2.611876
2.419949
2.955794
4.935861
17.330647
77.795982
181.513429
435.716510
720.781684
1015.676856
1015.676856
1015.676856
1015.676856
1015.676856
1015.676856
1015.676856
812.656879
439.367890
239.095688
84.140897
39.203763
25.683641
33.291578
51.760674
68.607926
95.544457
115.971565
135.119557
141.226649
139.535666
129.844546
109.160542
89.848638
67.434907
51.909685
37.233829
29.258728
25.055408
22.346973
21.725893
22.556782
22.537708
22.949576
23.975968
24.824739
25.397539
25.366545
25.712848
26.651621
26.226640
26.646852
26.316643
26.791692
26.886463
26.380420
26.151538
26.362538
26.341677
26.309490
26.098490
25.856495
25.597811
25.596619
25.053620
24.523735
24.022460
24.747849
24.260879
23.777485
24.393797
##ZVALUE=300
1.026988
0.967979
0.982881
1.145601
1.150966
1.176000
1.095533
1.142621
1.043677
1.141429
1.256466
1.176596
1.319647
1.204610
1.155734
1.192689
1.355410
1.356602
1.344681
1.423955
1.473427
1.581907
1.603961
1.694560
1.835823
1.889467
1.817942
1.899600
2.274513
2.559423
2.674460
3.289580
7.658005
45.882463
120.106936
325.977802
570.008755
981.479883
1015.681624
1015.681624
1015.681624
1015.681624
1015.681624
1015.681624
998.719931
599.731803
361.560583
156.891942
71.152449
26.191473
24.000406
33.764839
46.301484
68.266988
87.259412
114.074945
127.623677
136.910677
136.634707
124.938488
111.135840
87.412000
71.045756
52.328706
40.812492
30.429959
26.638508
23.950934
23.481846
24.528503
24.436712
24.986863
25.585890
25.832653
26.270747
26.731491
26.474595
26.623607
26.789904
26.718974
26.763678
26.303530
26.376843
26.416779
26.619434
26.165843
26.101470
26.273727
26.265979
25.881529
25.836825
25.025606
24.646521
25.104880
24.661422
24.824739
##ZVALUE=305
0.959635
1.009703
0.886917
1.051426
0.901818
1.119971
1.011491
1.079440
0.945926
0.908971
1.092553
1.069903
1.212955
1.198649
1.013875
0.947714
1.047850
1.234412
1.246929
1.226664
1.363754
1.364946
1.465678
1.640916
1.459718
1.685619
1.631975
1.737475
1.866817
1.980662
1.928806
2.238750
2.412796
2.821684
4.667640
27.157664
77.505708
222.885609
411.971807
777.543783
1015.673876
1015.673876
1015.673876
1015.673876
1015.673876
1015.673876
1015.673876
809.784532
516.723990
237.845778
114.274621
38.890839
21.598935
24.042726
32.102466
48.989654
65.471530
89.175701
106.564760
125.653744
132.847428
130.133629
123.498440
105.619431
88.158846
66.005588
51.897764
38.640499
31.173825
26.699901
25.323629
25.280714
24.735928
25.199652
25.631785
25.630593
25.629997
26.048422
26.365519
26.385784
27.087927
26.537776
26.565790
26.747584
26.836991
26.440620
26.046634
26.939511
26.509762
25.710464
26.192665
25.349855
25.318861
24.720430
24.855733
25.032759
##ZVALUE=310
0.913739
0.768900
0.835657
0.910759
1.008511
0.919700
0.842810
0.956655
0.865459
0.930429
1.177788
1.013875
1.128912
1.038909
1.138449
0.994802
1.279712
0.953674
1.099706
1.041889
1.258850
1.059771
1.511574
1.324415
1.369715
1.503825
1.670718
1.631975
1.513958
1.638532
1.711845
1.639724
2.038479
2.441406
2.427697
2.475977
3.429651
12.287498
41.822791
140.291452
279.405713
579.216480
887.240767
1015.681624
1015.681624
1015.681624
1015.681624
1015.681624
1015.681624
980.806947
679.563880
346.649885
185.242891
64.450502
28.388500
19.218922
22.498965
31.872988
42.551756
62.068701
78.452826
100.679994
113.301873
125.476718
126.600862
117.003918
104.759932
85.841417
69.606900
51.298738
41.093826
32.626987
28.595924
25.584698
25.222898
24.538636
25.250912
24.570823
25.447607
25.572777
26.190877
26.365519
26.444793
26.396513
26.694536
26.853681
26.775599
26.095510
26.811957
26.120543
25.817752
25.728941
25.953650
24.826527
24.629831
24.999976
##ZVALUE=315
0.865459
0.911951
0.904799
0.886917
0.752807
0.951886
0.910759
0.981688
0.854731
1.069903
1.035929
1.021624
1.100898
0.929832
0.958443
1.114607
1.039505
1.014471
1.106858
1.016855
1.179576
1.152754
1.176000
1.237988
1.471639
1.192689
1.211762
1.436472
1.646876
1.535416
1.572967
1.588464
1.836419
1.862645
2.121925
1.912713
2.270937
2.755523
2.934933
5.715489
23.236871
95.101595
211.684704
471.999645
771.556497
1015.681624
1015.681624
1015.681624
1015.681624
1015.681624
1015.681624
1015.681624
888.725519
472.592711
258.196592
92.291832
38.895607
18.402934
17.883778
22.166967
28.423667
41.200519
54.389834
75.450540
91.496706
107.944608
117.375851
119.042993
113.288760
97.953677
83.356500
65.615773
53.150654
38.471818
32.077432
27.080774
25.662780
25.033951
25.227666
24.787784
24.782419
25.169849
25.522709
25.671721
25.679469
26.207566
26.313663
26.115775
26.283860
26.382804
25.182962
25.466681
25.212765
24.947524
24.882555
25.164485
##ZVALUE=320
0.903606
0.886917
0.827909
0.915527
0.839829
0.828505
0.837445
0.799894
0.995994
0.843406
0.862479
0.827909
0.874996
0.931621
0.871420
1.062751
0.943542
0.959635
0.952482
1.075864
1.028776
1.151562
1.239777
1.192689
0.991821
1.195669
1.271963
1.121759
1.306534
1.408458
1.318455
1.546741
1.549721
1.830459
1.818538
1.807809
2.073646
2.135634
2.187490
2.592802
2.694726
3.631711
10.081530
52.003860
133.512616
345.763564
577.180386
967.512727
1015.681624
1015.681624
1015.681624
1015.681624
1015.681624
1015.681624
1015.681624
613.071918
352.627635
147.838593
65.076947
21.678805
15.043616
16.078949
18.640757
25.996566
34.541488
51.459670
65.776706
85.701942
99.947453
110.926628
112.254620
107.456446
97.332001
78.254938
65.113902
48.306584
39.013624
30.922890
27.454495
24.481416
24.368763
24.620891
24.812818
24.962425
24.798512
25.241971
25.520921
25.345683
25.462508
25.665760
25.401711
25.306940
24.806857
24.278760
24.833679
24.807453
##ZVALUE=325
0.786781
0.806451
0.854731
0.820756
0.842810
0.866652
0.846982
0.811815
0.855923
0.852942
0.888705
0.910759
0.793934
0.864863
0.901818
0.940561
0.948906
1.054406
0.947714
1.138449
1.052618
1.017451
1.218915
1.144409
1.104474
0.870824
1.245737
1.394749
1.203418
1.373887
1.305938
1.333952
1.489520
1.378655
1.487732
1.548529
1.520514
1.690984
1.848936
1.892447
2.245903
2.317429
2.444983
3.047585
5.459785
32.102466
85.861683
234.250426
429.790616
823.847651
1015.685797
1015.685797
1015.685797
1015.685797
1015.685797
1015.685797
1015.685797
770.008564
469.310880
203.011632
94.473958
28.937459
14.891624
12.771487
14.027953
18.413663
23.761988
33.903718
46.484470
66.663623
81.079602
96.325874
105.195642
106.626749
101.547837
88.279843
75.472593
58.724880
47.336817
35.862923
30.591488
26.015639
24.804473
24.026632
24.078488
24.185777
23.865700
24.570823
24.829507
24.805665
24.182796
24.080873
24.257898
23.802519
24.255514
23.795962
##ZVALUE=330
0.803471
0.801682
0.788569
0.851750
0.771880
0.725985
0.825524
0.856519
0.859499
0.765920
0.949502
0.986457
0.796914
0.820756
0.853539
0.855923
0.875592
0.796914
0.908971
0.937581
0.909567
1.024604
1.066923
0.910759
1.083612
0.916719
1.040697
1.144409
1.239777
1.197457
1.223683
1.167655
1.415610
1.210570
1.341701
1.505613
1.365542
1.676679
1.521707
1.656413
1.773834
1.836419
1.885891
1.994967
2.427697
2.615452
3.523827
14.693737
47.332644
162.812471
316.111445
647.482872
969.057679
1015.678644
1015.678644
1015.678644
1015.678644
1015.678644
1015.678644
943.642855
614.029765
287.614465
142.925978
49.296618
20.026565
12.209415
12.386441
14.012456
17.047524
23.906827
32.650828
47.034621
60.875416
80.148578
90.885758
99.900961
100.934505
94.672441
85.641742
70.811510
58.299899
45.051575
36.816597
30.665994
26.975870
25.152564
24.404526
23.933649
24.059415
23.611784
23.585558
23.376942
23.692846
23.721457
23.252964
23.767948
##ZVALUE=335
0.739694
0.676513
0.741482
0.675917
0.796914
0.783801
0.714660
0.763535
0.794530
0.648499
0.655651
0.796914
0.734925
0.807643
0.906587
0.806451
0.831485
0.852942
0.957847
0.965595
0.910759
0.737906
0.942945
0.987649
0.947714
1.010895
1.043677
1.019835
1.210570
1.058578
1.106858
1.162887
1.247525
1.216531
1.130700
1.342893
1.225471
1.377463
1.405478
1.688600
1.440644
1.725554
1.804829
1.831651
1.996756
2.033710
2.212524
2.724528
2.868772
7.338524
27.956963
112.503767
235.414505
522.324443
841.435790
1015.681624
1015.681624
1015.681624
1015.681624
1015.681624
1015.681624
1015.681624
746.698976
391.031504
205.004811
71.862936
28.530955
13.001561
12.649894
13.333559
14.671683
18.123984
22.984743
34.086704
44.539571
61.857700
73.731542
87.801814
93.928576
94.976425
90.940595
79.815984
70.096850
55.676699
46.345592
36.359429
31.459928
26.623607
24.547577
23.158789
23.119450
23.110509
22.715926
22.463799
22.509694
22.676587
##ZVALUE=340
0.822544
0.783801
0.678897
0.794530
1.023412
0.754595
0.806451
0.647902
0.719428
0.665784
0.901818
0.799894
0.839829
0.942945
0.873804
0.829697
0.839829
0.847578
0.823736
1.009703
1.092553
0.944734
1.013875
1.008511
0.955462
1.069903
1.001954
1.189709
1.041889
1.133680
0.955462
1.176596
1.125932
1.275539
1.227856
1.189709
1.279712
1.188517
1.217723
1.327991
1.288652
1.626611
1.611710
1.698732
1.664758
1.913905
1.939535
1.967549
2.441406
2.644658
2.732873
4.173517
13.593435
69.330931
167.004466
413.074493
695.658922
1015.738845
1015.738845
1015.738845
1015.738845
1015.738845
1015.738845
1015.738845
939.217806
494.142771
272.775888
108.150840
42.594671
14.966726
13.095737
13.382435
14.255643
15.809536
18.677711
24.319887
31.623840
44.104457
56.163669
73.083639
83.271861
89.905858
91.522932
87.097883
78.984499
67.001581
56.701899
44.200420
36.769509
30.189753
26.629567
23.347735
22.795796
21.981001
21.486878
21.433830
##ZVALUE=345
0.721812
0.721812
0.702739
0.664592
0.559688
0.733733
0.784993
0.762939
0.704527
0.668764
0.884533
0.636578
0.825524
0.726581
0.765920
0.840425
0.726581
0.752807
0.560880
0.810623
0.784993
0.778437
0.946522
0.783801
0.887513
0.895858
0.860691
0.796914
0.888705
0.923872
1.054406
0.939965
1.013875
1.067519
1.121759
1.103878
1.234412
1.148582
1.234412
1.065731
1.026988
1.318455
1.276731
1.481771
1.560450
1.513958
1.447797
1.888871
1.744628
1.966953
2.162457
2.207756
2.366900
2.841949
5.883574
38.488507
106.661916
278.359652
486.668944
895.137787
1015.681624
1015.681624
1015.681624
1015.681624
1015.681624
1015.681624
1015.681624
669.570565
388.187766
159.466863
68.068504
21.892786
13.924837
13.523698
13.479590
14.453530
15.152693
17.844439
22.568703
31.011701
40.125847
55.737495
65.666437
77.203512
82.732439
85.229874
82.833767
74.052811
65.489411
53.108931
43.629408
33.928752
29.400587
24.358630
22.756457
21.132827
##ZVALUE=350
0.718832
0.723600
0.600815
0.696778
0.549555
0.698566
0.870824
0.755787
0.650883
0.726581
0.752807
0.821948
0.805855
0.791550
0.803471
0.758767
0.762939
0.815988
0.770688
0.817776
0.839829
0.960827
0.716448
0.748634
0.769496
0.739694
0.743866
0.969768
0.846982
1.021624
1.066923
0.868440
0.862479
1.074672
1.127720
0.892878
1.058578
1.008511
1.004934
1.179576
1.070499
1.226664
1.178980
1.281500
1.337528
1.325607
1.524687
1.662970
1.656413
1.677871
1.643896
1.911521
1.977682
2.117753
2.319813
2.750754
3.815889
20.401478
62.393546
186.659694
349.635482
694.618821
992.513895
1015.682817
1015.682817
1015.682817
1015.682817
1015.682817
1015.682817
768.307447
464.878678
204.757452
91.646910
26.842952
14.504790
12.632608
12.362599
12.958646
13.063550
14.812946
16.783476
22.376776
28.081536
37.446618
47.394633
59.585571
68.116784
76.125860
78.541636
75.479746
69.966912
60.241818
50.880909
40.260553
33.815503
27.409792
##ZVALUE=355
0.413656
0.366569
0.582933
0.411868
0.585914
0.641942
0.562668
0.621676
0.698566
0.633597
0.447631
0.561476
0.434518
0.423789
0.554919
0.562668
0.848770
0.589490
0.785589
0.643730
0.604987
0.808835
0.713468
0.598431
0.776649
0.625849
0.747442
0.791550
0.668764
0.736713
0.896454
0.879765
0.706911
0.832677
0.849962
0.802875
0.699759
0.839829
0.856519
0.791550
1.073480
0.922680
0.934601
0.903606
1.032948
1.217723
1.263618
1.225471
1.395941
1.401901
1.371503
1.477599
1.637936
1.518726
1.674891
1.882911
1.843572
2.479553
2.780557
9.966493
37.764907
143.249035
284.163952
564.289689
868.855715
1015.520692
1015.520692
1015.520692
1015.520692
1015.520692
1015.520692
940.386057
609.321594
273.829699
130.377412
39.635897
16.818643
11.985898
11.650920
12.161732
12.168884
13.096929
13.910532
16.108751
19.372702
25.206804
32.166839
42.652488
51.415563
61.311722
67.699552
70.948601
69.707632
63.544512
57.385564
47.776699
##ZVALUE=360
0.779629
0.592470
0.702739
0.699759
0.697970
0.678897
0.738502
0.777841
0.766516
0.755787
0.588894
0.701547
0.566840
0.734925
0.771880
0.853539
0.839829
0.782609
0.816584
0.878572
0.848770
0.953674
0.935793
0.944734
0.851750
0.956655
0.849962
0.800490
0.952482
1.026988
1.008511
0.861883
1.131892
0.905991
0.878572
1.047850
0.959635
0.978708
0.894666
1.140833
1.181960
1.263618
1.301765
1.207590
1.076460
1.194477
1.420975
1.335740
1.254678
1.540780
1.348853
1.593828
1.597404
1.680851
1.781583
1.874566
1.978874
2.174973
2.209544
2.685785
2.688766
4.719496
17.062426
79.481602
179.464817
405.952930
675.253868
1015.681624
1015.681624
1015.681624
1015.681624
1015.681624
1015.681624
1015.681624
799.425840
404.784679
211.455822
73.226690
27.323961
12.433529
11.620522
11.443496
11.806488
12.073517
12.305975
13.125539
14.355779
17.768741
21.060705
27.986765
34.900904
45.940876
52.947998
60.889721
64.025521
64.950585
##ZVALUE=365
0.767708
0.724792
0.784993
0.703931
0.579953
0.598431
0.608563
0.771880
0.630617
0.752807
0.735521
0.777841
0.773668
0.762939
0.738502
0.896454
0.927448
0.649691
0.757575
0.820756
0.733733
0.854731
0.805855
0.815988
0.785589
0.879765
0.883937
0.821948
0.822544
0.847578
0.829697
0.931621
0.849962
0.951886
1.014471
0.923872
1.007915
0.945926
1.186728
1.107454
1.167655
1.019835
1.254678
1.029968
1.144409
1.204610
1.195669
1.186728
1.315475
1.286864
1.402497
1.415610
1.487732
1.732707
1.690984
1.756549
1.678467
1.831651
1.940727
2.192855
2.311468
2.518892
2.701879
3.255606
6.152987
34.343600
91.537833
236.167908
435.197949
818.167925
1015.682817
1015.682817
1015.682817
1015.682817
1015.682817
1015.682817
982.439518
579.840541
319.795609
111.624002
40.576458
13.411641
11.027455
10.444522
10.832548
10.624528
10.962486
11.167526
11.592507
12.754798
14.510751
19.122958
23.655891
31.944513
38.952827
47.708750
##ZVALUE=370
0.612736
0.675917
0.590682
0.741482
0.716448
0.723600
0.765920
0.630617
0.728965
0.747442
0.739694
0.623465
0.572801
0.933409
0.843406
0.813603
0.564456
0.814795
0.864863
0.667572
0.901818
0.784993
0.783801
0.789762
0.710487
0.718832
0.903606
0.671744
0.813603
0.805855
0.775456
0.837445
0.950694
0.924468
1.108646
0.964999
1.037717
0.951886
0.938773
0.946522
1.003742
1.133680
1.266599
1.181960
1.097918
1.041889
1.203418
1.238585
1.200438
1.204610
1.235604
1.218915
1.361966
1.376867
1.480579
1.505613
1.469851
1.597404
1.719594
1.724958
1.927614
1.949668
1.933575
2.349615
2.518892
2.873540
3.998876
18.494725
63.073635
204.537511
376.317501
714.329481
1007.385850
1015.681624
1015.681624
1015.681624
1015.681624
1015.681624
1007.032990
618.645549
359.590650
141.103864
60.651898
18.528700
10.872483
9.878874
9.953976
9.942651
9.776950
10.097623
10.227561
10.786653
11.616945
13.582706
15.891790
20.828843
##ZVALUE=375
0.738502
0.722408
0.733733
0.680685
0.603795
0.832677
0.681877
0.720620
0.836849
0.624657
0.748634
0.718832
0.644922
0.762939
0.815988
0.653863
0.674725
0.805855
0.645518
0.824928
0.754595
0.531673
0.609756
0.698566
0.736713
0.712872
0.773668
0.808835
0.817776
0.870824
0.781417
0.848770
0.903606
0.930429
0.881553
0.841618
0.782609
1.065731
0.879765
0.859499
1.113415
0.990629
0.936985
1.075864
1.025796
0.896454
0.907779
0.997782
1.084805
1.109838
1.168847
1.239777
1.263618
1.189709
1.289845
1.173615
1.107454
1.216531
1.437664
1.437664
1.443624
1.627803
1.764894
1.737475
1.786947
2.071857
2.292991
2.301931
2.750754
8.613467
30.603409
112.258792
239.017010
539.445877
854.295492
1015.681624
1015.681624
1015.681624
1015.681624
1015.681624
1015.681624
751.879811
481.311679
236.519575
115.574598
34.211874
14.411807
9.273887
8.920431
8.603930
8.731484
8.975863
9.144545
9.432435
9.810925
10.402799
##ZVALUE=380
0.600815
0.530481
0.745654
0.854731
0.575781
0.678897
0.660419
0.583529
0.590682
0.696778
0.627637
0.781417
0.601411
0.810623
0.716448
0.709891
0.867844
0.693798
0.746846
0.787973
0.665784
0.743866
0.703931
0.711679
0.801682
0.865459
0.681877
0.819564
0.740886
0.808835
0.885725
0.747442
0.742674
0.839829
0.856519
0.719428
0.879765
0.852942
1.002550
0.799894
0.818968
0.769496
0.945926
0.847578
0.856519
0.966787
0.891685
0.888705
0.823736
0.970960
1.058578
0.993609
1.046658
1.123548
1.074672
1.083612
1.080632
1.066923
1.205802
1.339912
1.239777
1.401901
1.387596
1.546741
1.545548
1.751781
1.807809
2.041459
2.374649
2.734661
3.045797
4.649758
21.066666
66.287518
206.247568
392.529964
781.150460
1015.681624
1015.681624
1015.681624
1015.681624
1015.681624
1015.681624
1013.592482
625.102520
365.080833
147.282481
64.075589
18.157959
9.808540
8.519888
8.195639
8.037686
8.336902
8.430481
8.698702
##ZVALUE=385
0.630617
0.577569
0.599623
0.582933
0.484586
0.586510
0.696778
0.595450
0.648499
0.636578
0.586510
0.736713
0.722408
0.763535
0.629425
0.529885
0.621676
0.583529
0.628829
0.758767
0.646710
0.774860
0.762939
0.674725
0.677705
0.700951
0.628829
0.859499
0.727773
0.832677
0.618696
0.722408
0.765920
0.823736
0.874996
0.862479
0.892878
0.868440
0.971556
0.911951
0.803471
0.906587
0.920892
0.886917
1.040697
0.886917
0.901818
0.917912
0.984669
0.794530
0.850558
1.037717
0.961423
0.822544
1.016855
1.056790
1.026988
1.165867
1.049638
0.995994
1.152754
1.309514
1.331568
1.296997
1.421571
1.586676
1.538992
1.736879
1.915693
2.008677
2.411604
2.610683
2.754927
3.455877
8.456707
48.299432
126.197934
324.305892
584.649444
1007.365584
1015.677452
1015.677452
1015.677452
1015.677452
1015.677452
1015.677452
903.075933
496.430993
284.216404
110.454559
40.985942
11.347532
8.029938
7.851720
7.479787
7.536411
##ZVALUE=390
0.677705
0.680685
0.646710
0.737906
0.645518
0.563860
0.654459
0.630617
0.653863
0.605583
0.556707
0.634789
0.559688
0.423789
0.671744
0.665784
0.675917
0.659823
0.780821
0.602603
0.619888
0.722408
0.642538
0.666976
0.566840
0.566840
0.655651
0.567436
0.562668
0.608563
0.737906
0.621676
0.759959
0.629425
0.651479
0.772476
0.646710
0.738502
0.812411
0.849962
0.811815
0.725985
0.840425
0.914931
0.865459
0.733733
0.893474
0.714660
0.827909
0.739694
0.834465
0.980496
1.002550
0.974536
0.971556
0.969768
1.069903
1.039505
1.040697
1.036525
1.083612
1.096725
1.068711
1.047850
1.192689
1.161695
1.480579
1.541972
1.877546
1.968741
2.081990
2.190471
2.354980
2.285838
2.517700
2.547503
5.154610
20.807981
94.826818
214.323401
495.433807
792.967677
1015.681624
1015.681624
1015.681624
1015.681624
1015.681624
1015.681624
987.094641
689.691901
346.899629
173.971653
58.588982
21.174550
7.973909
6.815791
##ZVALUE=395
0.623465
0.664592
0.548959
0.568628
0.565648
0.593662
0.767708
0.544786
0.478625
0.439882
0.659823
0.534654
0.584722
0.645518
0.593662
0.618696
0.585914
0.812411
0.603795
0.648499
0.628829
0.731945
0.646710
0.592470
0.709891
0.747442
0.819564
0.670552
0.569820
0.520945
0.668764
0.542998
0.723600
0.755787
0.774860
0.755787
0.615716
0.706911
0.617504
0.786781
0.854731
0.777841
0.752807
0.682473
0.651479
0.664592
0.909567
0.758767
0.807643
0.782609
0.952482
0.765920
0.904799
0.866652
1.011491
0.936985
1.111627
1.023412
1.080632
0.990629
0.982881
1.186728
1.100898
1.169443
1.114607
1.222491
1.241565
1.520514
1.553893
1.783967
1.950860
2.221465
2.075434
2.059937
2.258420
2.148747
2.288818
2.520680
3.055930
13.714433
50.965548
168.844461
316.248536
604.999661
915.803909
1015.681028
1015.681028
1015.681028
1015.681028
1015.681028
1015.681028
806.528926
498.953462
216.392875
100.252628
30.977726
##ZVALUE=400
0.630617
0.589490
0.648499
0.710487
0.542998
0.615716
0.514984
0.437498
0.409484
0.501871
0.461936
0.443459
0.548959
0.583529
0.665784
0.568628
0.584722
0.621676
0.579953
0.655651
0.652671
0.602603
0.601411
0.623465
0.780821
0.520945
0.647902
0.591874
0.654459
0.713468
0.593662
0.759959
0.592470
0.644922
0.629425
0.707507
0.820756
0.859499
0.692606
0.683665
0.716448
0.699759
0.796914
0.889897
0.918508
0.675917
0.856519
0.851750
0.941753
0.775456
0.795722
0.761747
0.698566
0.966787
0.881553
0.820756
0.888705
1.078844
1.002550
1.099706
1.035929
1.072884
1.135468
1.087785
1.159906
1.241565
1.351833
1.323819
1.615882
1.796484
1.720786
1.866817
1.899600
2.019405
1.857877
1.924634
1.853704
1.822710
2.226830
2.336502
2.744794
7.368922
27.241707
96.808672
205.048919
449.797511
721.749663
1015.682817
1015.682817
1015.682817
1015.682817
1015.682817
1015.682817
953.477025
634.858608
318.434834
##END
