##TITLE=SH701
##FORMAT=SPECTACLE-ASCII V-1.2
##DATA TYPE=ULTRAVIOLET SPECTRUM
##SECOND TYPE=ULTRAVIOLET SPECTRUM
##DATE=10/24/17
##TIME=15:41:54
##SPECTROMETER/DATA SYSTEM=SPECTACLE
##XUNITS=NM EM
##YUNITS=ENERGY
##YFACTOR=1
##FIRSTX=220
##LASTX=410
##NPOINTS=96
##3DDATA=Equidistant
##ZUNITS=NM EX
##FIRSTZ=210
##LASTZ=400
##ZPOINTS=39
##XYDATA=(Y..Y)
##ZVALUE=210
2.189875
2.159476
1.999736
2.245903
2.536774
2.635717
2.675653
2.916455
3.227592
2.579689
3.112555
3.454685
3.581643
3.966689
4.180670
3.864765
4.876852
4.506707
4.896522
5.531907
5.749464
5.004406
5.981922
5.755424
6.557703
6.979704
7.058978
7.348657
7.874966
7.217526
8.425713
8.737445
8.390546
7.788539
8.292794
9.236932
9.963512
8.486509
9.616613
9.866953
10.072589
10.916591
11.337996
10.455847
11.094809
10.548830
12.806654
11.902452
11.738539
11.901855
12.746453
13.270974
12.861490
12.955666
14.064908
14.047623
13.707876
14.227629
14.771819
15.204549
15.113950
15.640855
15.066862
14.914870
15.424490
16.999841
18.334985
17.961860
24.870634
28.460622
33.473969
40.360689
45.450926
50.791502
58.147907
63.206553
64.194798
64.412951
62.559843
58.162808
53.470731
49.255490
44.843554
38.895607
34.975410
28.063655
25.308728
22.692680
23.064613
20.296574
20.493865
19.990802
20.492673
21.026731
19.577742
22.192597
##ZVALUE=215
3.240705
3.309846
2.879500
2.533793
2.617836
2.308488
2.455711
3.415942
3.766418
4.384518
4.127622
3.863573
3.825426
4.134774
4.415512
3.837943
3.825426
4.315972
4.394650
4.746914
4.993677
5.812645
5.808473
6.754994
5.961657
6.511807
6.921887
6.450415
8.056760
8.417964
7.699728
7.293820
8.282661
8.543730
8.924603
10.576844
9.775758
9.867549
10.409951
10.254979
10.923743
10.907650
10.913610
12.098551
10.919571
12.653470
12.150407
13.333559
12.954473
13.071895
13.004541
14.583468
13.369918
14.359951
13.745427
15.022755
14.418960
14.657974
15.043616
14.750957
15.103817
16.097426
15.005469
16.021729
16.620755
16.919971
18.768907
19.005537
22.360682
27.677417
32.143593
38.123727
43.944716
48.613548
53.365827
57.781935
57.992935
56.894422
57.100654
51.547885
46.946406
43.249726
40.319562
35.093427
29.749870
26.340485
25.626421
22.096634
20.855665
20.599961
19.571781
19.605756
20.097494
17.542839
21.543503
20.446777
##ZVALUE=220
11.177659
10.749698
11.593699
12.757778
11.413693
11.137724
9.627938
7.964969
5.780458
5.709529
6.574988
6.902814
8.210540
7.003546
7.242560
6.254911
5.729795
5.011559
5.193949
5.423427
5.566478
5.549788
6.296635
6.706715
6.219745
8.143783
7.477999
8.150935
8.140802
9.003878
8.989573
9.362698
10.717511
10.725856
11.161566
12.775660
12.875795
13.495684
14.163852
13.866425
13.443828
15.305877
14.965534
15.868545
15.247464
15.789866
15.965700
16.950965
16.354918
14.972687
17.798543
16.168952
17.838478
16.565919
17.029643
16.547441
16.644597
17.312765
15.888810
17.200708
18.174648
18.363595
18.856525
17.744899
19.555688
20.867586
21.310449
23.410916
25.801659
29.084682
34.193993
37.934780
47.249794
52.836537
53.584576
57.316422
55.924654
58.721900
57.982802
55.700541
51.954985
46.024919
42.649508
36.326647
34.218431
28.446913
26.277900
24.386644
23.426414
23.525953
23.080707
20.827651
21.853447
19.688606
20.610690
21.355748
##ZVALUE=225
20.756721
21.594763
30.313730
44.773817
51.255822
59.060454
58.914423
48.849583
37.953854
27.867556
18.662810
16.542673
16.847849
16.611814
19.865632
18.412471
15.694499
14.286637
13.014674
9.754896
7.401705
7.077456
6.523728
6.518960
7.047653
7.480979
8.724928
8.052588
10.177493
9.912848
12.121797
14.227629
14.538765
17.090440
17.672777
20.503998
20.166636
21.680593
22.442937
23.932457
24.140477
24.365783
24.808645
23.666620
23.839474
23.321509
23.193955
23.036599
24.762750
24.000406
22.393465
25.921464
23.365617
26.096702
24.222732
25.268793
24.998784
24.961829
23.992658
25.260448
24.852753
25.543571
27.323961
25.329590
26.534796
28.333664
28.699636
29.098988
33.046603
34.880638
39.122701
46.066642
51.348805
55.483580
58.572888
59.876442
55.145621
57.909489
56.188703
53.197742
48.788786
44.964552
42.319894
38.112998
37.361979
32.158494
29.759407
29.341578
28.451681
28.598905
26.113987
27.407408
28.228760
25.476813
28.709769
27.694702
##ZVALUE=230
21.770597
38.777590
41.604638
75.809956
133.781433
154.506564
185.491443
206.837654
196.331739
163.172483
129.034519
82.143545
57.238936
37.402511
33.839941
36.944747
40.759444
38.841963
36.002994
34.581423
24.187565
20.692945
13.170838
10.200739
8.884668
8.951426
8.585453
10.986924
12.114644
14.454722
15.518665
19.300580
21.444559
28.257966
29.516816
31.852722
36.555529
38.051605
40.078759
41.732788
41.478872
44.364929
44.483542
42.266846
40.738583
40.187836
38.886666
40.956736
39.781928
38.971901
39.433837
39.068460
38.705468
39.851665
38.419962
38.351417
39.136410
38.097501
38.565993
39.768815
39.835572
40.391684
40.688515
41.295886
40.745735
41.360855
42.730570
44.510961
44.330955
51.171780
51.777959
59.670806
63.920617
68.179965
71.836710
74.135661
72.764754
71.503520
70.178509
64.068437
60.837865
55.816770
54.691434
50.782561
49.580932
44.260621
45.071840
42.922497
43.645501
39.963722
41.025877
39.634705
39.511919
40.540695
40.833950
40.084720
##ZVALUE=235
10.495782
9.952784
25.669932
63.717961
113.731623
199.551582
285.462737
404.286981
462.619662
493.234992
473.339558
397.168994
285.724998
203.570724
126.741529
85.666776
64.550638
65.269470
69.554448
75.862408
74.429512
60.215592
51.066875
38.668513
25.631785
18.447638
15.203953
13.052821
13.794899
15.800595
19.517541
24.102926
29.045939
34.400821
40.229559
45.417547
46.016574
53.166747
55.734515
56.591630
60.505867
58.167577
60.848594
60.775876
58.757663
57.457685
58.329701
57.911873
54.278970
53.923726
55.365562
54.815412
53.568482
53.323507
52.342415
55.704713
54.645538
54.614544
55.344701
54.689646
56.954622
55.646896
56.633949
58.642626
58.484674
61.558485
58.673620
64.233541
67.296624
72.362423
76.101422
79.231858
81.661940
90.259910
88.679790
89.801550
94.494820
89.390874
87.298751
83.764791
82.880855
78.037977
75.109601
71.600676
69.137812
68.962574
65.008998
62.931776
62.880516
63.071847
59.792995
61.245561
59.213638
57.693720
58.181882
55.758953
##ZVALUE=240
2.877712
2.657771
6.757975
16.240478
51.488876
104.744434
216.486454
342.367887
550.427437
712.913871
861.119628
893.262625
849.803686
701.351762
574.418902
359.176993
244.250894
144.129992
107.873678
93.370676
100.424886
110.508800
110.938549
95.407963
78.694820
64.453483
49.117804
38.168430
26.790500
23.638606
22.048950
25.484562
26.107430
33.325553
35.617948
42.394996
44.223666
47.659874
51.064491
50.036907
52.868724
53.915977
52.212477
52.008629
51.765442
52.472949
51.544905
50.993562
51.984787
52.853823
52.370429
54.739714
53.369999
56.759715
58.397651
58.615804
60.939789
60.113668
59.352517
62.286854
66.387653
66.346526
64.918995
67.386627
68.734884
72.674751
70.404410
74.816942
80.764890
80.585480
85.259676
93.809962
96.806884
101.939440
102.699995
104.711652
101.400614
103.122592
100.114942
99.415779
93.649626
90.195537
89.821815
84.949732
82.882643
79.756975
81.573725
74.606538
76.639652
77.695847
72.029829
74.582696
74.934959
74.376464
68.400502
74.563622
##ZVALUE=245
2.350807
2.230406
2.569556
2.463460
4.540682
18.626451
45.325756
127.544403
241.460800
395.934582
676.231980
888.825655
1015.793681
1015.793681
1015.793681
1014.283895
777.489543
582.185984
407.496691
220.788717
145.436525
106.247663
109.179616
122.899413
124.920607
116.064548
110.811591
92.290640
74.474812
52.960515
41.661859
31.530857
26.263595
22.899508
24.625659
26.912689
27.718544
29.892921
30.877590
30.982494
34.915805
34.213662
33.794641
33.777952
32.277703
32.992959
34.773946
34.877658
36.823750
37.764907
38.186908
42.569637
45.408607
46.048760
45.241714
47.743917
48.204660
50.196648
52.210689
56.924820
54.227710
56.827664
59.876442
59.410930
60.675740
62.961578
62.664747
67.290664
69.401860
74.587464
79.182982
80.883503
85.339546
91.637969
93.413591
94.097853
94.366670
95.278621
91.127753
91.040730
87.385774
82.166791
82.280636
81.609488
80.571771
79.491735
77.687502
74.365735
76.494813
77.756643
73.090792
74.736476
73.260665
74.020624
73.976517
75.208545
##ZVALUE=250
2.083778
2.084970
2.174973
1.806617
2.509952
2.639890
3.096461
11.620522
47.727823
106.327534
260.443687
444.100499
669.573545
989.719033
1015.733480
1015.733480
1015.733480
1015.733480
1015.733480
810.108781
544.560552
344.109535
171.993971
118.280649
106.813908
120.198727
134.693980
134.396553
132.460594
120.169520
105.302930
80.273747
62.606931
41.239858
30.923486
24.148822
21.365881
20.526648
20.396709
22.103786
21.879673
21.937490
22.405982
21.169782
22.495985
22.757649
21.491647
24.441481
25.718808
27.547479
30.111670
31.128526
33.263564
34.325719
34.515858
36.712885
38.455725
41.341782
41.465759
44.052601
44.183731
46.741962
45.438409
48.203468
49.673915
52.230954
52.940845
55.485964
57.581663
62.221885
62.828660
69.270730
72.924495
78.422427
75.733662
76.531768
81.517696
81.967711
80.752969
78.558922
77.379942
74.583888
73.524714
71.228743
73.864460
71.060658
71.051717
67.560673
70.804954
68.916678
68.722963
67.455769
66.364408
67.241788
66.979527
69.417953
##ZVALUE=255
2.120733
1.952648
2.092719
2.360940
1.862645
2.246499
2.375841
2.383590
3.062487
5.236864
27.629733
77.557564
207.155943
371.201634
669.944882
965.090990
1015.793681
1015.793681
1015.793681
1015.793681
1015.793681
1015.793681
789.431930
435.585976
258.911848
131.385922
102.455616
106.200576
124.138594
138.600469
145.355463
139.904618
130.219460
106.066465
86.850524
62.494874
47.719479
32.106638
26.455522
20.856857
20.881891
20.964742
20.392537
21.421909
20.555854
21.392703
22.345781
23.151636
22.962689
24.136901
25.309920
28.054714
29.139519
29.092431
29.976964
31.645894
33.669472
36.026835
36.333799
35.815835
37.089586
37.839413
39.754510
40.062666
41.288733
43.809414
43.818951
46.154857
48.502684
53.257942
55.142641
55.985451
60.416460
63.963532
66.922903
66.543818
68.993568
69.910884
67.533851
68.590641
66.974759
65.136552
63.907504
62.790513
62.989593
63.365698
62.335730
63.103437
62.891841
64.224601
63.269734
62.970519
62.394738
62.686801
62.790513
63.461661
##ZVALUE=260
1.659989
1.534820
1.994967
1.900792
1.849532
2.087951
1.915693
2.106428
2.142787
2.631545
3.000498
3.654957
12.404919
56.359768
130.098462
328.137875
549.970865
946.267843
1015.794873
1015.794873
1015.794873
1015.794873
1015.794873
1015.794873
987.645388
704.895854
386.401415
226.093531
114.441514
92.472434
103.979707
129.666924
141.615868
155.678988
151.658654
135.036707
119.119883
91.414452
72.477460
52.035451
38.516521
30.808449
26.751757
23.757815
23.746490
24.032593
24.249554
24.492741
25.533438
26.397705
27.747750
28.960705
28.967857
30.159950
30.818582
31.690598
32.925606
34.730434
36.811829
36.371946
37.515759
37.607551
39.707422
39.283633
40.544868
40.872693
42.303801
45.212507
45.341849
48.995614
51.078796
55.621862
56.815743
57.514906
59.997439
61.324835
60.205460
60.595870
60.864687
59.614778
58.753490
57.997704
58.760643
58.419704
57.424903
56.463480
56.953430
58.198571
56.143999
57.389736
57.825446
57.420731
60.214996
58.235526
59.919953
59.763789
##ZVALUE=265
1.531839
1.784563
1.513958
1.602769
1.531839
1.798868
1.640916
1.960993
1.946688
2.201796
2.591610
2.580881
2.825856
3.380775
7.060766
39.600730
99.755526
259.150863
470.205545
903.147459
1015.793681
1015.793681
1015.793681
1015.793681
1015.793681
1015.793681
1015.793681
974.056721
557.686687
322.778821
175.865889
93.320608
89.007616
117.026567
134.817958
157.994628
164.188743
160.358548
147.157907
123.994946
100.306869
72.815418
58.446527
41.966438
35.223961
29.619932
27.839541
28.950572
28.573871
29.806495
31.666756
31.825900
32.586455
34.376979
35.951734
36.055446
36.349893
37.580729
38.944483
40.157437
40.720701
41.439533
40.863752
43.417811
42.590499
43.297410
44.427514
46.556592
47.848821
48.585534
50.365925
52.989721
54.977536
57.183504
58.073997
57.835579
58.235526
56.112409
56.607723
56.813955
57.038665
55.043697
55.622458
54.510832
55.955648
56.237578
55.038929
53.801537
54.534674
53.362846
55.268407
53.474903
52.937865
56.360960
55.658817
56.204796
##ZVALUE=270
1.791716
1.368523
1.317859
1.490712
1.592636
1.658797
1.891851
1.687407
1.907945
2.026558
1.629591
2.157688
1.943707
2.387762
2.349615
3.200769
3.931522
17.695427
56.701899
188.345909
383.706689
683.271885
1015.793681
1015.793681
1015.793681
1015.793681
1015.793681
1015.793681
1015.793681
1015.793681
960.727930
503.782630
274.965763
115.218759
82.336664
99.879503
120.282769
148.176551
163.602829
170.204639
167.807937
150.413513
131.300688
101.036429
80.468655
57.958961
46.580434
38.464665
34.942627
34.107566
33.593774
36.856532
36.578774
38.252473
39.037466
39.964914
41.282773
43.697953
44.017434
45.123696
45.247674
45.738816
45.904517
47.230721
46.964884
48.587918
47.572851
49.259663
49.763918
51.492453
53.293705
54.410696
55.797696
56.379437
59.632659
58.364868
57.997704
57.416558
56.255460
55.947900
55.723786
53.902864
55.206418
53.909421
52.662492
52.629709
53.979754
52.379966
52.531958
53.143501
52.919984
52.216649
52.323937
52.093863
52.025914
52.120686
##ZVALUE=275
1.263618
1.187921
1.178980
1.314878
1.373887
1.334548
1.461506
1.831651
1.572967
1.861453
1.745820
1.465678
1.920462
2.168417
2.364516
2.288818
2.560616
2.707839
3.157854
9.077787
34.340620
97.266436
306.970477
591.319799
1015.706658
1015.706658
1015.706658
1015.706658
1015.706658
1015.706658
1015.706658
1015.706658
1015.706658
677.393675
381.074548
158.502460
88.435411
77.522993
95.819831
125.263929
145.848989
166.139603
172.047615
164.844990
152.607560
124.933720
106.377602
79.257488
64.184666
51.925778
45.579672
41.798949
40.567517
42.204857
43.125749
44.247508
46.385527
45.877695
49.162507
49.821734
50.865412
51.297545
51.155686
50.406456
51.818490
52.454472
53.079724
53.759813
53.835511
54.935813
56.929588
57.444572
58.569908
61.231852
59.047937
60.623884
61.103702
59.466958
58.298707
57.770610
55.650473
54.489970
54.431558
53.630471
54.171681
52.236915
51.809549
52.472949
51.873922
51.098466
51.068664
50.077438
49.894452
50.364733
49.714446
49.930811
##ZVALUE=280
1.214743
1.070499
1.212955
1.371503
1.083612
1.056790
1.431704
1.250505
1.449585
1.434684
1.461506
1.531839
1.614690
2.008677
1.838803
2.030730
2.128482
2.378821
2.671480
2.861619
2.992749
3.919601
22.615790
78.340769
253.731608
476.445556
927.194953
1015.793681
1015.793681
1015.793681
1015.793681
1015.793681
1015.793681
1015.793681
1015.793681
877.435803
522.933006
224.254727
113.767982
65.078735
70.643425
94.874501
117.445588
145.003796
158.748627
168.753862
161.036849
145.763755
130.231977
106.583834
87.772608
69.404840
60.749650
50.878525
49.043894
48.351884
49.183965
51.450729
53.049922
55.467486
55.844784
56.412816
56.587458
58.177710
57.421923
58.419704
58.477521
59.729815
59.749484
61.351657
61.162710
60.054660
62.104464
62.007904
61.895847
61.346889
60.534477
59.856772
59.267879
58.689713
57.554841
57.069659
54.869652
54.365993
53.866506
53.100586
52.006841
52.816868
52.560568
52.004457
51.454902
49.802661
49.516559
49.419999
48.281550
49.781799
##ZVALUE=285
1.149774
1.316667
1.359582
1.135468
1.235604
1.350641
1.128912
1.422763
1.309514
1.337528
1.580715
1.360774
1.323819
1.543760
1.980662
1.818538
1.801848
2.127886
2.241731
2.505779
2.595782
2.639890
3.515482
3.668666
11.300445
40.400624
146.307945
311.366916
692.582726
1015.794873
1015.794873
1015.794873
1015.794873
1015.794873
1015.794873
1015.794873
1015.794873
1015.794873
775.765777
361.137986
176.639557
69.148540
50.688982
66.020489
85.242987
116.655827
136.083961
156.304836
162.862539
163.589716
155.725479
136.967897
120.090842
94.504952
80.525875
66.892505
62.568784
58.974624
59.381723
60.794950
61.896443
63.121915
63.652992
61.045885
64.244866
64.126849
65.141916
65.647960
66.806674
66.272616
65.802932
66.588521
66.497922
67.309737
66.493750
64.913630
64.897537
63.238740
63.264966
61.703920
60.992837
59.129000
58.473945
57.157874
55.544972
55.657625
54.734945
53.894520
52.965879
52.157640
51.034689
50.020814
49.593449
48.963428
48.570633
48.709512
##ZVALUE=290
1.132488
1.281500
1.190901
1.115799
1.065731
1.041889
1.054406
1.206994
1.310706
1.127720
1.292825
1.465678
1.458526
1.726747
1.714826
1.718998
1.610518
1.584888
1.808405
1.885891
2.188683
2.270937
2.789497
2.628565
3.218651
3.723502
5.406737
16.111732
81.874728
202.344060
413.687825
897.325873
1015.793681
1015.793681
1015.793681
1015.793681
1015.793681
1015.793681
1015.793681
1015.793681
1013.645530
544.650555
281.918645
98.315477
48.018694
45.903921
60.814619
86.879730
108.678937
138.719678
156.104565
169.312954
172.246695
159.551501
146.475434
123.093724
106.425881
90.836883
81.209540
73.642731
71.155429
69.447756
69.851875
69.817901
69.315434
69.450736
71.259737
70.235729
71.207881
71.981549
72.111487
71.641803
71.518421
69.361925
69.902539
69.100857
67.977905
66.148639
65.823793
62.903762
62.813759
60.233474
60.281754
58.433414
59.194565
57.004690
56.190491
55.380464
53.668618
52.974820
52.578449
50.950646
51.895976
49.674511
49.643517
47.963858
##ZVALUE=295
0.974536
1.037717
0.956655
1.117587
1.128912
1.143813
1.322627
1.183748
1.207590
1.282692
1.141429
1.218915
1.455545
1.340508
1.328588
1.663566
1.524687
1.655817
1.670718
1.694560
2.019405
2.126694
2.168417
2.363920
2.395511
3.028512
3.142953
3.436804
3.949404
7.491708
28.527975
129.891634
307.762623
751.619935
1015.793681
1015.793681
1015.793681
1015.793681
1015.793681
1015.793681
1015.793681
1015.793681
1015.793681
797.028542
437.275767
150.513649
65.176487
37.882924
45.454502
68.818927
88.219643
119.984746
140.925646
162.372589
174.381733
175.587535
168.758631
153.179765
135.386586
116.231441
102.873445
88.862777
81.525445
76.257586
73.738694
73.557496
72.806478
74.103475
74.951649
73.828697
75.084567
74.191689
75.063705
73.181987
73.140860
70.427656
69.938898
68.160892
67.486763
65.912604
63.397884
62.441826
61.577559
60.921907
59.983730
59.251785
58.068633
56.563616
55.292845
54.627657
53.100586
51.152706
51.345825
50.382614
49.094558
49.296618
##ZVALUE=300
0.929832
1.019835
1.043677
1.033545
0.711679
0.955462
1.002550
0.907779
1.014471
1.102686
1.140833
1.214743
1.254678
1.224875
1.107454
1.327991
1.325607
1.409650
1.361966
1.495481
1.400709
1.633763
1.849532
2.176762
2.317429
2.324581
2.371669
2.762675
2.863407
3.377795
3.674626
4.953742
12.614727
79.198480
209.004879
554.229617
955.334902
1015.793681
1015.793681
1015.793681
1015.793681
1015.793681
1015.793681
1015.793681
1015.793681
987.736583
629.656911
282.306671
132.018924
51.025748
44.070482
57.476759
72.622895
98.194480
120.537877
148.920417
165.604949
177.913904
182.279944
173.504949
160.150528
139.832497
123.927593
104.436874
92.578530
82.361698
79.334974
75.189471
75.711608
74.530840
74.283481
74.121952
73.637962
73.010921
71.742535
70.797801
70.757866
69.293976
67.808628
65.866709
65.122843
62.962770
62.749982
62.150955
61.455965
58.828592
58.411956
57.021976
56.831837
54.727793
54.465532
52.796602
51.976442
51.425695
49.514771
49.795508
##ZVALUE=305
0.841618
0.668764
0.838637
1.008511
0.987649
0.874996
1.035929
0.810623
0.948906
0.894666
0.932813
0.862479
0.839829
1.248717
1.129508
1.168847
1.194477
1.267791
1.275539
1.263618
1.392961
1.495481
1.573563
1.812577
1.784563
1.836419
2.056956
2.272725
2.411604
2.354980
2.861619
3.045797
3.447533
4.172921
7.460713
48.397779
142.675042
421.897769
778.818727
1015.668511
1015.668511
1015.668511
1015.668511
1015.668511
1015.668511
1015.668511
1015.668511
1015.668511
887.170434
411.523581
204.365849
76.360703
50.303936
52.152872
61.782598
81.003904
100.688934
126.216412
148.733854
168.513656
176.052451
176.922679
168.660879
152.205825
137.771964
114.389658
101.723671
86.396933
79.938769
74.375868
72.186589
71.041584
70.230961
70.555806
70.605874
69.498420
67.963600
66.186786
66.301823
65.190792
64.294934
63.387752
62.041879
60.211420
59.563518
58.490634
58.306456
56.738853
56.076646
55.681467
54.114461
53.430796
51.996708
51.794648
50.637722
49.241781
##ZVALUE=310
0.780821
0.936985
0.847578
0.884533
0.837445
0.914931
0.925660
1.094937
0.911951
1.086593
1.021624
1.067519
1.412630
1.232624
1.106858
1.128912
1.150966
1.327991
1.172423
1.424551
1.420975
1.430511
1.350641
1.422763
1.522899
1.710653
1.624823
1.954436
2.156496
2.313852
2.482533
2.774596
2.867579
2.881885
3.602505
3.811717
4.710555
20.529628
74.535608
258.921385
525.000691
1015.785933
1015.785933
1015.785933
1015.785933
1015.785933
1015.785933
1015.785933
1015.785933
1015.785933
1015.785933
633.112788
338.656902
130.375624
63.899755
47.299862
52.807927
63.568950
76.554418
97.512603
113.957524
136.615634
151.017904
161.006451
163.776875
155.614614
145.369768
125.449896
111.037493
92.670918
82.299709
73.784590
68.564415
66.064000
63.946843
63.393712
62.747002
63.055754
61.492920
60.963631
60.198903
60.129762
59.856772
59.581995
59.075952
58.242679
57.355762
57.420731
56.752563
54.339767
53.313971
52.155852
51.845908
51.372647
50.206780
49.366951
##ZVALUE=315
1.072884
1.140833
0.989437
1.026988
1.090765
1.087785
1.204610
1.060963
1.134872
1.225471
1.204610
1.088977
1.101494
1.409650
1.232624
1.323819
1.441836
1.419783
1.287460
1.512766
1.538992
1.618862
1.362562
1.578927
1.678467
1.713634
1.838803
1.771450
2.045631
2.085567
2.283454
2.409816
2.598763
2.737641
2.859831
3.211498
3.324747
3.958941
4.390478
9.790659
36.767721
163.155794
373.165011
875.013471
1015.976667
1015.976667
1015.976667
1015.976667
1015.976667
1015.976667
1015.976667
1015.976667
1015.976667
902.857780
493.600965
185.086727
84.096789
46.200752
44.692755
50.650835
57.884455
71.879625
84.223747
120.770931
122.123957
139.089823
147.486925
151.784420
145.855546
131.616592
118.313432
98.940730
87.066889
72.902441
66.494942
61.321855
58.336854
57.307482
57.566762
56.994557
56.387782
56.950450
56.220889
56.656599
56.273937
56.033731
56.234598
55.433512
55.446625
53.360462
52.939653
52.186847
52.244663
50.727725
50.933957
49.649477
##ZVALUE=320
0.786781
0.688434
0.761747
0.752807
0.704527
0.757575
1.002550
1.028776
1.025796
0.978708
0.986457
0.854731
0.749826
1.078844
1.063943
1.050830
1.082420
1.183748
0.992417
1.167655
1.059771
1.207590
1.357794
1.355410
1.584888
1.507998
1.513958
1.599789
1.633763
1.651645
1.684427
2.031922
1.887679
2.102852
2.246499
2.345443
2.700686
2.866983
3.217459
3.617406
4.186630
5.166531
20.735860
73.455572
276.474953
573.960543
1015.793681
1015.793681
1015.793681
1015.793681
1015.793681
1015.793681
1015.793681
1015.793681
1015.793681
1015.793681
628.568530
326.979756
117.425919
53.439736
35.630465
35.305619
38.817525
43.878555
55.329800
68.014860
87.230802
105.291605
123.186707
132.303834
137.232542
133.057833
120.328665
106.847882
88.749528
78.101754
64.842701
59.484839
53.004622
52.467585
50.617456
51.541924
51.272511
51.304698
51.914454
52.786469
52.290559
52.457452
50.994754
51.524639
50.837994
50.605536
49.807429
49.887896
49.098730
49.431920
##ZVALUE=325
0.836849
0.820756
0.984669
0.689626
0.695586
0.936985
0.813603
0.914931
0.825524
0.961423
0.972748
0.896454
0.934601
0.864863
1.046658
0.904799
1.064539
1.133680
1.054406
1.023412
1.159906
1.121759
1.106858
1.111627
1.383424
1.424551
1.416802
1.314878
1.456738
1.576543
1.535416
1.744628
1.791716
1.940727
2.028942
2.237558
2.188683
2.588630
2.696514
2.643466
2.963543
3.461838
3.996491
4.869699
9.356737
63.291788
174.689889
473.708510
873.953700
1015.793681
1015.793681
1015.793681
1015.793681
1015.793681
1015.793681
1015.793681
1015.793681
1015.793681
902.673602
392.323732
184.679627
53.830743
27.933717
24.670959
25.152564
30.510426
35.820603
47.613978
60.437918
79.860687
96.202493
113.391876
122.076869
124.561787
120.950937
108.972788
96.522570
80.125928
69.084764
58.917999
54.082870
50.573945
48.513412
48.479438
47.857761
49.361587
49.693584
49.953461
49.454570
48.923492
48.564672
48.043728
48.410892
47.669411
48.216581
47.455430
##ZVALUE=330
0.825524
0.770688
0.713468
0.713468
0.719428
0.803471
0.682473
0.762939
0.780821
0.917912
0.945926
0.854731
0.727773
1.049638
0.979900
1.011491
0.991821
0.825524
0.991821
1.011491
0.853539
1.070499
1.222491
1.059771
1.326799
1.272559
1.160502
1.279712
1.430511
1.380444
1.489520
1.513958
1.645684
1.436472
1.675487
1.884699
2.084970
2.047420
2.115965
2.310872
2.596974
2.908707
2.984405
3.362894
3.783703
4.463792
6.265640
27.598739
95.546842
331.827998
653.164983
1015.793681
1015.793681
1015.793681
1015.793681
1015.793681
1015.793681
1015.793681
1015.793681
1015.793681
1015.793681
563.917756
278.778672
92.837811
35.030842
20.731688
21.549463
23.502707
27.075410
35.567880
44.077635
59.324503
73.926449
93.899965
105.817914
116.947889
118.562579
112.810731
105.253458
89.245439
77.891946
65.472722
58.361888
53.253770
49.130917
47.397614
47.333837
47.218800
46.973825
46.517849
47.563910
47.289729
47.158599
46.706796
46.299696
46.330690
##ZVALUE=335
0.819564
0.728965
0.824928
0.766516
0.696778
0.721812
0.730753
0.761747
0.677705
0.877976
0.783801
0.769496
0.986457
0.906587
0.876784
0.812411
0.877976
0.843406
0.920892
0.923872
1.052618
0.935793
1.044869
1.102686
1.053810
1.251698
1.274943
1.219511
1.331568
1.277924
1.451969
1.424551
1.589656
1.595616
1.474619
1.782775
1.778603
2.046824
2.004504
2.021790
2.143979
2.265573
2.329946
2.781749
2.854466
3.233552
3.623962
4.165769
4.704595
12.018681
48.498511
208.191872
452.251434
981.712937
1015.793681
1015.793681
1015.793681
1015.793681
1015.793681
1015.793681
1015.793681
1015.793681
1015.793681
824.803710
428.427458
138.549805
53.603649
23.393631
21.767616
22.695661
25.288463
29.595494
35.303831
46.643615
58.453679
74.862838
88.151693
102.096796
110.307932
113.104582
108.683705
98.241568
88.844895
76.667666
67.783594
58.088899
53.136945
48.404932
47.257543
45.297742
45.578480
44.849515
44.515729
44.488907
44.748783
44.967532
##ZVALUE=340
0.857711
0.690818
0.792742
0.803471
0.692606
0.852942
0.663996
0.622869
0.655651
0.598431
0.797510
0.795722
0.669956
0.962615
0.763535
0.954866
0.807643
0.982881
0.917912
0.836849
0.893474
0.782609
1.053810
0.815988
0.940561
1.077652
1.108646
1.147985
1.153946
1.103878
1.344681
1.167655
1.306534
1.294613
1.288652
1.552701
1.596808
1.690984
1.658797
1.846552
2.061725
1.905560
1.979470
2.057552
2.368689
2.688766
2.922416
3.174543
3.242493
3.950000
4.531741
6.676912
23.644567
129.109621
329.912901
854.846835
1015.791893
1015.791893
1015.791893
1015.791893
1015.791893
1015.791893
1015.791893
1015.791893
1015.791893
976.879001
564.813018
222.317576
83.224773
26.929975
23.027658
23.882985
25.146604
27.877688
31.036735
37.238598
44.731498
57.711601
69.904923
86.427927
97.941756
105.977654
107.573867
103.033781
97.162724
85.217953
75.555444
64.754486
57.791471
50.548911
46.663880
44.321418
43.756962
42.685866
43.294430
42.627454
##ZVALUE=345
0.808835
0.819564
0.727773
0.637770
0.763535
0.723600
0.762939
0.635982
0.726581
0.840425
0.765920
0.762939
0.635982
0.790954
0.887513
0.917912
0.896454
0.916719
1.020432
0.872612
0.944734
0.984669
1.003742
0.985861
0.823736
1.037717
0.964999
0.884533
1.201630
1.082420
1.180768
1.226664
1.197457
1.199841
1.421571
1.378655
1.228452
1.323819
1.504421
1.653433
1.739860
1.764894
1.808405
1.841784
2.161860
2.133846
2.460480
2.455711
2.772808
3.062487
3.445745
3.968477
4.275441
5.184412
11.256933
78.531504
224.218965
615.583658
1015.793681
1015.793681
1015.793681
1015.793681
1015.793681
1015.793681
1015.793681
1015.793681
1015.793681
1015.793681
837.443471
318.199992
135.687590
41.053891
25.806427
24.541616
24.617910
25.468469
27.075410
29.802918
34.969449
44.124722
54.257512
69.809556
80.622435
92.330575
98.464489
102.249980
100.499988
92.678666
85.290670
72.769523
63.511729
53.614974
48.531890
43.951869
41.782856
41.141510
##ZVALUE=350
0.849962
0.802875
0.890493
0.939965
0.646710
0.843406
1.033545
0.889897
0.930429
1.042485
0.777841
0.999570
1.079440
0.876784
0.652671
0.865459
0.844598
0.948906
0.919700
1.124740
1.012683
1.081824
1.143813
1.102686
1.104474
1.096725
1.069903
1.160502
1.238585
1.207590
1.075864
1.288652
1.279712
1.312494
1.309514
1.410842
1.325607
1.655817
1.624823
1.501441
1.578927
1.895428
1.899600
1.779795
2.031922
2.052784
2.193451
2.249479
2.329946
2.685785
2.741814
2.911687
3.289580
4.067421
4.354715
4.794002
6.845593
40.813684
139.570832
451.387763
861.410499
1015.864611
1015.864611
1015.864611
1015.864611
1015.864611
1015.864611
1015.864611
1015.864611
1015.864611
1011.853814
501.508713
225.796700
58.957934
27.855635
23.393631
22.835732
23.742914
24.595857
26.138425
29.159784
34.817457
40.541887
51.733851
60.806870
74.601769
82.648993
91.203451
93.319416
92.053413
87.557435
77.608824
69.175959
59.412718
52.866936
46.514869
##ZVALUE=355
0.812411
0.654459
0.755787
0.776649
0.910759
1.003742
0.702739
0.799894
0.908971
0.959635
0.967979
0.916719
0.952482
0.762939
0.847578
0.820756
0.952482
0.978708
1.065731
0.818968
0.966787
0.945926
1.163483
1.079440
1.164675
1.079440
1.152754
1.249909
1.171827
1.086593
1.126528
1.288652
1.217723
1.206994
1.292825
1.360774
1.519918
1.518726
1.363754
1.486540
1.582503
1.682639
1.728535
1.709461
1.898408
1.808405
2.034903
2.079606
2.190471
2.338886
2.598763
2.606511
2.670884
2.964735
3.422499
3.767610
4.046559
4.749894
5.639791
18.238425
74.951649
306.644440
631.200671
1015.793681
1015.793681
1015.793681
1015.793681
1015.793681
1015.793681
1015.793681
1015.793681
1015.793681
1015.793681
628.761649
296.076536
83.997846
32.828450
21.813512
21.732450
22.693872
23.038983
24.296641
25.249720
28.310418
31.562448
38.490891
45.075417
55.731535
64.347982
74.808002
81.837773
85.668564
84.761977
79.564452
73.055625
64.732432
##ZVALUE=360
0.919700
0.937581
0.969768
0.761747
0.925660
0.841618
0.991821
0.846982
0.854731
0.918508
0.886917
0.975728
1.090765
0.991821
1.028776
0.962615
1.164675
1.077652
0.874996
1.041889
1.009703
0.964999
0.976920
1.197457
1.153946
1.169443
1.252890
1.229644
1.075864
1.335740
1.347661
1.326799
1.426935
1.473427
1.490712
1.360774
1.502633
1.505613
1.540780
1.484752
1.627803
1.621842
1.908541
1.747608
1.840591
1.992583
1.774430
2.058744
2.122521
2.256632
2.449751
2.471805
2.578497
3.041625
3.032684
3.338456
3.511906
3.838539
4.318953
4.824400
5.625486
9.003878
31.660795
157.963634
399.485826
960.660577
1015.793681
1015.793681
1015.793681
1015.793681
1015.793681
1015.793681
1015.793681
1015.793681
1015.793681
886.932611
455.986857
157.772899
57.065487
22.570491
20.955801
21.083951
21.773577
22.059679
22.852421
23.947954
25.752783
28.671622
32.767653
39.755702
47.620535
58.535933
65.925717
75.037479
77.630877
78.488588
##ZVALUE=365
0.838637
0.816584
0.808835
0.878572
0.938773
0.894666
0.930429
1.062751
1.008511
0.888705
0.956655
0.953674
0.825524
0.964999
0.978708
1.029968
1.083612
0.960827
1.235604
0.998974
1.079440
1.144409
1.006722
1.127720
1.177788
1.316667
1.186728
1.313686
1.291633
1.357794
1.197457
1.383424
1.246929
1.349449
1.474619
1.372695
1.434684
1.555681
1.571774
1.600981
1.666546
1.591444
1.724958
1.706481
1.842976
1.937747
1.943707
2.024770
1.895428
2.276897
2.331734
2.472997
2.430677
2.490878
2.685785
3.065467
3.207922
3.397465
3.540516
4.053712
4.328489
5.106926
5.698800
7.128716
15.841722
101.885796
277.577639
737.439990
1015.793681
1015.793681
1015.793681
1015.793681
1015.793681
1015.793681
1015.793681
1015.793681
1015.793681
1015.793681
679.970980
244.423747
92.444420
26.696920
20.319819
19.820929
20.027757
20.339489
20.481944
20.991564
21.397471
22.994876
24.944544
29.585958
34.197569
41.916966
49.211979
58.882833
##ZVALUE=370
0.844598
0.775456
0.924468
0.943542
0.874996
0.870824
0.827909
0.917912
0.965595
0.923872
0.968575
1.027584
0.967979
0.986457
0.819564
1.040697
0.965595
0.995994
1.132488
1.170635
0.889897
1.151562
1.115799
0.926852
1.152754
1.149774
1.120567
1.262426
1.285672
1.238585
1.245737
1.450777
1.352429
1.406670
1.288652
1.365542
1.422763
1.372695
1.439452
1.432896
1.514554
1.498461
1.445413
1.666546
1.562834
1.817942
1.901984
1.778603
1.816750
1.842976
2.053976
1.957417
2.154708
2.275705
2.523661
2.520680
2.579689
2.778769
2.851486
3.111959
3.282428
3.654957
4.230738
4.582405
5.241632
6.224513
8.960962
56.161880
196.387768
637.074709
1015.793681
1015.793681
1015.793681
1015.793681
1015.793681
1015.793681
1015.793681
1015.793681
1015.793681
1015.793681
876.672864
335.984826
146.025419
43.425560
21.267533
18.244982
18.108487
18.268824
18.389821
18.729568
19.153953
19.886494
20.929575
23.093820
26.225448
31.468868
##ZVALUE=375
0.822544
0.816584
0.924468
0.719428
0.942945
0.826716
0.812411
0.865459
0.805855
0.780821
0.852942
0.887513
0.681877
0.961423
0.956655
0.907779
0.938773
0.869632
0.969768
0.855923
0.883937
0.855923
0.941753
0.997782
1.191497
0.984669
1.021624
1.063943
1.129508
1.120567
1.031756
1.287460
1.258850
1.197457
1.211762
1.178980
1.166463
1.249909
1.403689
1.238585
1.367927
1.434684
1.361966
1.261830
1.472831
1.473427
1.414418
1.667738
1.668930
1.510978
1.581907
1.601577
1.941919
1.635551
1.888871
2.129674
2.014637
2.362728
2.326965
2.493858
2.693534
2.937913
3.103614
3.281832
3.656745
4.133582
4.854798
5.678535
7.247925
24.373531
101.718903
397.906899
852.244496
1015.788913
1015.788913
1015.788913
1015.788913
1015.788913
1015.788913
1015.788913
1015.788913
1015.788913
1015.788913
635.308623
305.711627
87.855458
31.166673
17.439723
16.956925
16.786456
17.067790
17.005801
17.321706
17.937422
18.444657
19.290447
##ZVALUE=380
0.792742
0.848770
0.778437
0.839829
0.557899
0.852942
0.689626
0.763535
0.998974
0.857711
0.886917
0.766516
0.741482
0.701547
0.838637
0.824928
0.965595
0.911951
0.950694
0.777841
0.813603
0.908971
0.915527
0.912547
1.065731
0.922680
0.980496
1.040697
0.978708
0.917912
0.776649
0.937581
1.104474
0.947714
0.998974
1.033545
1.123548
1.113415
1.192689
1.278520
1.169443
1.171827
1.232624
1.330972
1.458526
1.291633
1.459718
1.482964
1.499653
1.485944
1.453757
1.473427
1.580715
1.579523
1.602769
1.846552
1.826882
2.052784
2.165437
2.192855
2.258420
2.514720
2.537966
2.778769
3.016591
3.215671
3.802776
4.223585
5.031824
5.942583
6.873608
12.739897
53.371787
281.452537
669.512749
1015.800834
1015.800834
1015.800834
1015.800834
1015.800834
1015.800834
1015.800834
1015.800834
1015.800834
1015.800834
923.348665
463.711619
148.876905
54.420829
19.425750
16.225576
15.719533
15.872717
15.771985
15.812516
16.259551
##ZVALUE=385
0.624657
0.693798
0.697970
0.710487
0.771880
0.786781
0.840425
0.831485
0.953674
0.731945
0.672936
0.870824
0.818968
0.841618
0.626445
0.620484
0.760555
0.773668
0.806451
0.903606
0.872612
0.946522
0.818968
0.770688
0.835657
0.763535
0.798702
0.890493
0.985861
0.836849
0.926852
0.878572
0.965595
1.002550
0.902414
1.069903
0.986457
1.009703
1.130700
1.126528
1.116991
1.282692
1.170635
1.058578
1.190901
1.263618
1.249909
1.426935
1.105666
1.423955
1.224875
1.445413
1.506805
1.436472
1.514554
1.663566
1.655817
1.773834
1.769662
1.871586
2.067685
2.289414
2.228618
2.274513
2.474785
2.734661
3.097653
3.478527
4.006624
4.521608
5.131960
5.849600
6.461740
8.244514
24.862885
161.410570
437.369943
1015.787721
1015.787721
1015.787721
1015.787721
1015.787721
1015.787721
1015.787721
1015.787721
1015.787721
1015.787721
1015.787721
805.720687
310.387611
115.987659
26.392937
15.919805
14.678836
14.472604
14.624596
##ZVALUE=390
0.719428
0.617504
0.725985
0.738502
0.618696
0.743866
0.693798
0.766516
0.753999
0.837445
0.618696
0.809431
0.778437
0.809431
0.709891
0.828505
0.642538
0.842810
0.864863
0.738502
0.842810
0.568628
0.551939
0.734925
0.829697
0.817776
0.803471
0.919700
0.755787
0.864863
0.815988
0.928640
0.893474
1.179576
1.032948
1.039505
1.001954
1.199841
0.983477
1.065731
1.149774
1.025796
1.060963
1.127720
0.982881
1.159906
1.126528
1.164675
1.105666
1.311898
1.400709
1.347661
1.475811
1.482964
1.567602
1.660585
1.577735
1.699924
1.820922
1.847744
1.753569
2.011657
2.118945
2.267957
2.320409
2.603531
2.943873
3.301501
3.584623
4.212856
4.687905
4.893541
5.329847
5.698800
6.290674
6.612539
14.422536
65.345764
330.810547
791.216493
1015.793681
1015.793681
1015.793681
1015.793681
1015.793681
1015.793681
1015.793681
1015.793681
1015.793681
1015.793681
1005.115509
554.426908
177.519917
58.862567
17.225742
14.487505
##ZVALUE=395
0.728965
0.515580
0.628829
0.649691
0.715852
0.787973
0.839829
0.790954
0.803471
0.843406
0.746846
0.891685
0.736713
0.748634
0.688434
0.626445
0.702739
0.730753
0.678897
0.909567
0.640750
0.868440
0.818968
0.782609
0.785589
0.780821
0.801682
0.778437
0.963807
0.808835
0.878572
1.004934
0.757575
0.969768
0.988841
0.935793
0.893474
0.993609
0.930429
1.035929
0.949502
1.172423
1.234412
1.001954
1.124740
1.282692
1.304746
1.303554
1.303554
1.289845
1.271963
1.413822
1.441836
1.465678
1.484752
1.463890
1.512766
1.778603
1.715422
1.706481
1.787543
1.835823
1.932979
2.102852
2.262592
2.418756
2.730489
3.094673
3.260970
3.969669
4.241467
4.446507
4.724860
4.809499
4.960895
5.227923
5.763769
6.374717
8.253455
44.869781
179.864764
660.746694
1015.794873
1015.794873
1015.794873
1015.794873
1015.794873
1015.794873
1015.794873
1015.794873
1015.794873
1015.794873
1015.794873
706.085563
325.256586
93.807578
##ZVALUE=400
0.613928
0.747442
0.679493
0.682473
0.570416
0.691414
0.653863
0.700951
0.661612
0.596642
0.643730
0.878572
0.695586
0.793934
0.747442
0.623465
0.690818
0.525713
0.678897
0.832677
0.804663
0.682473
0.852942
0.898838
0.812411
0.851750
0.740886
0.774860
0.861883
0.910759
0.952482
0.759959
0.887513
0.936985
0.963807
0.912547
0.908971
0.999570
0.929832
1.026988
0.888705
1.003742
1.158714
0.963807
1.138449
1.244545
1.163483
1.149774
1.217723
1.078844
1.393557
1.290441
1.196861
1.465678
1.499653
1.359582
1.514554
1.652837
1.400709
1.729727
1.710653
1.657605
1.864433
1.885891
2.091527
2.381802
2.619624
2.949834
3.215671
3.664494
3.691912
4.080534
4.223585
4.069805
4.105568
4.306436
4.362464
4.868507
5.520582
6.295443
7.363558
23.629665
95.247626
373.970866
826.318860
1015.815735
1015.815735
1015.815735
1015.815735
1015.815735
1015.815735
1015.815735
1015.815735
1015.815735
1015.815735
983.557701
##END
