##TITLE=SH702
##FORMAT=SPECTACLE-ASCII V-1.2
##DATA TYPE=ULTRAVIOLET SPECTRUM
##SECOND TYPE=ULTRAVIOLET SPECTRUM
##DATE=10/24/17
##TIME=15:46:26
##SPECTROMETER/DATA SYSTEM=SPECTACLE
##XUNITS=NM EM
##YUNITS=ENERGY
##YFACTOR=1
##FIRSTX=220
##LASTX=410
##NPOINTS=96
##3DDATA=Equidistant
##ZUNITS=NM EX
##FIRSTZ=210
##LASTZ=400
##ZPOINTS=39
##XYDATA=(Y..Y)
##ZVALUE=210
1.797676
2.477765
2.046824
2.171993
2.279878
1.842976
2.296567
2.705455
2.474785
2.675653
3.195405
2.986789
2.904534
3.559589
3.790855
4.227757
5.327463
4.323721
5.655885
4.681945
6.263852
6.376505
6.261468
7.103682
7.787943
8.120537
8.033514
9.109974
8.864999
8.706450
9.093881
8.889437
10.228753
10.763407
11.800528
12.048483
11.325479
10.800958
11.429787
12.567639
13.087988
13.174415
13.708472
14.108419
13.458729
15.646815
14.576912
16.096830
16.586781
18.304586
17.928481
19.325614
18.781424
17.890930
20.916462
19.821525
20.646453
19.583702
21.986961
22.094846
22.607446
22.071600
22.892952
24.879575
23.562908
27.158856
28.201938
32.173991
37.962794
44.118762
54.623485
62.041879
78.956485
85.815787
91.406703
99.156499
101.009607
101.846457
99.967718
97.218752
86.262822
81.263781
69.262981
60.890913
48.897862
45.088530
37.597418
34.337640
32.426715
30.829906
30.192733
30.268431
29.680729
27.547479
28.283000
27.806759
##ZVALUE=215
3.233552
3.273487
4.061460
2.843738
2.876520
3.179908
2.848506
2.834797
3.603697
2.982616
4.831553
4.405975
4.291534
3.845692
4.584789
4.889965
5.107522
4.825592
5.396605
5.731583
6.335974
6.799698
7.271767
6.097555
8.284450
8.033514
8.715987
8.595586
9.354949
10.196567
9.556413
9.665489
10.207891
11.874437
12.335777
12.845993
11.513829
14.328957
13.904572
13.577938
13.415813
14.488697
14.165640
15.502572
15.124679
16.960502
17.266870
17.292500
18.104911
19.561648
19.345880
19.294620
19.005537
18.849969
19.466877
20.125508
22.328496
22.787452
22.558570
22.209883
22.263527
22.127628
23.445487
24.225712
23.702979
26.150942
27.476549
30.895472
32.816529
41.758418
48.013926
60.826540
68.628788
77.046752
83.190799
87.241530
89.464784
95.901489
92.048645
83.579421
77.654719
68.752766
62.925816
51.692724
49.094558
41.911602
38.542747
34.034848
31.132698
31.432509
31.041503
29.666424
28.890967
28.468966
30.366778
29.693842
##ZVALUE=220
11.385679
12.780428
12.606978
14.470816
13.489723
13.053417
10.534525
7.757545
6.677508
6.469488
6.992817
8.308887
7.840991
9.144545
7.815957
8.429885
6.485581
6.708503
6.048679
6.613731
5.611777
7.437468
7.188916
8.111000
8.196831
9.169579
8.716583
9.540915
9.897947
10.892749
10.675788
11.984706
13.790727
14.457703
13.183951
15.149713
16.375780
16.501546
17.200708
17.602444
19.761920
18.539429
18.459558
19.677877
18.363595
20.260811
19.694567
22.207499
22.040606
23.508668
23.297668
23.579597
22.151470
24.860501
22.253990
25.456548
25.072694
24.262667
25.660992
25.999546
26.056767
26.582479
27.576685
26.624799
27.583838
28.310418
29.915571
33.202767
37.154555
45.296550
52.556992
62.161684
71.344972
80.754757
88.827610
93.179941
97.586513
92.412829
90.933442
86.990595
81.998706
71.517825
68.123937
55.734515
51.182508
44.562817
41.295886
36.752820
33.931732
32.879710
31.964779
29.787421
32.830834
31.814575
33.277869
32.220483
##ZVALUE=225
21.669865
23.895502
34.905672
51.078796
60.844421
68.562627
66.478848
57.527423
46.297908
34.419894
20.861626
16.440749
17.062426
16.974807
18.815994
17.839670
17.725825
15.150905
13.171434
10.152459
8.448958
8.488894
7.574558
7.730722
9.073615
9.740591
10.303855
9.990931
11.284947
13.729930
14.461875
18.333793
18.983483
20.817518
22.396445
26.256442
25.685430
27.676821
29.380918
29.159784
30.992627
32.006502
32.095909
35.244823
30.991435
32.847524
32.467842
33.782721
32.288432
32.483935
31.072497
32.201409
33.293962
30.399561
31.633973
34.257770
36.323667
34.100413
34.089684
35.611987
35.740733
34.351945
35.650730
37.479997
36.990643
39.321780
38.395524
43.414831
46.949983
52.541494
56.074858
66.242814
76.451898
80.344677
87.071657
93.494654
94.964504
92.692971
86.639524
80.997944
75.116754
67.832470
63.534975
54.566860
51.134825
46.183467
44.573545
41.920543
41.186810
37.735701
37.015676
38.893819
39.902925
40.246844
36.901832
40.934682
##ZVALUE=230
20.713806
25.933981
45.911670
87.543726
130.506754
184.758902
221.222639
243.322849
231.961012
207.667947
145.978928
99.798441
63.081980
43.390989
34.708977
39.702654
40.470958
40.563941
38.193464
32.912493
27.974844
20.285845
13.775826
12.007952
10.606647
10.612607
10.429621
13.302565
14.495850
17.912984
18.891692
25.411844
30.436516
35.366416
38.869977
44.091940
47.023892
50.858855
53.981543
54.601431
54.869652
57.659745
59.647560
58.447719
55.538416
55.434704
52.629709
54.734945
53.091645
53.493977
52.466989
53.651929
51.983595
52.346587
54.661632
52.284598
52.318573
53.164959
54.633617
52.759647
53.666830
54.805875
51.653981
52.952766
53.469539
57.180524
57.842731
61.636567
64.770579
69.975853
76.335669
86.857677
92.154741
98.238587
100.669861
105.129480
104.920864
103.063583
97.808838
90.265870
90.020895
78.864694
74.637532
68.229437
64.442754
59.933662
58.353543
56.199431
55.140853
51.927567
52.110553
52.784681
50.746799
52.278638
50.332546
51.483512
##ZVALUE=235
11.012554
11.282563
32.153726
69.345832
150.764585
227.121711
366.996527
476.231575
574.996471
600.584745
561.499596
479.182601
364.124775
234.645605
155.882835
89.307427
73.321462
70.090890
74.201822
74.563622
71.408749
62.984824
51.849484
39.603710
27.569532
22.121668
17.194748
14.615655
17.360449
20.987988
25.337934
30.633807
37.878752
47.565699
52.571893
59.609413
63.541532
71.880817
73.688626
76.552629
78.712702
79.158545
77.320933
75.533986
74.786544
74.490905
74.536800
72.660446
74.193478
74.288845
69.825649
77.164769
74.408650
74.125528
71.699619
77.595711
70.623755
76.643825
74.845552
74.296594
76.351762
72.821975
72.431564
72.491765
76.381564
79.116821
78.000426
83.192587
86.184740
89.746714
100.901723
109.867454
112.066865
125.977993
124.712586
128.153563
128.430724
126.027465
121.969581
118.277669
108.865499
103.992820
98.626614
92.065930
89.956522
82.943439
81.140995
75.177550
78.538656
73.947906
74.366927
74.181557
70.668459
72.868466
71.579814
72.242618
##ZVALUE=240
2.524853
3.131628
6.129742
21.617413
52.402616
136.773586
246.416926
455.370545
652.474761
844.653845
1015.793681
1015.793681
1015.793681
899.772048
661.463737
461.998582
259.124637
171.259642
120.690465
98.949671
102.787614
111.398697
109.616518
97.131729
86.805820
65.920949
53.051710
37.478805
31.620860
27.227998
28.970838
33.009648
36.628842
44.118762
50.009489
53.996444
59.596896
61.262846
66.643953
68.492889
73.642731
72.406530
74.487925
71.019530
72.898865
70.115924
70.959926
72.902441
71.526766
71.452856
75.592995
74.138641
72.565675
79.076886
78.287721
75.859427
79.273582
78.654885
83.322525
81.811547
87.597966
84.693432
87.295771
86.993575
87.771416
92.264414
93.384981
94.714761
103.644729
109.138489
111.900568
119.096637
129.071474
136.425495
137.026906
142.242908
140.025616
136.698484
135.446787
127.547979
122.854710
117.140412
111.893415
106.764436
104.125738
98.697543
97.686648
96.754432
91.030598
92.112422
93.891621
88.612437
90.051889
90.747476
88.389516
89.648962
##ZVALUE=245
2.385974
2.533793
2.699494
2.924800
4.507899
19.483566
55.848956
158.266425
288.153887
561.832786
816.862583
1015.844941
1015.844941
1015.844941
1015.844941
1015.844941
987.702012
672.412515
445.437431
241.130590
154.793859
115.953684
112.435818
127.531886
132.432580
127.682686
113.230944
97.068548
74.972510
60.966611
43.274760
37.909746
30.225515
31.746626
31.619668
33.746958
35.752654
37.998557
40.801764
43.420792
45.532584
43.509603
44.454932
45.111775
43.866634
45.372844
46.610832
46.961904
50.642490
50.054789
53.788424
55.428743
58.218837
59.319735
58.933496
62.009692
62.054992
67.996979
70.420504
70.721507
71.985722
75.131655
76.355934
75.482726
78.505874
79.717636
82.406998
87.193847
89.976788
94.288588
99.028945
103.477836
110.416412
117.347836
119.751692
126.715899
124.236941
123.142004
118.572712
112.102628
111.404657
106.504560
102.321506
102.317929
95.342994
93.796849
94.292760
93.985796
91.657639
91.282725
90.478659
88.691711
88.146925
86.545944
86.768866
84.442496
##ZVALUE=250
2.040863
2.585649
2.161860
2.438426
2.388954
3.071427
3.518462
16.329885
44.871569
136.010647
280.489922
580.840707
888.577700
1015.794873
1015.794873
1015.794873
1015.794873
1015.794873
1015.794873
968.827605
666.795969
430.935621
210.747719
130.615830
112.211704
120.596886
136.686563
141.263604
135.431886
126.655698
103.984475
84.957480
63.043833
50.113797
36.915541
30.059814
26.690960
27.824640
27.867556
29.466748
30.075908
29.503703
30.548573
28.911829
31.106472
30.911565
31.986833
33.430457
36.200881
37.063956
38.602948
41.510463
43.451786
45.000911
48.389435
50.941706
51.408410
52.318573
56.469440
56.833625
60.744882
59.068799
62.343478
62.370896
64.167976
65.890551
68.662763
69.690943
74.676871
75.756907
85.246563
89.485645
97.478628
98.711848
105.346441
105.336905
105.238557
107.915998
102.455616
98.365545
93.797445
91.258883
90.886950
87.545514
87.510943
86.618662
83.147883
82.933903
82.890987
83.659887
82.057714
81.533790
79.192519
84.642768
81.004500
81.428885
##ZVALUE=255
2.192855
1.820922
1.903772
2.087951
2.446771
2.444983
2.287626
2.701879
3.158450
5.717874
34.884810
94.018579
260.735750
457.777977
849.492550
1015.793681
1015.793681
1015.793681
1015.793681
1015.793681
1015.793681
1015.793681
976.305008
555.856824
322.328806
156.631470
112.293959
109.136701
127.048492
142.980814
147.320628
145.033002
136.427879
113.085508
92.933774
68.958998
56.512952
39.449930
34.280419
27.725697
28.441548
27.927756
27.587414
28.487444
28.439760
29.375553
28.763413
31.296611
31.488538
34.307837
34.426451
37.764907
40.112734
39.958954
41.043758
43.690801
44.830441
44.832826
47.716498
49.276948
52.485466
51.388741
54.606795
53.664446
52.634478
56.141615
58.420897
60.637593
63.811541
67.395568
71.464777
75.385571
79.341531
85.117817
86.618662
89.487433
90.707541
90.525746
83.797574
85.078478
83.873868
79.092979
77.980757
77.909827
75.901747
76.176524
75.809956
76.031685
75.791478
75.102448
75.300932
74.640512
73.808432
73.278546
73.070526
75.737834
##ZVALUE=260
1.733899
2.110600
1.803637
1.743436
1.785755
2.286434
2.237558
2.169609
2.656579
2.894998
3.135800
5.002618
14.914870
67.840815
159.446001
409.052968
694.991946
1015.780568
1015.780568
1015.780568
1015.780568
1015.780568
1015.780568
1015.780568
1015.780568
854.293704
474.050641
272.905827
131.042004
101.627707
108.455420
131.555796
148.956776
161.250830
160.618424
143.360496
127.954483
99.523664
81.354976
59.607625
47.245622
37.708879
34.224987
32.668710
32.280684
32.928586
31.420588
32.170415
34.021735
37.498474
36.214590
38.869977
39.483905
42.825937
42.537451
45.860410
44.414997
45.521855
47.658682
48.953891
50.232410
51.291585
51.668882
51.928759
52.178502
54.128766
56.093931
58.087707
61.313510
63.465834
64.748526
70.564747
74.713826
79.277754
78.651905
81.220865
81.886649
78.255534
78.500509
76.889992
74.646473
71.674585
68.984628
70.521832
69.064498
69.413781
67.824721
68.635941
69.400668
68.439841
71.193576
70.643425
69.094896
68.585873
67.571998
68.701506
##ZVALUE=265
1.693964
1.697540
1.789927
1.897812
1.912713
2.083778
2.097487
2.187490
2.330542
2.535582
2.868772
2.709627
3.358722
3.809929
11.101961
39.729476
150.671601
310.618877
546.470881
1015.793681
1015.793681
1015.793681
1015.793681
1015.793681
1015.793681
1015.793681
1015.793681
1015.793681
731.891990
369.201899
206.362605
107.855797
98.967552
123.927593
145.722628
166.910887
173.150897
169.842839
154.643655
130.204558
111.215711
83.552003
66.270828
50.371885
44.317842
40.315986
38.930774
39.780736
38.668513
40.063858
42.726994
44.557452
45.552850
46.216846
47.203898
48.978925
50.524473
51.307678
51.843524
53.633451
53.993464
55.849552
55.638552
54.737926
56.471825
57.244897
58.944821
59.601665
61.812997
63.931942
67.242980
68.810582
72.189569
73.929429
74.724555
77.016950
74.849725
72.615743
72.001815
71.720481
70.630908
68.923831
68.034530
67.334771
64.902902
65.966845
65.312982
65.610409
64.693689
64.840913
65.075755
64.888000
64.512491
63.049793
64.860582
64.851642
##ZVALUE=270
1.659989
1.355410
1.601577
1.664758
1.658797
1.817942
1.972914
2.190471
2.083778
2.113581
2.405643
2.549887
2.484918
2.885461
2.648830
3.272891
4.669428
23.149848
75.027943
249.470472
494.288802
854.135752
1015.728712
1015.728712
1015.728712
1015.728712
1015.728712
1015.728712
1015.728712
1015.728712
998.207927
627.732873
345.896482
146.673918
98.114610
104.698539
127.275586
154.714584
171.330571
178.379416
176.165700
163.107514
141.534805
112.382770
91.797709
68.594813
58.545470
48.838854
47.084689
45.815706
46.961904
48.604608
49.865842
50.690770
53.807497
53.909421
53.960681
56.895614
59.069991
58.468580
59.614778
60.563684
60.715675
61.306953
60.339570
61.392784
62.605739
63.486695
64.093471
66.602826
68.202615
70.240498
71.239471
74.581504
75.188875
75.464845
74.509978
73.275566
72.220564
70.525408
68.040490
67.561865
64.864755
64.558983
63.136816
61.186552
61.592460
62.593818
61.754584
62.284470
61.486959
61.147809
60.433745
59.767962
60.164928
60.425997
##ZVALUE=275
1.551509
1.727939
1.559854
1.638532
1.653433
1.771450
1.717806
1.617670
1.912713
1.952648
1.831651
2.488494
2.396703
2.234578
2.602935
2.810955
3.194809
3.506541
3.915429
9.855628
42.806864
129.004717
389.991999
752.753019
1015.793681
1015.793681
1015.793681
1015.793681
1015.793681
1015.793681
1015.793681
1015.793681
1015.793681
884.126425
507.263541
213.668942
115.678906
87.548494
104.653835
133.897662
154.092908
174.719691
180.964470
176.038742
163.420439
138.943791
117.080808
92.652440
78.483820
65.147877
58.228970
54.516792
53.219795
55.035949
57.384968
59.672594
60.263872
61.422586
63.269734
64.994693
65.730810
66.240430
66.402555
66.454411
66.154599
66.203475
67.220926
69.348812
67.958832
70.259571
71.860552
74.740648
75.645447
77.787638
77.289939
77.072978
75.526834
73.239803
73.146820
70.571899
69.356561
65.711737
64.591765
64.065456
62.350631
61.236620
60.555935
61.159730
60.097575
59.348941
59.311986
58.296919
57.921410
59.677958
57.227612
59.122443
##ZVALUE=280
1.398921
1.542568
1.510978
1.464486
1.718998
1.405478
1.388788
1.531839
2.008677
1.572967
1.713634
2.029538
1.857877
2.031922
2.351999
2.407432
2.501607
2.755523
3.156662
3.545880
3.913641
4.826784
26.949644
97.505450
317.992568
597.144961
1015.793681
1015.793681
1015.793681
1015.793681
1015.793681
1015.793681
1015.793681
1015.793681
1015.793681
1015.793681
671.173930
297.514796
147.915483
77.560544
80.369711
104.164481
127.553940
153.829455
170.627832
177.685618
171.522498
157.287717
142.550468
117.871761
100.126863
83.311796
72.121620
64.558983
62.994957
60.989857
63.600540
66.672564
68.326592
70.353746
71.534514
73.183775
73.023438
72.899461
70.372820
71.695447
72.050691
73.720813
74.623823
75.107813
76.327920
78.020692
77.806711
79.976916
78.022480
76.381564
77.130795
75.086951
73.120594
70.447922
67.193508
68.781972
65.488815
64.134598
63.533783
62.539577
61.460733
61.303973
60.132742
57.781935
57.701468
57.401657
56.895614
56.090951
56.319833
56.558847
##ZVALUE=285
1.399517
1.419783
1.416802
1.493692
1.438856
1.382828
1.496673
1.466870
1.493692
1.735687
1.731515
1.565814
2.063513
2.163649
1.834631
1.874566
2.367496
2.544522
2.513528
2.856851
3.133416
3.512502
3.936887
4.190803
13.939738
51.577687
185.879469
396.168828
875.221491
1015.793681
1015.793681
1015.793681
1015.793681
1015.793681
1015.793681
1015.793681
1015.793681
1015.793681
973.260403
485.525727
243.521929
94.276667
60.804486
73.749423
92.334747
123.050809
141.889453
164.595842
172.135830
174.158812
165.981650
147.644877
130.241513
108.469725
91.928840
80.278516
76.578856
73.237419
73.262453
74.787736
76.583624
78.331828
80.124736
79.381466
79.058409
78.080893
78.208447
79.082847
79.868436
81.002712
82.260966
81.389546
82.312822
82.022548
79.911947
79.487562
79.112649
77.018738
75.148940
72.061419
70.225596
68.146586
66.681504
64.747930
65.047741
63.739419
61.815977
60.845613
60.391426
58.719516
59.241652
56.809783
57.808757
54.979920
56.515932
55.189729
##ZVALUE=290
1.284480
1.505613
1.118779
1.246929
1.492500
1.313686
1.495481
1.255870
1.476407
1.537800
1.553893
1.793504
1.484752
1.798868
1.827478
2.030730
1.961589
1.973510
2.238750
2.266765
2.530813
2.689958
3.001690
3.414750
3.660917
4.265904
6.423593
20.620823
104.643703
264.022946
536.850691
1015.790701
1015.790701
1015.790701
1015.790701
1015.790701
1015.790701
1015.790701
1015.790701
1015.790701
1015.790701
716.146827
366.883874
130.484700
61.623454
52.924752
68.221688
90.780854
115.433931
146.717429
165.628791
178.827643
181.775689
171.246529
156.957507
136.630535
118.711591
102.753639
94.533563
87.126493
84.309578
82.658529
82.668662
82.778931
83.881617
82.329512
83.279610
84.156990
83.452463
85.933805
85.928440
86.067915
87.235570
85.351467
83.341002
82.362890
81.083775
78.210831
76.196790
73.951483
72.705746
70.298910
69.406629
67.152977
66.271424
65.117478
64.790845
62.641501
60.771704
59.127808
58.592558
57.389736
56.457520
55.553913
56.392550
55.052638
##ZVALUE=295
1.211762
1.405478
1.268983
1.263618
1.355410
1.476407
1.650453
1.560450
1.290441
1.413822
1.572967
1.379848
1.449585
1.568794
1.814961
1.780987
1.990795
1.995564
2.043843
2.218485
2.540946
2.518892
2.586842
2.889633
3.029704
3.328919
3.736615
4.372597
5.293489
9.225607
35.977960
169.398785
396.777987
940.399766
1015.793681
1015.793681
1015.793681
1015.793681
1015.793681
1015.793681
1015.793681
1015.793681
1015.793681
983.858705
558.544993
193.418860
85.744858
45.118928
51.733851
73.799491
95.930696
126.294494
147.346854
172.031522
183.603764
184.349418
177.786946
160.932541
147.104859
127.499700
113.363862
101.161003
94.689727
88.746548
87.447762
85.344911
85.939765
87.027550
86.380839
88.325739
86.972713
87.299943
86.923838
85.492730
85.172653
83.680749
81.271529
78.256726
77.095628
74.624419
73.422790
70.589781
70.225596
68.476796
67.569613
65.218806
64.214468
63.050985
61.934590
61.200857
60.160756
58.004856
56.822896
55.715442
55.418611
54.403543
##ZVALUE=300
1.178980
1.016855
1.172423
1.151562
1.271963
1.125932
1.325607
1.252890
1.536608
1.290441
1.280904
1.477599
1.471639
1.481771
1.591444
1.556873
1.733899
1.843572
2.073646
2.201796
2.130866
1.807809
2.438426
2.393723
2.822876
2.983809
3.138781
3.181696
3.504753
4.086494
4.654527
5.988479
17.396808
105.033517
280.274749
746.111870
1015.793681
1015.793681
1015.793681
1015.793681
1015.793681
1015.793681
1015.793681
1015.793681
1015.793681
1015.793681
846.166015
367.285609
171.458721
64.911842
50.865412
64.117908
79.366565
105.947852
127.757788
156.398416
173.571706
188.452005
191.367865
182.870626
171.089768
148.999691
133.908987
115.278959
103.310943
93.148947
88.450909
87.025762
86.360574
86.271763
87.064505
86.292624
85.197687
84.040761
83.754659
82.570910
80.049634
78.061819
76.155663
74.788928
73.647499
71.867704
68.836808
69.425702
67.857504
66.048503
65.158606
63.668489
62.855482
60.158968
59.370995
58.430433
56.726933
56.663752
55.700541
54.199696
##ZVALUE=305
1.098514
1.256466
1.209974
1.320839
1.231432
1.209974
1.157522
1.299977
1.269579
1.262426
1.159906
1.325607
1.420975
1.384616
1.539588
1.588464
1.638532
1.559854
1.594424
1.848936
1.782775
1.906753
1.759529
2.134442
2.314448
2.332926
2.614856
2.884865
3.187656
3.574491
3.731847
4.008412
4.442930
5.419850
9.894967
65.791607
193.548799
572.564602
992.195010
1015.793681
1015.793681
1015.793681
1015.793681
1015.793681
1015.793681
1015.793681
1015.793681
1015.793681
1015.793681
571.274757
283.118486
102.655888
59.889555
61.142445
69.282651
88.786483
108.102560
134.667754
155.403614
176.984668
186.239481
186.765790
178.830624
161.055923
145.842433
124.404430
110.572577
97.415447
89.572668
84.680915
82.861781
81.158876
81.974864
78.726411
77.906847
77.421665
76.689720
75.193644
73.783994
71.726441
70.900917
71.083903
68.603754
67.077875
66.794753
65.474510
65.317750
63.177943
62.836409
61.389804
59.190989
57.636499
57.796836
56.304932
55.618882
54.995418
##ZVALUE=310
1.055598
1.114607
1.082420
1.173615
0.979900
1.203418
1.228452
1.227856
1.200438
1.324415
1.281500
1.242757
1.203418
1.356602
1.265407
1.435876
1.467466
1.391768
1.541972
1.619458
1.672506
1.828671
1.720786
1.927614
2.049804
2.244711
2.321601
2.351999
2.628565
2.732873
2.995729
3.406405
3.529787
3.983974
4.335642
5.174875
6.134510
28.342605
104.549527
370.886922
751.038790
1015.793681
1015.793681
1015.793681
1015.793681
1015.793681
1015.793681
1015.793681
1015.793681
1015.793681
1015.793681
906.006694
486.574769
181.067586
82.133412
55.493712
58.901906
72.087646
83.978772
105.343461
123.980641
147.043467
160.639882
170.148611
173.537731
164.089799
153.666735
135.642886
118.649602
100.446939
90.570450
81.882477
77.023506
75.600743
73.337555
70.975423
68.981647
69.416761
68.233609
67.711473
67.447424
65.805912
65.997839
65.025687
64.354539
63.630939
63.214898
62.203407
61.082840
60.509443
59.061646
57.630539
57.500601
56.456923
55.056810
54.506660
##ZVALUE=315
0.953674
1.039505
1.159906
1.161695
1.123548
1.040697
1.136661
1.110435
1.060963
1.050830
1.276731
1.165867
1.377463
1.298785
1.310706
1.304746
1.279712
1.447797
1.493692
1.540780
1.642704
1.535416
1.687407
1.811981
1.815557
2.099872
1.996756
2.297759
2.383590
2.244711
2.483726
3.004670
2.871752
3.340840
3.619790
3.914833
4.184842
4.910827
5.828738
13.034940
53.537488
243.408680
548.259616
1015.787721
1015.787721
1015.787721
1015.787721
1015.787721
1015.787721
1015.787721
1015.787721
1015.787721
1015.787721
1015.787721
776.494741
281.092525
118.928552
55.093765
52.179694
57.059526
64.124465
78.360438
91.454983
111.676455
128.511786
144.586563
154.722929
157.320499
152.243972
140.061975
126.132965
106.722713
94.574690
79.384446
74.058771
67.627430
65.248609
63.779950
62.428713
62.388778
62.417984
61.937571
62.357783
62.421560
61.670542
60.086846
59.904456
59.621930
58.895946
58.748722
57.871938
57.726502
56.534410
56.271553
55.261850
53.827763
##ZVALUE=320
0.902414
1.107454
1.048446
1.053810
1.015663
1.071692
1.102686
1.105666
1.134872
1.215935
1.063943
1.218915
1.333952
1.183748
1.180768
1.374483
1.219511
1.388788
1.498461
1.378655
1.411438
1.630783
1.390576
1.862645
1.795888
1.942515
1.854897
2.066493
2.116561
1.987815
2.097487
2.444983
2.621412
2.911687
2.905726
3.252625
3.503561
3.742576
4.251599
4.789829
5.568862
7.564425
23.615956
141.061544
374.755859
959.405899
1015.789509
1015.789509
1015.789509
1015.789509
1015.789509
1015.789509
1015.789509
1015.789509
1015.789509
1015.789509
975.500941
441.943407
196.575522
63.241720
42.052865
41.625500
44.277906
51.186681
60.754418
76.911449
91.768503
111.585855
128.057599
140.330791
143.785477
138.461590
128.863454
112.723708
98.153949
81.858635
71.763992
63.541532
58.730841
56.228638
55.537820
55.900812
56.277514
56.911707
56.788921
56.689978
56.236982
56.683421
56.111813
56.394935
55.385828
54.788589
54.252744
53.944588
53.502917
53.727627
##ZVALUE=325
0.875592
0.957847
0.983477
0.981688
1.061559
1.044869
1.197457
1.070499
1.294613
1.133680
1.056790
1.233816
1.159906
1.108646
1.196861
1.161695
1.324415
1.351833
1.437664
1.410842
1.361966
1.532435
1.572967
1.676679
1.572967
1.803637
1.773834
1.867414
1.779795
1.966953
2.119541
2.431870
2.401471
2.366900
2.792478
2.870560
2.828836
3.232956
3.483891
3.723502
4.072785
4.634857
5.559921
6.330609
13.032556
96.171498
265.554786
733.141899
1015.808582
1015.808582
1015.808582
1015.808582
1015.808582
1015.808582
1015.808582
1015.808582
1015.808582
1015.808582
1015.808582
623.764992
296.642780
86.115599
37.272573
30.097961
30.275583
34.420490
40.274858
52.133799
64.965487
85.801482
100.684762
118.581653
127.267838
131.059885
126.115680
113.842487
102.071762
85.440874
74.878931
63.882470
57.473779
53.806901
53.000450
53.078532
52.808523
52.530766
53.155422
53.413510
53.084493
53.508878
53.130984
51.997900
52.227974
51.909685
52.242875
51.627755
##ZVALUE=330
0.974536
0.927448
1.005530
0.893474
1.035929
0.880957
0.918508
1.026988
1.001954
1.150966
1.123548
1.170635
1.137853
1.012683
1.100898
1.169443
1.115799
1.141429
1.317859
1.295805
1.345873
1.312494
1.393557
1.515746
1.473427
1.461506
1.598597
1.561642
1.790524
1.646876
1.940727
2.049804
2.060533
2.158880
2.297759
2.283454
2.313852
2.686977
2.756715
3.179908
3.382564
3.852844
4.039407
4.436970
5.030632
6.175637
8.119941
42.858720
149.011016
503.166914
960.469842
1015.793681
1015.793681
1015.793681
1015.793681
1015.793681
1015.793681
1015.793681
1015.793681
1015.793681
1015.793681
895.247459
457.552671
154.479742
54.651499
26.077628
25.818944
27.992725
31.301975
39.454699
48.779845
64.989924
78.984499
99.606514
110.841990
121.749640
122.544765
116.762519
108.118653
93.877912
82.580447
70.258975
62.551498
55.816770
52.577853
51.475763
50.944686
50.735474
50.862432
51.474571
50.518513
51.436424
50.250888
50.729513
50.475001
49.975514
##ZVALUE=335
0.940561
0.838637
0.893474
0.946522
0.891685
0.822544
1.032948
0.802875
0.881553
0.914931
1.082420
1.021624
1.195669
0.950694
0.996590
1.014471
1.205802
1.204610
1.193881
1.158714
1.277924
1.271963
1.418591
1.380444
1.305938
1.522899
1.439452
1.635551
1.529455
1.631975
1.655817
1.805425
1.803637
2.106428
2.229810
2.218485
2.286434
2.413988
2.341866
2.839565
2.825856
3.112555
3.310442
3.636479
3.875494
4.576445
4.955530
5.675554
6.736517
17.785430
72.985291
319.171548
695.102811
1015.763879
1015.763879
1015.763879
1015.763879
1015.763879
1015.763879
1015.763879
1015.763879
1015.763879
1015.763879
1015.763879
773.611069
250.932574
90.770721
30.982494
26.387572
28.510690
30.478835
34.878850
40.762424
52.242875
62.031746
79.222918
93.300939
106.834769
113.912821
115.719438
113.601685
103.451610
92.869997
80.438852
71.340799
61.165690
55.503845
51.782727
50.258636
49.091578
48.825741
48.557520
48.646927
48.394799
49.123764
48.913956
##ZVALUE=340
0.806451
0.822544
0.873804
0.830889
1.059771
0.791550
0.849962
0.906587
0.932813
1.024604
1.214743
1.024604
0.967979
1.014471
0.946522
1.034737
0.993609
1.099706
1.119971
1.223683
1.240969
1.374483
1.232624
1.369715
1.414418
1.327991
1.255870
1.518726
1.404881
1.497865
1.609921
1.623631
1.694560
1.954436
2.099872
2.044439
2.053976
2.092719
2.386570
2.333522
2.413988
2.630949
2.713799
2.963543
3.378987
3.511906
3.730655
4.102588
4.722476
5.425811
6.319880
8.570552
46.287775
162.867904
554.219484
1012.629867
1015.794873
1015.794873
1015.794873
1015.794873
1015.794873
1015.794873
1015.794873
1015.794873
1015.794873
1015.794873
905.935764
437.263846
116.789937
40.559769
27.680993
29.056668
29.610991
31.660795
35.576820
39.712787
50.041676
60.082674
76.111555
88.768601
103.107691
109.433532
112.139583
108.579993
100.706816
90.752840
78.182817
69.398880
59.086680
53.865910
49.779415
47.796965
46.008825
46.046972
46.379566
46.295524
##ZVALUE=345
0.810623
0.906587
0.915527
0.859499
0.975728
0.872612
0.835657
0.927448
1.107454
0.888705
0.999570
0.987649
1.041889
0.983477
1.151562
1.004934
1.120567
1.071692
1.128912
1.051426
1.169443
1.135468
1.335740
1.324415
1.156926
1.378655
1.206994
1.297593
1.474619
1.439452
1.308918
1.464486
1.604557
1.745820
1.624823
1.514554
1.796484
1.972914
1.952648
2.153516
2.257824
2.308488
2.463460
2.582669
2.769828
3.056526
2.990961
3.378987
3.637671
3.997684
4.441738
5.080700
5.819798
7.023811
15.259981
108.933449
317.878723
881.898999
1015.793681
1015.793681
1015.793681
1015.793681
1015.793681
1015.793681
1015.793681
1015.793681
1015.793681
1015.793681
1015.793681
553.377867
245.524645
65.771937
32.597780
29.921532
29.910803
29.891729
31.240582
33.176541
38.402677
47.917962
57.632923
72.420835
82.870722
94.498992
101.457834
105.328560
103.343725
96.587539
87.601542
76.065660
66.675544
57.392716
52.252412
46.611428
44.899583
44.510961
##ZVALUE=350
0.903606
0.882745
0.917912
1.008511
1.169443
1.069903
1.083612
1.064539
0.870824
0.974536
0.961423
0.948906
0.844598
0.959635
1.022816
1.087785
1.114607
0.971556
1.189709
1.119971
1.055598
1.162887
1.222491
1.125932
1.083612
1.148582
1.396537
1.433492
1.376867
1.596808
1.494884
1.607537
1.616478
1.509786
1.766682
1.565814
1.691580
1.885891
1.956820
2.042651
2.085567
2.229810
2.267957
2.403855
2.488494
2.530813
2.805591
3.137589
3.149509
3.498793
3.808737
4.075766
4.528761
5.225539
5.634427
6.549954
9.184480
54.302812
190.017819
626.839995
1015.777588
1015.777588
1015.777588
1015.777588
1015.777588
1015.777588
1015.777588
1015.777588
1015.777588
1015.777588
1015.777588
831.424594
392.318964
100.510716
36.998987
28.197765
27.347803
26.995540
27.813911
29.747486
32.301545
38.465858
43.923855
54.146647
63.613653
77.382922
84.914565
95.118880
97.591877
96.361637
91.377497
80.769658
72.727799
61.200857
55.700541
49.049854
##ZVALUE=355
1.117587
1.054406
1.014471
1.159906
1.091957
1.113415
1.259446
1.187921
1.195669
1.257658
1.080632
1.236796
1.212955
1.229644
1.142621
1.020432
1.266599
1.165867
1.090765
1.387596
1.491904
1.430511
1.357794
1.370907
1.427531
1.466870
1.535416
1.531839
1.514554
1.509786
1.500845
1.590848
1.582503
1.779795
1.862645
1.930594
1.928806
1.991987
2.007484
2.096891
2.246499
2.331734
2.203584
2.422929
2.503991
2.645850
2.502799
2.990961
2.894998
3.244877
3.572702
3.768802
4.051924
4.372597
4.535913
5.166531
5.964637
6.730556
7.888675
25.031567
105.255842
440.295935
918.622613
1015.793681
1015.793681
1015.793681
1015.793681
1015.793681
1015.793681
1015.793681
1015.793681
1015.793681
1015.793681
993.116498
529.869795
152.573586
50.532818
27.762651
26.370883
26.394725
27.088523
28.068423
28.945804
31.933784
35.716891
42.365789
48.773885
59.151649
68.016648
79.346895
85.900426
88.841915
88.697672
84.270835
77.955723
68.085790
##ZVALUE=360
1.115799
1.222491
1.050830
1.290441
1.173615
1.217723
1.235604
1.231432
1.251698
1.224875
1.315475
1.243949
1.107454
1.356602
1.389980
1.429915
1.262426
1.424551
1.426935
1.341701
1.465678
1.610518
1.690984
1.637936
1.621842
1.533628
1.773834
1.730919
1.720786
1.680851
1.931787
1.703501
1.974702
1.873970
1.932979
1.898408
2.019405
2.022982
2.255440
2.268553
2.150536
2.211928
2.299547
2.335906
2.552867
2.752542
2.741814
2.968907
3.076792
3.234744
3.515482
3.843904
4.011989
4.235506
4.360676
4.712939
5.238652
5.778670
6.527901
7.297993
8.255839
13.256669
45.023561
225.085616
576.071739
1015.794873
1015.794873
1015.794873
1015.794873
1015.794873
1015.794873
1015.794873
1015.794873
1015.794873
1015.794873
1015.794873
838.320851
309.442878
106.587410
29.936433
26.233792
26.295781
26.020408
26.442409
26.805997
27.725697
29.423833
32.337904
36.291480
42.878985
50.592422
60.982704
68.917871
76.978803
80.505610
81.484914
##ZVALUE=365
1.183748
1.335740
1.202822
1.186728
1.332760
1.153946
1.222491
1.211762
1.258850
1.250505
1.244545
1.200438
1.148582
1.289845
1.469851
1.479983
1.551509
1.368523
1.323819
1.414418
1.535416
1.517534
1.643896
1.597404
1.697540
1.703501
1.631975
1.549721
1.758933
1.707673
2.045631
1.789927
1.997948
1.980662
1.824498
2.009869
2.200603
1.970530
2.186894
2.159476
2.299547
2.528429
2.305508
2.433658
2.609491
2.551675
2.761483
2.873540
3.033876
3.100634
2.968907
3.437996
3.670454
3.771782
4.044771
4.324913
4.427433
4.920959
5.128980
6.126761
6.729960
7.496476
8.546710
10.186434
20.178556
129.801631
373.394489
970.094800
1015.793681
1015.793681
1015.793681
1015.793681
1015.793681
1015.793681
1015.793681
1015.793681
1015.793681
1015.793681
1015.793681
490.906835
185.214877
39.038658
25.966763
24.621487
24.263859
24.298429
24.396777
24.565458
25.217533
26.419759
28.530955
32.651424
37.173629
45.705438
52.889585
62.580705
##ZVALUE=370
1.314878
1.348853
1.193881
1.297593
1.157522
1.271963
1.260638
1.395941
1.469851
1.274943
1.235604
1.558661
1.316667
1.323819
1.398921
1.420975
1.343489
1.379848
1.428723
1.487732
1.605749
1.538992
1.477599
1.548529
1.473427
1.598597
1.765490
1.666546
1.634955
1.778603
1.735687
1.664758
1.798868
1.815557
1.964569
1.995564
1.974702
1.903772
1.967549
2.030730
2.086759
2.118945
2.093911
2.080798
2.325773
2.306700
2.590418
2.579689
2.822876
2.673864
2.935529
3.026724
3.192425
3.263950
3.425479
3.573895
3.785491
4.139543
4.262924
4.617572
5.008578
5.537868
6.330609
7.125735
7.398725
9.041429
12.740493
65.902472
239.352584
836.490989
1015.794873
1015.794873
1015.794873
1015.794873
1015.794873
1015.794873
1015.794873
1015.794873
1015.794873
1015.794873
1015.794873
738.864541
333.532691
91.097951
31.437874
23.726821
22.738576
22.531748
22.816658
22.477508
22.463799
23.180842
23.866892
26.255846
29.194951
34.355521
##ZVALUE=375
1.072884
1.180768
1.162887
1.290441
1.226664
1.394749
0.972748
1.291633
1.133680
1.019835
1.307726
1.173615
1.283884
1.200438
1.281500
1.151562
1.178980
1.102686
1.306534
1.261830
1.300573
1.268983
1.389980
1.461506
1.439452
1.468658
1.435876
1.423955
1.356602
1.483560
1.488924
1.412630
1.445413
1.558661
1.687407
1.576543
1.610518
1.634955
1.608729
1.841784
1.786947
1.788735
1.902580
1.828671
2.022982
2.056956
2.103448
2.170801
2.131462
2.204776
2.323985
2.337694
2.400875
2.507567
2.550483
2.857447
2.832413
3.079772
3.499985
3.627539
3.768802
3.941655
4.229546
4.665852
4.953742
5.849600
6.454587
7.986426
9.629726
32.823682
126.667619
500.707626
998.297930
1015.793681
1015.793681
1015.793681
1015.793681
1015.793681
1015.793681
1015.793681
1015.793681
1015.793681
1015.793681
1015.793681
707.850456
213.262439
60.830712
22.548437
21.406412
20.681620
20.552874
20.480752
20.183921
20.210743
20.908713
21.665692
##ZVALUE=380
0.969768
0.963807
0.999570
0.990629
0.923872
0.904799
1.070499
0.999570
0.860691
0.901818
1.114607
1.196861
1.031756
1.048446
1.214743
1.110435
1.114607
1.071692
0.988841
1.006722
1.081824
1.084805
1.086593
1.129508
1.091957
1.155734
1.321435
1.040697
1.099706
1.107454
1.293421
1.405478
1.252890
1.394749
1.403689
1.553893
1.431704
1.703501
1.587868
1.493692
1.694560
1.642704
1.605749
1.725554
1.665950
1.760721
1.786947
2.028942
1.779795
2.148747
1.921654
1.980662
2.125502
2.195835
2.265573
2.506971
2.537966
2.761483
2.928972
2.937913
2.957582
3.219843
3.467798
3.692508
4.027486
4.484653
5.196929
5.982518
6.855726
8.442998
9.963512
16.969442
68.720579
367.162824
883.740783
1015.793681
1015.793681
1015.793681
1015.793681
1015.793681
1015.793681
1015.793681
1015.793681
1015.793681
1015.793681
1015.793681
977.266431
383.715630
134.889483
29.117465
20.829439
19.377470
18.802881
18.680692
18.888712
19.232631
##ZVALUE=385
0.988841
0.982881
0.955462
0.985861
0.784993
0.967979
0.892878
0.806451
0.808835
0.970960
0.986457
0.990629
0.808835
0.996590
1.066923
0.859499
0.997782
0.986457
1.180768
1.052618
1.096725
1.036525
0.924468
1.023412
1.165867
1.214743
1.131892
1.103878
1.106858
1.159906
1.181960
1.155734
1.190901
1.323819
1.340508
1.286864
1.316667
1.293421
1.378655
1.441836
1.317859
1.539588
1.398921
1.571774
1.620650
1.398921
1.719594
1.811981
1.762509
1.877546
1.701713
1.931787
1.886487
2.083778
2.157688
2.171993
2.311468
2.507567
2.390742
2.767444
2.816916
2.955794
3.075600
3.342628
3.509521
3.902912
4.475713
4.880428
5.753636
6.511807
7.277727
8.177757
9.010434
11.363626
31.893849
210.672021
582.682490
1015.794873
1015.794873
1015.794873
1015.794873
1015.794873
1015.794873
1015.794873
1015.794873
1015.794873
1015.794873
1015.794873
1015.794873
727.013946
298.101902
53.836703
20.690560
18.159747
17.342567
17.309785
##ZVALUE=390
0.778437
0.732541
0.844598
0.903606
0.830889
0.983477
0.908971
0.774860
0.859499
0.993609
0.891685
0.866652
0.955462
0.944734
0.951886
0.995994
1.004934
0.908971
1.254678
0.946522
1.079440
1.059771
1.124740
1.046658
1.107454
1.001954
0.968575
1.165867
1.182556
1.120567
1.176596
0.970960
1.122952
1.141429
1.132488
1.099706
1.277924
1.373887
1.435876
1.335740
1.422763
1.280904
1.372695
1.432896
1.464486
1.413822
1.399517
1.614690
1.611710
1.706481
1.737475
1.748800
1.853704
2.062917
2.053976
2.111793
2.148747
2.269745
2.260804
2.621412
2.501607
2.904534
2.840757
2.907515
3.108978
3.558993
3.925562
4.329681
5.183816
5.802512
6.442666
7.154942
7.451773
8.098483
8.453727
9.615421
16.843677
113.564730
372.774601
1015.793681
1015.793681
1015.793681
1015.793681
1015.793681
1015.793681
1015.793681
1015.793681
1015.793681
1015.793681
1015.793681
1015.793681
925.764441
458.968878
130.807757
35.301447
17.946959
##ZVALUE=395
0.908971
0.944734
0.888705
0.982881
0.881553
0.850558
0.863671
0.827909
0.954866
0.896454
0.900626
0.902414
0.863671
0.904799
0.894666
0.879765
0.836849
1.051426
0.974536
0.823736
1.083612
0.987649
0.780821
1.012683
0.993609
0.969768
1.020432
0.943542
1.034737
1.056790
0.960827
0.885725
1.245737
1.088977
1.032948
1.166463
1.416802
1.206994
1.147985
1.323819
1.392961
1.500845
1.240969
1.311898
1.390576
1.466870
1.552701
1.621842
1.725554
1.844764
1.661777
1.813769
1.722574
1.743436
1.981854
1.969934
2.001524
2.307892
2.161860
2.314448
2.334714
2.635717
2.805591
2.853870
3.121495
3.367662
3.632903
4.092455
4.835725
5.358458
5.773902
6.166697
6.366968
6.573796
6.672740
7.172823
7.814765
8.933544
11.402965
61.869025
252.335668
912.454724
1015.793681
1015.793681
1015.793681
1015.793681
1015.793681
1015.793681
1015.793681
1015.793681
1015.793681
1015.793681
1015.793681
1015.793681
554.813743
175.754428
##ZVALUE=400
0.886917
0.693798
0.836849
0.899434
0.864863
0.793934
1.000762
0.862479
0.985861
0.848770
0.834465
0.923872
0.842810
0.842810
0.798702
0.893474
0.869632
0.911951
1.049638
0.870824
0.986457
0.851750
1.035929
1.039505
1.013875
1.043677
0.921488
1.056790
0.939965
1.123548
1.114607
1.209974
1.085997
1.214743
1.300573
1.026988
1.198649
1.235604
1.273751
1.360774
1.392961
1.244545
1.302958
1.481771
1.490712
1.513958
1.525879
1.466870
1.594424
1.679659
1.710653
1.816750
1.784563
1.807809
1.917481
1.841784
1.960993
2.053976
2.119541
2.297759
2.400875
2.544522
2.455711
2.704859
2.884865
3.320575
3.673434
4.154444
4.464984
5.102754
5.589724
5.856752
5.719662
5.938411
5.841851
6.111860
6.162524
7.181764
7.695556
9.151697
10.536909
30.275583
132.646561
583.475828
1015.793681
1015.793681
1015.793681
1015.793681
1015.793681
1015.793681
1015.793681
1015.793681
1015.793681
1015.793681
1015.793681
1015.793681
##END
