##TITLE=DDW2
##FORMAT=SPECTACLE-ASCII V-1.2
##DATA TYPE=ULTRAVIOLET SPECTRUM
##SECOND TYPE=ULTRAVIOLET SPECTRUM
##DATE=10/03/17
##TIME=11:20:27
##SPECTROMETER/DATA SYSTEM=SPECTACLE
##XUNITS=NM EM
##YUNITS=ENERGY
##YFACTOR=1
##FIRSTX=220
##LASTX=410
##NPOINTS=96
##3DDATA=Equidistant
##ZUNITS=NM EX
##FIRSTZ=210
##LASTZ=400
##ZPOINTS=39
##XYDATA=(Y..Y)
##ZVALUE=210
15.838742
16.469955
13.586879
12.255907
10.243654
11.047721
10.319948
8.682609
7.459521
6.679893
4.638433
4.916787
3.992915
3.647804
4.303455
3.806949
4.653931
3.942847
4.468560
5.296469
4.514456
4.477501
4.606843
5.734563
5.316734
5.836487
5.776882
5.959868
6.215572
6.736517
6.728768
7.010698
6.822944
7.556677
6.492734
7.391572
7.974505
7.013679
8.533597
8.359551
7.884502
8.733869
8.387566
9.013414
8.933544
8.643866
8.664727
9.046793
9.441972
9.624958
9.357929
10.064840
9.418726
9.969473
10.806918
10.584593
9.593964
9.799600
10.584593
10.217428
9.929538
9.153485
10.524988
10.711551
10.473728
11.072755
12.089610
12.472868
14.659762
14.474988
16.280413
18.665791
20.655990
23.333430
25.397539
27.737617
28.737783
30.323863
29.100776
27.623773
27.794838
23.152828
21.687746
17.762780
15.647411
12.805462
10.982752
10.763407
10.243654
12.106895
14.898777
17.687678
24.216771
29.162765
35.918951
38.522482
##ZVALUE=215
56.596994
56.072474
42.659640
34.165978
27.153492
20.329952
18.298626
16.184449
15.350580
16.342998
14.178753
10.902882
8.899570
7.218719
5.635619
5.260706
4.441738
5.094409
5.383492
5.127788
4.989505
6.347895
5.501509
6.215572
6.588697
7.217526
7.106662
6.346703
6.876588
7.657409
7.613897
8.696914
8.289814
8.322597
8.851886
9.941459
9.586811
9.606481
11.492968
9.017587
9.712577
9.426475
11.093616
9.954572
10.090470
10.202527
10.528564
12.279749
11.749864
11.343956
12.339950
11.883974
12.355447
11.506677
11.992455
12.501478
11.776686
12.501478
12.882948
12.361407
12.397766
12.596846
13.084412
12.986660
13.248920
13.821721
13.760924
14.489889
16.866922
18.448830
20.342469
24.392605
26.161671
30.843616
32.887459
32.598972
36.175847
35.831928
35.771728
32.974482
31.682849
29.261708
28.510690
21.616817
19.291639
16.152859
14.408827
13.207793
12.138486
12.700558
11.623502
10.270476
10.357499
14.592409
16.281605
21.146536
##ZVALUE=220
137.122869
140.347481
128.354430
115.468502
91.625452
66.996813
48.883557
35.481453
30.039549
25.471449
27.315617
25.022626
23.153424
18.542409
15.989542
11.921525
8.985996
8.496642
5.894899
5.764961
4.804730
6.353855
6.017685
6.250739
6.115437
7.058978
6.617904
6.026626
7.325411
7.726550
8.449554
8.312464
8.258820
9.444952
9.446740
8.713603
10.319948
9.071827
11.578798
9.803772
9.659529
10.767579
11.253953
10.929704
10.583997
11.338592
11.377931
11.126995
13.099909
11.060834
11.349916
11.920929
12.021661
11.571646
13.583899
12.169480
13.283491
12.576580
13.520718
13.117790
12.631416
13.026595
13.819933
14.650822
13.582706
15.291572
13.214946
14.196634
16.647577
17.207861
17.863512
19.910932
22.657514
23.572445
25.714636
25.659800
24.947524
26.393533
23.882985
23.703575
23.191571
22.808909
20.083785
20.589828
18.120408
17.228723
14.092922
12.580752
12.010932
10.314584
12.309551
11.223555
11.331439
10.417700
11.560917
11.256933
##ZVALUE=225
136.424899
143.664479
175.994635
192.851424
202.301741
187.393427
161.136985
132.470727
88.317990
69.521666
48.607588
44.140816
42.073727
40.362477
39.351583
32.489896
27.756691
22.133589
16.853809
11.133552
8.776784
6.477833
6.511807
5.817413
6.762743
6.744862
7.047653
7.048845
7.932782
7.616878
7.528663
8.193851
8.103848
9.905696
8.922815
9.291768
10.392666
9.876490
10.127425
11.593699
10.756850
11.427999
12.304783
11.938810
10.796785
11.781454
12.188554
10.895729
12.388825
14.019608
14.209747
12.650490
13.455749
14.103651
14.441609
14.342666
14.226437
14.129877
14.859438
15.412569
15.449524
14.207959
14.438629
14.712811
15.017986
14.569759
16.242862
15.902519
16.922951
18.716455
17.931461
21.644831
22.236705
22.539496
23.748875
22.994876
24.303794
23.755431
23.697615
22.461414
19.044876
18.313527
16.098619
16.327500
16.242862
14.612675
13.793707
12.947917
12.813807
11.896491
12.738705
11.295676
10.484457
10.766983
12.365580
11.578798
##ZVALUE=230
75.192451
82.168579
122.275949
187.395811
229.214430
276.365876
286.937952
267.505646
234.632492
186.658502
130.036473
94.371438
67.849755
62.895417
62.032938
65.785646
62.279701
58.739781
53.162575
42.097569
30.848980
19.871593
13.637543
10.252595
8.119941
7.017851
6.885529
6.959438
7.149577
7.449985
7.138848
7.836819
8.206964
8.670688
8.001924
9.856820
8.765459
10.059476
10.320544
9.204745
10.215640
10.970831
11.856556
10.818839
11.483431
11.337996
11.794567
12.435913
12.184978
13.012886
12.731552
12.979507
13.144612
14.489889
13.729930
13.634562
14.417768
15.140772
14.523864
14.333725
15.082955
14.337897
15.424490
14.806986
15.772581
15.685558
17.141700
15.867949
18.344522
17.998815
18.625855
20.616651
20.858645
20.454526
22.568703
21.704435
22.308826
21.441579
20.846725
21.090508
17.461777
18.476844
16.094446
16.103983
16.041994
15.429854
14.979839
14.417768
13.718605
13.463497
13.425946
14.111996
13.138652
12.180805
12.319684
12.096763
##ZVALUE=235
18.046498
22.651553
53.220987
98.830462
175.978541
256.278515
365.207791
439.178944
487.238765
477.764010
401.011705
329.884887
248.587728
158.379674
119.990706
88.593960
85.824728
91.692805
93.531609
88.619590
83.585978
75.030923
54.925680
40.161610
25.627613
17.549992
11.478662
9.831786
9.462833
7.866621
7.986426
8.634925
9.064674
9.161830
8.182526
9.625554
9.735823
9.543896
11.386871
10.899901
11.014938
11.108518
11.245608
10.570884
11.594892
11.110902
10.794997
12.712479
13.278723
13.518929
12.888908
13.478994
13.967752
14.168620
13.708472
13.959408
12.973547
15.541911
15.456676
14.982820
15.193820
15.524626
15.527606
15.751719
15.876889
14.946461
16.505718
18.119812
16.968846
18.565655
18.929839
20.913482
21.075606
24.858713
22.899508
24.134517
23.798943
22.925735
21.190643
22.247434
23.261905
19.758940
18.156767
18.510818
17.305613
17.495751
17.630458
16.563535
17.038584
15.903711
15.170574
14.751554
15.614629
14.736652
14.210939
14.554858
##ZVALUE=240
2.674460
3.648996
5.754828
19.427538
42.789578
96.713901
162.226558
280.014873
381.750464
498.304963
559.417009
549.435616
512.327552
421.155691
329.402685
245.021582
160.193443
123.937726
99.919438
99.754930
108.892918
116.063952
108.488798
101.656914
78.595877
61.684847
46.211481
29.218793
21.666884
13.679862
9.688735
8.347631
8.261800
8.539557
9.461641
8.957982
9.246469
9.217858
8.151531
9.843707
10.261536
9.957552
10.108948
11.004806
11.075735
11.686683
11.817813
11.402965
11.941791
11.879802
11.531711
13.313890
13.036728
13.736486
13.253689
14.680624
13.429523
14.482737
14.129877
14.037490
15.127659
15.616417
13.661981
15.183687
15.343428
15.807748
15.850663
17.107725
18.807650
17.797947
18.632412
19.058585
21.997690
22.824407
24.658442
23.999810
24.634600
24.348497
21.868944
21.423697
21.499991
19.472837
19.115806
18.730760
19.455552
16.370416
17.152429
17.175674
16.994476
17.055869
16.758442
17.327666
16.757846
15.434623
16.881824
15.432835
##ZVALUE=245
2.486706
2.537966
2.349615
2.554655
4.469752
11.635423
33.801794
70.742965
162.748694
254.313946
415.982008
537.551641
636.307597
692.905784
677.045584
577.256680
476.987958
326.778889
225.034952
141.626000
105.597973
100.869536
110.433698
125.821829
125.709772
122.252703
103.717446
92.599988
69.297552
52.735806
35.759807
23.487806
15.795827
10.533929
9.749532
9.282827
9.715557
9.064674
9.323955
9.851456
9.216666
9.765625
9.787679
9.109974
9.589791
10.421872
9.806752
10.086894
10.078549
10.755658
10.531545
12.083650
12.225509
11.536479
12.440681
12.233853
11.714697
12.888908
13.750792
13.237000
13.373494
13.225675
13.300776
13.201833
13.938546
14.313459
15.135407
15.203953
13.932586
16.557574
17.676950
17.763972
18.398762
20.107627
19.606948
19.754767
20.117760
18.493533
18.684864
18.704534
18.410683
16.089678
16.145706
15.907884
16.273856
15.382767
16.839504
15.337467
15.767813
14.716983
15.430450
15.813708
15.124679
14.642477
14.890432
14.796853
##ZVALUE=250
2.698898
2.514720
2.696514
2.436638
2.480745
2.711415
3.315806
6.804466
27.322769
56.406856
137.767792
237.197876
348.659754
525.382757
641.824603
755.409598
769.352913
691.623688
607.770681
436.562896
297.885537
198.893547
118.091702
95.753670
102.050900
120.121837
130.272508
132.110715
130.480528
116.637945
100.024939
74.935555
56.104660
37.001967
23.893714
14.520884
11.170506
9.601712
9.174943
8.147955
9.217858
9.532571
9.384751
9.841919
9.873509
8.590817
10.415912
9.588599
9.608865
10.446906
10.572672
10.128617
10.294914
10.187626
11.763573
10.766983
11.256933
10.784864
11.788607
11.899471
12.001991
11.919737
12.342930
12.780428
12.221932
13.594627
13.944507
14.258623
13.567805
14.964938
15.059710
15.616417
16.705990
16.944408
16.811490
17.432570
18.028617
17.807484
15.816689
16.052723
15.403628
15.493631
15.922785
15.114546
14.480948
15.036464
14.606714
14.103651
14.317632
13.442636
13.384819
13.238788
12.589693
13.555884
13.244748
13.248920
##ZVALUE=255
2.007484
2.222657
2.154708
2.201796
2.012849
2.381802
2.180934
2.337694
2.547503
4.228950
15.521646
39.051771
106.939673
188.248754
335.893631
489.951968
683.696866
802.173615
865.827799
844.533443
748.358965
560.518503
409.279466
235.309601
145.227909
91.965795
88.872910
104.919672
117.536783
137.206912
139.613748
135.549903
121.818781
97.367764
77.314973
51.720738
36.602616
21.649599
14.737844
10.521412
8.807778
8.729696
8.715987
8.571744
9.103417
9.090900
8.684993
10.100603
9.216666
9.635687
9.914637
9.878874
9.984970
9.549856
10.182858
10.572672
11.286736
10.797977
10.746717
10.933876
11.104941
11.591911
11.747479
11.345744
11.626482
12.145638
12.873411
12.150407
12.724996
12.739897
13.166666
13.763905
14.677644
15.896559
16.156435
15.110970
14.975667
15.556812
13.920665
13.507605
14.316440
13.506413
13.190508
12.713671
12.963414
12.176633
11.795759
11.575818
11.604428
11.562705
11.803508
11.652708
11.304617
11.650920
11.498928
12.215972
##ZVALUE=260
1.778603
1.825690
1.862645
1.862645
2.012849
1.930594
2.121925
2.166629
2.309680
2.666712
2.723932
3.030896
6.758571
26.875734
61.283708
155.621767
263.427496
453.094840
619.962811
839.858651
957.738757
987.378955
901.326537
749.181509
510.474443
352.997780
201.491714
128.459930
83.394647
82.127452
95.188618
123.466849
139.583945
147.642493
144.586563
123.541951
109.202862
78.338981
57.509542
36.310554
24.547577
16.131997
11.014938
9.240508
9.215474
9.076595
8.900762
9.524822
8.917451
9.042621
9.846687
9.755492
10.356903
10.839701
11.005998
10.060668
11.008978
10.755658
11.663437
11.591911
11.682510
10.917783
11.113882
11.222959
11.505485
10.786653
11.358857
11.182427
11.929870
12.243986
12.430549
12.546778
12.929440
13.342500
13.397932
13.142824
13.300776
12.967587
12.697577
12.439489
11.557937
12.067556
12.094975
11.677742
11.671782
11.248589
11.574626
11.648536
10.806918
11.339784
10.667443
11.132956
11.265874
10.809898
11.227727
11.340976
##ZVALUE=265
1.968741
1.605749
1.725554
1.820922
1.833439
1.861453
2.125502
1.936555
2.020597
1.935959
2.221465
2.211928
2.280474
2.548695
4.532933
15.412569
54.095984
108.258724
241.013765
396.598577
594.540834
855.563879
997.218490
1015.681624
1015.681624
867.625475
696.824789
450.011492
296.598673
151.899457
96.548796
71.326494
83.349943
106.743574
127.306581
146.098733
150.454640
142.610669
129.937530
102.207661
79.305768
54.183602
37.522912
22.772551
16.195774
12.020469
10.168552
9.750724
10.024905
9.997487
9.988546
10.254979
10.144711
10.741949
10.406971
10.703802
10.523796
10.579824
11.071563
11.369586
10.967851
11.057854
11.224747
10.699630
11.812449
11.598468
11.571646
11.225939
11.661649
12.123585
11.702776
12.744665
12.878776
12.370944
12.625456
12.396574
13.121963
11.930466
12.412667
11.807680
11.901855
11.564493
10.831952
10.809898
10.423660
11.389852
10.874867
10.765791
10.182858
9.918809
10.696650
10.379553
10.409951
9.790659
10.136962
10.351539
##ZVALUE=270
1.447797
1.416802
1.566410
1.691580
1.772642
1.757741
1.769662
1.960993
1.902580
1.838803
1.855493
1.910925
2.042651
2.154708
2.058744
2.475977
3.127456
9.333491
26.323795
84.724426
164.182782
287.526846
533.979535
749.923587
999.191999
1015.682817
1015.682817
1015.682817
836.958885
636.515617
390.110612
234.967470
133.743882
68.996549
61.648488
83.817840
105.111003
129.790902
145.790577
153.538585
147.323608
128.324628
107.125640
78.435540
59.562922
37.515759
26.381612
16.712546
13.452768
11.053681
10.954738
9.893775
10.794997
10.734797
10.980964
10.930896
11.355877
11.206865
10.788441
11.852980
11.590719
11.664629
11.068583
11.223555
11.829734
11.084676
11.321902
11.050701
10.904670
11.388659
11.756420
11.905432
11.991858
12.618899
12.438893
12.478828
11.652708
11.923909
12.077689
11.090636
10.464787
10.921955
11.376739
10.270476
10.206699
9.988546
10.132790
10.598898
9.767413
9.714961
9.764433
9.794831
9.956956
9.180903
10.043979
9.996891
##ZVALUE=275
1.624823
1.517534
1.715422
1.773834
1.835823
1.755953
1.629591
1.685619
1.749992
1.847744
1.693964
1.844764
1.726747
2.094507
1.999736
2.171993
2.114773
2.130866
2.313852
4.859567
15.653968
44.094920
130.060911
246.417522
480.476618
674.507022
924.618840
1015.778780
1015.778780
1015.778780
996.250510
809.708834
582.461953
311.089754
179.197788
80.455542
53.066611
60.701966
78.453422
106.306672
126.008987
145.175457
151.930451
145.439506
130.985975
106.412768
85.501671
58.293939
42.928457
26.717782
18.908978
13.535619
12.297630
11.476874
11.201501
11.237860
11.091828
11.029840
11.554956
11.670589
11.705756
11.469722
11.136532
11.750460
11.504889
11.728406
11.321902
11.634827
11.266470
11.725426
11.638999
11.853576
11.621714
11.648536
12.088418
12.683868
11.563897
11.533499
11.424422
10.773540
11.116862
11.218786
10.581613
10.072589
10.291934
10.340810
10.014772
10.354519
9.651780
9.757876
9.434819
9.326935
9.570718
9.418726
9.339452
9.032488
##ZVALUE=280
1.369715
1.494884
1.508594
1.504421
1.488924
1.636744
1.461506
1.591444
1.519918
1.606941
1.481771
1.595616
1.569986
1.612902
1.663566
1.758933
1.913905
2.113581
2.234578
2.200603
2.431870
2.881885
10.829568
32.837987
104.329586
195.429921
388.530493
581.828952
866.503716
1015.681624
1015.681624
1015.681624
1015.681624
930.861831
696.832538
401.246548
238.629580
106.356740
57.438612
43.759942
55.456758
80.911517
101.940632
127.452612
142.762661
148.589611
142.238736
126.981735
106.890798
79.665780
60.927868
39.629936
28.806925
18.646717
14.614463
11.984706
10.974407
11.277795
11.198521
11.335611
11.475682
11.303425
10.938644
10.837913
10.931492
11.002421
10.901690
10.867715
10.886788
11.657476
10.854602
11.299849
11.201501
10.864735
11.664629
11.368990
11.590719
11.143684
11.332631
10.309815
10.273457
10.029674
10.295510
9.525418
9.783506
9.648800
9.857416
9.640455
9.679794
9.251833
8.871555
9.326935
9.052753
8.851886
9.259582
8.868575
##ZVALUE=285
1.414418
1.462698
1.340508
1.444817
1.530647
1.349449
1.363754
1.307726
1.379848
1.334548
1.400709
1.345873
1.734495
1.640916
1.373887
1.764894
1.720786
1.843572
1.841784
1.956820
2.261996
2.213717
2.388954
2.582669
6.002784
16.971827
59.286952
124.521852
280.048847
455.491543
678.463578
982.367992
1015.682817
1015.682817
1015.682817
1015.682817
868.723989
552.008748
344.612002
160.758495
81.244707
38.423538
36.456585
54.374933
72.597861
100.792646
119.961500
136.527419
141.860843
139.021873
127.334595
105.363727
86.274743
59.154630
43.070912
26.833415
18.541813
13.361573
11.672974
10.495782
10.954738
9.957552
10.368824
10.489821
10.331869
10.238886
10.852814
10.376573
10.408759
10.572672
10.284781
10.377765
10.681748
10.580420
10.840893
10.532737
10.338426
10.649562
10.183454
10.143518
9.915829
9.214878
9.401441
9.220839
9.416938
9.295940
9.471774
9.084940
9.012818
9.105802
8.578897
9.009838
8.903742
8.351803
8.606911
8.450747
##ZVALUE=290
1.227856
1.304746
1.252890
1.214743
1.230836
1.189709
1.344681
1.073480
1.219511
1.331568
1.298785
1.294613
1.177788
1.450777
1.317859
1.426935
1.455545
1.349449
1.506805
1.545548
1.717806
1.841784
1.866817
2.076626
2.170801
2.287626
2.882481
7.521510
32.431483
77.039599
155.599713
350.986719
564.527512
911.507607
1015.610695
1015.610695
1015.610695
1015.610695
1009.918451
710.807443
472.453833
233.830810
119.031668
45.879483
28.462410
34.602880
47.334433
70.238709
90.689659
115.518570
130.138993
139.127970
136.351585
120.952725
104.222894
77.416897
58.677793
38.490891
26.859641
16.656518
13.251901
10.380745
9.585619
9.474754
8.948445
8.867979
8.832812
9.111762
8.967519
9.245872
9.640455
9.675622
9.761453
9.904504
9.633899
9.515882
9.317994
9.275675
9.478927
9.073615
8.844733
8.688569
8.918643
8.861423
8.582473
8.690953
8.054972
8.618832
8.395910
8.435845
8.777976
8.470416
8.422732
8.300543
8.261800
8.251667
##ZVALUE=295
1.146793
1.261830
1.188517
1.244545
1.179576
1.242757
1.352429
1.302958
1.252890
1.340508
1.222491
1.417994
1.229644
1.243949
1.317859
1.484752
1.446605
1.405478
1.542568
1.410842
1.563430
1.593828
1.683831
1.838803
1.935959
2.093911
2.223849
2.149940
2.613664
3.900528
11.521578
46.860576
108.311772
263.871551
444.597602
750.903487
989.277959
1015.681624
1015.681624
1015.681624
1015.681624
857.796669
598.515868
317.542553
168.034434
59.411526
29.078722
22.811890
29.023886
46.711564
62.959790
89.060664
105.951428
124.526620
130.954981
128.971934
117.613673
95.952749
77.771544
53.062439
39.794445
24.030805
16.738772
11.486411
9.222627
7.879734
7.752776
7.875562
8.067489
7.924438
8.067489
8.223653
8.380413
8.910894
8.878708
8.348823
8.223653
8.328557
8.324981
8.011460
7.627606
7.933974
8.068681
8.417964
8.195639
8.412600
8.314848
8.150935
8.305907
8.257627
7.844567
7.898808
8.249879
7.997751
8.534789
8.244514
##ZVALUE=300
1.187921
1.157522
1.263618
1.161695
1.112819
1.213551
1.257658
1.096725
1.194477
1.322627
1.308918
1.254678
1.412630
1.251698
1.431704
1.364946
1.334548
1.284480
1.328588
1.375675
1.455545
1.700521
1.691580
1.723766
1.637936
1.706481
1.839995
1.935959
2.060533
2.201796
2.256632
2.765656
8.535981
27.032495
90.086460
175.940990
376.271605
583.697557
897.408724
1015.681624
1015.681624
1015.681624
1015.681624
1015.075445
710.013509
466.427803
232.879519
120.953918
43.168664
20.721555
19.340515
26.002526
40.130615
57.025552
79.491735
97.940564
116.827488
123.372674
122.774839
113.771558
95.024705
77.059865
54.045916
40.111542
23.437738
15.928745
10.638833
8.169413
7.197857
7.062554
6.834865
6.851554
7.192492
7.507801
7.296801
7.562637
7.404685
7.178783
7.075667
7.575750
7.236600
7.480979
7.233620
7.028580
7.319450
7.068515
7.195473
7.338524
7.371902
7.331967
7.648468
7.367730
7.687807
7.513762
7.481575
7.465482
##ZVALUE=305
1.108646
1.047850
1.131892
1.190901
0.937581
1.207590
1.065731
1.016855
1.215935
1.067519
1.190901
0.996590
1.335740
1.314878
1.225471
1.348853
1.138449
1.373887
1.146793
1.191497
1.463890
1.347661
1.278520
1.345873
1.493692
1.758933
1.677871
1.704693
1.827478
1.550913
1.829863
2.042651
2.194643
2.398491
4.052520
20.635724
55.571795
149.550438
267.485976
499.125719
710.483789
988.523960
1015.677452
1015.677452
1015.677452
1015.677452
845.780969
543.320775
343.864560
157.023668
74.134469
24.523735
14.895797
17.208457
24.637580
39.087534
55.012703
77.632666
94.621778
110.456944
116.883516
114.546418
106.079578
88.859797
73.012710
51.302910
36.279559
22.408962
14.807582
9.962916
7.710457
6.720424
6.628633
6.589890
6.702542
6.435513
6.421804
6.293654
6.387830
6.340742
6.570816
6.659627
6.689429
6.804466
6.827712
7.087588
7.104874
7.113814
6.751418
7.038713
7.398725
7.242560
7.594824
7.181764
7.361770
7.612705
##ZVALUE=310
0.989437
0.928640
1.104474
0.961423
1.100898
1.297593
1.183748
1.237988
1.279712
1.099706
1.029968
1.047850
1.109838
1.162887
1.217723
1.130700
1.258850
1.353621
1.164675
1.344681
1.145601
1.291633
1.358986
1.482964
1.420975
1.484752
1.532435
1.517534
1.570582
1.524687
1.516938
1.783967
1.909733
2.069473
2.104640
2.322793
2.593994
7.820725
25.626421
87.214708
175.863504
369.593501
574.402809
870.270729
1015.681624
1015.681624
1015.681624
1015.681624
1008.293033
710.215569
477.461815
238.927007
123.807788
42.202473
17.989874
11.673570
14.254451
22.188425
31.997561
50.007701
65.639615
86.537600
99.129677
108.496547
109.316707
101.021528
88.270903
69.517493
52.407980
34.048557
23.709536
15.213490
10.889769
7.950664
6.825924
6.031990
6.113648
6.155968
5.977750
5.791783
5.911589
6.230474
6.349683
6.369948
6.399751
6.381869
6.628633
6.754994
6.973743
7.116795
6.840825
6.871819
6.875992
7.013679
7.416606
6.912947
##ZVALUE=315
0.960827
1.091957
1.054406
1.052618
0.967979
0.928640
1.061559
1.095533
1.135468
1.046658
1.132488
1.008511
1.144409
0.990629
1.165867
1.059771
1.206994
1.169443
0.999570
1.138449
1.156926
1.160502
1.158714
1.085997
1.380444
1.459718
1.285672
1.502633
1.401901
1.317859
1.549721
1.435876
1.539588
1.616478
1.576543
1.769662
1.965761
2.353787
2.429485
4.065633
12.548566
51.245689
112.770796
262.872577
441.762805
752.424598
973.866582
1015.670896
1015.670896
1015.670896
1015.670896
852.321982
608.223677
325.522423
176.349878
61.609745
25.270581
10.891557
10.435581
13.689995
18.951893
31.224489
43.175817
62.288642
77.776909
94.718933
103.111863
102.944970
96.929669
82.008839
66.889524
49.393773
35.877824
21.596551
14.948845
9.678602
7.740855
6.193519
5.897880
5.721450
5.819798
5.851984
5.704761
5.750656
6.056428
6.257892
6.295443
6.329417
6.493926
6.330609
6.627440
6.864667
6.709695
6.975532
6.599426
6.864667
##ZVALUE=320
0.925660
0.823736
0.990629
1.044869
0.994802
0.964999
0.998974
0.978708
0.956655
0.863671
0.989437
0.931621
0.862479
1.146793
1.030564
1.078844
1.037717
0.999570
1.251698
1.056790
1.135468
1.269579
1.217723
1.138449
1.285672
1.280904
1.330972
1.277924
1.255870
1.204610
1.337528
1.459718
1.369715
1.595616
1.615882
1.630783
1.678467
1.788735
1.897812
1.992583
2.145767
2.648830
6.138682
29.482841
72.982907
193.827748
329.832435
575.290918
796.613693
1015.681624
1015.681624
1015.681624
1015.681624
981.160998
736.174583
421.324968
243.488550
100.254416
43.488741
13.528466
8.756518
9.624958
11.509657
17.417669
25.833845
40.803552
54.240823
74.694753
86.726546
96.078515
98.294616
91.275573
79.878569
61.403513
48.659444
31.683445
22.646785
14.125705
10.058880
7.179976
6.251931
5.891919
5.704761
5.734563
5.760789
6.039739
6.005764
6.084442
5.938411
6.054640
6.215572
6.158948
6.395578
6.568432
6.714463
6.352663
##ZVALUE=325
0.929832
1.011491
0.843406
0.808835
0.917912
0.947714
0.938773
0.988841
0.909567
0.995994
1.007915
1.071692
1.001954
1.090765
1.042485
1.085997
1.081824
1.050830
0.887513
1.121759
1.141429
1.128912
1.038909
1.032948
1.033545
1.141429
1.193881
1.250505
1.232624
1.190901
1.251698
1.220703
1.410842
1.240969
1.279712
1.498461
1.496673
1.536608
1.682639
1.755953
1.747608
1.953840
2.053976
2.442598
3.645420
18.926859
49.044490
128.133893
235.414505
463.414788
673.722625
972.098708
1015.682817
1015.682817
1015.682817
1015.682817
849.496722
528.025627
323.156714
138.510466
63.936710
18.975735
9.581447
7.848740
8.385777
11.461973
15.963912
25.869608
37.515759
55.445433
68.967938
83.116889
89.912415
91.543794
85.758567
71.959496
58.807731
42.076707
30.970573
19.467473
13.580918
9.159446
7.390976
6.067753
5.818605
5.865693
5.777478
6.031990
5.925894
5.839467
5.775690
5.923510
5.936623
6.149411
6.023645
6.068945
##ZVALUE=330
0.719428
0.908971
0.806451
0.892878
0.804663
0.955462
1.074672
0.854731
1.032948
1.098514
0.951886
1.014471
0.871420
0.972748
0.876784
1.063943
0.992417
0.969768
0.982881
0.997782
1.091957
0.990629
0.883937
1.168847
1.091957
1.172423
1.227856
1.069903
1.120567
1.114607
1.035929
1.159906
1.218915
1.169443
1.297593
1.257658
1.364946
1.507998
1.409650
1.572967
1.685619
1.655817
1.772642
1.659989
1.884699
2.266765
2.597570
8.766651
26.490688
88.772774
173.291564
355.932713
544.306636
828.039646
1011.008024
1015.681624
1015.681624
1015.681624
950.886011
641.602874
421.077013
195.950866
96.277595
31.561852
12.996793
7.399917
7.097721
8.050799
9.964705
15.834570
23.224950
36.500692
48.772693
66.666603
76.450706
84.599853
85.054636
79.351664
69.661736
53.714514
42.009950
27.824640
19.987822
12.827516
9.814501
7.177591
6.372929
5.815625
5.735755
5.723834
5.602837
5.699992
5.518794
5.749464
5.692840
5.916953
##ZVALUE=335
0.996590
0.980496
0.915527
0.849962
0.994802
0.904799
0.846982
0.924468
0.948906
1.062751
1.013875
0.977516
0.926852
0.967979
1.046658
0.929832
0.966787
0.949502
1.027584
0.971556
1.004934
1.181960
1.004934
1.062751
1.128912
1.117587
1.210570
1.220703
1.144409
1.059771
1.188517
1.199841
1.320839
1.377463
1.480579
1.421571
1.475811
1.214743
1.180768
1.325607
1.318455
1.350641
1.475811
1.813769
1.765490
1.898408
2.019405
2.139807
2.268553
4.534721
14.132857
54.751635
117.581487
266.087651
435.160995
714.570880
927.530527
1015.764475
1015.764475
1015.764475
1012.688875
743.811727
517.815948
272.746682
141.361952
45.280457
18.496513
8.137822
7.166862
7.081628
7.575750
9.926558
13.950467
23.064613
33.333898
48.718452
60.082674
72.344542
77.393651
80.007911
73.903799
63.479543
52.650571
39.806962
30.356646
19.687414
14.268756
9.733438
7.574558
6.471872
5.688667
5.511642
5.527735
5.414486
5.585551
5.713701
##ZVALUE=340
0.801682
0.722408
0.781417
0.939965
0.850558
0.802875
0.959635
0.983477
0.850558
0.809431
0.886917
0.872612
0.666976
0.853539
0.861883
0.901818
0.987649
0.789762
0.904799
0.860691
0.898838
0.894666
0.796914
0.846982
0.963807
0.862479
0.958443
1.004934
0.987649
1.064539
1.063943
1.276731
1.141429
1.153946
1.160502
0.996590
1.097918
1.201630
0.999570
1.336932
1.347661
1.257658
1.430511
1.435876
1.299977
1.562834
1.574755
1.729727
1.789927
1.962781
1.907945
2.741814
7.100701
31.868815
76.745749
196.544528
340.949893
587.303638
796.274543
1015.681624
1015.681624
1015.681624
1015.681624
857.834816
634.981990
357.961655
193.668008
69.666505
27.671456
9.381771
7.115602
6.598830
6.736517
7.590652
9.525418
14.502406
21.159649
32.636523
43.196678
58.094859
67.013502
73.991418
74.662566
69.648623
62.045455
49.579740
39.055943
27.804971
20.265579
13.555884
9.835958
6.862879
6.050467
5.459785
5.288720
5.215406
##ZVALUE=345
0.808835
0.763535
0.820756
0.739694
0.829697
0.721812
0.823736
0.867844
0.741482
0.843406
0.828505
0.941753
0.750422
0.878572
0.790954
0.810623
0.916719
0.861883
0.959635
0.972748
0.956655
0.828505
1.039505
0.947714
0.991821
0.964999
0.848770
0.915527
0.955462
1.058578
1.155734
1.107454
0.878572
0.957847
0.987649
0.984669
0.929832
0.950694
1.250505
1.108646
1.088977
1.295805
1.376867
1.293421
1.303554
1.236796
1.365542
1.353621
1.513958
1.635551
1.713634
1.834631
1.938939
2.248883
3.492832
18.082857
48.388839
131.176710
241.311789
455.808043
654.583573
923.161507
1015.677452
1015.677452
1015.677452
934.527516
726.556778
449.145436
258.360505
98.795891
43.159723
14.013648
7.607937
6.607771
6.308556
6.159544
6.775856
9.060502
12.232661
20.338893
28.687716
41.783452
51.255822
61.406493
66.352487
69.329739
66.872835
57.939887
49.811602
38.720965
28.917789
19.427538
13.811588
9.300709
7.306933
5.980730
##ZVALUE=350
0.925660
0.885725
0.850558
0.958443
0.767708
0.821948
0.772476
0.736713
0.767708
0.581741
0.728965
0.832677
0.635982
0.887513
0.921488
0.673532
0.865459
0.911951
0.780821
0.971556
0.982881
0.955462
0.847578
0.832677
0.942945
0.927448
0.874996
0.880957
0.766516
0.817776
1.000762
0.988841
0.922680
0.931621
0.916719
0.884533
0.925660
1.125932
1.006722
1.213551
1.005530
1.270771
1.073480
1.057982
1.188517
1.206994
1.277924
1.440644
1.291633
1.478791
1.357794
1.539588
1.669526
1.673698
1.922846
1.956820
3.019571
7.398725
31.712651
73.656440
187.802911
327.923894
579.719543
799.606442
1015.655994
1015.655994
1015.655994
1015.655994
807.485580
558.385849
287.618637
156.302452
57.650805
22.003651
8.432865
6.766915
6.236434
5.872846
5.693436
6.314516
8.470416
11.293888
18.229485
24.907589
35.925508
44.710636
55.412650
60.920715
62.917471
60.970783
54.457784
47.201514
35.869479
27.478933
18.369555
14.138818
##ZVALUE=355
0.901818
0.706911
0.888705
0.730753
0.729561
0.787973
0.829697
0.888705
0.881553
0.921488
0.783801
0.936985
0.778437
0.831485
0.848770
0.885725
0.817776
1.023412
0.964999
0.837445
0.986457
0.983477
0.901818
1.037717
1.033545
0.914931
1.005530
0.864863
0.967979
0.992417
0.932813
0.970960
1.063943
1.014471
1.084805
1.184940
1.141429
1.063943
0.976920
1.084805
0.932813
1.120567
1.246929
1.211762
1.040697
1.249909
1.245737
1.315475
1.221895
1.340508
1.384616
1.457930
1.522899
1.489520
1.860857
1.787543
1.953840
2.128482
2.326965
4.806519
15.870929
57.642460
122.101903
270.752907
449.476838
753.328800
988.344550
1015.681624
1015.681624
1015.681624
1010.114551
705.553889
457.070470
200.655460
92.492700
26.124716
10.962486
6.833673
6.274581
5.929470
5.784631
5.582571
5.880594
7.765889
10.120869
16.082525
21.496415
30.654669
38.829446
48.856735
54.403543
57.793856
56.938529
51.783919
45.090914
35.287738
##ZVALUE=360
0.881553
0.835657
0.884533
0.893474
0.913739
0.859499
0.900626
0.907779
0.835657
0.715852
0.864863
0.847578
1.016855
0.939965
0.989437
0.959635
1.039505
0.879765
1.071692
0.954866
0.908971
0.967979
0.926852
0.847578
0.939965
0.994802
1.228452
1.081824
0.984669
1.210570
1.006722
1.026988
1.085997
0.944734
1.013875
1.014471
1.070499
1.199841
1.054406
1.059771
1.141429
1.029968
1.182556
1.328588
1.248717
1.292825
1.200438
1.156926
1.297593
1.292825
1.441836
1.365542
1.417994
1.533628
1.534820
1.742840
1.670718
1.745820
1.910925
2.056956
2.327561
3.062487
7.076859
29.428601
70.860982
182.497501
321.633816
582.043529
841.131806
1015.698910
1015.698910
1015.698910
1015.698910
901.755691
615.402460
301.627517
151.878595
49.740672
17.774701
7.275939
6.277561
5.917549
5.619526
5.355477
5.595684
5.761981
6.439686
9.150505
12.231469
18.219948
24.888515
35.229921
41.778684
50.395727
51.976442
51.966906
##ZVALUE=365
0.897646
0.721812
0.688434
0.823736
0.759959
0.763535
0.769496
0.827909
0.705719
0.847578
0.870824
0.914931
0.856519
0.961423
0.881553
0.885725
0.827909
0.836849
0.844598
1.047850
1.045465
0.858903
0.915527
0.961423
0.883937
0.965595
0.895858
0.879765
1.005530
0.875592
0.843406
0.947714
0.965595
1.021624
1.243949
0.978708
1.122952
1.129508
1.093745
0.950694
1.051426
1.002550
1.144409
1.184940
1.227856
1.195669
1.217723
1.093745
1.134872
0.989437
1.210570
1.257658
1.308918
1.488924
1.498461
1.422763
1.384616
1.442432
1.631975
1.605749
1.731515
1.907945
2.175570
2.406836
3.713965
15.894771
44.000745
123.588443
229.883790
438.970923
647.745728
938.246846
1015.681624
1015.681624
1015.681624
972.872972
732.208490
423.521996
234.877467
83.346963
30.683875
8.754730
6.249547
5.834699
5.451441
5.275607
5.054474
4.774928
4.910827
5.586743
7.056594
11.032820
14.823675
21.824837
28.529763
37.244558
##ZVALUE=370
0.721812
0.852942
0.737906
0.840425
0.760555
0.793934
0.749826
0.829697
0.874996
0.710487
0.770688
0.813603
0.740886
0.810623
0.890493
0.854731
0.831485
1.039505
1.083612
0.931621
0.823736
0.845790
0.863671
0.895858
0.944734
0.806451
0.832677
0.920892
0.737906
1.013875
1.020432
1.049638
0.969768
0.938773
0.899434
0.822544
0.828505
0.968575
0.924468
0.903606
0.956655
0.871420
0.925660
1.109838
1.028776
0.976920
1.167655
1.151562
1.260638
1.212955
1.102686
1.098514
1.241565
1.180768
1.204610
1.296997
1.375675
1.305938
1.271963
1.337528
1.352429
1.635551
1.681447
1.687407
1.792908
1.910925
2.424717
8.836985
27.362704
88.524818
168.456435
334.382653
514.701009
787.491798
974.288583
1015.682817
1015.682817
965.850949
764.209032
461.402535
271.059871
109.426975
48.973560
15.207529
6.587505
5.386472
4.954934
4.621744
4.358888
4.292727
4.105568
4.265904
4.862547
6.566644
8.764863
13.591647
##ZVALUE=375
0.841618
0.828505
0.549555
0.805855
0.890493
0.938773
0.770688
0.828505
0.766516
0.798702
0.793934
0.862479
0.702739
0.757575
0.959635
0.746846
0.712872
0.742674
0.871420
0.826716
0.847578
0.899434
0.866652
0.916719
0.926852
0.838637
0.908971
0.861883
0.829697
0.849962
0.787973
0.859499
0.995994
0.947714
0.866652
0.803471
0.824928
0.880957
1.043677
0.934601
0.944734
0.888705
1.081824
0.994802
1.026988
1.113415
0.963807
1.134872
1.022816
1.030564
1.080632
1.153946
1.109838
0.984669
1.206994
1.192689
1.228452
1.293421
1.218915
1.261830
1.094937
1.295805
1.357794
1.471639
1.586676
1.490712
1.764894
1.764894
2.137423
4.888773
14.079809
50.804615
112.521648
259.499550
416.752696
670.244694
849.281549
1012.922525
1015.681624
974.463820
806.550980
531.929731
343.601704
161.539912
79.121590
25.293827
10.077953
5.157590
4.644990
4.270673
4.128814
4.016757
3.871918
3.863573
3.868937
4.470944
##ZVALUE=380
0.778437
0.765920
0.809431
0.861883
0.691414
0.820756
0.838637
0.585914
0.763535
0.725985
0.776649
0.730753
0.751615
0.758767
0.642538
0.813603
0.744462
0.829697
0.798702
0.810623
0.764728
0.792742
0.686646
0.830889
0.798702
0.922680
0.965595
0.850558
0.833869
1.023412
0.815988
0.895858
0.837445
0.874996
0.850558
0.897646
0.822544
0.916719
0.968575
0.861883
0.960827
0.925660
0.971556
0.938773
0.913739
0.976920
1.059771
0.956655
0.993609
0.915527
1.046658
1.069903
0.996590
0.987649
0.996590
1.067519
1.042485
1.019835
1.187921
1.045465
1.136661
1.159906
1.303554
1.379848
1.314878
1.193881
1.420975
1.675487
1.681447
2.052784
2.126694
2.914667
8.192658
37.052631
86.890459
210.711956
353.013873
588.287711
782.707930
997.127891
1015.685797
999.993682
865.144730
633.184910
442.197919
223.803520
114.352703
37.755966
14.823675
5.751848
4.717708
4.344583
4.004836
3.975630
3.846884
3.712773
##ZVALUE=385
0.754595
0.661612
0.722408
0.759959
0.829697
0.691414
0.598431
0.704527
0.789762
0.752807
0.736713
0.518560
0.768900
0.627637
0.767708
0.813603
0.628829
0.865459
0.754595
0.673532
0.907779
0.707507
0.729561
0.773668
0.666976
0.828505
0.760555
0.797510
0.762939
0.825524
0.898838
0.756979
0.872612
0.731945
0.851750
0.933409
0.877976
0.888705
0.903606
0.939965
0.826716
0.825524
1.016855
1.012683
1.012683
0.998974
1.034737
0.847578
0.886917
0.872612
0.895858
1.106858
1.050830
1.004934
0.802875
0.855923
0.900626
0.985861
1.093745
1.133680
0.966787
1.046658
1.144409
1.106858
1.214743
1.146793
1.254678
1.356602
1.495481
1.559854
1.709461
1.682639
1.936555
2.414584
4.272461
20.667911
54.112673
139.636993
256.524682
481.608510
677.602887
917.448997
1015.681624
1015.681624
992.860794
777.209997
575.228930
328.500867
186.903477
72.529912
28.163791
7.263422
4.456639
4.189610
4.030466
3.939867
##ZVALUE=390
0.736713
0.780821
0.686646
0.683665
0.659823
0.721812
0.910759
0.713468
0.600815
0.737906
0.771880
0.801682
0.742674
0.531673
0.777841
0.829697
0.690818
0.749826
0.719428
0.614524
0.739694
0.814795
0.813603
0.879765
0.885725
0.949502
0.852942
0.879765
0.814795
0.773668
0.830889
0.807643
0.829697
0.841618
0.793934
0.910759
1.000762
0.758767
0.782609
0.794530
0.884533
0.958443
0.937581
0.952482
0.784993
1.074672
0.832677
0.939965
0.911951
1.041889
0.921488
1.119971
1.007915
0.988841
1.040697
0.925660
0.849962
1.096725
1.110435
0.862479
1.075864
1.090765
1.060963
1.137853
1.160502
1.112819
1.155734
1.309514
1.459718
1.600981
1.641512
1.704693
1.721978
1.674891
1.910925
1.985431
2.623796
10.806918
33.367872
102.837682
198.680758
395.847559
574.278831
809.147954
955.839753
1015.681624
1013.748646
861.677527
686.469674
432.873964
256.342888
103.217959
46.362877
13.507605
5.857944
4.294515
##ZVALUE=395
0.761747
0.663996
0.506639
0.603795
0.715852
0.734925
0.809431
0.882745
0.753999
0.810623
0.638962
0.854731
0.841618
0.731945
0.626445
0.664592
0.891685
0.769496
0.696778
0.820756
0.793934
0.692606
0.778437
0.711679
0.679493
0.696778
0.652671
0.711679
0.885725
0.835657
0.802875
0.872612
0.955462
0.758767
1.113415
0.788569
0.839829
0.826716
0.807643
1.032948
0.968575
0.836849
0.816584
0.940561
0.853539
0.890493
0.896454
0.727773
0.735521
0.918508
0.862479
0.957847
0.847578
0.913739
0.973940
0.945926
0.866652
0.998974
1.031756
0.842810
1.186728
1.065731
0.879765
1.193881
1.038909
1.304746
1.156926
1.186728
1.344681
1.342893
1.529455
1.509786
1.555681
1.630783
1.674891
1.444817
1.689792
1.766682
2.229810
7.253885
23.900867
79.925656
153.628588
300.313830
460.528731
706.393719
883.360505
1015.682817
1015.682817
981.760025
811.563730
539.817810
345.918536
151.299834
69.454908
21.197796
##ZVALUE=400
0.889897
0.883937
0.736713
0.725985
0.734925
0.855923
0.793934
0.787973
0.748634
0.712872
0.715852
0.765920
0.680685
0.691414
0.619888
0.751615
0.744462
0.698566
0.851750
0.737906
0.702739
0.694990
0.688434
0.582933
0.778437
0.715852
0.752807
0.726581
0.826716
0.778437
0.720620
0.857711
0.760555
0.873804
0.589490
0.832677
0.890493
0.763535
0.854731
0.799894
0.890493
0.833869
1.028776
0.988841
0.794530
0.961423
0.944734
0.949502
0.937581
0.968575
0.860691
0.927448
0.897646
0.960827
0.907779
1.002550
0.847578
0.953674
1.051426
0.946522
1.100898
0.978708
1.192689
1.028776
1.060963
1.069903
1.143813
1.154542
1.360774
1.455545
1.580715
1.428723
1.546741
1.502633
1.507998
1.499653
1.445413
1.565814
1.783967
1.735687
1.998544
3.824830
12.654662
48.758984
104.843974
231.101513
374.403596
604.049563
774.704814
964.723825
1015.681624
980.293751
851.694942
619.423985
419.989824
215.808749
##END
