##TITLE=FDDW2
##FORMAT=SPECTACLE-ASCII V-1.2
##DATA TYPE=ULTRAVIOLET SPECTRUM
##SECOND TYPE=ULTRAVIOLET SPECTRUM
##DATE=10/03/17
##TIME=11:32:56
##SPECTROMETER/DATA SYSTEM=SPECTACLE
##XUNITS=NM EM
##YUNITS=ENERGY
##YFACTOR=1
##FIRSTX=220
##LASTX=410
##NPOINTS=96
##3DDATA=Equidistant
##ZUNITS=NM EX
##FIRSTZ=210
##LASTZ=400
##ZPOINTS=39
##XYDATA=(Y..Y)
##ZVALUE=210
20.725727
21.993518
17.488599
13.330579
11.680722
10.422468
9.532571
9.505749
7.649660
6.769896
5.939603
4.715919
4.118681
4.577637
4.591942
4.601479
4.521608
5.632639
4.797578
5.473495
5.244613
6.681681
6.137490
6.869435
7.361770
8.100867
7.929802
9.056926
9.911656
10.480881
11.956692
11.482835
11.569858
12.666583
12.436509
11.088848
12.603998
13.253689
11.971593
12.897849
12.538433
12.369752
12.163520
13.082623
13.861656
13.449788
12.536645
12.983680
13.785958
13.876557
13.353825
14.369488
12.604594
14.036894
13.754964
13.803840
14.824867
14.016628
12.828708
14.458895
12.963414
13.115406
13.553500
13.322830
13.136864
14.132857
14.437437
14.465451
17.136931
21.160841
23.278594
26.154518
30.463934
32.343864
35.544634
36.087632
38.592815
39.953589
39.374828
38.361549
34.601688
31.046867
27.469993
24.268627
20.902753
16.157627
14.682412
14.552474
14.058948
16.266704
19.466877
25.517941
29.716492
39.660931
46.142936
57.328939
##ZVALUE=215
65.091848
62.768459
48.145652
34.117699
26.979446
22.481680
17.791986
16.281605
16.796589
15.739799
12.413859
10.412931
8.944869
7.025599
5.499721
5.441904
4.508495
5.076528
5.080700
5.301833
5.313754
6.031990
6.910563
6.538630
6.625652
7.814765
9.269714
9.962916
10.597706
12.647510
11.607409
11.967421
12.455583
12.123585
12.638569
13.557673
14.049411
13.218522
13.158917
13.283491
14.090538
13.158917
14.281869
13.076663
15.004873
12.749434
12.754798
14.486909
13.374686
13.899803
13.892651
12.944937
12.555718
12.220740
13.890862
13.512969
12.213588
14.130473
14.943480
12.818575
13.864636
14.065504
13.159513
14.583468
14.144778
15.259981
12.924671
15.021563
16.648769
19.070506
19.737482
24.023652
24.427772
26.666522
29.293895
28.331876
33.130646
33.264756
32.206774
30.458570
27.110577
26.661754
22.443533
20.496845
17.247796
15.430450
14.543533
11.221766
11.440516
11.322498
11.105537
10.965466
10.870695
13.563633
16.089678
22.009611
##ZVALUE=220
133.885741
130.798817
128.066540
113.035440
84.672570
67.131519
45.160651
35.100579
29.101968
26.360750
25.896430
24.469495
22.307634
19.126534
15.333891
11.897683
9.010434
7.736683
5.418658
5.622506
5.417466
5.618930
5.679727
6.602407
6.913543
7.378459
8.069873
8.287430
9.839535
10.704994
12.417436
12.411475
12.984872
12.813807
13.849735
14.010668
13.694763
14.263988
14.167428
13.802648
14.668703
13.224483
13.531446
13.810992
13.909936
13.117790
12.942553
13.851523
14.845729
13.799667
13.682842
14.397502
14.080405
14.877915
14.209747
14.838576
14.511943
14.328957
14.626980
14.861822
14.271736
13.686419
13.047457
13.031960
13.077855
13.035536
14.809966
14.456511
15.936494
17.159581
17.813444
20.362735
22.200942
22.871494
24.767518
26.482940
24.541616
25.798678
25.868416
23.654699
22.947788
21.248460
19.330978
17.709732
15.129447
14.089942
14.038682
11.742711
10.698438
10.522604
11.384487
11.625886
9.489655
11.025667
10.305643
9.895563
##ZVALUE=225
148.998499
154.834986
184.710622
195.996761
197.810531
183.608532
153.227448
108.432770
82.075000
62.201619
44.193864
40.835738
38.975477
40.495992
39.407611
35.419464
27.841926
21.509528
16.429424
12.387633
9.069443
6.342530
6.631613
6.737709
6.835461
7.480979
8.475780
9.393692
9.276867
9.994507
9.664893
11.419654
11.326671
12.531877
12.421608
12.370944
12.498498
15.192628
12.955666
15.137792
13.834834
15.314817
14.584661
14.469624
14.126897
13.771653
14.185905
16.306639
15.108585
17.038584
15.347600
15.072823
16.962886
15.547872
15.313625
16.623735
16.073585
16.163588
16.416907
17.333627
15.728474
18.292665
15.874505
16.158819
15.430450
15.592575
17.027855
16.274452
18.706918
17.348528
20.784736
21.440983
22.177696
25.190711
25.262833
24.685860
25.059581
27.110577
25.053620
22.466779
21.394491
20.497441
20.062923
18.051863
16.209483
15.132427
13.944507
13.233423
12.923479
12.772679
12.936592
11.382699
11.299849
11.883974
12.151599
11.811852
##ZVALUE=230
98.348856
102.604628
157.106519
233.561993
287.600756
334.367752
339.497924
330.525637
281.951427
222.811699
145.018697
103.143454
74.255466
63.170791
61.712861
64.203739
65.998435
57.426691
51.300526
44.177771
29.704571
20.436645
13.990998
10.582805
9.178519
8.065701
8.164644
8.731484
8.630753
10.103583
9.668469
9.688735
10.865927
10.385513
11.433959
12.016892
12.066960
13.232827
14.087558
14.632940
14.270544
14.108419
14.980435
16.327500
17.131567
18.413663
16.533732
17.545819
18.788576
19.756556
19.866824
18.181801
18.526912
21.133423
19.044876
19.312501
19.806623
19.316673
20.571947
19.452572
21.040440
20.830631
19.016862
20.761490
20.407438
20.705462
21.480918
21.645427
22.169948
23.971796
25.575757
25.269985
26.420951
26.785731
29.817820
28.769970
28.335452
28.974414
26.474595
24.660826
24.816990
24.807453
21.044612
19.952655
21.761656
17.772913
17.295480
16.152859
17.398000
15.430450
15.954971
15.200973
14.012456
15.902519
15.730858
14.419556
##ZVALUE=235
25.169849
29.352903
62.471628
140.479803
221.450925
347.478986
431.228876
528.517962
570.410490
543.632507
486.917496
361.823440
261.309743
164.855719
121.507645
95.170736
83.292723
87.851882
92.784762
92.436671
82.131624
69.400668
53.375959
41.850805
23.592710
17.797947
13.356805
10.827780
10.517836
9.562969
9.798408
9.992719
9.526610
10.623932
11.664629
11.406541
11.457801
12.765527
15.193820
14.247894
16.225576
18.418431
18.003583
19.463897
20.036697
20.722747
22.896528
21.644831
22.908449
24.347901
24.373531
23.016930
25.779605
26.221871
25.919676
26.196837
25.668740
24.387836
27.240515
27.659535
27.858615
27.166605
25.784969
26.991963
26.948452
27.048588
26.777983
27.191639
29.255748
28.802752
28.730631
31.783581
31.331778
33.578873
34.102798
35.363436
35.765767
35.591722
33.666492
30.759573
30.142665
27.991533
27.858615
26.007891
24.566650
23.846626
20.417571
21.226406
22.409558
19.637942
19.522905
18.931627
18.043518
19.425750
18.191934
18.420815
##ZVALUE=240
3.302693
3.513694
7.210970
27.681589
62.885880
146.528482
243.549943
410.428643
548.653007
662.178993
761.353970
758.724809
664.154887
554.917455
390.486717
272.500515
170.707703
123.442411
103.081465
105.123520
112.158656
116.044879
114.762783
99.940896
82.605481
62.941909
47.101974
30.798912
21.682978
15.506744
12.203455
10.434985
11.099577
11.055470
11.031628
12.323856
13.375878
13.800859
14.451742
15.117526
17.811656
19.483566
20.638704
22.182465
23.828745
23.554564
25.075674
26.864409
28.631687
29.980540
27.886629
28.891563
31.555891
31.113625
30.097961
29.468536
30.317903
30.653477
30.844808
29.303432
29.854774
30.193925
30.228496
29.688478
30.154586
29.011965
28.093457
29.937625
32.025576
31.761527
32.160878
32.757521
35.510659
37.164688
36.163926
36.177635
34.581423
35.432577
33.409595
31.438470
32.149553
29.708743
28.349757
26.854873
26.343465
25.240779
24.392605
23.771524
22.503734
20.634532
21.007657
21.941662
21.385550
20.849705
20.169616
20.137429
##ZVALUE=245
2.798438
3.107786
2.712607
3.177524
5.746484
15.147924
47.461987
99.417567
227.990746
354.424715
552.651882
697.596669
800.452828
843.891501
805.075765
670.671463
538.913608
358.276963
246.350765
145.197511
111.655593
101.862550
112.365484
120.659471
129.466653
123.535991
110.205412
92.992783
69.547892
52.662492
38.431883
23.475885
16.594529
14.004707
11.266470
13.241768
12.295842
14.605522
14.317632
17.314553
17.474890
19.086599
20.201802
23.183823
24.134517
26.341677
27.835965
27.861595
30.482411
29.036999
31.568408
32.779574
32.407641
32.347441
32.745600
33.717752
31.736493
31.473637
31.434894
30.149817
31.051636
30.420423
30.677915
28.988719
29.428601
28.571486
28.892756
28.549433
29.474497
28.513670
30.478835
31.905770
31.632781
30.641556
30.203462
32.091737
29.711723
29.612780
27.825832
28.579831
25.986433
25.192499
24.802685
24.547577
23.579597
21.971464
21.660924
21.325946
20.901561
19.896626
19.104481
19.648671
18.823743
18.684864
18.408895
18.252730
##ZVALUE=250
2.312660
2.284646
2.653599
2.228618
2.637506
2.436638
3.121495
10.136962
26.553869
62.086582
159.282684
281.240940
474.260449
616.221428
767.225623
853.247643
848.623514
779.603720
696.541667
469.246507
320.436954
182.802677
125.356913
98.297596
103.356838
121.183991
131.796598
137.520432
133.497715
115.947723
102.047920
76.229572
56.999922
36.488771
27.167797
18.484592
14.081597
13.894439
15.221834
15.429854
16.669631
18.476844
19.018650
20.773411
22.631884
24.964809
26.061535
27.918816
28.477907
29.586554
29.658675
31.852722
31.972528
31.507611
31.237602
31.236410
31.295419
29.996634
29.686689
29.007792
28.231740
28.558969
28.638840
26.498437
26.689768
25.722980
25.630593
25.167465
25.348663
25.635958
25.605559
24.571419
24.399757
24.752617
25.174618
26.145577
23.997426
23.924708
23.381710
22.590756
21.413565
20.803809
19.800663
19.003749
19.717813
17.311573
17.920732
16.971827
17.012954
16.447902
15.340447
16.243458
15.751719
15.555620
15.030503
15.106797
##ZVALUE=255
2.169609
2.042651
2.064705
2.361536
2.200603
2.090931
2.333522
2.530813
2.925992
4.881620
21.834970
54.602623
109.708905
238.659978
374.411941
578.836799
729.949474
888.353586
933.277607
886.891484
774.904490
625.500679
400.202870
254.496932
137.766600
98.689795
91.195703
100.860596
123.483539
135.469437
140.863657
138.602853
124.916434
101.684928
81.096888
55.810809
40.485859
26.810765
20.646453
16.518831
15.543699
17.109513
17.660856
18.545985
21.600723
22.354722
23.851991
24.470687
24.583936
25.247931
26.472807
27.176738
28.649569
27.126670
27.592778
26.436448
26.932955
26.187897
27.127862
24.852753
25.357604
24.518967
23.076534
23.576617
22.310615
22.073984
22.252798
22.070408
21.431446
20.349622
21.224618
21.893978
21.827817
20.738840
19.512773
19.598603
20.336509
19.659996
18.173456
17.250776
17.069578
16.539693
16.176701
16.582608
15.993714
15.247464
14.328957
15.233755
14.752746
14.144778
13.586879
14.169812
13.293624
13.153553
11.955500
13.052821
##ZVALUE=260
1.687407
1.728535
2.069473
2.017617
2.141595
2.052784
2.178550
2.057552
2.416968
2.370477
2.423525
3.054738
11.260509
29.981732
81.554651
157.929659
322.008729
468.274951
689.852834
851.914883
998.463631
1015.681624
901.387930
747.127533
570.786595
340.098739
220.466852
121.161938
87.038875
84.999800
100.412965
127.210617
142.730474
149.660707
145.549774
127.458572
108.214617
82.023740
61.603785
42.509437
30.080676
21.886826
19.198656
17.522573
17.717481
19.961596
20.116568
21.337867
21.567941
22.312999
23.269653
22.600889
22.815466
22.393465
22.513866
22.744536
23.118854
21.803975
21.332502
20.850897
20.526648
19.422770
19.359589
18.823743
18.957853
19.044876
18.529892
18.098950
17.764568
17.260909
17.643571
17.209649
18.068552
18.057823
18.019676
17.566681
16.954541
15.846491
15.908480
16.050935
15.758872
15.187860
13.812780
13.915896
13.106465
13.183951
12.861490
13.165474
12.596846
12.258887
12.281537
11.759996
11.909604
12.239814
11.394620
11.043549
##ZVALUE=265
1.654625
1.579523
1.679659
1.753569
1.798868
1.678467
1.954436
1.947880
1.869798
1.764894
2.141595
2.172589
2.277493
2.423525
4.705787
22.116899
53.943396
134.716630
237.850547
452.761650
647.539496
843.008757
1015.681624
1015.681624
1014.747024
903.019905
675.584674
483.266711
272.367597
166.617632
107.321739
74.476004
79.910755
110.121965
130.589604
151.051879
156.463981
148.210526
135.247707
109.243989
85.213780
61.978698
46.478510
29.677749
23.052692
19.335747
18.547773
17.984509
18.052459
18.258691
19.272566
19.945502
19.944906
18.887520
18.827915
18.479824
18.621683
17.787814
18.043518
17.149448
17.260909
17.100573
16.511679
16.303658
16.636848
15.648603
16.293526
15.205741
15.338659
15.036464
15.932918
15.677810
16.035438
15.229583
15.685558
15.036464
15.394688
14.774799
14.000535
13.786554
13.024807
12.975931
13.356805
12.213588
12.421608
11.606812
11.012554
11.290908
11.533499
10.983944
11.282563
10.842681
10.698438
10.059476
9.939671
10.861754
##ZVALUE=270
1.621842
1.579523
1.604557
1.645684
1.628995
1.598597
1.593828
1.689792
1.576543
1.649857
1.749992
1.965761
2.078414
2.193451
1.903772
2.487898
2.781749
9.710789
29.323697
93.600750
187.781453
336.830020
605.467558
820.536017
1015.681624
1015.681624
1015.681624
1015.681624
853.449702
647.384524
453.068614
235.289931
137.987733
73.076487
65.748692
85.452795
109.192729
135.157704
149.734616
158.164501
152.055621
134.175420
115.113854
85.693002
66.387653
43.168664
32.187700
24.348497
19.539595
18.021464
17.756820
17.135739
18.058419
17.357469
17.176867
16.847849
16.479492
17.213821
16.974807
16.159415
15.522838
15.749931
14.801621
15.621781
14.966726
14.495850
14.696717
14.031529
14.087558
14.490485
14.015436
14.607906
14.189482
14.629960
14.806986
13.980865
14.127493
13.277531
12.958646
12.821555
12.570620
12.116432
12.393594
11.536479
10.963678
10.923743
10.600686
10.717511
10.998845
10.802746
10.194778
10.535717
10.433793
10.083914
10.205507
9.934902
##ZVALUE=275
1.483560
1.461506
1.510978
1.372695
1.421571
1.547933
1.383424
1.654625
1.498461
1.694560
1.683831
1.622438
1.810789
1.847744
1.857877
1.791716
1.925826
2.166629
2.458692
4.971623
18.115640
51.733851
151.578784
281.975865
535.521507
734.672546
986.271501
1015.685797
1015.685797
1015.685797
1015.685797
803.483725
580.648780
314.674973
183.115005
85.293651
57.990551
63.445568
81.614852
111.839771
130.609870
149.408579
157.982707
150.898695
136.530995
110.722780
90.100765
64.864755
48.974752
32.787919
25.220513
19.486547
17.836690
17.415881
16.069412
15.949607
15.582442
15.531778
14.835596
15.355945
15.432835
14.655590
15.456676
14.345646
14.220476
14.038682
14.216900
14.251471
13.479590
14.135838
14.044642
14.411807
14.397502
14.176965
14.276505
13.997555
14.399886
12.983680
13.089776
13.596416
13.282895
12.121797
11.755824
11.522770
11.331439
11.081696
10.771751
10.667443
10.508895
10.646582
10.329485
9.626746
9.915829
9.838939
10.007620
9.776950
##ZVALUE=280
1.547933
1.331568
1.318455
1.239777
1.585484
1.549721
1.368523
1.291633
1.416802
1.390576
1.472831
1.497865
1.544952
1.610518
1.617670
1.710653
1.748800
2.176762
2.044439
1.975894
2.241731
2.821684
11.135936
34.944415
114.480853
213.681459
414.366722
615.464449
902.832747
1015.681624
1015.681624
1015.681624
1015.681624
900.128484
681.587458
393.049717
239.189863
111.400485
63.651800
48.127770
57.567954
83.899498
104.813576
131.772757
148.345828
151.494741
148.638487
129.961967
113.538504
85.594654
67.052841
43.839812
32.120943
23.109913
18.791556
15.459657
15.526414
14.502406
14.581680
14.174581
14.085770
14.277697
14.140606
14.202595
13.897419
13.536811
13.217926
13.346672
13.148785
13.537407
13.231635
13.714433
13.592839
14.168620
14.261603
14.335513
13.234615
13.294816
12.735724
11.838675
12.182593
11.647940
11.713505
11.900663
10.870695
11.008978
10.540485
10.752678
10.394454
10.312796
10.211468
9.935498
9.792447
9.930730
9.554625
9.639859
##ZVALUE=285
1.347661
1.307726
1.295805
1.337528
1.431704
1.244545
1.317859
1.346469
1.174808
1.490712
1.427531
1.478791
1.498461
1.565814
1.527667
1.624823
1.581907
1.808405
1.810789
1.938939
1.972914
2.120733
2.226830
2.403855
5.636811
17.758608
61.506629
130.620003
285.843611
467.662811
678.711534
968.051553
1015.681624
1015.681624
1015.681624
1015.681624
842.175484
538.428426
346.423984
168.769956
88.630915
42.530894
38.278699
55.661798
76.060891
105.223656
123.618841
142.440796
147.130489
144.401789
132.137537
111.265779
91.385841
62.266588
45.996904
29.483438
21.895766
15.934706
13.917685
12.787580
12.721419
12.932420
12.697577
12.037754
12.198687
12.120605
12.108684
12.173653
12.255907
12.547970
12.583733
12.709498
12.627840
12.961626
13.017654
12.582541
12.497902
12.592673
12.621880
11.970997
11.726618
11.417866
11.703968
11.175871
11.326671
10.816455
10.465980
10.626912
10.288954
10.580420
9.970665
9.769797
9.890795
10.229945
9.574890
9.279847
##ZVALUE=290
1.556873
1.446605
1.494884
1.516938
1.517534
1.413822
1.381636
1.435876
1.477599
1.442432
1.502633
1.479983
1.465678
1.590848
1.638532
1.601577
1.664758
1.709461
1.742840
1.803637
2.020597
1.866817
2.246499
2.263784
2.183914
2.409816
3.104806
7.409453
33.664703
79.998970
155.946612
345.541835
551.416874
875.622630
1015.839577
1015.839577
1015.839577
1015.839577
975.509882
683.521628
462.731719
235.926509
126.263499
52.763820
31.717420
37.264824
50.108433
72.465539
93.289614
117.859840
132.968426
142.661929
140.581727
124.252439
108.076930
80.749989
61.596632
41.866899
29.757619
19.786954
14.832616
11.691451
10.979772
11.071563
11.064410
10.944605
10.685921
10.651946
10.856986
10.850430
11.542439
11.371970
11.554956
11.387467
11.635423
11.365414
11.219978
11.201501
10.931492
10.609627
10.849833
10.447502
10.749698
10.477901
10.431409
10.546446
10.366440
10.148883
10.234714
9.791851
9.876490
9.764433
9.918809
9.500980
9.454489
9.170771
##ZVALUE=295
1.159906
1.080632
1.314878
1.197457
1.089573
1.179576
1.007915
1.124740
1.309514
1.244545
1.173615
1.272559
1.329780
1.380444
1.309514
1.355410
1.243949
1.402497
1.538992
1.368523
1.422763
1.570582
1.700521
1.756549
1.773834
1.967549
2.107620
2.147555
2.434850
3.983974
16.812682
47.337413
110.626817
270.674825
458.861589
765.126944
984.306931
1015.681624
1015.681624
1015.681624
1015.681624
804.378986
568.307638
306.257606
176.071525
69.411993
34.435987
24.027824
29.844642
47.328472
64.789653
89.693666
107.509494
125.763416
132.555962
130.457878
118.477941
97.682476
78.920722
56.019425
40.891767
25.742650
17.790794
13.034940
10.478497
9.064674
8.590817
8.693933
8.980632
9.040833
9.044409
9.627938
9.688735
9.827614
10.181665
9.929538
9.861588
9.342432
9.647608
9.382963
9.389520
9.114742
9.472966
9.548664
9.796619
9.573698
9.571910
9.240508
9.304881
9.584427
8.934736
9.350777
8.908510
9.063482
9.370446
8.404851
##ZVALUE=300
1.074672
1.002550
1.168847
0.982881
1.275539
1.027584
1.042485
1.150966
1.216531
1.284480
1.277924
1.363754
1.279712
1.214743
1.168847
1.135468
1.276731
1.464486
1.191497
1.438856
1.361966
1.403689
1.543760
1.477599
1.543760
1.719594
1.686811
1.818538
1.800656
2.142787
2.111793
2.533793
7.461905
25.103688
86.844563
172.481537
373.881459
583.401918
898.395777
1015.682817
1015.682817
1015.682817
1015.682817
976.959467
673.315525
450.259447
233.000517
127.713680
49.709678
23.839474
19.827485
26.268959
41.528940
57.742000
82.109571
99.568963
118.495822
125.432611
124.413967
115.214586
96.360445
77.110529
55.575967
39.774776
24.131536
17.147660
11.243820
9.098649
7.973909
7.641912
7.738471
7.989407
8.208752
8.323789
8.546710
8.707643
8.939505
8.683801
8.576512
8.841753
8.740425
9.021759
9.117723
8.903742
8.873940
8.717775
8.901954
9.410977
8.927584
8.529425
8.923411
8.377433
8.801818
8.745790
8.545518
8.474588
##ZVALUE=305
0.951886
1.051426
1.129508
1.098514
1.010895
1.223683
1.216531
0.956655
0.953674
1.159906
1.263618
1.075864
1.033545
1.077652
1.070499
1.139641
1.352429
1.159906
1.328588
1.220703
1.324415
1.268983
1.426935
1.456738
1.492500
1.370907
1.655817
1.523495
1.729727
1.728535
1.899600
2.003908
2.152920
2.283454
3.676414
17.003417
48.581958
143.654943
263.238549
509.649515
737.887025
1007.192731
1015.681624
1015.681624
1015.681624
1010.957956
824.300647
522.189736
336.341858
159.850717
81.068873
28.367639
15.307665
17.088652
24.100542
40.038824
56.103468
77.807903
94.567537
111.824870
118.987560
116.913915
108.499527
90.493560
74.242949
52.148700
37.457943
22.867918
15.966892
10.981560
9.022951
8.132458
7.895827
7.641912
7.881522
7.880926
8.098483
8.192658
7.888675
8.239746
8.714795
8.576512
8.618832
8.535981
8.610487
9.062886
9.013414
8.869767
8.862615
8.535981
8.604527
9.088516
8.508563
8.562803
8.259416
8.834600
##ZVALUE=310
1.129508
1.067519
1.166463
1.145601
1.146793
1.191497
1.205802
1.126528
0.947714
1.045465
1.238585
1.057982
1.052618
1.240969
1.221895
1.117587
1.215935
1.187921
1.387596
1.349449
1.230836
1.404881
1.239777
1.475811
1.463890
1.510978
1.544952
1.528859
1.730919
1.634955
1.649857
1.901984
1.992583
1.854897
2.025962
2.335906
2.805591
7.971525
25.033951
83.861947
169.127584
366.392732
575.765967
888.336897
1015.791893
1015.791893
1015.791893
1015.791893
983.252525
685.045719
468.834639
243.261456
132.459998
48.929453
20.502806
12.021661
14.610887
22.400618
32.255650
49.801469
66.456795
88.665485
100.731850
111.027956
110.738873
102.819800
89.436769
71.685910
53.437948
35.630465
24.901628
16.973615
11.920929
9.155869
8.586645
8.111596
7.968545
7.910728
7.923841
8.008480
8.256435
8.399487
8.413792
8.537769
8.414984
8.588433
8.708835
8.860826
8.869767
8.191466
8.428693
8.492470
8.548498
8.530617
8.651614
8.718967
##ZVALUE=315
0.887513
0.877976
0.899434
0.859499
0.933409
0.913739
0.949502
0.956655
0.999570
1.091957
0.979900
1.173615
0.987649
1.031756
1.120567
1.166463
1.039505
1.027584
1.137853
1.095533
1.061559
1.241565
1.083612
1.303554
1.272559
1.259446
1.344681
1.464486
1.347661
1.522899
1.578927
1.527667
1.618862
1.661777
1.576543
1.871586
1.976490
1.989603
2.278686
3.954768
12.644529
50.743818
113.608837
270.293951
460.176468
780.733824
995.220542
1015.681624
1015.681624
1015.681624
1015.681624
807.159543
586.664677
325.243473
182.224512
69.736838
29.244423
11.197925
10.250807
13.565421
19.514561
32.195449
44.107437
63.617826
78.708529
96.530914
103.634000
104.787946
98.606944
83.918571
68.747997
51.489472
38.235784
23.786426
16.676784
11.493564
9.110570
8.551478
7.839799
7.793903
7.862449
8.070469
8.010864
7.834435
8.286834
8.240938
8.441806
8.167624
8.283854
8.446574
8.107424
8.302927
8.439422
8.139610
8.361936
8.410811
##ZVALUE=320
0.731945
1.001954
0.844598
0.750422
0.914931
0.933409
0.907779
0.979900
0.943542
1.018643
1.089573
0.962615
0.998974
1.097918
1.003742
1.059771
0.974536
0.978708
1.000762
1.061559
1.063943
1.002550
1.080632
0.967979
0.983477
1.095533
1.194477
1.251698
1.211762
1.343489
1.157522
1.392961
1.471639
1.571774
1.462698
1.465678
1.463890
1.745820
1.747608
1.930594
1.867414
2.612472
6.173849
28.964877
74.595809
198.221803
337.082744
591.336489
811.104774
1015.679836
1015.679836
1015.679836
1015.679836
927.873850
703.992844
408.137441
243.009925
105.168819
48.424006
15.728474
9.204745
9.429455
11.767745
18.508434
26.090741
42.289495
55.802464
75.189471
88.474751
97.732544
99.542737
94.156861
82.901716
64.466000
50.019622
34.056902
23.972988
16.393661
12.297630
9.041429
8.193851
7.942915
7.824898
7.980466
8.069873
8.155704
7.827878
8.017421
7.922649
8.099675
7.900596
8.002520
8.165836
8.008480
8.025765
7.988811
##ZVALUE=325
0.868440
0.883937
0.856519
0.730753
0.905991
0.748634
1.009703
1.030564
0.966787
0.801682
1.046658
0.948906
0.867844
0.910759
0.760555
0.833869
1.018643
0.998974
0.896454
0.791550
0.971556
1.005530
0.964999
1.078844
1.131892
0.931621
0.954866
1.084805
1.179576
1.252890
1.105666
1.185536
1.134872
1.363754
1.346469
1.533628
1.475811
1.532435
1.532435
1.682639
1.700521
1.886487
2.002716
2.186894
3.667474
19.328594
50.353408
134.954453
248.229504
489.171743
703.672767
984.705687
1015.681028
1015.681028
1015.681028
983.796716
776.152015
495.173931
311.504602
143.596530
70.957541
21.807551
10.067821
7.955432
8.672476
11.588931
17.092824
26.956797
38.129687
56.375861
71.058869
85.215569
92.020631
94.170570
88.381767
74.463487
61.107874
45.292974
33.567548
21.463633
15.667677
10.940433
9.499788
8.368492
7.854700
7.729530
7.487535
7.663965
7.816553
7.918477
8.050799
7.627606
7.803440
7.761717
7.526875
7.672906
##ZVALUE=330
0.926852
0.959635
0.906587
0.725985
0.803471
0.906587
0.900626
0.834465
0.904799
1.060963
0.823736
0.726581
0.992417
0.894666
0.930429
0.867844
0.856519
0.859499
0.968575
0.954866
0.863671
0.922680
0.921488
1.052618
0.983477
1.203418
1.020432
1.115799
1.061559
1.119971
1.148582
1.208782
1.221895
1.139641
1.117587
1.363754
1.420975
1.217723
1.334548
1.563430
1.525879
1.724958
1.618862
1.755953
1.872778
2.155900
2.607703
8.833408
27.368665
88.078976
172.634721
360.363722
553.013682
841.058493
1010.751724
1015.681624
1015.681624
1015.681624
879.189968
605.586767
401.038527
192.926526
100.941658
37.144423
14.987588
7.916689
7.456541
8.567572
10.695457
17.017722
24.679899
37.404895
50.737858
68.322420
77.877641
87.151527
88.655949
81.609488
71.740746
56.078434
43.487549
29.423833
22.031665
15.221834
11.848807
9.328723
8.293986
7.631779
7.614493
7.599592
7.671714
7.310510
7.130504
7.196665
7.246733
7.484555
##ZVALUE=335
0.776649
0.716448
0.777841
0.785589
0.787973
0.795722
0.770688
0.813603
0.889897
0.857711
0.726581
0.842810
0.887513
0.775456
0.712872
0.707507
0.791550
0.887513
0.927448
0.864863
0.888705
0.979900
0.962615
0.958443
0.963807
1.019835
0.902414
1.007915
0.961423
1.012683
1.062751
1.005530
1.005530
1.106858
0.984669
1.125932
1.277924
1.001954
1.081824
1.324415
1.320839
1.373887
1.477599
1.420975
1.391768
1.494884
1.688600
1.852512
2.148747
4.384518
13.544559
53.857565
114.900470
264.643431
438.518524
726.706982
935.719013
1015.653610
1015.653610
1015.653610
967.589617
695.294738
489.264727
267.180800
144.544840
52.131414
21.360517
8.949637
7.234812
7.347465
8.290410
10.676980
15.179515
24.618506
34.308434
50.319433
61.937571
74.638724
80.674887
81.958771
76.717734
65.213442
54.356456
41.913986
31.714439
21.719933
16.063452
11.258721
9.300709
7.867813
7.341504
6.872416
7.190704
7.087588
7.020831
6.749630
##ZVALUE=340
0.744462
0.779629
0.855923
0.891685
0.781417
0.860691
0.721812
0.775456
0.764728
0.770688
0.814795
0.842810
0.614524
0.794530
0.807643
0.825524
0.818968
0.867844
0.915527
0.768900
0.832677
0.905991
0.893474
0.818968
1.015663
1.078844
0.881553
0.812411
1.001954
1.075864
0.973940
1.017451
0.907779
1.013875
1.032948
1.108646
1.134872
1.112819
1.177788
1.081824
1.345873
1.278520
1.330972
1.313686
1.393557
1.625419
1.484752
1.590848
1.629591
1.766682
2.055764
2.394915
7.005930
32.474995
78.850985
200.143456
345.175862
595.576763
796.750784
1008.454561
1015.681624
1015.681624
1004.511714
785.655975
582.187772
331.984758
189.149976
73.980689
30.822754
10.402799
7.363558
7.086992
7.261634
8.242726
10.286570
15.888810
21.902919
34.185648
45.034885
59.709549
69.510937
76.378584
77.440739
71.172714
63.628554
51.223636
42.015910
30.248761
22.487640
14.561415
10.976791
8.326769
7.351637
6.898642
6.596446
6.560683
##ZVALUE=345
0.635982
0.679493
0.742674
0.695586
0.813603
0.680685
0.878572
0.801682
0.754595
0.629425
0.803471
0.711679
0.748634
0.763535
0.726581
0.838637
0.903606
0.830889
0.951886
0.899434
0.690818
0.795722
0.778437
0.764728
0.889897
0.919700
0.905991
0.818968
0.874996
1.046658
0.949502
0.979900
1.077652
1.045465
0.779629
1.052618
1.039505
0.964999
0.992417
1.042485
1.234412
1.098514
1.221895
1.236796
1.229644
1.178980
1.285672
1.414418
1.456738
1.489520
1.509786
1.793504
1.619458
1.935959
3.415942
17.521977
49.725771
137.588978
243.253708
452.623963
649.412870
905.146599
1015.681624
1015.681624
1015.681624
860.548615
669.637918
420.971513
250.549912
105.329752
49.438477
15.381575
8.086562
6.915927
6.717443
6.710887
7.491708
9.532571
13.120770
21.369457
30.270815
43.458939
52.954555
63.896775
68.208575
70.624948
68.864822
60.295463
52.521825
39.807558
30.813813
20.605922
14.812946
10.471940
8.402467
7.352829
##ZVALUE=350
0.761747
0.710487
0.703931
0.838637
0.689626
0.762939
0.874996
0.675917
0.859499
0.758767
0.755787
0.843406
1.012683
0.935793
0.865459
0.850558
0.845790
0.737906
0.908971
0.871420
0.656843
0.727773
0.607967
0.855923
0.830889
0.810623
0.798702
0.879765
0.927448
0.884533
0.930429
0.937581
0.938773
0.833869
0.970960
0.984669
0.821948
1.042485
0.951886
1.047850
1.093745
1.009703
1.138449
1.177788
1.103878
1.274943
1.318455
1.187921
1.127720
1.360774
1.441836
1.317859
1.544952
1.507998
1.587868
1.910925
2.226830
9.259582
28.031468
88.959932
172.003508
356.274843
532.605648
781.108737
954.105854
1015.681624
1015.681624
931.192636
745.375752
476.038456
304.327607
148.418546
70.498586
20.609498
8.796453
6.461740
6.136894
6.005764
6.032586
6.634593
8.474588
12.581944
18.307567
26.975870
35.702586
47.994852
56.125522
63.027740
65.162778
62.320828
57.577491
46.428442
37.942529
27.867556
21.074414
14.611483
##ZVALUE=355
0.767708
0.728965
0.794530
0.863671
0.774860
0.709891
0.751615
0.698566
0.699759
0.684857
0.852942
0.696778
0.764728
0.788569
0.841618
0.799894
0.727773
0.812411
0.820756
0.958443
0.759959
0.900626
0.718832
0.907779
0.934601
0.795722
0.761747
0.708699
0.841618
0.820756
0.934601
0.882745
0.889897
0.951886
1.022816
0.870824
0.894666
0.955462
1.009703
1.067519
0.751615
0.930429
1.127720
1.031756
1.134872
1.126528
1.137853
1.138449
1.199841
1.163483
1.299977
1.297593
1.423955
1.273751
1.507998
1.445413
1.445413
1.775622
1.899600
4.713535
15.430450
58.601499
120.140910
258.557796
416.024923
661.106706
848.450661
1008.983850
1015.681624
955.884457
806.793571
563.133955
378.578901
179.247856
89.987516
28.496981
11.528730
6.486773
5.838871
5.821586
5.301833
5.655885
6.202459
7.878542
10.378957
16.150475
22.405982
32.904744
40.326715
49.933791
55.893660
59.274435
58.545470
51.825643
45.917630
35.817623
##ZVALUE=360
0.575781
0.652671
0.709891
0.720620
0.759959
0.719428
0.777841
0.751615
0.676513
0.726581
0.719428
0.810623
0.849962
0.841618
0.833869
0.794530
0.812411
0.996590
0.747442
0.832677
0.734925
0.777841
0.702739
0.916719
0.837445
0.821948
0.778437
0.864863
0.853539
0.891685
0.841618
0.828505
0.933409
0.991821
1.016855
1.033545
0.949502
0.906587
1.019835
0.928640
1.027584
1.004934
1.026988
0.975728
0.941753
1.102686
1.023412
1.001954
1.109838
0.988841
1.188517
1.126528
1.343489
1.323819
1.438856
1.439452
1.407862
1.472831
1.809597
1.776814
1.959801
2.649426
7.071495
30.119419
72.761774
183.548927
308.957696
529.417396
725.280643
940.409899
1015.685797
1001.762748
885.085464
643.566847
454.355478
236.758590
128.536820
49.340725
19.344687
6.974936
5.778670
5.597472
5.454421
5.470514
5.383492
5.405545
6.636977
9.021759
12.328625
18.348694
25.889874
35.545826
42.601824
50.194860
53.240657
52.872896
##ZVALUE=365
0.724792
0.716448
0.800490
0.742674
0.752807
0.694990
0.795722
0.743866
0.802875
0.725985
0.813603
0.847578
0.756979
0.645518
0.840425
0.824928
0.798702
0.556707
0.782609
0.773668
0.689626
0.776649
0.870824
1.004934
0.760555
0.840425
1.008511
0.847578
0.742674
0.763535
0.841618
0.806451
0.866652
0.962615
0.887513
0.986457
0.786781
0.968575
0.914931
0.986457
0.988841
1.071692
1.001954
0.968575
0.860691
1.001954
1.261830
1.091957
1.011491
1.186728
1.113415
1.005530
1.136661
1.089573
1.147985
1.190901
1.234412
1.451969
1.478791
1.528859
1.612902
1.949668
1.938939
2.098680
3.415942
16.400814
44.919848
118.666887
223.245621
432.527661
610.625744
828.516483
956.335664
999.357700
923.658609
720.514655
540.243983
317.807794
179.753900
69.095492
28.598905
8.574724
5.928874
5.608797
5.270839
4.986525
4.807711
4.631877
4.847646
5.843639
7.345676
11.179447
15.108585
22.966862
29.875636
38.286448
##ZVALUE=370
0.785589
0.721812
0.696778
0.762939
0.638962
0.600815
0.828505
0.686646
0.886917
0.880957
0.709891
0.745654
0.776649
0.583529
0.799894
0.892878
0.736713
0.780821
0.757575
0.778437
0.723600
0.746846
0.701547
0.893474
0.811815
0.809431
0.752807
0.715852
0.869632
0.808835
0.890493
0.897646
0.949502
0.881553
0.941753
0.944734
0.948906
0.854731
0.846982
0.958443
1.038909
1.050830
0.917912
0.994802
0.992417
1.055598
0.997782
0.907779
1.218915
1.056790
1.108646
1.200438
1.121759
1.223683
1.197457
1.142621
1.335740
1.309514
1.359582
1.405478
1.377463
1.469851
1.441836
1.692772
1.880527
2.028942
2.310872
8.490682
27.368665
89.644790
169.622898
336.904526
513.932705
766.191483
911.677480
998.528600
960.739851
799.993873
621.134043
374.863744
221.248865
93.249679
44.193864
14.455914
6.813407
5.265474
5.058646
4.755855
4.511476
4.372597
4.332662
4.476905
4.923940
6.701946
9.230971
13.745427
##ZVALUE=375
0.693798
0.733733
0.713468
0.779629
0.804663
0.752807
0.748634
0.778437
0.786781
0.729561
0.762939
0.682473
0.561476
0.638962
0.609756
0.722408
0.837445
0.823736
0.685453
0.774860
0.809431
0.798702
0.890493
0.585914
0.892878
0.814795
0.926852
0.855923
0.856519
0.890493
0.971556
0.777841
0.856519
0.887513
0.967979
0.920892
0.884533
1.005530
0.935793
0.901818
0.881553
0.976920
0.880957
0.788569
0.848770
1.063943
0.936985
0.834465
1.036525
0.760555
1.098514
1.056790
1.149774
0.991821
1.032948
1.217723
1.143813
1.188517
1.143813
1.036525
1.188517
1.276731
1.359582
1.461506
1.496673
1.505613
1.595616
1.621842
1.912713
4.753470
14.989972
52.236915
112.853646
263.156891
425.701737
689.514875
869.546533
1015.681624
1015.681624
912.100673
727.318525
467.289686
306.789875
157.928467
82.884431
26.791692
10.257959
4.932880
4.677773
4.473925
4.505515
4.043579
4.103780
4.179478
4.206896
4.577637
##ZVALUE=380
0.621676
0.751615
0.774860
0.678897
0.701547
0.701547
0.718832
0.807643
0.708699
0.696778
0.758767
0.849962
0.683665
0.589490
0.795722
0.699759
0.681877
0.716448
0.619888
0.793934
0.751615
0.760555
0.985861
0.781417
0.844598
0.923872
0.868440
0.761747
1.001954
0.860691
0.904799
0.851750
0.918508
0.853539
0.890493
0.968575
0.895858
0.995994
0.866652
1.003742
0.915527
0.901818
0.898838
0.999570
0.987649
1.012683
0.956655
0.905991
0.966787
0.966787
0.960827
0.950694
0.957847
0.987649
0.995994
1.049638
1.078844
1.115799
1.141429
0.965595
1.105666
1.182556
1.087785
1.210570
1.271963
1.215935
1.412630
1.358986
1.621842
1.753569
1.919866
2.815723
8.154511
36.907792
85.980892
204.256773
341.020823
566.112995
744.469762
930.460691
985.130668
913.141966
776.732564
557.225943
388.159752
204.084516
110.388994
40.354729
16.181469
5.932450
4.519820
4.223585
4.054904
3.778934
3.840923
3.822446
##ZVALUE=385
0.738502
0.741482
0.681877
0.627637
0.756979
0.839829
0.792742
0.624657
0.495911
0.675917
0.728965
0.749826
0.688434
0.651479
0.797510
0.766516
0.665784
0.681877
0.847578
0.633597
0.760555
0.645518
0.802875
0.741482
0.589490
0.670552
0.809431
0.953674
0.781417
0.930429
0.917912
0.948906
1.102686
0.893474
0.966787
0.941753
0.928640
0.897646
0.903606
0.926852
0.844598
0.962615
0.898838
0.835657
1.019835
1.046658
1.007915
0.963807
0.891685
0.955462
0.960827
1.131892
1.044869
1.037717
1.126528
0.986457
1.096725
1.024604
0.986457
1.005530
1.127720
1.191497
1.062751
1.088977
1.196861
1.113415
1.231432
1.292825
1.238585
1.375675
1.530647
1.568794
1.810789
2.190471
4.237890
20.425916
52.554607
136.316419
249.152780
462.516546
648.682714
851.742625
936.504006
936.817527
854.021907
663.876534
492.698550
286.606550
169.429779
72.056651
30.505657
7.905960
4.535913
4.082918
4.124641
3.931522
##ZVALUE=390
0.609756
0.571609
0.691414
0.683665
0.644922
0.556707
0.623465
0.630617
0.737906
0.701547
0.702739
0.635982
0.708699
0.632405
0.653863
0.772476
0.608563
0.535846
0.824928
0.724792
0.702739
0.715852
0.733733
0.721812
0.885725
0.869632
0.927448
0.962615
0.940561
0.922680
0.808835
0.871420
1.031756
1.047850
0.841618
0.982881
0.951886
1.031756
1.086593
0.957847
0.979900
0.903606
0.864863
1.024604
0.993609
0.931621
0.928640
1.100898
1.093745
0.987649
0.987649
0.926852
0.986457
0.855923
0.906587
0.914931
0.859499
1.031756
0.919700
1.171827
1.004934
1.055598
1.065731
1.113415
1.042485
1.105666
1.190901
1.223683
1.296997
1.440644
1.454949
1.615882
1.611710
1.495481
1.572967
1.841784
2.608895
11.012554
33.549666
101.578832
194.950700
381.755829
547.819734
759.430528
879.281759
949.952006
905.518532
750.647783
597.909689
385.670662
235.841870
101.828575
48.673749
15.297532
6.032586
4.288554
##ZVALUE=395
0.616908
0.723600
0.660419
0.664592
0.656843
0.629425
0.781417
0.677705
0.607967
0.655651
0.582933
0.604987
0.617504
0.675917
0.699759
0.644922
0.589490
0.592470
0.691414
0.726581
0.789762
0.746846
0.723600
0.814795
0.601411
0.566840
0.750422
0.640750
0.773668
0.856519
0.885725
0.968575
1.090765
1.106858
0.805855
0.960827
0.954866
1.027584
1.110435
1.092553
1.011491
0.948906
0.891685
1.057982
0.896454
1.076460
1.005530
1.035929
1.013875
0.941753
0.910759
0.906587
1.015663
1.035929
1.087785
0.863671
1.110435
1.006722
1.087785
1.193881
1.088977
1.150966
0.983477
1.078844
1.116991
1.177788
1.334548
1.344681
1.242757
1.252890
1.408458
1.421571
1.410842
1.445413
1.410842
1.626611
1.523495
1.703501
1.968741
6.585717
22.412539
75.882673
145.776868
283.811688
432.847738
660.626888
811.285973
935.564637
947.329998
846.650600
690.428615
456.621647
297.384858
137.333870
68.169832
23.272634
##ZVALUE=400
0.754595
0.753999
0.701547
0.762939
0.630617
0.694990
0.803471
0.642538
0.741482
0.768900
0.696778
0.640750
0.508428
0.585914
0.690818
0.751615
0.673532
0.692606
0.788569
0.661612
0.547767
0.785589
0.638962
0.777841
0.665784
0.712872
0.828505
0.797510
0.815988
0.782609
0.704527
0.878572
0.898838
0.931621
0.889897
1.043677
0.842810
0.988841
1.024604
1.027584
0.987649
1.002550
0.927448
1.084805
1.079440
0.888705
1.011491
0.955462
0.991821
1.036525
1.076460
0.986457
1.002550
0.898838
1.046658
1.092553
0.945926
1.005530
1.091957
1.052618
0.916719
1.027584
1.061559
1.152754
1.049638
1.089573
1.158714
1.232624
1.297593
1.343489
1.383424
1.412630
1.418591
1.419783
1.489520
1.437664
1.450777
1.399517
1.470447
1.598597
1.831651
3.628731
11.871457
45.093894
96.561909
216.564536
353.768468
575.750470
736.864805
900.201797
948.519707
875.412822
751.430988
543.029904
377.559662
201.447606
##END
