##TITLE=FQP00302
##FORMAT=SPECTACLE-ASCII V-1.2
##DATA TYPE=ULTRAVIOLET SPECTRUM
##SECOND TYPE=ULTRAVIOLET SPECTRUM
##DATE=10/03/17
##TIME=12:15:54
##SPECTROMETER/DATA SYSTEM=SPECTACLE
##XUNITS=NM EM
##YUNITS=ENERGY
##YFACTOR=1
##FIRSTX=220
##LASTX=410
##NPOINTS=96
##3DDATA=Equidistant
##ZUNITS=NM EX
##FIRSTZ=210
##LASTZ=400
##ZPOINTS=39
##XYDATA=(Y..Y)
##ZVALUE=210
3.394485
3.815889
3.365874
3.995895
3.518462
3.829598
4.405975
4.641414
5.360842
5.387664
5.749464
7.090569
7.080436
6.797910
7.346869
8.870959
9.069443
8.914471
9.935498
10.738969
11.979938
13.183951
13.552904
14.899969
16.453862
16.124845
16.184449
16.869903
18.535852
17.172694
19.176602
18.832684
18.908978
20.835996
20.616651
21.306872
20.952821
22.115707
24.030805
22.391677
23.880601
23.756623
24.553537
25.224686
26.011467
24.764538
25.544763
27.457476
27.586818
26.723742
29.155612
30.522943
29.583573
30.732751
29.924512
29.118657
29.940605
30.070543
31.480789
33.025742
32.312870
33.314824
30.186772
32.775998
35.086870
33.549666
36.373734
40.597916
47.879815
53.693652
63.771605
74.671507
92.754960
97.724795
110.749602
122.428536
126.111507
125.955939
131.890774
125.852823
119.242668
113.002658
96.840858
86.501837
68.416595
56.726933
46.008825
38.974881
31.945705
29.178858
26.893616
30.507445
27.187467
28.637648
26.001930
28.244853
##ZVALUE=215
13.915896
13.756752
13.290644
10.945797
9.465814
6.558895
5.885959
5.273819
6.239414
6.785989
7.768869
7.243752
6.717443
6.953478
7.686615
7.458925
7.642508
7.845759
8.228421
9.628534
8.948445
9.877682
10.185838
11.594892
12.850761
14.308691
13.416409
14.867783
14.354587
16.539693
17.067790
16.822815
16.493797
16.695857
18.121600
18.126965
19.188523
18.421412
19.719601
19.848943
18.446445
19.940734
20.260811
19.597411
20.286441
21.265745
20.906925
21.028519
19.635558
20.765662
21.516681
21.945834
21.026731
21.544695
21.806955
23.237467
22.644997
21.091700
21.902919
23.337603
23.564696
23.721457
24.037957
23.936629
23.360848
23.538470
26.984811
28.022528
29.444695
36.376715
42.425990
53.966641
55.359602
66.170692
72.799921
74.347854
79.816580
77.985525
77.758431
72.336793
70.232749
63.734651
56.182742
47.258735
43.114424
33.061504
29.461980
24.899840
22.814870
21.915436
21.493435
19.485950
20.652413
20.862818
19.098520
20.558834
##ZVALUE=220
41.908622
42.899847
48.341751
53.644776
44.991970
37.038922
30.387640
20.378828
14.591813
10.546446
11.394620
14.768839
13.453960
12.169480
11.099577
9.791851
9.563565
9.587407
8.311868
8.759499
8.888841
8.242726
10.095835
10.915995
10.369420
12.265444
12.366772
13.324618
13.230443
15.165806
14.899969
14.866590
15.975833
18.177629
16.924739
16.878843
17.936826
17.261505
17.611980
19.219518
18.394589
17.914772
20.063519
17.469525
18.834472
19.044876
19.564629
19.480586
19.457936
18.983483
18.310547
20.990968
19.865632
20.590425
20.152926
20.197630
21.269917
21.042824
20.750761
20.998716
21.795630
20.685792
20.608902
21.757483
21.787882
22.209883
22.772551
24.569631
28.357506
31.100512
34.801960
38.523674
45.420527
49.857497
56.116581
56.195855
59.312582
60.065985
60.825944
59.818625
58.501959
52.237511
49.114823
42.680502
36.467910
31.108856
26.335716
23.474693
20.302534
18.971562
19.770861
17.798543
18.600821
17.685890
17.333627
18.539429
##ZVALUE=225
70.292950
71.244836
105.155706
133.557916
150.001645
150.306821
134.333968
113.222003
77.052712
53.693652
30.668974
24.800897
21.498799
25.308728
24.512410
23.423433
22.422671
19.091964
16.121864
12.916923
10.898709
9.854436
9.373426
9.843707
9.675622
10.820627
12.378693
12.350678
13.968945
15.356541
15.601516
15.077591
14.526844
17.315745
17.979741
16.986728
17.544627
19.603968
18.658638
19.007921
18.346906
19.894838
18.745661
20.587444
20.635724
20.825863
20.780563
21.404624
21.894574
22.210479
24.465919
22.501945
23.777485
23.220778
21.601915
22.842884
24.469495
22.506714
23.943782
24.885535
24.766922
23.418665
25.503635
24.964809
25.283694
26.849508
27.294755
26.578903
31.354427
33.508539
36.869645
42.338967
49.697757
50.491691
54.763556
53.924918
51.873922
51.720738
53.731799
53.156614
45.156479
43.984652
35.467744
35.952926
35.327673
29.673576
28.728843
26.550889
24.382472
24.438500
23.010969
22.825599
21.393895
21.239519
22.182465
20.175576
##ZVALUE=230
62.525868
74.090958
122.905970
210.881829
282.485485
364.373922
394.404531
393.978953
354.428887
289.819837
191.659927
122.925639
69.966912
50.845742
45.132637
46.572685
48.767924
48.180819
44.492483
36.453605
29.361844
21.729469
17.188787
13.380647
11.805892
11.036992
11.851788
11.454821
13.831854
12.374520
12.722611
13.399720
16.296506
15.343428
16.337633
15.593767
17.636418
17.230511
18.228889
20.850897
20.290613
20.897985
22.476912
22.836924
25.367737
25.761724
24.897456
28.764606
29.297471
27.883649
28.031468
29.549599
31.288862
31.975508
31.366944
33.094883
35.772920
34.413934
35.653710
35.563707
33.479929
35.432577
35.606623
36.228895
38.933754
36.433935
37.635565
40.383935
42.220950
42.840838
47.611594
51.068664
55.542588
59.555769
60.251951
59.638619
64.811707
60.123801
57.570934
57.229996
54.967999
52.870512
47.875643
44.013858
40.056705
38.511753
34.890771
33.778548
33.504963
30.630827
30.128956
30.852556
32.142997
30.213594
30.217767
30.589700
##ZVALUE=235
24.290681
29.722452
63.119531
151.533484
249.219537
402.324796
534.827709
666.421652
729.698539
724.457502
619.105697
497.068763
316.850543
218.590498
133.718848
92.809796
74.832439
74.690580
79.890490
80.925822
75.562596
64.586997
54.605603
38.371682
28.926730
20.772815
16.375780
13.320446
14.133453
13.385415
13.258457
14.509559
14.153719
14.940500
15.639663
15.813708
17.217994
19.619465
19.701719
21.674633
24.191737
26.549697
26.348829
30.757785
32.029748
35.756826
37.350655
39.394498
41.613579
42.124987
46.467781
47.847629
46.579838
47.176480
47.229528
51.226616
51.250458
50.133467
51.776767
50.505996
50.161481
54.490566
54.588914
51.301718
55.588484
56.694746
57.447553
58.000684
59.468746
61.851740
64.696670
68.562627
71.890950
75.040460
76.776743
80.207586
76.290965
76.313615
74.285865
70.512891
70.283413
64.830780
63.274503
62.168837
54.147840
53.727627
51.862001
50.961971
46.959519
49.081445
47.738552
44.680834
42.625666
44.836998
41.662455
41.146874
##ZVALUE=240
3.543496
3.839731
8.667707
38.177967
83.424449
194.358826
308.646560
547.797680
731.966496
866.165757
1013.279557
1008.522511
896.932483
744.991899
528.507829
359.311700
202.689767
137.507915
102.433562
100.095868
107.291937
112.839937
112.611651
100.468993
84.321499
64.833760
50.938725
34.459829
24.850965
18.699765
14.814734
15.257597
15.360713
15.730858
15.495420
16.640425
18.913746
19.586682
20.841956
25.255680
27.205944
32.145977
34.505725
39.609671
42.379498
45.779943
50.865412
54.764748
58.072805
63.071847
62.549710
64.921975
69.721937
69.947839
70.021749
72.906613
71.085691
73.991418
70.049763
70.552826
72.384477
73.247552
74.650645
73.225498
73.935986
74.188709
73.075891
77.947974
74.057579
75.039864
81.145763
83.734989
87.961555
89.124441
88.069439
88.280439
88.986754
89.447498
86.116791
81.215501
83.045959
79.274774
72.580576
70.185661
70.287585
67.619681
63.462853
64.226985
63.069463
58.563948
58.003664
57.896972
58.009624
54.162741
54.796934
51.891804
##ZVALUE=245
2.658963
2.880692
2.569556
2.933741
8.283854
23.878813
78.371763
158.677697
356.175900
539.901853
832.514763
1006.003022
1015.681624
1015.681624
1015.681624
944.706798
758.956671
501.383543
333.353877
181.157589
123.272538
105.991960
113.117695
123.968720
127.107501
123.488903
111.256838
95.841885
71.134567
57.529807
41.110516
27.203560
21.500587
17.060637
15.936494
16.909838
19.701719
20.686984
24.009943
26.988983
29.857755
34.323931
38.454533
44.722557
49.446821
53.177476
58.775544
62.114596
67.458749
71.125627
74.555874
78.165531
77.659488
82.673430
82.037449
80.274940
84.600449
84.529519
84.373951
80.545545
81.486702
79.981685
78.637600
80.075860
78.316927
79.934597
77.814460
78.323483
80.237985
79.947710
80.639720
80.475807
79.492927
80.947876
77.698827
82.280636
82.195997
79.975724
79.314709
75.321794
74.515939
70.360899
71.693659
69.562793
67.305565
65.157413
62.580705
60.702562
57.532787
59.915781
56.343675
57.154894
53.061843
54.051876
52.331686
51.474571
##ZVALUE=250
2.410412
2.468824
2.466440
2.506971
2.797842
3.183484
4.051924
11.626482
54.910779
122.047663
301.126838
502.012968
742.321014
1015.702486
1015.702486
1015.702486
1015.702486
1015.702486
990.482569
683.648586
458.504558
286.568999
151.293874
108.674765
108.822584
120.183825
131.460428
139.665604
135.882497
124.943852
105.897784
83.216429
64.151883
41.566491
31.439662
23.350716
20.376444
22.296906
23.864508
26.462674
30.600429
36.095977
40.612817
47.386885
51.893592
59.824586
63.302517
64.863563
71.973801
73.091984
78.654885
83.124638
80.989599
79.889894
85.070729
86.533427
82.995892
79.873800
81.131458
79.811811
79.593658
78.077912
77.540874
75.201988
72.837472
70.574880
70.452690
70.047975
69.450736
70.483685
68.738461
68.986416
70.820451
69.398880
71.897507
70.273876
66.883564
71.634650
66.909790
65.585971
61.488748
63.304901
62.623620
59.269667
59.105754
55.786967
54.733753
53.474903
53.295493
52.313805
52.205920
51.739812
48.863888
48.561692
49.408674
46.827793
##ZVALUE=255
1.894832
1.981854
2.284646
1.902580
2.441406
2.745986
2.660751
2.992749
3.208518
6.738901
31.457543
81.558824
179.476738
405.703783
647.685528
991.569757
1015.651822
1015.651822
1015.651822
1015.651822
1015.651822
977.156758
610.433817
373.765826
186.429620
122.587681
98.425746
105.955601
126.667619
138.484836
148.975849
141.577721
134.169459
109.894872
86.179972
58.967471
47.953725
35.195947
29.959679
28.069615
29.306412
33.537745
40.082932
43.801665
48.563480
53.602457
58.075786
62.427521
64.890981
68.389773
71.332455
72.737932
73.722601
74.461699
76.525807
75.206757
74.866414
75.708628
71.277618
72.435737
70.247650
67.192912
67.057610
64.094663
62.342882
61.159730
61.137676
60.048699
57.230592
58.875680
58.099627
60.381889
60.465932
60.663819
58.357716
57.803988
58.874488
56.416988
55.932999
55.279732
53.847432
53.264499
51.049590
48.871636
48.015714
48.110485
47.177672
47.264695
47.510862
46.486855
46.749711
42.814612
44.709444
44.093728
44.218898
44.430494
##ZVALUE=260
2.084970
1.858473
1.760721
2.126694
2.158880
2.413988
2.318621
2.366900
2.388954
2.964735
2.898574
3.752708
15.249848
42.397976
131.286979
265.421867
561.404824
828.565955
1015.681624
1015.681624
1015.681624
1015.681624
1015.681624
1015.681624
839.298964
485.291481
303.955674
158.448815
106.743574
93.312860
106.958747
131.690502
146.729946
156.967640
155.030489
137.104988
119.010806
93.069673
74.825883
54.053664
45.512915
39.296746
38.637519
40.540695
43.941736
47.578812
50.232410
52.666664
56.002736
57.412982
60.165524
60.153604
59.703588
63.392520
61.294436
60.972571
60.396791
59.059858
58.894753
56.773424
56.607723
55.733919
54.206848
53.654909
51.703453
50.868988
51.002502
48.753619
48.156977
49.146414
47.959685
47.997832
49.755573
48.835874
49.320459
48.827529
47.084689
48.725605
47.872663
46.843886
47.377944
47.415495
45.232773
44.010878
42.793751
41.952729
42.827725
43.542981
41.910410
41.487813
40.046573
40.218830
39.738417
39.291978
38.917661
39.591789
##ZVALUE=265
2.044439
1.869798
1.733899
1.771450
1.927614
1.718998
1.843572
1.885891
2.327561
2.170801
2.452731
2.598763
2.998710
3.066659
5.876422
30.076504
79.524517
212.400556
392.106771
759.337544
1015.682817
1015.682817
1015.682817
1015.682817
1015.682817
1015.682817
1011.132002
750.027895
417.321920
245.728493
141.554475
86.437464
88.399649
118.175745
136.795640
158.191919
161.523819
155.182481
145.601630
120.035410
101.943612
77.993870
63.285828
50.403476
45.907497
43.632984
44.393539
44.464469
45.814514
48.241615
48.978925
49.839616
50.485730
50.847530
50.393939
51.013827
48.879981
49.379468
47.158599
47.176480
45.960546
46.793818
44.209957
44.590831
43.321848
43.075681
42.894483
42.336583
41.641593
43.118596
42.149425
42.954683
43.231845
42.740703
42.606592
43.426752
42.786598
42.124987
41.659474
40.877461
41.673779
39.822459
39.107800
38.936734
38.332939
37.941933
37.450790
38.444996
37.167668
36.022663
38.239956
36.820769
36.385655
35.592914
36.361814
36.293864
##ZVALUE=270
1.803637
1.699924
1.581907
1.719594
1.923442
1.754761
2.120733
1.960993
1.993775
2.014637
2.148747
2.317429
2.215505
2.520680
2.611876
2.674460
3.332496
13.872981
41.632652
143.821836
295.292735
526.106954
958.919525
1015.681624
1015.681624
1015.681624
1015.681624
1015.681624
1015.681624
986.351967
692.998767
356.092453
195.430517
93.742609
74.930787
92.623830
114.494562
142.378807
156.750679
167.462826
165.416598
148.993731
132.996440
105.277896
86.964965
64.466596
54.640770
47.264695
44.103861
42.698979
43.056607
42.959452
44.136643
43.794513
43.070912
42.652488
42.106509
40.919781
41.369796
40.615797
40.716529
39.576888
39.748549
39.645433
38.971901
37.393570
39.065480
38.034916
39.179921
39.342642
39.328933
38.946867
39.848685
39.651990
40.031672
40.563941
40.926933
39.458871
38.835406
38.552880
39.157867
38.032532
37.154555
36.834478
36.364794
35.017729
35.898685
34.493804
34.946799
35.629869
35.244823
33.854842
33.993721
33.757687
31.998754
32.049417
##ZVALUE=275
1.227856
1.362562
1.680851
1.551509
1.556873
1.589656
1.795888
1.644492
1.634955
1.780987
1.996756
2.125502
1.963973
2.286434
2.283454
2.519488
2.499819
2.800822
3.054738
7.509589
25.527477
70.876479
219.310522
423.131585
825.653672
1015.681624
1015.681624
1015.681624
1015.681624
1015.681624
1015.681624
1015.681624
890.856385
467.256904
265.835524
118.041635
72.993636
70.430636
90.945959
119.097829
142.765641
164.206624
169.390440
165.939927
153.909922
128.224492
109.172463
85.683465
70.654750
54.837465
47.411919
43.487549
41.200519
39.153695
38.681626
39.942861
37.943721
38.417578
39.727688
37.749410
39.029717
38.022995
38.397908
37.784576
37.678480
37.252903
36.116838
37.049651
38.093925
37.609935
37.129521
38.782954
39.442778
38.484931
39.409995
40.129423
39.974451
39.790869
38.777590
38.327575
37.279725
37.273765
35.845637
35.541654
35.007000
35.607815
34.856796
34.488440
35.054684
33.271909
32.987595
32.529831
32.664537
32.186508
31.211972
31.594634
##ZVALUE=280
1.466870
1.345873
1.474619
1.603961
1.666546
1.506805
1.671910
1.590848
1.654625
1.592636
1.663566
1.705885
1.565814
1.740456
2.171993
1.714826
2.066493
2.236962
2.248883
2.650619
2.809763
3.415942
17.481446
55.702925
173.246861
326.152444
625.503659
937.811732
1015.686989
1015.686989
1015.686989
1015.686989
1015.686989
1015.686989
998.360515
596.488714
352.740884
156.301856
84.007978
58.195591
66.825747
93.563795
116.082430
145.073533
160.991549
167.109966
164.745450
149.721503
132.097602
104.133487
84.353685
64.533949
53.367615
44.487715
38.303733
37.115812
36.133528
36.111474
36.082864
35.664439
36.325455
36.706924
35.585761
36.787987
36.979914
36.981702
36.480427
36.270618
37.794709
36.895871
38.401484
38.143992
37.742853
37.936568
38.772821
39.082766
38.276911
38.386583
38.245916
36.778450
36.784410
36.364794
36.039948
35.350919
36.030412
35.159588
34.371614
33.102632
32.457709
32.239556
31.621456
32.320619
31.644702
31.721592
30.358434
31.332970
##ZVALUE=285
1.352429
1.305938
1.275539
1.363754
1.355410
1.270771
1.502633
1.338720
1.451969
1.348853
1.530647
1.591444
1.560450
1.697540
1.715422
2.024770
2.063513
1.866817
1.919866
2.144575
2.326965
2.565980
2.618432
3.404617
7.653832
37.068725
95.187426
244.144797
430.690646
803.247690
1015.681624
1015.681624
1015.681624
1015.681624
1015.681624
1015.681624
1015.681624
789.898038
496.838689
235.511661
122.137666
55.320859
48.194528
64.438581
84.235668
115.506649
134.831667
152.701735
161.470771
157.849789
147.993565
126.852989
106.856823
79.880953
63.607693
47.711730
40.981770
35.307407
34.775734
33.168793
34.045577
33.930540
34.496784
35.523772
34.347773
35.367608
34.028888
36.200881
37.143826
36.833882
36.549568
37.325621
38.217902
38.319826
38.045645
37.958622
38.316846
36.904812
36.373734
36.489964
36.034584
36.043525
35.448670
34.779906
34.711957
33.818483
33.638477
32.829642
33.092499
32.295585
31.847954
30.937791
30.468702
30.382872
30.143857
30.126572
##ZVALUE=290
1.249909
1.357794
1.205802
1.183748
1.128912
1.031756
1.105666
1.292825
1.303554
1.359582
1.393557
1.425743
1.495481
1.804829
1.687407
1.498461
1.738667
1.599789
1.756549
1.779795
2.023578
2.276897
2.366900
2.455711
2.914667
3.073812
4.577637
13.200641
60.803890
141.868591
276.118517
603.193641
953.198671
1015.681624
1015.681624
1015.681624
1015.681624
1015.681624
1015.681624
993.936658
687.463880
346.111655
178.340673
67.628622
39.696693
44.138432
57.082772
82.195997
103.527904
129.755735
145.381689
156.597495
153.145790
140.523911
124.805570
96.938610
79.880953
58.891773
46.956539
38.500428
34.664869
32.357574
31.122565
32.387972
32.323599
32.659769
32.112598
33.111572
33.420920
34.265518
35.023689
35.942793
35.898685
34.937859
36.537647
35.940409
35.837889
36.631823
36.197901
34.848452
35.290718
34.517646
34.029484
34.268498
33.971667
32.277703
33.109784
32.354593
32.641888
31.412840
30.707717
30.881763
30.418634
30.983686
30.008554
29.377937
##ZVALUE=295
1.100898
1.178980
1.327991
1.170635
1.240969
1.174808
1.238585
1.210570
1.260638
1.318455
1.228452
1.269579
1.333952
1.386404
1.512766
1.596808
1.514554
1.505613
1.611710
1.755953
1.867414
1.736879
2.031922
2.162457
2.301931
2.409816
2.666712
2.942681
3.596544
12.014508
22.084713
153.800845
215.159059
480.253696
802.724957
1015.681624
1015.681624
1015.681624
1015.681624
1015.681624
1015.681624
988.356471
867.341757
488.743782
263.972878
97.269416
46.208501
34.315586
37.847757
67.925453
74.537992
119.630694
122.448802
145.091414
149.159431
145.319700
131.995678
116.603971
77.967644
73.442459
46.018958
44.895411
36.852956
32.351613
29.506683
29.836893
29.008985
30.382872
29.954910
31.727552
31.476617
33.085942
32.335520
33.462644
34.034848
34.712553
33.127666
33.839941
33.183694
32.808781
32.980442
33.350587
33.306479
33.273697
33.119917
33.024549
32.317638
32.057762
31.222701
30.696988
31.222701
30.576587
29.715896
29.983521
28.864741
29.375553
##ZVALUE=300
1.115799
0.963807
1.148582
1.116991
1.113415
1.195669
1.339912
1.118779
1.320839
1.283884
1.224875
1.199841
1.296997
1.452565
1.439452
1.461506
1.579523
1.510978
1.367927
1.711845
1.634955
1.903772
1.758933
1.946688
2.096891
2.192855
2.088547
2.468824
2.335906
2.575517
3.261566
3.893971
9.944439
54.598451
174.184442
308.169723
646.997690
988.971591
1015.681624
1015.681624
1015.681624
1015.681624
1015.681624
1015.681624
1005.059481
704.721808
239.924788
157.089829
47.827959
33.177733
34.691691
35.365820
66.892505
68.501830
91.391802
111.035705
131.082535
140.164495
139.284730
128.227472
114.284754
92.246532
75.329542
55.998564
45.531988
34.836531
28.875470
28.669834
28.862953
29.025674
29.851794
29.973984
30.448437
31.494498
31.618476
32.022595
32.319427
33.016801
32.127500
32.592416
33.015609
32.181740
32.635927
32.697916
32.453537
33.142567
32.141805
32.027960
31.871796
31.130910
31.203628
30.558705
30.108690
30.279756
30.167699
29.674768
##ZVALUE=305
0.956655
1.120567
1.113415
1.144409
1.186728
1.047850
1.133680
0.951886
1.067519
1.183748
1.001954
1.153946
1.143813
1.254678
1.206994
1.393557
1.375675
1.318455
1.441836
1.431704
1.551509
1.677871
1.676679
1.577735
1.918674
1.851916
2.020597
1.945496
2.047420
2.237558
2.530813
2.611876
2.913475
3.391504
7.340908
26.723742
103.436708
226.884484
510.945916
814.637542
1015.681624
1015.681624
1015.681624
1015.681624
1015.681624
1015.681624
1015.681624
906.703472
487.814546
267.283916
101.537704
46.537519
23.099780
25.624633
34.413934
46.536922
67.951679
87.752938
109.923482
123.314857
135.787725
134.773850
123.971701
112.190843
88.874698
73.040724
56.155920
45.202971
35.275817
31.340718
30.338764
30.175447
29.608607
31.133890
31.542778
32.192469
32.689571
32.832623
32.758713
33.270717
33.263564
33.395886
33.124685
33.438802
33.348799
33.281446
33.307672
32.491684
33.201575
32.412410
31.462908
31.929612
31.477809
30.743480
30.588508
30.836463
##ZVALUE=310
1.363754
1.406670
1.398921
1.332760
1.276731
1.457930
1.374483
1.371503
1.364946
1.395941
1.306534
1.514554
1.416802
1.369715
1.347661
1.473427
1.687407
1.583695
1.819730
1.680851
1.640916
1.701713
1.814961
1.770854
1.626611
1.966953
2.009869
2.005696
1.960993
2.265573
2.268553
2.468824
2.627969
2.698898
2.822876
3.336668
3.789663
14.714599
49.739480
163.397789
319.126844
657.881498
983.058810
1016.004682
1016.004682
1016.004682
1016.004682
1016.004682
1016.004682
1016.004682
741.616488
374.663472
200.993419
73.107481
32.707453
20.917654
24.123788
33.207536
43.389797
63.243508
79.373717
101.391673
115.632415
127.902627
128.479004
119.838715
108.554959
90.911984
74.762702
56.274533
46.645999
38.175583
34.101605
32.027960
31.517744
31.573772
31.776428
31.797886
33.023953
33.768415
33.581853
34.289956
34.525990
35.136938
35.838485
34.627914
35.208464
34.613609
34.421682
33.539534
33.176541
33.016801
33.080578
32.374859
31.906962
31.713843
##ZVALUE=315
1.176596
1.125932
1.085997
1.007915
1.314878
1.128912
1.073480
1.138449
1.152754
1.130700
1.178980
1.258850
1.221895
1.203418
1.272559
1.285672
1.373887
1.278520
1.453757
1.486540
1.403689
1.583695
1.563430
1.436472
1.711845
1.700521
1.936555
1.616478
1.737475
1.839995
1.714826
2.097487
2.075434
2.306700
2.592802
2.502799
2.609491
3.233552
3.416538
7.642508
28.148890
115.391612
248.313546
537.742972
870.935917
1015.852690
1015.852690
1015.852690
1015.852690
1015.852690
1015.852690
1015.852690
949.860811
508.900881
277.139544
104.115605
44.613481
20.200610
19.298792
23.820996
29.872656
43.045878
56.588650
76.006651
92.088580
111.115575
120.241642
120.842457
116.168857
101.503730
89.186430
70.747733
58.731437
45.514703
39.457679
34.587979
33.030510
32.535791
33.121705
33.488870
33.707619
34.170747
35.001636
34.567714
34.756660
34.951568
34.719706
34.796000
35.022497
34.054518
34.126639
33.346415
33.446550
33.374429
32.418966
31.745434
##ZVALUE=320
0.950694
0.800490
0.916719
0.910759
0.897646
0.874996
1.168847
1.017451
0.963807
0.924468
0.951886
1.077652
1.131892
1.055598
1.302958
1.035929
1.030564
1.090765
1.282692
1.297593
0.972748
1.332760
1.334548
1.419783
1.270771
1.344681
1.400709
1.285672
1.419783
1.387596
1.487732
1.702905
1.818538
1.785755
1.803637
2.100468
2.248883
2.506971
2.540946
2.863407
3.004670
3.978610
11.723638
63.089728
160.611868
415.800810
684.255958
1015.681624
1015.681624
1015.681624
1015.681624
1015.681624
1015.681624
1015.681624
1015.681624
651.326776
377.394557
162.591934
74.045658
25.177598
16.745925
17.750859
20.539761
27.402639
36.139488
54.082870
68.395734
88.529587
103.235841
115.815997
117.765665
112.638474
102.419853
84.207654
71.732998
55.860877
46.968460
39.137602
35.575628
33.972859
33.741593
33.926964
34.230947
33.928752
34.956932
35.015941
35.268664
34.726858
34.808517
34.444928
34.285784
33.814907
33.615828
33.061504
32.833815
32.338500
##ZVALUE=325
0.790954
0.864863
0.897646
0.816584
1.004934
0.964999
0.722408
0.836849
0.859499
0.894666
0.982881
1.022816
1.053810
0.996590
0.979900
1.025796
1.095533
1.130700
1.127720
1.207590
1.042485
1.303554
1.089573
1.264811
1.117587
1.172423
1.187921
1.268983
1.434684
1.371503
1.416802
1.515746
1.532435
1.694560
1.697540
1.782775
1.899600
2.036691
1.904964
2.089739
2.360940
2.511740
2.626777
3.411770
6.074905
36.209822
97.209811
259.440541
473.794937
907.082558
1015.682817
1015.682817
1015.682817
1015.682817
1015.682817
1015.682817
1015.682817
807.682872
490.170717
217.191577
104.811788
33.248663
17.337799
15.133619
16.515851
20.805001
26.067495
36.975741
49.278736
69.822669
85.098743
100.214481
109.685659
111.933947
106.351972
94.970465
82.275867
66.715479
55.429935
45.309663
39.277673
35.902858
35.157800
34.161806
33.982992
34.153461
33.740997
33.725500
33.868551
33.500791
33.545494
33.066869
32.934546
32.682419
32.957792
31.887889
##ZVALUE=330
0.849962
0.854731
0.810623
0.778437
0.840425
0.894666
0.922680
0.952482
0.959635
0.859499
0.796914
0.988841
1.009703
0.922680
0.994802
0.952482
1.085997
0.870824
1.141429
0.794530
0.941753
0.959635
1.118779
1.089573
1.147985
1.258850
1.027584
1.191497
1.191497
1.292825
1.260638
1.400709
1.258850
1.631975
1.502633
1.399517
1.712441
1.663566
1.587868
1.826882
1.961589
2.164841
2.171993
2.401471
2.480745
2.970695
3.652573
15.471578
49.658418
167.210698
329.786539
678.066611
991.637707
1015.681624
1015.681624
1015.681624
1015.681624
1015.681624
1015.681624
970.698595
644.397736
301.795602
153.365731
55.035949
23.231506
14.689565
15.113950
16.773939
20.047426
27.960539
35.945773
50.955415
65.081716
84.924698
96.403956
106.134415
107.713938
103.366971
93.857646
78.848004
66.199899
52.924752
45.182705
39.396882
36.631823
33.738613
33.808947
33.035874
32.606721
32.942891
32.417774
31.667948
32.239556
31.783581
31.875968
31.619668
##ZVALUE=335
0.747442
0.995994
0.897646
0.823736
0.812411
0.835657
0.804663
0.760555
0.765920
0.830889
0.859499
0.866652
0.815988
0.852942
0.962615
0.952482
0.837445
0.953674
0.925660
0.873804
0.921488
0.889897
0.953674
0.890493
1.186728
1.149774
1.272559
1.343489
1.285672
1.143813
1.296997
1.279712
1.172423
1.220703
1.247525
1.537800
1.454949
1.459718
1.458526
1.563430
1.682639
1.619458
2.006888
1.986623
1.869798
2.297759
2.463460
2.820492
3.207922
7.165670
27.195811
108.882785
229.818821
517.258644
844.118595
1015.681624
1015.681624
1015.681624
1015.681624
1015.681624
1015.681624
1015.681624
801.517963
426.234007
223.828554
78.028440
33.059716
16.852617
15.206933
16.274452
18.287897
21.577477
26.724935
37.347674
48.359632
65.830946
79.266429
92.937946
99.386573
102.416873
97.626448
86.555481
76.359510
64.746737
55.932999
44.831634
39.215684
34.970641
33.104420
31.383634
31.099916
31.045675
30.472875
30.758977
30.403733
29.930472
##ZVALUE=340
0.790954
0.734925
0.871420
0.703931
0.728965
0.806451
0.767708
0.742674
0.726581
0.830889
0.653863
0.848770
0.866652
0.814795
0.858903
0.842810
1.040697
0.960827
1.016855
0.944734
0.995994
0.916719
0.971556
0.869632
1.159906
1.066923
0.877976
1.280904
1.161695
1.031756
1.028776
1.188517
1.180768
1.286864
1.104474
1.128912
1.337528
1.459718
1.474619
1.347661
1.629591
1.510978
1.573563
1.724958
1.882911
1.934767
2.062917
2.189875
2.328753
2.606511
2.738833
4.334450
13.145804
65.487623
162.405968
403.288603
693.700910
1015.681624
1015.681624
1015.681624
1015.681624
1015.681624
1015.681624
1015.681624
960.804820
514.775515
289.353728
119.096637
49.105883
18.770695
15.889406
15.801787
17.224550
18.967986
21.955967
28.040409
35.749674
48.248768
61.190724
77.048540
87.888837
95.619559
95.976591
93.699694
85.951686
74.627995
63.405633
51.405430
44.461489
37.153959
32.544732
30.514598
29.392838
28.648973
28.837919
28.353930
##ZVALUE=345
0.658631
0.690818
0.842810
0.821948
0.666976
0.704527
0.788569
0.635982
0.778437
0.780821
0.798702
0.744462
0.917912
1.030564
0.994802
0.922680
0.938773
0.791550
0.781417
1.065731
1.010895
0.936985
0.913739
0.976920
0.788569
1.000762
1.034737
0.950694
1.199841
1.096725
0.982881
1.113415
1.062751
1.044869
1.199841
1.189709
1.100898
1.194477
1.298785
1.347661
1.271963
1.269579
1.382828
1.477599
1.489520
1.745820
1.776814
1.771450
2.164841
2.224445
2.180934
2.462864
2.703667
3.166795
6.332994
37.653446
104.715824
277.319551
491.366982
909.677744
1015.681624
1015.681624
1015.681624
1015.681624
1015.681624
1015.681624
1015.681624
659.226775
381.581783
164.029598
73.204637
25.509596
16.425848
15.601516
16.152859
17.194748
18.401742
21.344423
25.981665
34.419894
44.548512
58.437586
69.869757
82.354546
87.404847
90.092421
88.446736
80.564618
71.939826
59.084892
49.951673
40.217638
35.954714
30.838847
28.963685
27.509928
##ZVALUE=350
0.698566
0.685453
0.679493
0.680685
0.736713
0.876784
0.755787
0.767708
0.852942
0.836849
0.834465
0.786781
0.913739
0.799894
0.838637
0.727773
0.756979
0.634789
0.945926
0.852942
0.871420
0.818968
0.911951
1.020432
0.926852
0.840425
0.941753
0.912547
0.888705
1.010895
1.032948
1.098514
1.021624
0.984669
1.021624
1.131892
1.167655
1.167655
1.261830
1.161695
1.277924
1.365542
1.358986
1.551509
1.418591
1.563430
1.527667
1.597404
1.655817
1.786947
1.814961
2.029538
2.085567
2.346635
2.516508
2.833605
3.791451
19.205809
59.054494
186.666846
357.346535
733.104944
1015.682817
1015.682817
1015.682817
1015.682817
1015.682817
1015.682817
1015.682817
796.073675
486.883521
214.164853
98.444819
30.134916
16.686916
14.459491
14.418960
15.189648
15.672445
17.684698
20.348430
26.213527
31.634569
41.087866
50.307512
63.569546
72.032809
79.324841
82.126856
80.484748
75.414777
64.635873
56.563616
45.873523
39.407611
32.970905
##ZVALUE=355
0.686646
0.852942
0.530481
0.756979
0.877976
0.815988
0.845790
0.761747
0.704527
0.817776
0.952482
0.780821
0.764728
0.804663
0.726581
0.783801
0.801682
0.952482
0.810623
0.830889
0.781417
0.721812
0.938773
0.836849
0.882745
0.813603
0.984669
0.900626
1.052618
0.995994
1.008511
1.058578
1.087785
1.069903
0.966787
1.134872
1.166463
1.005530
1.135468
1.229644
1.246929
1.221895
1.202822
1.341701
1.293421
1.417994
1.344681
1.522899
1.635551
1.638532
1.619458
1.692772
1.756549
1.933575
1.962781
2.280474
2.308488
2.648830
2.924800
8.985996
31.520724
122.129917
251.064897
532.532930
851.203799
1015.681624
1015.681624
1015.681624
1015.681624
1015.681624
1015.681624
954.483747
613.682866
275.510550
135.192871
43.852925
19.584894
13.673902
13.782978
13.808608
14.830828
15.617609
16.497970
18.983483
21.827817
28.430820
35.647750
46.211481
54.807663
65.077543
71.338415
74.421763
74.364543
68.425536
62.035918
52.193999
##ZVALUE=360
0.769496
0.767708
0.801682
0.732541
0.840425
0.709891
0.711679
0.820756
0.693798
0.770688
0.791550
0.846982
0.816584
0.778437
0.814795
0.849962
0.955462
0.920892
0.912547
0.914931
0.930429
0.979900
0.815988
0.938773
0.813603
0.973940
0.968575
0.941753
0.937581
0.896454
0.993609
1.078844
0.953674
0.989437
1.199841
1.086593
1.146793
1.132488
1.091957
1.224875
1.199841
1.117587
1.333952
1.312494
1.301765
1.529455
1.286864
1.399517
1.440644
1.559854
1.618862
1.675487
1.713634
1.725554
1.889467
1.862645
2.158880
2.154708
2.258420
2.563000
2.812743
4.495978
14.186502
63.674450
151.031017
372.650623
657.939911
1015.685797
1015.685797
1015.685797
1015.685797
1015.685797
1015.685797
1015.685797
760.374665
380.151868
200.167894
74.273944
30.450821
14.045835
12.945533
13.519526
13.731718
13.960600
14.554858
15.557408
16.703606
19.933581
24.054646
30.540824
37.619472
48.435926
55.180788
63.545704
67.006946
67.892671
##ZVALUE=365
0.714660
0.820756
0.689626
0.791550
0.714660
0.785589
0.711679
0.636578
0.734925
0.646710
0.823736
0.870824
0.914931
0.843406
0.878572
0.776649
0.892878
0.769496
0.883937
0.819564
0.959635
0.907779
0.811815
0.936985
0.925660
0.974536
1.085997
0.932813
0.855923
0.998974
0.822544
0.940561
0.991821
1.055598
1.017451
1.108646
1.090765
1.291633
1.024604
1.113415
1.184940
1.218915
1.177788
1.360774
1.429915
1.352429
1.225471
1.437664
1.504421
1.425743
1.360774
1.310706
1.534820
1.687407
1.656413
1.820922
2.010465
1.957417
2.254844
2.183914
2.320409
2.793670
2.926588
3.455877
6.485581
38.382411
102.582574
270.690918
498.422980
928.493738
1015.681624
1015.681624
1015.681624
1015.681624
1015.681624
1015.681624
928.211808
524.087548
287.371874
106.907487
43.105483
15.315413
12.259483
12.217760
12.545586
12.520552
12.762547
13.246536
13.323426
14.974475
17.054677
21.399856
25.724769
33.235550
40.510893
49.414635
##ZVALUE=370
0.522733
0.578761
0.532866
0.513792
0.703931
0.740886
0.648499
0.809431
0.786781
0.598431
0.680685
0.588894
0.556707
0.689626
0.686646
0.600815
0.679493
0.610948
0.668764
0.785589
0.767708
0.683665
0.810623
0.619888
0.761747
0.721812
0.832677
0.912547
0.823736
0.890493
0.899434
0.962615
0.914931
0.974536
0.916719
0.953674
0.957847
1.000762
0.864863
1.020432
0.964999
0.919700
1.025796
1.039505
1.123548
1.087785
1.289845
1.126528
1.049638
1.063943
1.153946
1.198649
1.176000
1.536608
1.495481
1.460910
1.499653
1.556873
1.706481
1.684427
1.795888
2.019405
2.127886
2.076626
2.497435
2.829432
3.845692
17.827749
58.185458
182.363987
353.788733
698.583722
1001.544595
1015.536785
1015.536785
1015.536785
1015.536785
1015.536785
1015.536785
638.540983
366.964936
148.918629
67.275763
21.035671
12.340546
10.851622
10.980964
10.992885
11.333823
11.451840
11.761785
12.681484
13.185740
15.300512
18.085837
23.040771
##ZVALUE=375
0.550747
0.310540
0.611544
0.515580
0.483990
0.451803
0.539422
0.579953
0.487566
0.571609
0.519753
0.547767
0.385642
0.448823
0.553727
0.646710
0.662804
0.465512
0.616908
0.576973
0.643730
0.539422
0.668764
0.696778
0.677705
0.811815
0.569820
0.646710
0.640750
0.809431
0.571609
0.728965
0.969768
0.667572
0.628829
0.747442
0.653863
0.752807
0.661612
0.923872
0.901818
0.768900
0.805855
0.823736
0.901818
0.767708
0.829697
0.814795
0.933409
1.042485
0.835657
1.037717
1.166463
0.892878
1.140833
1.091957
1.171827
1.327991
1.343489
1.226664
1.239777
1.596808
1.643896
1.507998
1.832843
1.972914
2.192855
2.506971
3.063679
8.545518
30.293465
112.564564
244.405866
552.395582
875.130892
1015.455723
1015.455723
1015.455723
1015.455723
1015.455723
1015.455723
782.253742
502.435565
249.948502
125.527978
40.352941
16.516447
9.857416
9.632707
9.977818
10.016561
10.202527
10.595918
11.017919
11.266470
12.447834
##ZVALUE=380
0.603795
0.773668
0.647902
0.751615
0.655651
0.708699
0.721812
0.726581
0.842810
0.791550
0.740886
0.752807
0.732541
0.751615
0.841618
0.728965
0.927448
0.673532
0.787973
0.743866
0.754595
0.819564
0.886917
0.860691
0.748634
0.767708
0.935793
0.918508
0.980496
0.784993
0.935793
0.813603
0.831485
0.948906
0.929832
0.930429
0.884533
0.895858
1.055598
0.970960
1.037717
0.940561
0.802875
0.957847
0.902414
0.970960
1.059771
1.070499
1.133680
1.101494
1.130700
1.046658
1.157522
0.997782
1.341701
1.226664
1.283884
1.427531
1.307726
1.402497
1.247525
1.474619
1.606941
1.482964
1.569986
1.683831
1.972914
2.114773
2.398491
2.585649
2.887845
4.765987
16.773939
82.608461
192.159414
452.953577
736.807585
1015.659571
1015.659571
1015.659571
1015.659571
1015.659571
1015.659571
975.024700
677.031875
342.195630
177.163482
62.865615
25.177598
10.471940
9.300709
9.170771
9.216666
9.786487
9.902716
10.206699
##ZVALUE=385
0.734925
0.671744
0.715852
0.721812
0.695586
0.600815
0.668764
0.710487
0.674725
0.708699
0.663996
0.868440
0.739694
0.749826
0.706911
0.709891
0.772476
0.867844
0.759959
0.726581
0.730753
0.527501
0.528693
0.762939
0.734925
0.697970
0.757575
0.799894
0.758767
0.709891
0.806451
0.714660
0.796914
0.888705
0.853539
0.888705
0.957847
0.832677
0.814795
0.929832
0.887513
0.941753
0.899434
0.742674
0.831485
0.902414
1.045465
0.944734
1.038909
0.977516
0.973940
1.040697
1.112819
1.064539
1.019835
1.052618
1.012683
1.083612
1.120567
1.197457
1.198649
1.285672
1.345873
1.177788
1.364946
1.529455
1.534820
1.684427
2.020597
2.110600
2.365708
2.630949
2.703667
3.336668
8.393526
45.872927
122.072697
313.445926
554.322600
975.002646
1015.679836
1015.679836
1015.679836
1015.679836
1015.679836
1015.679836
843.723416
467.941761
270.159841
111.436844
45.593977
12.935996
8.563995
8.412600
8.566976
8.653998
##ZVALUE=390
0.711679
0.774860
0.585914
0.616908
0.694990
0.651479
0.552535
0.669956
0.705719
0.527501
0.657439
0.757575
0.785589
0.724792
0.762939
0.552535
0.637770
0.654459
0.727773
0.746846
0.725985
0.732541
0.696778
0.707507
0.677705
0.626445
0.852942
0.795722
0.672936
0.815988
0.754595
0.804663
0.653863
0.874996
0.778437
0.667572
0.955462
0.969768
0.902414
0.884533
0.850558
0.772476
0.790954
0.786781
0.841618
0.768900
0.953674
0.924468
0.893474
1.035929
0.891685
0.986457
0.941753
0.996590
0.953674
1.100898
1.043677
1.035929
1.234412
1.215935
1.254678
1.122952
1.239777
1.259446
1.294613
1.559854
1.488924
1.570582
1.922846
1.961589
2.292991
2.354980
2.260804
2.527833
2.375841
2.948642
4.463792
25.287867
79.060793
243.587494
458.739996
873.111486
1015.681028
1015.681028
1015.681028
1015.681028
1015.681028
1015.681028
1015.680432
661.872625
389.053822
161.162615
73.169470
20.553470
9.656549
8.242726
##ZVALUE=395
0.784993
0.720620
0.624657
0.679493
0.664592
0.800490
0.734925
0.711679
0.858903
0.455976
0.779629
0.740886
0.806451
0.621676
0.628829
0.785589
0.658631
0.674725
0.724792
0.576973
0.786781
0.732541
0.717640
0.747442
0.673532
0.729561
0.719428
0.875592
0.915527
0.993609
0.895858
0.900626
0.757575
0.704527
0.935793
0.618696
0.822544
0.803471
0.905991
0.830889
0.877976
0.862479
1.019835
1.049638
0.923872
0.893474
1.001954
0.968575
0.878572
0.897646
0.956655
1.015663
1.047850
1.132488
1.100898
1.108646
0.993609
1.106858
1.146793
1.345873
1.233816
1.170635
1.207590
1.325607
1.187921
1.328588
1.567602
1.693964
1.848936
1.968741
2.030730
2.102852
2.171993
2.338886
2.209544
2.278686
2.469420
2.543926
3.453493
16.729832
60.428977
196.028948
363.220572
683.376789
982.998013
1015.731692
1015.731692
1015.731692
1015.731692
1015.731692
1015.731692
804.272890
505.379438
224.713683
108.592510
34.970641
##ZVALUE=400
0.550747
0.634789
0.581741
0.636578
0.594854
0.742674
0.613928
0.657439
0.665784
0.571609
0.595450
0.573993
0.705719
0.618696
0.690818
0.582933
0.610948
0.524521
0.769496
0.812411
0.723600
0.736713
0.662804
0.787973
0.534654
0.720620
0.689626
0.653863
0.923872
0.823736
0.689626
0.608563
0.833869
0.846982
0.763535
0.766516
0.740886
0.841618
0.895858
0.748634
0.927448
0.882745
0.871420
0.718832
0.949502
0.759959
0.945926
0.801682
0.939965
0.929832
0.733733
0.992417
0.884533
1.033545
0.977516
1.003742
0.913739
1.063943
1.069903
1.035929
1.120567
1.205802
1.114607
1.192689
1.371503
1.218915
1.497865
1.497865
1.569986
1.751781
1.846552
1.866817
2.233982
1.937747
1.963973
1.918674
2.107620
2.175570
2.340674
2.438426
2.867579
9.857416
38.075447
135.414004
274.377465
574.097633
888.594985
1015.682817
1015.682817
1015.682817
1015.682817
1015.682817
1015.682817
937.857628
620.092750
314.972997
##END
