##TITLE=FQP00651
##FORMAT=SPECTACLE-ASCII V-1.2
##DATA TYPE=ULTRAVIOLET SPECTRUM
##SECOND TYPE=ULTRAVIOLET SPECTRUM
##DATE=10/03/17
##TIME=13:11:55
##SPECTROMETER/DATA SYSTEM=SPECTACLE
##XUNITS=NM EM
##YUNITS=ENERGY
##YFACTOR=1
##FIRSTX=220
##LASTX=410
##NPOINTS=96
##3DDATA=Equidistant
##ZUNITS=NM EX
##FIRSTZ=210
##LASTZ=400
##ZPOINTS=39
##XYDATA=(Y..Y)
##ZVALUE=210
5.787611
5.217791
4.476905
4.579425
4.844666
5.429983
6.228685
6.222725
8.220673
9.093881
8.794665
8.878708
10.909438
11.743903
12.387633
13.341904
14.793873
16.500950
16.627908
18.493533
19.810796
21.722913
22.027493
22.598505
24.460554
27.786493
28.495789
29.758811
30.006766
29.945970
32.770634
32.009482
33.953786
32.227635
33.625960
36.296844
36.281943
37.283897
35.818815
38.697720
40.750504
39.843917
40.854812
38.293600
41.684508
42.383671
42.941570
41.528940
42.500496
43.909550
45.068860
45.759678
44.668913
47.100782
46.264529
44.666529
47.170520
45.685768
46.818852
48.094988
47.040582
46.883821
49.342513
50.316453
51.627755
53.134561
55.930614
58.175921
67.545772
78.586936
101.311803
116.370916
141.897798
163.026452
185.975432
202.970505
228.537917
230.161548
235.615969
232.101679
220.882893
201.234818
174.466968
148.817897
116.881728
95.820427
72.024465
58.606863
46.643615
47.715902
42.578578
42.749643
41.355491
39.366484
41.321516
38.690567
##ZVALUE=215
19.771457
19.265413
17.846823
14.228821
11.302829
9.642839
8.512735
6.913543
8.035898
8.381605
8.760691
9.372830
9.801984
9.485483
8.926988
10.418892
10.553598
10.540485
11.298656
12.682676
14.713407
13.429523
14.908910
17.136931
17.771721
19.328594
19.483566
21.251440
21.987557
22.320747
23.074746
21.857619
26.384592
24.272799
25.339723
25.259852
25.626421
27.344823
26.975870
26.681423
27.010441
26.158690
27.234554
28.469563
28.709769
28.562546
28.955936
30.887723
31.412840
31.271577
31.496882
30.641556
30.981898
31.107664
31.468868
32.586455
32.945871
31.984448
32.444000
31.586885
33.674836
31.697750
32.832623
31.868815
35.060644
33.978820
36.509633
40.409565
42.920709
52.145720
61.759949
73.271990
85.897446
98.277926
107.331872
123.784542
131.979585
134.386420
133.921504
136.432648
130.812526
110.940933
102.674961
84.926486
72.042942
55.010915
46.594739
39.994717
34.600496
30.537844
28.790832
28.985739
28.129816
27.147532
27.049780
27.093887
##ZVALUE=220
63.377619
65.594912
69.281459
68.707466
64.307451
48.996806
38.012862
24.644732
18.103719
13.060570
14.079809
15.922785
14.478564
13.984442
12.532473
11.992455
11.164546
10.996461
10.586977
10.246634
10.853410
11.557937
13.489723
12.659431
15.011430
14.805794
15.034676
16.198754
16.849637
17.233491
18.010736
18.322468
19.616485
19.654632
19.901991
20.665526
19.962788
20.180941
21.176934
20.839572
20.970702
22.709966
20.120740
21.646619
20.618439
23.484826
22.473931
22.991896
21.151900
23.841858
23.447871
22.271872
24.643540
25.265813
24.094582
24.037957
24.184585
24.317503
24.138689
25.602579
25.863647
26.047826
24.841428
26.279688
25.592446
24.734735
28.266907
29.219985
30.125976
35.722852
42.928457
49.866438
56.673884
64.454675
75.640678
82.050562
87.077618
91.497898
92.170835
89.887977
86.173415
79.698563
73.462725
62.253475
51.398873
42.910576
33.485889
28.314590
24.358630
22.919774
21.475554
21.924973
20.782948
19.595623
19.459724
18.024445
##ZVALUE=225
82.570910
86.246729
120.968819
153.835416
170.353651
176.198483
161.028504
129.856467
95.417500
68.315864
38.357973
25.456548
26.924610
28.215647
26.234984
25.452971
25.717616
19.797683
17.155409
12.437701
11.413693
11.697412
11.789799
10.903478
11.844635
12.184978
12.837648
13.518929
14.777780
14.086962
16.023517
15.059710
16.279817
15.499592
17.040968
16.414523
17.677546
17.997622
16.905665
18.255711
17.838478
18.395782
17.843843
19.041896
19.031763
20.138621
18.795729
20.454526
19.009709
19.331574
19.028783
21.181703
21.006465
19.463897
20.069480
19.471645
20.774603
21.043420
20.302534
20.141602
20.689964
20.933747
20.732880
23.259521
18.900633
24.098754
22.820830
24.193525
25.342703
29.164553
31.570792
35.698414
39.514899
45.315623
49.386621
50.443411
51.911473
53.127408
54.331422
50.910711
47.774911
43.299794
39.652586
33.794641
32.277703
27.789474
24.381876
19.821525
18.904805
18.826723
16.723871
17.702579
17.863512
16.335845
16.500950
17.138720
##ZVALUE=230
55.582523
64.197779
106.809735
177.878737
237.385631
305.261612
338.300467
344.783664
317.458510
269.196630
185.841918
128.058791
75.920820
56.051612
48.448443
47.918558
50.515532
50.640702
45.915842
38.621426
31.451583
20.351410
17.135739
11.736751
11.046529
10.886788
11.782646
10.479689
10.882616
11.935830
12.963414
12.665987
11.574626
13.649464
15.453696
14.074445
14.417768
14.747977
15.112758
14.693737
16.437769
17.058849
17.299652
17.579794
17.695427
18.203855
18.609762
17.682910
19.185543
18.489957
21.355748
20.262599
21.051764
19.936562
19.650459
19.440651
21.964908
21.459460
20.576715
20.837784
21.440983
23.232698
24.371743
21.744967
23.872852
23.407936
23.746490
25.131702
25.490522
28.543472
30.285716
35.803914
36.547780
42.401552
43.493509
44.294000
47.559738
45.662522
48.197508
43.974519
41.718483
38.760900
36.273599
33.231974
29.924512
27.170777
24.833679
22.944808
21.851659
19.888878
21.033883
20.741820
19.678473
19.386411
18.795729
17.627478
##ZVALUE=235
17.721653
21.867752
46.165586
108.018517
187.234879
307.967663
417.554975
552.177429
623.348951
649.434924
599.456429
490.812659
340.785980
241.886973
146.571994
97.656846
73.635578
76.361895
79.409480
81.840754
76.810718
65.529943
51.270723
38.798451
30.811429
19.537807
15.104413
13.323426
12.750626
12.608767
11.437535
11.128783
11.915565
13.491511
13.672709
13.544559
13.617873
13.948679
15.710592
16.094446
16.773939
18.546581
19.734502
18.904805
19.507408
20.296574
22.593737
22.198558
24.149418
23.881793
24.777651
24.507642
25.674701
24.384856
25.489926
25.510788
25.062561
27.445555
27.030706
27.953982
26.572943
27.473569
27.185678
27.748942
28.589964
29.670000
29.896498
30.009747
33.257604
34.841895
33.988953
38.496852
40.720701
45.600533
45.626760
45.392513
47.625899
48.064590
46.308637
46.038628
44.585466
39.957762
37.041903
34.763813
32.390952
30.472875
29.136539
26.424527
26.879907
26.324987
24.427772
25.333762
24.365783
24.341941
23.745894
22.365451
##ZVALUE=240
2.991557
3.991723
8.339882
24.399757
64.932704
127.189755
266.477466
425.046682
665.910840
825.333595
959.414840
997.333527
932.601690
761.835575
605.543852
379.663706
253.110528
156.133771
115.962625
103.214979
109.439492
115.507841
114.265680
105.332732
81.824660
69.878697
48.346519
34.101605
23.721457
17.972589
15.305877
13.623834
13.541579
13.199449
14.607906
15.266538
14.052987
17.382503
17.244816
17.800927
18.937588
19.974709
23.586750
24.309754
23.738742
26.801825
28.899908
27.897954
29.937625
31.696558
32.731891
33.173561
33.885837
34.738779
33.211708
35.472512
32.711625
37.073493
33.266544
35.330653
34.578443
35.522580
36.365986
34.773946
35.696626
37.013888
35.560727
39.520860
37.735701
42.190552
42.041540
44.303536
48.398972
49.546957
51.033497
53.215623
52.111745
49.961805
49.496889
49.346685
46.550632
43.116808
44.062734
38.720965
37.510991
36.329627
33.004880
30.635595
32.004714
28.589964
30.496716
28.731823
28.728843
28.562546
27.287602
25.761724
##ZVALUE=245
2.441406
2.356768
2.674460
3.566742
6.016493
16.803741
55.808425
121.005774
275.640488
452.508926
735.301971
952.258706
1015.671492
1015.671492
1015.671492
1009.812951
838.607550
567.033887
390.350819
221.613646
143.396854
110.247731
112.273693
125.636458
132.030845
127.934813
109.818578
97.525716
73.687434
56.503415
43.824911
26.668906
21.981001
16.951561
14.373660
14.799833
14.529824
14.658570
16.021729
17.763972
18.307567
21.615624
21.694899
23.764968
24.955869
28.041601
27.791858
31.092763
33.008456
33.528805
35.216808
36.686659
35.576820
36.990643
36.586523
35.951734
37.418604
37.519932
39.096475
35.017729
34.219623
35.808682
34.685731
34.289956
35.948753
35.530925
36.394596
35.931468
36.579967
37.487745
38.338900
41.395426
41.235685
43.388605
43.928623
46.390891
44.868588
44.239759
42.426586
42.580962
42.130947
39.612651
36.786795
34.831762
33.620596
32.361746
32.365918
30.631423
30.772686
28.542876
29.154420
28.698444
27.093887
26.638508
28.008819
26.282668
##ZVALUE=250
2.543926
2.321601
2.344847
2.434850
2.597570
3.056526
4.080534
11.280775
44.496655
99.088550
247.298479
425.221920
648.377538
976.676941
1015.706658
1015.706658
1015.706658
1015.706658
1015.706658
779.997706
528.796911
329.939723
171.577930
117.777586
106.427670
123.446584
137.254000
140.512586
133.017898
124.964714
110.689998
81.961751
62.649846
39.041638
28.534532
19.919872
16.955733
16.391873
15.763640
17.237663
18.388629
20.390749
21.534562
25.407672
24.815798
28.489828
28.821826
30.136704
32.487512
32.908916
35.639405
36.024451
34.552813
35.384893
36.546588
36.930442
35.884976
36.282539
36.628842
33.620000
33.385754
34.225583
34.425855
32.881498
32.890439
31.591654
30.637980
32.401681
32.505989
33.356547
33.715963
33.808947
35.288930
37.716627
38.207769
36.456585
37.606955
38.090944
35.850406
35.596490
32.949448
33.526421
32.253861
31.353831
28.856993
28.613806
27.279854
26.833415
27.575493
26.657581
25.343895
24.991632
25.356412
24.553537
24.534464
23.700595
##ZVALUE=255
2.197623
2.188683
1.989603
1.817942
2.125502
2.602935
2.898574
2.628565
3.069639
6.430745
28.053522
70.365667
153.518915
352.998972
577.897429
950.747728
1015.681624
1015.681624
1015.681624
1015.681624
1015.681624
1015.681624
698.758960
444.916487
220.560431
136.829615
102.038980
106.773973
129.000545
141.947865
148.674846
147.787929
131.405592
106.266737
85.827708
57.337880
43.525696
29.190779
22.098422
18.633604
17.474890
18.298626
20.579696
21.217465
23.127794
25.383830
25.760531
27.005672
28.396845
30.101538
30.390620
30.686855
30.553937
30.864477
31.376481
31.169653
30.598640
30.342937
30.255914
30.050874
29.525757
27.327538
28.632879
26.418567
27.349591
26.815534
26.238561
26.439428
25.976896
27.531981
28.745532
29.149652
29.267669
30.649900
31.446815
32.465458
31.361580
31.242967
29.831529
30.577779
28.872490
28.492808
27.277470
25.251508
24.096966
24.440885
22.735596
23.388863
23.828745
22.351742
22.354722
23.139715
21.551847
21.338463
22.274852
22.367835
##ZVALUE=260
1.941919
1.804829
2.017617
1.971722
2.077818
1.943707
2.247691
2.379417
2.329946
2.718568
2.680421
4.319549
11.874437
50.092936
108.647943
271.768570
473.420620
838.004947
1015.546918
1015.546918
1015.546918
1015.546918
1015.546918
1015.546918
932.207108
632.666945
348.790884
203.684568
107.403994
94.248652
106.180906
131.342411
145.937800
154.386759
149.819851
134.498477
113.725662
86.307526
64.416528
43.208599
32.590628
23.719668
20.077825
20.607710
20.131469
21.898746
21.918416
23.488998
25.223494
24.688840
24.296641
25.791526
25.215745
25.431514
24.837852
24.920702
24.364591
25.255680
24.197698
24.014711
22.104979
23.292899
22.561550
22.060871
24.165511
22.137761
23.006797
21.868944
21.763444
23.939610
23.866892
24.312735
25.590658
25.997758
25.681853
26.916862
27.116537
26.118755
25.779605
24.938583
24.493933
23.544431
24.162531
22.025704
21.996498
22.156835
20.897985
21.076798
21.002889
19.764900
19.489527
20.418763
19.707680
18.885732
20.393729
19.013882
##ZVALUE=265
1.619458
1.844764
1.998544
1.937747
1.774430
2.037883
2.348423
1.954436
2.165437
2.215505
2.629757
2.563000
2.719760
3.076792
6.277561
29.015541
73.855519
199.922919
371.707678
747.922659
1015.681624
1015.681624
1015.681624
1015.681624
1015.681624
1015.681624
1015.681624
882.377028
486.278534
283.658504
159.395933
88.018775
88.989735
114.460588
135.339499
153.447986
156.883597
151.055455
135.767460
113.863945
90.142488
62.245727
47.382712
31.617880
26.523471
21.219850
20.075440
20.546913
20.420551
20.635724
21.394491
21.564960
21.542907
21.396875
21.449924
21.770000
20.469427
19.831657
19.944906
19.251704
20.102859
18.619895
18.501878
18.921494
18.409491
18.542409
18.999577
19.329786
19.598603
19.643903
19.644499
21.808743
22.196770
22.702813
24.206638
22.877455
23.755431
22.757649
21.955967
22.195578
21.606684
20.112991
20.506978
20.075440
19.592643
19.749999
19.173622
18.044710
18.418431
17.699599
18.606782
18.364787
17.671585
17.928481
18.159747
18.001795
##ZVALUE=270
1.540780
1.587868
1.756549
1.547933
1.767874
1.881719
1.870990
2.026558
2.190471
2.083778
2.334714
1.987815
2.427697
2.708435
2.656579
2.796650
4.683733
12.189746
35.534501
125.736594
272.783041
615.680814
960.671902
1015.681624
1015.681624
1015.681624
1015.681624
1015.681624
1015.681624
1015.681624
758.901834
381.946564
210.171938
95.328689
72.553754
88.428855
110.448599
136.062503
150.936842
158.808827
155.547857
138.010979
115.360618
88.304877
67.042708
44.934750
33.753514
24.648905
21.523833
19.676685
18.335581
18.627644
18.912554
18.830895
18.582940
18.605590
18.078685
17.263889
17.773509
17.764568
16.844869
16.231537
16.427636
17.357469
16.536713
16.640425
17.252564
17.183423
17.211437
18.308759
18.037558
19.195676
20.515919
20.693541
21.323562
21.699667
20.859838
21.164417
20.030737
19.700527
20.236969
19.296408
18.537641
17.346740
17.629862
16.930699
17.253757
18.147826
16.576648
16.485453
16.909838
16.525984
16.441941
15.906692
16.071796
16.706586
##ZVALUE=275
1.477599
1.569986
1.418591
1.499653
1.616478
1.425743
1.772642
1.641512
1.794696
1.779795
1.858473
1.956820
2.014637
2.603531
2.414584
2.327561
2.524853
2.966523
3.145933
8.334517
28.423667
81.859827
241.734982
462.340713
908.543468
1015.653610
1015.653610
1015.653610
1015.653610
1015.653610
1015.653610
1015.653610
998.069644
550.334454
312.447548
126.523972
72.086453
65.581799
82.816482
113.400817
130.870938
152.652860
157.487988
152.698755
141.288638
110.865831
91.495514
66.080689
49.978495
33.175945
25.315881
19.410849
17.947555
16.472936
16.462803
16.203523
16.655922
16.224980
16.165972
15.506744
16.386509
16.458631
15.611649
16.194582
16.163588
15.942454
16.758442
15.839934
16.805530
17.174482
17.710924
18.212795
19.460917
19.686818
20.204782
19.566417
19.745827
18.866658
19.758940
19.045472
18.873811
17.854571
17.781854
17.036796
16.485453
16.585588
16.152859
15.684962
16.040802
15.747547
15.494823
15.249848
15.296936
15.137792
15.336871
15.269518
##ZVALUE=280
1.441836
1.388788
1.177788
1.350641
1.345873
1.707673
1.472831
1.451969
1.537800
1.539588
1.818538
1.903772
1.710653
2.164841
2.042651
2.003908
2.364516
2.229810
2.344847
3.045797
2.864599
4.534721
15.948415
70.140958
166.551471
402.726531
668.019652
1015.681624
1015.681624
1015.681624
1015.681624
1015.681624
1015.681624
1015.681624
1015.681624
705.491900
412.042737
170.401931
83.496571
51.029921
61.317682
88.145733
108.532906
136.491656
148.646832
154.988766
149.844885
132.197738
115.063787
86.016655
66.748857
45.659542
33.443570
23.394823
18.148422
15.756488
15.523434
14.885664
14.917850
14.936924
15.541911
15.474558
15.560985
15.451908
15.519857
15.375614
16.115904
15.867949
16.096830
16.824603
16.784668
17.353892
17.729998
18.567443
18.714666
18.063784
19.040704
18.301606
17.913580
17.544627
17.094612
16.884804
16.700625
16.280413
16.236901
16.339421
15.201569
15.616417
15.402436
14.990568
13.796687
14.130473
13.695955
14.592409
14.947653
14.328957
##ZVALUE=285
1.183748
1.234412
1.101494
1.091957
1.226664
1.257658
1.334548
1.274943
1.433492
1.417994
1.498461
1.450777
1.674891
1.474619
1.740456
1.593828
1.816750
1.758933
2.133846
2.134442
2.540946
2.655983
2.818704
3.400445
9.574890
32.185912
109.347701
222.047567
487.760901
809.226036
1015.553474
1015.553474
1015.553474
1015.553474
1015.553474
1015.553474
1015.553474
944.787860
592.103004
271.262527
131.970644
52.456856
41.189790
58.265924
78.657866
107.742548
127.021670
144.569874
151.312947
146.083832
133.595467
111.780763
90.563893
64.623952
46.922565
30.853748
22.198558
16.769767
14.603734
13.902783
14.025569
14.081597
14.577508
13.484955
14.374852
14.359951
14.735460
14.860630
15.290976
16.172528
16.068816
16.885996
16.703606
18.117428
17.612576
17.856956
17.825961
17.192960
17.290711
16.454458
15.884638
16.518831
15.967488
15.444756
15.102625
15.090704
15.408993
14.718771
14.749765
13.603568
14.320612
14.063716
13.521910
13.646483
13.610721
13.548732
##ZVALUE=290
1.348853
1.301765
1.309514
1.375675
1.351833
1.215935
1.307726
1.262426
1.485944
1.421571
1.543760
1.434684
1.367927
1.508594
1.472831
1.757741
1.852512
1.904964
1.774430
2.168417
2.096891
2.197623
2.700686
2.714992
3.207922
3.304482
4.617572
13.877749
62.043667
142.150521
283.093452
621.175766
974.936485
1015.681624
1015.681624
1015.681624
1015.681624
1015.681624
1015.681624
1015.681624
821.788907
400.922894
203.395486
71.422458
37.074685
39.174557
51.698685
76.087713
96.134543
122.370720
138.006806
145.113468
143.864751
128.341913
110.696554
83.225965
63.124895
42.904615
30.532479
20.953417
17.211437
14.302731
13.263822
12.927651
13.047457
13.257861
14.211535
14.023781
14.512539
15.340447
15.554428
15.549660
16.192794
16.755462
16.348958
16.634464
16.596913
16.206503
15.803576
15.702844
15.537739
15.141964
15.174747
14.746785
14.873743
14.555454
14.183521
14.143586
13.704896
13.643503
13.087988
13.717413
13.069510
13.500452
13.451576
12.683868
##ZVALUE=295
1.037717
1.179576
1.119971
1.041889
1.222491
1.254678
1.295805
1.266599
1.380444
1.420975
1.307726
1.207590
1.601577
1.297593
1.484752
1.451969
1.456738
1.606941
1.705885
1.772642
1.772642
2.014637
2.132654
2.326965
2.489686
2.760887
2.927780
3.302693
3.507733
6.522536
32.387972
90.023875
201.912522
483.238697
808.295012
1015.682817
1015.682817
1015.682817
1015.682817
1015.682817
1015.682817
1015.682817
995.904803
540.364981
292.294025
105.059743
45.416951
27.136803
32.582879
50.376654
67.943931
93.911886
111.067891
131.305456
137.600899
136.115551
122.579932
102.278590
83.841681
59.033632
43.836832
28.746724
21.199584
15.622973
13.614893
12.705922
12.389421
12.529492
12.634993
13.482571
13.724566
14.586449
15.351772
15.491843
15.640855
15.686750
15.176535
14.905930
14.770627
14.658570
13.919473
14.019608
13.959408
14.258623
13.787746
13.539791
13.771653
13.763905
13.541579
13.424754
12.881756
12.863874
12.802482
12.777448
12.486577
12.483597
##ZVALUE=300
1.126528
1.059771
1.185536
1.074672
1.236796
1.017451
1.146793
1.314878
1.063943
1.284480
1.215935
1.171827
1.324415
1.259446
1.416802
1.504421
1.341701
1.603961
1.526475
1.573563
1.739860
1.751781
1.650453
1.733899
1.989603
2.000928
2.378821
2.748966
2.794862
3.006458
3.308654
3.973842
17.493963
58.308840
180.514455
343.109965
700.957775
1015.681624
1015.681624
1015.681624
1015.681624
1015.681624
1015.681624
1015.681624
1015.681624
818.594694
402.762890
211.388469
73.618889
29.746890
23.023486
29.428601
45.331717
61.767697
86.166859
104.495883
124.643445
129.289627
128.506422
120.589733
100.306869
83.639622
59.498549
44.295788
29.490590
21.582842
15.638471
13.699532
12.526512
12.897849
13.250709
13.744831
13.627410
14.398694
14.323592
14.709830
14.354587
14.568567
14.493465
13.883710
13.743639
13.712645
13.147593
13.694763
13.389587
13.704896
13.651848
13.024807
13.066530
13.102889
13.142824
12.676716
12.637973
12.643933
11.968613
12.089610
##ZVALUE=305
1.024604
0.967979
0.914931
0.791550
1.061559
0.976920
1.086593
1.059771
1.056790
1.023412
1.193881
1.108646
1.180768
1.407862
1.347661
1.120567
1.449585
1.325607
1.557469
1.514554
1.667738
1.640916
1.614690
1.786947
2.012849
1.931787
1.886487
1.953840
2.307892
2.359748
2.632737
3.005862
3.126860
3.712773
6.519556
37.947893
103.657842
285.170674
508.104563
950.791836
1015.681624
1015.681624
1015.681624
1015.681624
1015.681624
1015.681624
1015.681624
966.882706
615.330935
273.218751
129.455924
39.976835
20.257831
20.697713
28.042793
43.956637
59.999824
81.831813
99.422932
118.604898
124.440789
122.738481
114.127994
95.818639
80.161691
57.735443
43.581724
27.999878
20.852685
16.135573
14.041662
13.606548
13.853908
13.887882
14.370680
13.562441
14.261603
13.688803
13.929605
13.453960
13.637543
13.726950
14.201999
13.794899
13.403893
12.959838
13.242960
13.238788
13.551712
13.280511
12.816787
12.326837
12.859702
12.635589
12.408495
12.429953
##ZVALUE=310
1.111627
0.931621
0.993609
1.174808
0.951886
1.127720
1.042485
1.088977
0.884533
1.129508
1.069903
1.010895
1.109838
1.252890
1.176000
1.286864
1.305938
1.231432
1.307726
1.442432
1.440644
1.284480
1.478791
1.428723
1.680851
1.723766
1.725554
1.809597
2.019405
2.163649
2.096891
2.341866
2.306700
2.577901
2.991557
3.474951
4.037619
15.757680
51.958561
170.534849
334.025621
694.530010
1013.066769
1015.682817
1015.682817
1015.682817
1015.682817
1015.682817
1015.682817
1015.682817
869.969726
434.155464
225.189924
75.475574
29.149652
15.481710
18.093586
26.248693
36.741495
54.887533
70.687532
93.757510
106.465816
116.408467
118.170977
110.200644
97.403526
77.743530
60.961843
41.638613
31.021833
22.578835
18.064976
14.958978
14.427900
13.503432
13.932586
13.742447
13.529658
13.833642
13.453960
13.639927
13.019443
13.864636
13.763905
13.219714
13.470650
13.510585
13.049841
13.065934
12.656450
12.827516
12.792945
12.533665
12.478828
12.229681
##ZVALUE=315
0.850558
0.854731
0.880957
1.029968
0.765920
0.825524
1.080632
1.005530
1.157522
1.012683
1.042485
1.090765
1.220703
0.990629
1.017451
1.106858
1.271963
1.194477
1.207590
1.277924
1.062751
1.174808
1.299977
1.334548
1.471639
1.349449
1.519918
1.762509
1.674891
1.772642
1.789927
1.908541
2.118945
2.177954
2.367496
2.542734
2.721548
3.060699
3.612638
6.258488
22.834539
94.289780
210.329890
491.641760
843.231678
1015.681624
1015.681624
1015.681624
1015.681624
1015.681624
1015.681624
1015.681624
1015.681624
594.704747
319.934487
112.895966
44.034719
16.335845
14.332533
17.834902
23.559928
36.286712
48.407912
68.247914
84.882975
102.308989
109.468699
111.620426
105.307698
90.445876
76.447725
56.982636
44.230819
29.791594
22.892952
17.412901
15.412569
14.205575
13.485551
13.442636
13.160706
13.014674
13.371706
13.370514
13.111830
13.100505
13.126731
13.017654
13.400912
13.076663
12.378693
12.978911
12.236834
12.473464
11.963844
12.441874
##ZVALUE=320
0.786781
0.844598
0.836849
0.880957
0.859499
0.871420
0.860691
1.019835
1.078844
0.862479
1.004934
1.044869
1.187921
1.020432
1.114607
0.996590
1.088977
1.111627
1.119971
1.196861
1.261830
1.210570
1.009703
1.169443
1.218915
1.166463
1.356602
1.545548
1.618862
1.676679
1.583695
1.760721
1.806617
1.930594
2.148747
1.970530
2.302527
2.469420
2.605915
2.836585
3.232956
3.917813
10.502934
52.390695
134.628415
363.090038
622.138977
1015.681624
1015.681624
1015.681624
1015.681624
1015.681624
1015.681624
1015.681624
1015.681624
768.476725
438.894629
180.012584
75.874925
22.944808
12.858510
13.511777
15.372634
21.992922
30.414462
47.409534
61.408877
80.909729
94.310641
106.260777
106.913447
100.827813
90.027452
71.534514
57.312846
39.784908
30.079484
21.836758
17.591715
14.456511
13.907552
13.359785
13.499856
13.011694
13.096929
13.148785
13.117790
13.109446
13.115406
12.993813
12.998581
12.634993
12.243986
12.382865
12.241602
12.264848
##ZVALUE=325
0.918508
0.897646
0.757575
1.071692
0.894666
0.915527
0.935793
0.919700
0.816584
0.790954
0.952482
0.978708
0.938773
0.982881
0.957847
0.972748
0.958443
1.121759
1.001954
1.127720
1.058578
1.010895
1.027584
1.193881
1.255870
1.204610
1.381636
1.429915
1.345873
1.495481
1.391768
1.451969
1.690984
1.651645
1.806617
1.856685
1.987815
2.068877
2.115965
2.351999
2.370477
2.845526
2.766848
3.269911
6.249547
34.695864
92.061758
248.664021
458.613634
910.367966
1015.681624
1015.681624
1015.681624
1015.681624
1015.681624
1015.681624
1015.681624
952.976942
581.915975
252.261758
115.652680
33.394694
15.126467
11.326671
12.474656
15.508533
20.571947
31.128526
43.492913
62.247515
77.406764
91.498494
99.150538
101.629496
96.271634
81.589818
68.734884
51.011443
39.395690
26.755929
20.924807
16.219616
14.648438
13.636947
13.237596
13.200641
13.002753
12.872815
12.637973
12.370944
12.896657
12.804866
12.211800
12.269616
12.032986
12.095571
##ZVALUE=330
0.790954
0.872612
0.820756
0.875592
0.743866
0.842810
0.803471
0.939965
0.799894
0.857711
0.911951
0.958443
0.839829
0.814795
0.941753
1.012683
0.858903
1.032948
0.935793
0.981688
1.020432
1.063943
1.052618
0.973940
1.220703
1.201630
1.156926
1.349449
1.278520
1.434684
1.306534
1.446605
1.280904
1.429915
1.555681
1.571774
1.675487
1.757741
1.715422
2.167821
1.979470
2.232790
2.263784
2.786517
2.657771
3.342628
4.006624
15.161633
48.548579
164.203644
327.292681
694.880486
1015.684605
1015.684605
1015.684605
1015.684605
1015.684605
1015.684605
1015.684605
1015.684605
767.449737
354.338884
176.292658
59.643984
23.340583
11.555552
11.020899
12.535453
14.927983
21.060705
29.449463
43.251514
56.073666
75.474977
86.174607
94.542503
95.689893
88.642836
78.573823
63.259602
50.299764
35.889745
27.418733
20.445585
17.134547
14.074445
13.256669
13.013482
12.772679
12.748837
12.282729
12.419820
12.198687
12.047887
12.244582
11.791587
##ZVALUE=335
1.009703
0.906587
0.761747
0.755787
0.818968
0.904799
0.972748
0.919700
0.803471
0.918508
0.946522
0.974536
1.024604
0.959635
0.848770
0.890493
1.001954
0.940561
1.055598
1.002550
1.131892
1.194477
1.020432
1.209974
1.299977
1.256466
1.428723
1.290441
1.347661
1.335740
1.382828
1.393557
1.427531
1.506805
1.540780
1.518726
1.644492
1.692772
1.737475
1.747608
1.863837
1.843572
2.013445
2.256632
2.369881
2.383590
2.688766
3.002882
3.147721
7.387996
25.246739
100.131631
214.841962
505.433679
859.474540
1015.809774
1015.809774
1015.809774
1015.809774
1015.809774
1015.809774
1015.809774
965.640545
512.861609
264.490843
87.224841
34.336448
13.461709
11.247993
11.489987
12.450814
15.408993
20.266771
30.013919
40.037632
56.174994
68.149567
80.976486
88.465810
88.451505
83.503723
71.588755
60.880780
47.623515
37.490726
27.244687
21.698475
16.385913
14.593601
12.975931
12.276769
12.120605
11.949539
11.732578
11.380911
11.722445
##ZVALUE=340
0.697970
0.829697
0.640750
0.653863
0.696778
0.722408
0.636578
0.669956
0.803471
0.752807
0.674725
0.806451
0.916719
0.891685
0.906587
0.782609
0.971556
0.912547
0.824928
1.022816
0.910759
0.805855
0.987649
0.897646
1.048446
1.003742
1.176596
1.047850
1.226664
1.080632
1.136661
1.051426
1.120567
1.278520
1.226664
1.219511
1.322627
1.382828
1.306534
1.586676
1.572967
1.767874
1.801848
1.695752
1.921654
2.035499
2.203584
2.344847
2.538562
2.792478
3.191829
4.180670
12.355447
59.556961
149.018764
388.406515
685.689449
1015.679836
1015.679836
1015.679836
1015.679836
1015.679836
1015.679836
1015.679836
1015.679836
627.847910
346.097946
136.396885
53.586960
15.958548
11.517406
11.475682
11.464953
13.124943
15.068650
20.593405
27.076602
39.456487
49.917698
65.387487
75.852871
82.857609
83.143711
77.526569
70.785880
57.433844
47.396421
34.513474
27.378798
20.063519
16.638637
13.433695
12.514591
11.765957
11.520982
11.088848
##ZVALUE=345
0.595450
0.755787
0.631809
0.760555
0.696778
0.763535
0.773668
0.757575
0.726581
0.734925
0.664592
0.706911
0.852942
0.708699
0.767708
0.774860
0.941753
0.821948
0.916719
0.749826
0.843406
0.833869
1.058578
0.972748
0.975728
0.897646
1.004934
1.000762
1.136661
1.051426
1.069903
1.147985
1.134872
1.124740
1.233816
1.310706
1.122952
1.350641
1.375675
1.518726
1.390576
1.535416
1.429915
1.689792
1.541972
1.671910
1.729727
1.780987
1.961589
2.288818
2.344847
2.676845
2.665520
3.141761
5.751848
33.438802
92.183948
254.607797
474.652052
925.125480
1015.676856
1015.676856
1015.676856
1015.676856
1015.676856
1015.676856
1015.676856
828.339458
474.485755
198.321939
85.757971
25.793910
13.014674
11.055470
10.866523
10.988712
11.539459
13.543963
17.398000
25.343895
34.183860
48.182607
58.066845
69.995522
75.090528
78.432560
75.031519
66.530704
58.129430
45.067668
35.318732
25.691986
20.000935
15.396476
13.326406
12.104511
##ZVALUE=350
0.697970
0.503659
0.751615
0.723600
0.712872
0.651479
0.750422
0.833869
0.755787
0.832677
0.764728
0.776649
0.755787
0.768900
0.885725
0.765920
0.779629
0.689626
0.729561
0.818968
0.954866
0.713468
0.879765
0.864863
0.807643
0.908971
1.046658
1.089573
0.989437
0.955462
0.882745
0.959635
1.135468
1.074672
0.968575
0.991821
1.236796
1.125932
1.266599
1.161695
1.399517
1.265407
1.355410
1.332760
1.392961
1.494884
1.538992
1.833439
1.818538
1.880527
2.012849
2.124906
2.113581
2.439618
2.656579
3.022552
3.936887
16.136765
51.973462
165.975690
327.568650
701.049566
1015.682817
1015.682817
1015.682817
1015.682817
1015.682817
1015.682817
1015.682817
970.343947
614.094734
280.894637
128.135681
35.293698
15.099645
10.485649
10.301471
9.759665
10.000467
10.602474
12.588501
17.363429
22.384524
31.170845
40.613413
53.177476
60.549974
68.296790
71.277618
68.536997
63.342452
52.264929
43.545961
32.817721
25.489926
18.575788
##ZVALUE=355
0.667572
0.630617
0.675917
0.678897
0.691414
0.753999
0.616908
0.777841
0.875592
0.842810
0.859499
0.749826
0.631809
0.825524
0.922680
0.681877
0.832677
0.913739
0.741482
0.876784
0.980496
0.695586
0.945926
0.876784
0.846982
0.859499
0.867844
0.855923
0.942945
0.874996
0.968575
0.940561
1.100898
1.155734
1.060963
1.122952
1.031756
1.195669
1.222491
1.318455
1.242757
1.124740
1.389980
1.355410
1.510978
1.501441
1.481771
1.721978
1.727939
1.722574
1.747608
1.828671
1.817942
2.093911
2.214909
2.443790
2.698898
2.943873
3.119707
8.494854
28.468966
111.232996
234.081745
512.074828
841.679573
1015.681624
1015.681624
1015.681624
1015.681624
1015.681624
1015.681624
1015.681624
785.741806
351.892710
167.618990
51.367879
19.737482
10.302663
9.899735
9.350777
9.321570
9.375811
10.215640
11.813641
14.807582
20.594597
27.286410
37.342906
45.444965
55.382848
61.274767
65.057874
63.238740
57.305694
51.040649
41.532516
##ZVALUE=360
0.763535
0.793934
0.758767
0.678897
0.715852
0.807643
0.795722
0.688434
0.666976
0.807643
0.804663
0.760555
0.752807
0.816584
0.842810
0.805855
0.822544
0.810623
0.674725
0.752807
0.880957
0.762939
1.014471
0.986457
0.890493
0.882745
0.849962
0.865459
0.915527
0.962615
1.032948
1.067519
1.024604
1.174808
1.039505
1.208782
1.248717
1.134872
1.087785
1.305938
1.324415
1.249909
1.199841
1.429915
1.573563
1.347661
1.455545
1.441836
1.298785
1.621842
1.545548
1.727939
1.835823
1.884699
2.034903
2.051592
2.261996
2.376437
2.492666
2.899766
3.334880
4.807711
12.535453
56.812763
139.768720
360.607505
624.767542
1015.689969
1015.689969
1015.689969
1015.689969
1015.689969
1015.689969
1015.689969
949.849486
474.706888
245.173573
89.540482
34.095645
11.733770
9.880662
9.526610
8.983612
8.851886
9.094477
9.152889
10.445714
13.061762
16.179681
23.324490
30.366778
40.471554
48.042536
55.542588
59.049726
58.104992
##ZVALUE=365
0.695586
0.664592
0.847578
0.828505
0.808835
0.789762
0.567436
0.719428
0.638962
0.701547
0.767708
0.816584
0.790954
0.768900
0.722408
0.938773
0.818968
0.693798
0.812411
0.834465
0.991821
0.918508
0.963807
0.878572
0.933409
0.951886
0.954866
0.882745
0.952482
0.973940
1.102686
0.982881
0.971556
1.004934
1.099706
1.106858
1.154542
1.145601
1.315475
1.183748
1.272559
1.294613
1.216531
1.297593
1.447797
1.301765
1.535416
1.523495
1.477599
1.805425
1.708865
1.664758
1.566410
1.687407
1.777411
2.018809
2.016425
2.310872
2.462864
2.530813
2.712607
2.974868
3.164411
3.823638
6.588697
34.623742
91.465712
242.137909
461.982489
917.361975
1015.681624
1015.681624
1015.681624
1015.681624
1015.681624
1015.681624
1015.681624
652.819872
358.383656
132.473707
53.629875
15.864968
10.281801
9.690523
9.566545
8.586645
8.677840
8.259416
8.223653
9.258986
10.810494
14.773607
19.230843
26.448965
33.317804
42.407513
##ZVALUE=370
0.648499
0.695586
0.604987
0.760555
0.760555
0.709891
0.931621
0.752807
0.903606
0.714660
0.866652
0.835657
0.850558
0.723600
0.784993
0.855923
0.834465
0.938773
0.932813
0.834465
1.124740
0.842810
0.954866
0.966787
0.798702
1.046658
0.854731
1.159906
0.976920
1.214743
0.957847
1.027584
1.066923
0.993609
1.117587
1.120567
1.302958
1.180768
1.199841
1.269579
1.265407
1.310706
1.213551
1.381636
1.416802
1.387596
1.376867
1.446605
1.368523
1.551509
1.623631
1.427531
1.603961
1.728535
1.767874
1.649857
1.722574
2.117753
2.038479
2.101660
2.418756
2.447963
2.660751
2.659559
2.920628
3.513694
4.635453
20.098686
62.897801
187.651515
365.761518
738.712549
1015.681624
1015.681624
1015.681624
1015.681624
1015.681624
1015.681624
1015.681624
791.697502
452.471972
179.850459
79.908967
23.499727
10.905862
8.852482
8.327961
7.984638
7.771850
7.427931
7.185936
7.558465
8.211732
9.863973
12.347698
17.154813
##ZVALUE=375
0.782609
0.904799
0.703931
0.855923
0.754595
0.871420
0.775456
0.787973
0.828505
0.729561
0.795722
0.775456
0.787973
0.837445
0.754595
0.826716
0.879765
0.837445
0.764728
0.764728
0.903606
0.972748
0.981688
1.068711
1.093745
1.091957
1.019835
1.043677
0.873804
1.010895
1.026988
0.901818
0.790954
0.897646
1.151562
1.148582
1.054406
1.145601
1.076460
1.014471
1.208782
1.136661
1.216531
1.146793
1.076460
1.159906
1.369715
1.273751
1.178980
1.327991
1.329780
1.407862
1.349449
1.449585
1.537800
1.574755
1.682639
1.605749
1.767874
1.730919
1.898408
1.748800
1.999736
2.189875
2.340674
2.413988
2.700686
3.071427
3.366470
9.826422
34.612417
123.548508
259.381533
590.510964
952.374935
1015.665531
1015.665531
1015.665531
1015.665531
1015.665531
1015.665531
971.443653
636.868477
311.728716
154.516697
48.846602
17.752647
7.819533
7.346869
6.987453
6.722808
6.600618
6.597638
6.686449
6.221533
7.381439
##ZVALUE=380
0.825524
0.839829
0.867844
0.645518
0.605583
0.781417
0.889897
0.828505
0.873804
0.834465
0.950694
0.690818
0.910759
0.834465
0.798702
0.807643
0.863671
0.837445
0.979900
0.843406
0.817776
0.871420
0.755787
1.029968
0.875592
0.886917
0.964999
1.000762
1.102686
1.062751
0.965595
0.950694
1.113415
0.981688
0.992417
0.885725
1.064539
0.968575
1.128912
1.086593
1.029968
1.101494
1.078844
1.064539
0.964999
1.189709
1.314878
1.105666
1.288652
1.200438
1.123548
1.264811
1.255870
1.395941
1.366735
1.299977
1.400709
1.641512
1.489520
1.622438
1.588464
1.605749
1.711845
1.735687
1.946688
2.141595
2.124906
2.453923
2.479553
3.245473
3.599524
5.426407
17.916560
88.635683
205.358863
487.544537
814.834833
1015.681624
1015.681624
1015.681624
1015.681624
1015.681624
1015.681624
1015.681624
888.848901
437.009931
223.725438
76.266527
30.163527
9.510517
6.995797
6.674528
6.362796
6.086826
6.165504
6.148815
##ZVALUE=385
0.731945
0.713468
0.730753
0.669956
0.645518
0.647902
0.522733
0.796914
0.727773
0.782609
0.828505
0.704527
0.737906
0.824928
0.763535
0.703931
0.642538
0.770688
0.860691
0.824928
0.869632
0.805855
0.689626
0.808835
0.966787
0.940561
0.809431
0.897646
0.912547
0.863671
0.903606
0.817776
0.948906
0.860691
0.905991
0.920892
0.996590
0.955462
1.133680
0.858903
0.980496
1.122952
0.942945
0.905991
1.108646
1.124740
1.004934
1.040697
1.039505
1.106858
1.083612
0.995994
0.975728
0.953674
1.096725
1.292825
1.129508
1.284480
1.333952
1.553893
1.408458
1.429915
1.343489
1.576543
1.610518
1.640916
1.856685
1.868606
2.091527
2.548695
2.695918
3.039837
3.438592
3.790855
8.507967
47.314763
127.604008
335.293412
612.236857
1015.681624
1015.681624
1015.681624
1015.681624
1015.681624
1015.681624
1015.681624
1015.681624
613.639951
345.348716
139.466524
56.268573
14.020801
7.109642
5.925894
6.042719
5.690455
##ZVALUE=390
0.687838
0.577569
0.749826
0.798702
0.712872
0.566840
0.726581
0.685453
0.763535
0.779629
0.681877
0.778437
0.692606
0.801682
0.641942
0.597835
0.610948
0.745654
0.626445
0.865459
0.797510
0.853539
0.790954
0.773668
0.850558
0.842810
0.738502
0.858903
0.981688
0.908971
0.825524
0.866652
0.833869
0.931621
0.701547
0.686646
0.889897
0.874996
0.799894
0.767708
0.828505
0.882745
0.972748
0.937581
0.808835
1.099706
0.888705
0.744462
0.893474
0.932813
1.011491
0.992417
0.989437
1.137853
1.240969
1.154542
1.197457
1.218915
1.095533
1.308918
1.237988
1.177788
1.456738
1.379848
1.415610
1.594424
1.811981
1.690984
1.968741
2.134442
2.453923
2.585649
2.807975
2.611876
2.858639
3.083944
5.465746
19.076467
89.995861
216.471553
526.415706
872.273445
1015.666723
1015.666723
1015.666723
1015.666723
1015.666723
1015.666723
1015.666723
900.837779
455.652475
232.642889
79.491735
29.459000
8.192658
6.079674
##ZVALUE=395
0.518560
0.812411
0.681877
0.698566
0.782609
0.666976
0.654459
0.692606
0.564456
0.696778
0.588894
0.561476
0.537634
0.549555
0.614524
0.821948
0.703931
0.762939
0.778437
0.789762
0.748634
0.807643
0.679493
0.756979
0.806451
0.785589
0.760555
0.707507
0.690818
0.763535
0.531673
0.623465
0.789762
0.887513
0.885725
0.918508
0.730753
0.802875
0.896454
0.732541
0.845790
0.812411
0.838637
0.826716
0.748634
0.830889
0.869632
0.763535
1.023412
0.955462
1.087785
0.918508
0.938773
1.009703
1.066923
1.116991
1.177788
1.283884
1.209974
1.052618
1.235604
1.190901
1.287460
1.340508
1.477599
1.533628
1.624823
1.706481
2.036691
1.940727
2.143979
2.486706
2.508759
2.609491
2.387762
2.629757
2.663732
2.942681
3.343821
13.645887
50.148964
178.666711
349.349976
700.407624
1015.686989
1015.686989
1015.686989
1015.686989
1015.686989
1015.686989
1015.686989
1003.383994
658.713579
284.247994
134.261847
42.599440
##ZVALUE=400
0.636578
0.637770
0.483990
0.553727
0.570416
0.530481
0.627637
0.420809
0.429749
0.630617
0.600815
0.515580
0.550747
0.666976
0.681877
0.574589
0.679493
0.628829
0.681877
0.561476
0.745654
0.649691
0.689626
0.621676
0.495911
0.589490
0.755787
0.670552
0.707507
0.714660
0.865459
0.747442
0.856519
0.831485
0.778437
0.881553
0.724792
0.769496
0.726581
0.804663
0.765920
0.855923
0.842810
0.753999
0.830889
0.834465
0.817776
0.935793
0.980496
1.035929
1.007915
1.141429
0.926852
1.087785
1.056790
0.949502
1.062751
1.095533
0.891685
1.215935
1.033545
1.117587
1.163483
1.152754
1.259446
1.439452
1.492500
1.586676
1.892447
1.851916
2.035499
2.168417
2.367496
2.167821
2.353787
2.162457
2.217889
2.394915
2.527833
2.892613
3.109574
7.615685
24.892688
94.439983
209.651589
496.832728
841.990709
1015.681624
1015.681624
1015.681624
1015.681624
1015.681624
1015.681624
1015.681624
816.053748
402.708650
##END
