##TITLE=FQP00602
##FORMAT=SPECTACLE-ASCII V-1.2
##DATA TYPE=ULTRAVIOLET SPECTRUM
##SECOND TYPE=ULTRAVIOLET SPECTRUM
##DATE=10/03/17
##TIME=12:51:04
##SPECTROMETER/DATA SYSTEM=SPECTACLE
##XUNITS=NM EM
##YUNITS=ENERGY
##YFACTOR=1
##FIRSTX=220
##LASTX=410
##NPOINTS=96
##3DDATA=Equidistant
##ZUNITS=NM EX
##FIRSTZ=210
##LASTZ=400
##ZPOINTS=39
##XYDATA=(Y..Y)
##ZVALUE=210
3.556609
3.935695
2.807975
3.358722
3.618598
2.958775
4.189610
4.499555
4.825592
4.692674
4.339814
4.341602
4.767776
4.970431
5.799532
6.350875
7.376671
7.373691
8.026958
7.958412
7.112622
10.380745
10.169744
10.381937
10.438561
9.780526
10.767579
10.083914
11.845827
11.729598
12.352467
12.141466
13.962984
13.291836
13.175607
13.314486
12.886524
14.633536
14.265776
14.619827
14.281869
14.908910
15.681982
15.751719
15.296936
16.115904
16.373992
14.245510
17.350912
15.767813
17.125607
16.271472
17.580986
16.806722
17.201900
17.856956
19.000769
18.843412
18.033981
17.671585
17.950535
17.448664
18.740892
21.706820
19.580722
18.225908
20.914674
23.041964
26.298761
28.367639
38.046837
42.667985
52.027702
64.505935
72.456002
82.083941
91.394782
99.951625
103.111863
99.312663
93.794465
84.491968
70.412755
64.861774
46.463609
36.898851
30.535460
26.233792
19.819736
18.596649
17.752647
17.605424
17.295480
16.741753
16.789436
17.385483
##ZVALUE=215
14.871955
13.711452
12.591481
9.707808
7.385612
5.885959
5.289912
5.991459
6.642938
5.926490
6.985664
5.814433
6.537437
6.413460
6.047487
5.321503
6.009936
6.527901
7.314682
6.086826
7.172823
6.715655
8.036494
8.107424
7.888675
8.299947
9.407997
9.877682
9.603500
11.947751
11.009574
11.525750
12.624860
12.403727
12.205839
13.345480
11.688471
13.047457
12.650490
13.846755
13.710856
13.159513
13.881922
13.847947
13.424754
14.358759
14.777780
13.216734
15.607476
14.243722
16.196966
15.481710
16.643405
16.200542
15.593767
15.665889
15.750527
15.020967
16.605854
16.624928
15.188456
16.015768
16.351938
16.191602
15.340447
16.522408
17.936826
19.749999
22.775531
26.017427
28.941631
33.273697
39.271712
45.743585
53.724647
58.387518
64.629912
67.433715
68.834424
65.623522
62.062740
59.676766
49.932599
43.399930
32.895803
25.432706
21.978617
18.988848
18.341541
15.963912
14.475584
15.649796
15.254617
15.616417
15.771985
14.905930
##ZVALUE=220
55.604577
58.177710
60.361624
58.488846
52.464604
39.012432
30.698776
19.765496
15.162826
11.636615
12.923479
13.377666
12.207627
12.672544
12.053847
10.119677
8.619428
7.494688
7.907748
6.969571
7.555485
6.701946
7.653832
8.892417
9.843707
10.105968
9.936690
10.537505
10.717511
12.157559
11.611581
11.995435
12.168884
13.268590
12.043715
13.315678
13.364553
13.592839
14.114976
13.660789
14.329553
14.991760
13.970733
13.280511
15.419722
14.563799
15.596747
14.193654
15.813708
14.787912
14.668703
15.979409
13.989806
15.481710
16.246438
15.550852
16.677976
15.697479
15.525818
16.276836
16.019940
16.138554
16.473532
16.720891
18.007755
17.449856
19.436479
20.058751
21.284819
24.877787
28.391480
31.152964
36.860704
41.594505
44.712424
47.881603
50.637722
49.525499
50.571561
47.028661
45.277476
41.723847
37.236810
33.042431
29.191971
24.593472
21.812916
17.658472
16.874671
15.980601
16.101599
16.972423
15.372634
14.067888
14.364719
15.058517
##ZVALUE=225
101.161003
105.491877
136.704445
163.015723
176.826715
167.945623
141.530633
100.541711
72.472692
51.101446
32.508969
25.185943
24.886727
26.260614
28.150678
24.487972
22.056699
19.170642
14.723539
11.942983
10.504723
9.012818
9.453893
8.180737
8.605719
9.116530
9.951591
10.054708
10.279417
10.357499
11.639595
11.747479
12.891889
13.186932
12.763739
13.797879
12.595654
13.001561
13.216734
13.281703
14.164448
14.322996
14.021993
14.571548
14.036894
14.564991
15.473962
16.100407
15.208721
15.528798
14.905930
15.715957
16.818643
15.427470
15.259981
16.271472
16.863942
16.166568
16.187429
18.009543
17.399788
18.009543
17.027855
17.475486
19.049644
18.846989
19.315481
19.820929
21.822453
22.514462
24.352670
29.870868
33.504963
34.549832
37.702918
38.497448
40.537715
39.913654
41.097999
37.790537
35.650730
31.423569
31.042695
27.896762
25.364757
22.642612
21.418929
19.694567
19.357800
17.438531
17.998815
15.907884
16.795993
16.760826
17.478466
16.957521
##ZVALUE=230
81.954598
92.016459
144.416690
231.996775
300.206542
358.537436
371.956825
362.625718
314.485431
249.728560
159.683824
101.355910
65.397620
47.856569
46.996474
50.344467
49.641728
49.393773
44.066906
38.563609
27.690530
20.988584
16.274452
12.049675
9.966493
9.417534
9.859800
10.110736
10.995865
10.488629
11.376739
10.762811
13.354421
11.881590
12.531877
13.446808
13.260841
12.439489
12.109876
14.629960
14.570951
15.912652
15.194416
16.476512
17.705560
18.888712
16.844869
18.465519
17.463565
18.902421
17.651916
19.435883
19.733906
20.039678
20.514727
20.934939
21.123886
21.910667
22.127628
20.144582
21.732450
24.170876
23.260713
22.925735
23.492575
26.386976
25.931597
27.670860
25.494695
31.039715
31.599998
34.653544
35.114884
38.640499
40.265918
42.637587
40.995479
42.803884
41.441917
40.192604
40.078759
35.554767
32.936931
31.268001
29.002428
28.733611
26.258826
25.227666
25.310516
23.579597
24.637580
24.254918
21.396875
24.184585
21.451712
22.243857
##ZVALUE=235
27.355552
33.660531
68.243742
160.616636
252.989531
387.394428
495.930910
622.419715
670.606494
630.488992
550.548434
411.307812
295.561552
178.860426
123.322606
89.897513
72.623491
77.153444
80.445409
81.836581
77.731609
69.856644
51.919818
40.057898
26.381612
19.591451
14.698505
10.623932
10.604858
11.156797
11.516809
11.973977
11.917949
12.197495
14.197826
12.601614
13.461709
14.760494
14.664531
16.480684
16.589761
17.787814
19.029975
18.043518
20.608902
22.964478
23.767948
23.996830
25.011897
24.887919
26.042461
26.329756
29.197931
27.207732
27.831793
29.090643
30.070543
29.923916
30.018687
31.415820
30.571818
32.953620
30.022860
31.484962
33.967495
35.055876
35.268664
35.385489
37.701726
37.027597
41.392446
45.704842
43.571591
47.364831
51.365495
49.901605
48.302412
50.734878
50.044656
48.453808
49.049854
45.981407
43.145418
42.011738
40.504932
36.317706
37.749410
37.901998
34.002662
33.952594
35.321712
33.080578
31.207800
33.910871
32.706857
32.826662
##ZVALUE=240
2.793670
3.880858
9.654760
42.218566
88.464618
204.581618
331.460834
559.514761
722.780824
858.361721
972.684026
949.328542
793.751478
667.230487
459.344983
314.220786
174.900889
123.849511
99.787712
96.618533
110.233426
114.980936
112.006664
99.640489
85.574985
64.102411
49.010515
33.494830
23.306608
17.088652
13.856888
10.642409
12.082458
12.014508
12.810826
13.983846
15.105605
16.609430
15.779734
18.171668
19.449592
21.556616
22.687912
24.986863
25.703907
28.357506
29.576421
29.188991
32.789707
31.919479
32.773614
33.391714
34.945607
37.212968
38.903952
38.403869
39.536953
40.078759
37.744641
41.223764
40.707588
40.522814
40.525794
42.194724
43.610930
42.925477
44.666529
44.138432
46.734810
47.845840
49.288869
51.721931
53.720474
58.421493
58.752894
59.313774
58.330894
61.157942
62.124729
58.380961
54.611564
54.409504
52.914619
50.967932
51.493645
47.244430
47.262907
47.665834
44.632554
44.731498
44.393539
41.145682
41.378736
41.485429
40.563941
40.946603
##ZVALUE=245
2.654791
2.841949
3.103614
3.516674
7.473826
23.962855
80.423951
168.414712
387.217999
592.830777
897.899866
1015.777588
1015.777588
1015.777588
1015.777588
877.139568
683.226585
429.702997
285.121799
159.248710
115.815997
102.572441
112.183690
127.500892
129.730701
126.410723
111.103654
93.627572
72.304606
56.456923
39.970875
27.203560
20.139813
14.151931
14.052987
14.092922
14.596581
14.620423
16.606450
18.737912
20.840764
21.239519
24.328828
25.017858
28.348565
31.375885
31.024814
32.346845
36.642551
35.863519
36.286712
40.151477
40.713549
40.912628
41.219592
40.052533
42.383671
40.776730
43.001771
41.096807
41.072965
42.920709
42.322874
41.829944
44.014454
42.811632
45.371652
43.641925
43.827891
46.939850
45.603514
50.255656
53.559542
55.478811
55.853724
57.467818
59.024692
56.092739
59.525967
56.756735
54.297447
49.685836
51.330924
48.205853
48.014522
44.967532
45.678616
43.394566
43.637753
44.331551
43.210983
41.438937
41.336417
40.637851
42.208433
39.831996
##ZVALUE=250
2.522469
2.398491
2.224445
2.715588
2.892613
3.099442
4.565716
15.549660
61.223507
141.162872
343.850851
562.810898
801.634789
1015.681624
1015.681624
1015.681624
1015.681624
1015.681624
954.242945
627.351999
408.541560
260.475874
138.301849
102.926493
108.873844
120.670795
133.983493
134.745836
133.986473
121.227503
105.913877
82.016587
60.509443
38.912892
28.557777
19.778609
16.536713
15.512705
16.416907
18.902421
19.411445
21.642447
23.940802
25.868416
27.459860
29.593706
30.325651
33.450723
35.453439
35.612583
38.952827
38.306713
40.203929
40.407777
40.699840
40.707588
39.523840
39.719939
38.898587
39.480925
39.759874
38.811564
38.196445
37.335753
38.201809
38.086772
38.061738
39.881468
39.490461
42.314529
41.844845
44.790506
44.586658
46.780705
45.724511
49.232841
48.224926
50.754547
49.412847
46.162605
46.863556
45.797825
43.166876
41.497946
40.430427
41.423440
39.253831
41.509867
39.430857
39.300919
37.893653
40.242672
37.749410
39.344430
36.150813
37.684441
##ZVALUE=255
2.133846
2.367496
2.127886
2.061725
2.688766
2.546906
2.735853
2.827644
3.673434
7.287860
39.651394
105.833411
217.755437
473.964810
735.739470
1015.681624
1015.681624
1015.681624
1015.681624
1015.681624
1015.681624
931.209922
554.484725
338.609815
170.633793
113.836527
95.024705
106.120706
124.101639
140.704513
145.478845
143.894553
132.196546
102.080703
85.302591
57.116747
42.112470
28.277636
23.441911
19.690990
18.990636
21.397471
21.818876
22.398829
23.346543
26.385784
28.203726
29.832721
29.048920
31.862855
31.410456
32.086968
34.459829
34.213662
36.276579
32.651424
34.626722
35.065413
34.629703
33.848882
33.736825
33.426881
32.030940
32.530427
34.379959
32.007694
31.470656
31.651855
32.632947
34.747720
35.974979
36.047697
37.299991
37.367940
40.790439
39.950609
40.135980
40.196776
39.582849
39.084554
39.973855
37.086606
36.875606
37.241578
36.957860
36.634803
36.046505
35.259724
35.609603
35.144687
36.672950
35.863519
34.572482
33.779740
34.349561
35.040975
##ZVALUE=260
2.053976
1.968741
2.165437
2.228618
2.020597
2.431870
2.090931
2.202988
2.801418
2.710819
3.114939
3.769994
17.580986
51.235557
153.353810
309.586525
648.706555
947.440863
1015.681624
1015.681624
1015.681624
1015.681624
1015.681624
1015.681624
961.968899
563.738942
344.657898
163.076520
102.920532
90.164542
104.843974
129.583478
145.505667
152.593851
150.327682
132.964849
115.581751
85.545778
67.903996
45.485497
34.065843
25.517941
20.894408
21.042824
21.374822
23.464561
22.232533
24.421811
25.915504
26.807785
26.897788
27.715564
27.448535
28.931499
28.197765
28.869510
28.299689
28.031468
28.077960
27.558804
27.785897
27.028918
27.562976
27.162433
26.624799
27.489662
26.803613
27.709603
27.202964
29.518604
29.340982
31.877756
32.781959
33.279657
32.775998
33.340454
34.301877
32.970905
32.660961
33.335686
33.750534
32.660961
32.186508
32.867789
32.402873
31.474829
32.187700
31.500459
33.069849
32.000542
30.707717
32.680631
31.907558
32.035708
31.810999
32.570958
##ZVALUE=265
1.717806
1.817942
1.860857
1.504421
1.941919
1.873970
1.981854
1.966953
2.299547
2.032518
2.535582
2.517700
2.629757
3.129840
6.507635
34.595728
89.645982
231.165886
417.419672
793.722868
1015.681624
1015.681624
1015.681624
1015.681624
1015.681624
1015.681624
1015.681624
774.197578
407.208800
236.528516
135.658979
80.903769
86.118579
114.271641
132.271647
150.683522
158.481002
151.565671
136.500001
111.711621
90.097785
66.220760
48.076510
33.812523
25.829673
22.503734
21.389723
20.796657
22.162795
22.661686
22.184849
22.291541
23.050904
23.648739
23.572445
23.661852
23.852587
24.065971
23.385882
23.919940
23.426414
23.442507
23.532510
24.363995
23.766756
23.377538
24.870634
24.526715
26.122928
26.787519
26.885867
27.483702
28.475523
29.536486
30.319691
30.467510
31.405687
30.774474
30.600429
29.577613
30.152798
29.597878
31.096935
30.121803
29.515624
29.498935
30.159950
31.594634
29.186606
29.919744
28.672814
28.781891
29.481649
28.998852
30.259490
29.660463
##ZVALUE=270
1.487732
1.194477
1.356602
1.457930
1.575947
1.594424
1.567602
1.625419
1.538992
1.619458
2.008677
1.959801
2.153516
2.335906
2.589822
2.689958
3.487468
16.033649
47.826767
151.886940
293.693542
515.210629
930.213928
1015.554667
1015.554667
1015.554667
1015.554667
1015.554667
1015.554667
953.252912
640.662909
323.591828
173.575878
81.273913
67.188740
87.617636
111.101866
139.085650
153.880715
159.514546
154.390931
136.404634
117.728710
89.336634
69.494843
45.228601
34.096837
27.111769
23.182631
20.329952
20.411611
20.481944
20.269752
21.337867
20.734668
21.455884
20.495653
21.821856
21.495819
21.104813
22.283792
20.645857
21.279454
21.731853
22.900701
22.204518
22.669435
22.813678
22.289753
24.256706
24.776459
26.424527
25.159717
27.888417
26.849508
27.789474
28.477907
28.330684
28.263927
28.077960
28.531551
27.371645
27.635694
28.227568
27.358532
27.303696
27.768612
28.331876
27.837753
26.835799
27.731657
26.603937
27.253628
27.491450
27.616620
28.185844
##ZVALUE=275
1.210570
1.502633
1.520514
1.610518
1.483560
1.594424
1.667738
1.538992
1.456738
1.653433
1.609921
1.682639
1.734495
1.897812
1.978874
2.134442
2.322793
2.543926
2.768636
7.296801
29.584765
84.198713
234.289765
438.396931
810.999870
1015.678644
1015.678644
1015.678644
1015.678644
1015.678644
1015.678644
1015.678644
761.464834
398.909450
222.713947
96.856952
61.585903
65.128803
83.713531
112.444758
133.811831
153.968930
157.838464
153.444409
139.042735
113.163590
90.623498
67.691803
51.772594
34.894943
27.677417
22.960901
21.418929
21.107793
20.387769
20.265579
20.851493
21.292567
21.565557
20.910501
21.835566
20.973682
22.114515
22.459626
21.562576
22.434592
22.109747
23.433566
23.591518
24.593472
26.090741
25.580525
26.458502
27.129650
27.832985
27.699471
27.840734
28.118491
28.431416
27.488470
26.843548
26.591420
27.091503
27.084947
26.846528
26.811957
27.247667
26.511550
26.171803
25.832653
25.861859
25.991797
25.993586
25.396943
26.473999
25.951862
##ZVALUE=280
1.342893
1.155734
1.506805
1.227856
1.322627
1.283884
1.519918
1.302958
1.125932
1.465678
1.577735
1.557469
1.683831
1.783967
1.800656
1.643896
1.987815
1.857877
2.359748
2.328753
2.509952
3.446937
18.479824
61.297417
190.127492
344.420671
639.915466
938.152671
1015.681624
1015.681624
1015.681624
1015.681624
1015.681624
1015.681624
873.296857
491.966009
293.095708
127.645731
68.386793
48.191547
59.225559
86.735487
109.279752
133.712888
148.324966
157.331824
151.230693
134.212971
115.552545
88.406801
69.503784
48.225522
36.482811
27.153492
23.010969
19.785762
20.505786
20.321608
20.936728
21.434426
22.064447
22.290945
22.645593
22.214651
21.232963
22.503734
23.145676
23.305416
23.795962
25.171638
24.924874
26.298761
26.457906
27.191639
27.659535
27.447939
27.474761
26.889443
27.233958
28.010607
27.665496
26.732683
26.627779
26.295781
26.093721
26.652813
25.802851
25.875568
26.588440
25.928617
26.241541
25.586486
25.089979
24.794936
25.225878
25.274754
##ZVALUE=285
1.180768
1.289845
1.102686
1.054406
1.633763
1.281500
1.375675
1.320839
1.064539
1.382828
1.397729
1.484752
1.553893
1.529455
1.691580
1.585484
1.677871
1.722574
1.809597
1.992583
1.997948
2.454519
2.888441
2.895594
11.642575
38.906932
117.583871
234.190822
487.083793
761.169791
1015.661955
1015.681624
1015.681624
1015.681624
1015.681624
1015.681624
1015.681624
678.092837
420.715809
196.499825
100.425482
45.260787
40.288568
57.366490
79.008937
107.180476
127.521753
145.304799
152.857900
149.486661
135.746002
114.229918
94.328523
68.184733
51.265955
36.487579
29.114485
23.173690
21.282434
21.255612
21.562576
21.838546
22.173524
22.149682
22.019744
22.616982
23.274422
24.394989
24.039745
25.067925
25.538802
25.935769
26.859641
27.196407
27.065873
27.242899
28.267503
27.395487
27.637482
27.172565
27.588606
26.552677
27.059913
25.291443
26.272535
26.105642
26.433468
25.592446
25.181770
25.960803
24.709702
24.719834
24.789572
24.533868
24.430752
24.822950
##ZVALUE=290
1.187921
1.165867
1.174808
1.237988
1.127720
1.228452
1.316667
1.147985
1.293421
1.343489
1.415610
1.130700
1.573563
1.531839
1.630783
1.506805
1.686811
1.780987
1.716614
1.965761
1.986623
2.149940
2.213717
2.307892
2.706647
2.959967
4.301667
17.389655
74.414611
161.016583
303.313732
638.125539
970.580578
1015.701890
1015.701890
1015.701890
1015.701890
1015.701890
1015.701890
893.951654
588.144660
289.139748
149.108768
56.472421
33.964515
39.269924
51.833987
75.762868
96.846819
121.294856
137.634873
148.014426
145.509839
132.569671
114.809871
89.296699
70.380569
49.590468
38.776994
29.819608
25.100708
23.521781
22.951961
22.854805
23.147464
22.900701
23.988485
24.079680
25.050640
26.099682
26.053786
25.629997
26.784539
27.464628
27.775764
27.825832
27.301908
27.368665
27.267933
27.040839
27.114749
27.116537
26.774406
27.202964
26.580691
26.616454
25.734901
25.545955
25.505424
25.179982
25.212765
24.296641
24.900436
24.472475
24.331808
24.544001
##ZVALUE=295
1.018643
1.064539
0.910759
0.881553
1.058578
1.119971
1.217723
1.073480
1.163483
0.987649
1.307726
1.232624
1.073480
1.294613
1.400709
1.510978
1.631975
1.347661
1.645684
1.738667
1.668930
1.696944
1.915693
2.090931
1.845956
2.404451
2.760887
2.966523
3.260970
5.990863
22.047758
92.380643
203.097463
484.220386
800.927877
1015.673876
1015.673876
1015.673876
1015.673876
1015.673876
1015.673876
1015.673876
768.228769
396.628976
212.403536
77.758431
37.179589
26.139617
33.119917
51.417947
69.441795
96.335411
114.148855
135.083795
142.161846
140.181780
130.254626
110.233426
92.125535
68.536997
52.802563
37.764907
31.766891
26.172996
24.068952
23.117661
23.915768
23.710728
23.744702
24.953485
25.918484
26.523471
26.316643
26.544929
26.609898
27.339458
27.165413
27.636886
26.674867
26.464462
26.405454
27.409792
26.348829
26.372671
26.035905
25.573969
26.448965
25.829673
25.656819
25.225878
25.080442
24.905801
23.969412
24.343729
24.253726
24.165511
##ZVALUE=300
0.923872
1.053810
0.965595
1.183748
1.059771
1.051426
1.033545
0.926852
1.101494
0.938773
1.180768
1.122952
1.193881
1.163483
1.372695
1.558661
1.283884
1.328588
1.485944
1.473427
1.596808
1.626611
1.872778
1.620650
1.870990
1.938939
2.067685
2.121925
2.112985
2.497435
2.785921
3.718734
10.476708
54.690838
208.092928
294.278860
812.344551
974.297523
1015.682817
1015.682817
1015.682817
1015.682817
1015.682817
1015.682817
954.407454
531.488657
310.808420
63.365698
56.279898
29.137731
24.030805
44.223666
48.912764
64.110756
103.689432
112.710595
127.467513
137.536526
136.185884
125.196576
110.731721
87.954998
71.834922
53.524971
41.429996
31.842589
26.883483
24.117827
24.495721
24.632812
24.642944
25.765896
26.027560
25.579929
26.218891
26.478767
26.652813
27.256608
26.916862
26.802421
27.445555
27.047992
27.221441
27.092695
26.835799
26.905537
26.658773
26.586652
26.356578
25.570989
25.316477
24.457574
24.287701
23.645759
23.958683
24.191737
##ZVALUE=305
0.795722
0.855923
0.932813
0.924468
1.182556
1.001954
1.184940
1.063943
1.032948
1.066923
1.002550
1.094937
1.144409
1.096725
1.082420
1.083612
1.167655
1.104474
1.153946
1.249909
1.441836
1.373887
1.419783
1.494884
1.624823
1.631975
1.781583
1.727939
1.865625
2.072453
2.121925
2.381802
2.595782
2.795458
5.346537
32.937527
89.169741
244.331956
440.243483
817.317963
1015.682817
1015.682817
1015.682817
1015.682817
1015.682817
1015.682817
1015.682817
698.350668
433.478951
198.862553
98.238587
35.690665
21.678805
23.802519
32.037497
48.011541
64.584613
87.991953
105.438828
124.307871
131.045580
130.590796
123.769641
105.330944
88.972449
67.963600
53.553581
39.595962
32.408834
27.756691
25.472641
25.431514
25.461912
25.640726
26.089549
26.551485
26.387572
26.328564
26.206970
26.883483
27.364492
27.860999
27.571917
27.064681
27.257800
27.544498
26.774406
27.314425
26.978850
26.185513
25.914907
25.643706
25.594831
25.405884
24.611950
24.945736
##ZVALUE=310
0.859499
0.889897
0.913739
0.766516
0.914931
0.934601
0.871420
1.001954
0.848770
0.889897
0.938773
0.911951
0.988841
0.911951
1.022816
1.026988
1.132488
1.122952
1.136661
1.227856
1.154542
1.358986
1.353621
1.313686
1.249909
1.374483
1.344681
1.530647
1.535416
1.691580
1.828671
1.878738
2.008677
2.176762
2.620816
2.820492
3.251433
14.668703
49.644709
158.415437
307.431817
625.775456
946.547985
1015.681624
1015.681624
1015.681624
1015.681624
1015.681624
1015.681624
926.063657
611.991882
305.491686
161.754489
59.176683
27.449727
18.964410
22.068620
31.245947
42.206645
61.571002
78.177452
99.546909
113.316774
125.022531
125.672817
117.845535
105.851889
85.616708
69.272518
51.580667
41.844845
32.927990
28.676987
26.724935
25.730729
26.257634
26.489496
25.901794
26.649833
27.031898
27.225614
26.514530
27.521849
27.579665
27.791858
27.776957
27.656555
27.195811
27.074814
27.219653
26.734471
26.259422
25.953650
25.455952
25.307536
25.033951
##ZVALUE=315
0.767708
0.914931
0.825524
0.818968
0.788569
0.810623
0.998974
0.777841
0.987649
1.009703
0.964999
0.868440
1.085997
1.048446
1.167655
0.993609
0.919700
1.207590
1.086593
1.126528
1.129508
1.171827
1.136661
1.034737
1.345873
1.077652
1.347661
1.430511
1.388788
1.569986
1.549721
1.694560
1.897812
1.915693
2.093911
2.241731
2.411604
2.508759
2.948642
6.481409
24.940968
100.961924
214.894414
481.950641
786.604881
1015.694737
1015.694737
1015.694737
1015.694737
1015.694737
1015.694737
1015.694737
797.262788
422.824621
229.494572
85.537434
37.245750
18.825531
17.545819
22.159815
28.329492
41.311979
54.501891
73.840618
90.863705
110.318661
118.249655
119.725466
113.689899
97.760558
84.928870
66.888928
53.575635
39.503574
33.427477
28.315783
26.442409
25.497675
25.829673
26.589632
27.199984
27.053952
26.860833
26.788712
27.971864
27.962923
27.591586
27.790666
27.222633
27.475953
26.953816
26.666522
26.833415
25.931001
25.797486
25.571585
##ZVALUE=320
0.750422
0.735521
0.846982
0.962615
0.811815
0.879765
0.864863
0.760555
0.867844
0.924468
0.810623
0.827909
0.827909
0.893474
0.945926
0.933409
0.969768
0.940561
0.925660
1.140833
0.977516
1.072884
1.047850
1.265407
1.106858
1.265407
1.063943
1.275539
1.249909
1.394749
1.415610
1.396537
1.559854
1.686811
1.755953
1.771450
1.953840
2.066493
2.434850
2.270937
2.800822
3.552437
10.968447
55.974722
141.706467
365.662575
609.179735
988.605022
1015.686989
1015.686989
1015.686989
1015.686989
1015.686989
1015.686989
971.118808
550.815463
316.709876
134.261847
61.270595
21.750927
15.450716
16.135573
18.639565
26.167631
34.662485
51.731467
66.834688
85.738897
100.155473
111.634731
114.454627
107.590556
98.610520
80.680847
66.422820
50.071478
41.522980
32.802820
29.367805
26.704669
26.187897
26.563406
26.957989
26.957989
27.102828
27.131438
27.358532
26.901960
27.061701
26.650429
27.173758
27.108788
26.226640
26.076436
26.149750
25.951862
##ZVALUE=325
0.755787
0.714660
0.693798
0.751615
0.891685
0.872612
0.770688
0.844598
0.985861
0.741482
0.984669
0.837445
0.896454
0.787973
0.905991
1.064539
0.837445
0.923872
0.885725
0.901818
0.955462
0.951886
1.004934
1.262426
1.038909
1.165867
1.168847
1.056790
1.244545
1.185536
1.351833
1.307726
1.412630
1.582503
1.326799
1.656413
1.574755
1.960993
1.761913
1.982450
2.128482
2.008677
2.606511
2.895594
5.847812
36.014915
97.815990
262.417793
466.899872
854.519606
1015.681624
1015.681624
1015.681624
1015.681624
1015.681624
1015.681624
1015.681624
676.117539
413.007736
187.201500
87.236762
27.945638
14.881492
13.504624
14.633536
18.441677
23.675561
35.494566
47.749877
66.867471
81.344843
97.663999
105.673671
108.073950
102.726817
89.213848
76.829791
60.154796
49.341917
38.702488
32.513738
28.065443
27.271509
26.305914
25.860667
26.949644
27.212501
27.143955
26.778579
26.787519
26.612878
26.174784
25.725961
25.410652
25.960803
25.817752
##ZVALUE=330
0.715852
0.445843
0.605583
0.713468
0.652671
0.663996
0.704527
0.786781
0.751615
0.814795
0.689626
0.755787
0.815988
0.793934
0.742674
0.780821
0.812411
0.811815
1.091957
0.939965
0.867844
0.992417
1.025796
1.017451
0.976920
0.928640
0.952482
1.167655
1.035929
1.051426
1.041889
1.203418
1.171827
1.301765
1.319647
1.466870
1.307726
1.426935
1.530647
1.639724
1.664758
1.916885
1.926422
2.129674
2.307892
2.515912
3.360510
16.964674
53.329468
175.590515
337.131619
674.545765
981.627703
1015.635729
1015.635729
1015.635729
1015.635729
1015.635729
1015.635729
840.277672
537.832975
250.607729
127.224922
45.950413
20.108819
12.726784
13.308525
14.852881
17.766953
25.065541
33.306479
47.704577
61.416626
80.531836
91.769695
101.034641
102.335811
96.122622
87.644458
71.815848
60.184598
46.036839
38.483739
32.962561
29.511452
27.483702
26.074648
26.075840
25.943518
25.487542
25.622845
25.597811
25.362968
25.283694
24.875998
24.746656
##ZVALUE=335
0.754595
0.771880
0.679493
0.805855
0.784993
0.853539
0.825524
0.687838
0.775456
0.890493
0.927448
0.690818
0.701547
0.804663
0.873804
0.931621
0.849962
0.902414
0.777841
0.846982
0.844598
0.967979
0.940561
1.047850
0.819564
0.879765
1.085997
1.047850
1.022816
1.044869
1.132488
1.265407
1.232624
1.163483
1.306534
1.464486
1.294613
1.271963
1.613498
1.458526
1.526475
1.726747
1.601577
1.839995
1.857877
2.003908
2.322793
2.602935
2.676845
7.736683
28.479695
110.860467
232.071877
515.177846
829.897523
1015.681624
1015.681624
1015.681624
1015.681624
1015.681624
1015.681624
981.521606
685.082674
360.177755
190.776587
66.851974
28.425455
14.103651
12.779832
13.842583
15.257597
18.936992
23.673773
34.631491
44.963956
62.321424
75.443983
88.776946
95.066428
97.739697
93.341470
82.193613
71.886778
57.996511
49.513578
38.562417
33.172965
28.633475
26.725531
25.918484
24.983883
24.197698
24.225712
24.352670
24.279952
24.273992
##ZVALUE=340
0.765920
0.683665
0.782609
0.590682
0.573993
0.841618
0.751615
0.572801
0.773668
0.636578
0.776649
0.740886
0.612736
0.803471
0.800490
0.924468
0.835657
0.887513
0.862479
0.812411
0.937581
0.877976
0.751615
0.832677
0.806451
0.885725
0.936985
0.974536
0.987649
0.822544
1.066923
1.133680
1.075864
1.346469
1.113415
1.226664
1.194477
1.371503
1.268983
1.399517
1.401901
1.346469
1.382828
1.547933
1.670718
1.595616
1.681447
1.930594
2.066493
2.285838
2.744794
4.190803
14.500618
70.282817
168.232918
415.092707
691.022873
1015.681624
1015.681624
1015.681624
1015.681624
1015.681624
1015.681624
1015.681624
842.081904
441.415906
245.415568
100.581646
42.147636
16.134977
13.568997
13.909936
14.501810
16.367435
19.113421
25.619864
32.472610
44.817924
57.130456
72.595477
83.255768
90.084672
91.739893
87.138414
79.726577
67.971945
58.598518
46.369433
38.309693
31.481981
28.024912
24.869442
23.973584
23.320913
23.425817
23.071766
##ZVALUE=345
0.691414
0.697970
0.776649
0.651479
0.763535
0.728965
0.774860
0.730753
0.754595
0.839829
0.769496
0.627637
0.704527
0.872612
0.825524
0.794530
0.822544
0.704527
0.936985
0.988841
0.819564
0.896454
0.834465
1.023412
0.779629
1.019835
1.034737
0.973940
1.095533
1.027584
0.858903
0.889897
1.012683
1.085997
1.102686
1.127720
1.252890
1.258850
1.140833
1.389980
1.330972
1.299977
1.301765
1.499653
1.482964
1.637936
1.662970
1.760721
1.856685
1.919866
2.089739
2.134442
2.572536
3.027916
6.780624
41.274428
111.129880
289.114714
511.815548
926.300883
1015.743017
1015.743017
1015.743017
1015.743017
1015.743017
1015.743017
985.577703
597.700477
337.420702
136.009455
62.749982
22.554994
14.688969
13.601780
13.947487
14.729500
15.592575
19.229650
23.022890
32.156706
40.965676
56.239963
66.433549
77.570677
83.836913
86.112618
83.619952
75.467825
67.340732
55.020452
45.850873
35.756826
30.488968
25.988817
24.404526
22.698641
##ZVALUE=350
0.681877
0.684857
0.522733
0.658631
0.722408
0.648499
0.715852
0.868440
0.715852
0.727773
0.851750
0.758767
0.756979
0.808835
0.777841
0.793934
0.814795
0.847578
0.751615
0.742674
0.691414
0.785589
0.849962
0.885725
0.914931
0.709891
0.848770
0.815988
0.982881
0.926852
0.983477
1.016855
0.885725
0.924468
1.049638
1.176596
1.156926
1.192689
1.086593
1.078844
1.187921
1.184940
1.181960
1.314878
1.413822
1.367927
1.422763
1.489520
1.627803
1.594424
1.800656
1.923442
2.126694
2.066493
2.255440
2.779961
4.172921
22.204518
65.922737
198.050737
380.649567
766.052008
1015.681624
1015.681624
1015.681624
1015.681624
1015.681624
1015.681624
1015.681624
725.701451
437.026620
194.545984
92.812777
28.728843
15.124679
12.962818
13.220906
13.095737
13.867617
15.214682
17.454624
23.343563
28.377771
38.994551
47.792792
61.371922
68.683624
76.350570
79.146624
76.959729
71.083903
60.783625
52.839518
42.232871
35.691857
28.879642
##ZVALUE=355
0.618696
0.726581
0.761747
0.666976
0.611544
0.740886
0.755787
0.705719
0.824928
0.812411
0.695586
0.689626
0.711679
0.781417
0.882745
0.874996
0.859499
0.865459
0.701547
0.811815
0.777841
0.909567
0.957847
0.947714
0.888705
0.833869
0.787973
0.956655
0.844598
1.024604
0.918508
0.945926
0.953674
1.070499
1.158714
1.176596
1.072884
1.107454
1.027584
1.178980
1.298785
1.021624
1.196861
1.060963
1.116991
1.389980
1.460910
1.464486
1.376867
1.535416
1.507998
1.814961
1.893640
1.830459
1.876950
2.095699
2.261996
2.687573
2.902746
10.855794
38.831830
141.972899
281.404853
580.821633
909.636021
1015.678644
1015.678644
1015.678644
1015.678644
1015.678644
1015.678644
898.071527
564.786792
250.911713
120.477676
39.135814
17.543435
12.468696
12.186766
12.807846
12.912750
13.603568
14.531612
16.779900
20.287633
26.125908
32.648444
43.775439
51.542521
61.608553
68.503618
71.301460
70.909858
64.820647
59.218407
49.432516
##ZVALUE=360
0.721812
0.719428
0.778437
0.693798
0.695586
0.659823
0.727773
0.905991
0.655651
0.853539
0.813603
0.724792
0.838637
0.780821
0.586510
0.711679
0.693798
0.786781
0.771880
0.773668
0.853539
0.896454
0.981688
0.970960
0.893474
0.781417
0.955462
0.969768
0.932813
0.835657
1.077652
0.911951
0.995994
0.958443
1.056790
1.085997
1.099706
0.991821
0.973940
1.190901
1.049638
1.164675
1.261830
1.272559
1.151562
1.340508
1.318455
1.316667
1.432896
1.512766
1.471639
1.381636
1.563430
1.715422
1.894832
1.995564
2.071857
2.325773
2.522469
2.591610
2.934933
5.210638
17.749667
79.309940
184.087753
440.216660
713.213682
1015.681624
1015.681624
1015.681624
1015.681624
1015.681624
1015.681624
1015.681624
717.582703
345.113873
178.678632
66.407919
27.710795
12.807846
11.991858
12.059808
12.049675
12.384653
12.458563
13.538599
14.550686
18.071532
21.598935
28.595924
35.590529
46.546459
53.408742
60.742497
64.905882
65.386891
##ZVALUE=365
0.702739
0.746846
0.818968
0.822544
0.676513
0.826716
0.643730
0.918508
0.767708
0.728965
0.884533
0.841618
0.653863
0.611544
0.733733
0.823736
0.893474
0.847578
0.779629
0.930429
0.761747
0.734925
0.881553
0.946522
0.866652
0.861883
0.915527
0.973940
1.013875
1.028776
1.063943
0.904799
0.946522
1.038909
1.178980
0.905991
0.943542
0.993609
0.999570
0.941753
1.084805
1.088977
1.150966
1.253486
1.148582
1.343489
1.401901
1.413822
1.373887
1.289845
1.420975
1.528859
1.618862
1.544952
1.579523
1.728535
1.757741
1.843572
1.961589
2.147555
2.405643
2.888441
3.065467
3.507733
8.134842
46.829581
120.287538
302.351713
539.856553
965.963006
1015.681624
1015.681624
1015.681624
1015.681624
1015.681624
1015.681624
909.494758
473.904014
254.850984
93.636513
38.281679
14.046431
11.212826
11.068583
11.305809
11.336803
11.438727
11.399984
12.103915
13.154745
15.215874
18.938780
24.084449
32.123923
39.648414
47.764778
##ZVALUE=370
0.681877
0.694990
0.783801
0.770688
0.798702
0.855923
0.763535
0.679493
0.727773
0.654459
0.843406
0.774860
0.709891
0.670552
0.772476
0.857711
0.952482
0.879765
0.859499
0.854731
0.694990
0.779629
0.767708
0.922680
0.914931
0.748634
0.794530
0.718832
0.977516
1.021624
0.848770
0.853539
1.034737
0.853539
0.839829
0.796914
1.084805
1.001954
1.062751
1.179576
1.092553
1.203418
0.999570
1.193881
1.111627
1.068711
1.060963
1.097918
1.365542
1.291633
1.278520
1.363754
1.325607
1.382828
1.534820
1.381636
1.593828
1.654625
1.777411
1.841784
1.830459
2.110600
2.324581
2.392530
2.700686
3.016591
4.548430
23.697615
79.715848
243.666768
438.591838
809.329748
1015.681624
1015.681624
1015.681624
1015.681624
1015.681624
1015.681624
985.300541
564.036965
317.768455
126.305819
58.904886
21.081567
11.704564
9.755492
10.065436
10.180473
10.227561
10.245442
10.217428
10.994673
11.828542
14.012456
16.452670
21.801591
##ZVALUE=375
0.694990
0.728965
0.697970
0.534654
0.697970
0.631809
0.654459
0.692606
0.692606
0.615716
0.802875
0.672936
0.759959
0.802875
0.543594
0.858903
0.671744
0.780821
0.949502
0.831485
0.862479
0.731945
0.792742
0.892878
0.597835
0.835657
0.851750
0.712872
0.849962
0.792742
0.819564
0.906587
0.855923
1.037717
0.823736
0.818968
0.914931
0.975728
0.954866
0.969768
0.941753
0.916719
0.934601
0.949502
1.073480
1.028776
0.960827
1.181960
0.888705
0.935793
1.026988
1.355410
1.365542
1.155734
1.292825
1.355410
1.403689
1.342893
1.472831
1.398921
1.545548
1.663566
1.542568
1.767874
1.902580
2.175570
2.340674
2.833605
3.355742
11.407733
43.052435
157.356858
323.447585
683.189034
989.121795
1015.681624
1015.681624
1015.681624
1015.681624
1015.681624
1015.681624
728.595853
453.390479
208.217502
105.229616
34.340620
14.908910
9.306669
9.148717
9.008646
9.089708
9.406805
9.536743
9.756684
9.920597
11.123419
##ZVALUE=380
0.657439
0.676513
0.720620
0.683665
0.611544
0.579953
0.564456
0.462532
0.685453
0.633597
0.626445
0.772476
0.569820
0.716448
0.764728
0.670552
0.565648
0.745654
0.857711
0.654459
0.611544
0.656843
0.775456
0.797510
0.725985
0.767708
0.905991
0.890493
1.006722
0.729561
0.874996
0.825524
0.952482
0.919700
0.932813
0.845790
0.964999
0.849962
0.785589
0.992417
1.036525
0.901818
0.961423
0.865459
0.920892
0.899434
0.885725
0.879765
1.000762
1.011491
1.022816
0.946522
0.949502
1.127720
1.221895
1.157522
1.159906
1.270771
1.207590
1.345873
1.191497
1.526475
1.413822
1.546741
1.503825
1.710653
1.817942
2.194643
2.524853
2.763867
3.165603
5.696416
21.959543
113.406777
265.274644
598.376393
932.865739
1015.682817
1015.682817
1015.682817
1015.682817
1015.682817
1015.682817
930.627584
626.670718
310.769677
161.740780
56.785941
22.940636
9.999871
8.745790
8.350611
8.568764
8.589625
8.954406
9.434819
##ZVALUE=385
0.601411
0.611544
0.573993
0.614524
0.567436
0.622869
0.745654
0.700951
0.663996
0.594854
0.717640
0.599623
0.657439
0.759959
0.697970
0.584722
0.640750
0.552535
0.550747
0.683665
0.630617
0.659823
0.725985
0.631809
0.812411
0.868440
0.814795
0.798702
0.674725
0.784993
0.704527
0.746846
0.785589
0.843406
0.801682
0.798702
0.820756
0.784993
0.790954
0.879765
0.774860
0.849962
0.893474
0.978708
0.889897
0.942945
0.795722
0.853539
0.901818
0.958443
0.902414
0.787973
0.994802
0.916719
0.986457
1.135468
1.119971
1.324415
1.086593
1.130700
1.345873
1.294613
1.269579
1.220703
1.338720
1.587868
1.595616
1.792908
2.083778
2.328753
2.384782
2.724528
2.885461
3.539920
9.996891
61.341524
174.891949
472.948551
821.200609
1015.681624
1015.681624
1015.681624
1015.681624
1015.681624
1015.681624
1015.681624
807.462931
438.047647
246.626735
100.847483
41.643977
12.428761
8.384585
7.797480
7.772446
8.101463
##ZVALUE=390
0.606775
0.584722
0.471473
0.744462
0.547767
0.800490
0.599623
0.625849
0.671744
0.495911
0.658631
0.626445
0.599623
0.669956
0.729561
0.534654
0.643730
0.668764
0.551939
0.650883
0.640750
0.705719
0.586510
0.740886
0.681877
0.689626
0.758767
0.797510
0.698566
0.765920
0.692606
0.757575
0.723600
0.794530
0.732541
0.803471
0.889897
0.827909
0.970960
0.866652
0.865459
0.829697
0.826716
0.701547
0.948906
0.708699
0.641942
0.928640
0.879765
0.920892
1.146793
0.925660
0.764728
1.063943
0.987649
1.086593
1.042485
1.023412
1.018643
1.094937
1.189709
1.177788
1.250505
1.374483
1.457930
1.492500
1.550913
1.811981
1.849532
2.205968
2.296567
2.360940
2.614856
2.595782
2.854466
3.267527
5.393624
29.364824
98.507404
350.630879
703.876615
1015.681624
1015.681624
1015.681624
1015.681624
1015.681624
1015.681624
1015.681624
996.055007
618.743896
359.768867
147.246718
67.026615
19.217730
9.365678
7.641912
##ZVALUE=395
0.589490
0.585914
0.634789
0.659823
0.593662
0.560880
0.589490
0.690818
0.760555
0.680685
0.647902
0.630617
0.509620
0.655651
0.536442
0.647902
0.524521
0.799894
0.731945
0.677705
0.662804
0.543594
0.733733
0.561476
0.767708
0.743866
0.670552
0.714660
0.733733
0.839829
0.932813
0.729561
0.843406
0.724792
0.797510
0.862479
0.729561
0.728965
0.770688
0.824928
1.058578
0.746846
0.795722
0.868440
0.814795
0.792742
0.879765
0.812411
0.878572
0.923872
0.981688
0.826716
1.038909
1.103878
1.048446
1.112819
1.054406
1.158714
1.035929
1.109838
1.160502
1.166463
1.404881
1.334548
1.232624
1.365542
1.584888
1.543760
1.723766
2.024770
2.117753
2.212524
2.155900
2.333522
2.368689
2.556443
2.558827
2.891421
3.391504
16.207695
57.520866
209.575891
457.964540
960.192680
1015.681624
1015.681624
1015.681624
1015.681624
1015.681624
1015.681624
1015.681624
751.929879
474.552512
221.366882
105.816722
34.971833
##ZVALUE=400
0.473857
0.562668
0.495911
0.553727
0.576973
0.648499
0.617504
0.638962
0.554919
0.727773
0.626445
0.512600
0.586510
0.456572
0.610948
0.514984
0.636578
0.629425
0.692606
0.540614
0.661612
0.564456
0.732541
0.594854
0.496507
0.703931
0.719428
0.665784
0.775456
0.585914
0.721812
0.669956
0.504851
0.812411
0.590682
0.723600
0.585914
0.684857
0.754595
0.794530
0.847578
0.831485
0.900626
0.882745
0.945926
0.754595
0.837445
0.885725
0.759959
0.938773
0.866652
0.782609
1.049638
0.939965
0.999570
0.882745
0.945926
0.950694
1.033545
1.081824
1.066923
1.071692
1.102686
1.194477
1.310706
1.416802
1.422763
1.542568
1.648664
1.972914
1.984835
2.157688
2.179742
2.115965
2.145767
2.080798
2.232790
2.427697
2.517700
2.612472
3.113747
9.243488
31.918883
113.853812
248.139501
611.986518
986.403823
1015.681624
1015.681624
1015.681624
1015.681624
1015.681624
1015.681624
882.586837
577.815771
290.173888
##END
