##TITLE=FQP00352
##FORMAT=SPECTACLE-ASCII V-1.2
##DATA TYPE=ULTRAVIOLET SPECTRUM
##SECOND TYPE=ULTRAVIOLET SPECTRUM
##DATE=10/03/17
##TIME=11:57:25
##SPECTROMETER/DATA SYSTEM=SPECTACLE
##XUNITS=NM EM
##YUNITS=ENERGY
##YFACTOR=1
##FIRSTX=220
##LASTX=410
##NPOINTS=96
##3DDATA=Equidistant
##ZUNITS=NM EX
##FIRSTZ=210
##LASTZ=400
##ZPOINTS=39
##XYDATA=(Y..Y)
##ZVALUE=210
2.885461
2.955794
2.717972
2.771616
3.180504
2.830625
3.377795
3.487468
3.762841
3.687739
3.613830
4.965663
4.662871
5.414486
4.850626
5.227923
4.990697
5.618930
6.048679
5.712509
6.199479
7.329583
7.230639
7.436872
7.401705
8.916855
10.623932
10.068417
9.227991
10.377765
10.454655
11.443496
11.250973
10.686517
11.349916
12.197495
12.325644
12.956858
12.682676
11.819601
13.787746
12.340546
14.444590
13.495684
13.764501
14.123917
14.686584
15.653968
16.065836
16.464591
16.691685
17.191768
16.699433
16.692877
15.477538
17.192960
15.568733
17.814636
15.994906
18.927455
18.979907
19.898415
17.704964
19.533634
19.921660
19.573569
21.016598
23.972988
27.177930
29.480457
36.090612
42.509437
49.650669
55.021644
60.889721
66.386461
64.785480
67.623854
63.021779
61.843991
56.925416
51.004887
44.750571
40.112734
33.395886
28.875470
23.438931
21.305680
19.393563
18.014908
17.504692
16.136765
16.775727
19.038916
16.895533
17.021894
##ZVALUE=215
7.890463
7.870793
6.895661
6.699562
5.969405
5.450845
5.460978
5.584955
5.293489
5.969405
5.516410
5.556941
4.357696
5.167723
5.378723
4.537702
5.151629
5.452633
5.640984
5.188584
6.466508
5.985498
6.568432
7.271767
7.267594
7.438660
7.962584
8.499622
9.769797
9.443760
10.153651
9.613633
10.593534
10.632873
11.008978
10.293722
10.909438
11.238456
12.254715
12.117624
12.730956
11.648536
12.126565
13.135672
12.926459
14.344454
13.249516
14.483929
14.251471
14.526844
15.192628
16.209483
16.051531
15.118718
16.067624
15.750527
16.286969
15.647411
16.511679
16.934872
16.184449
16.450882
17.828941
17.905831
16.965866
17.874837
19.154549
20.588636
23.667812
27.297735
30.639768
35.443902
40.750504
46.086907
52.269697
53.771734
53.083897
53.803921
54.149628
49.270988
47.602654
43.262839
37.705898
31.773448
29.288530
25.042892
22.434592
18.519759
17.618537
15.932918
17.167926
16.512871
14.078617
15.665889
15.081763
15.813708
##ZVALUE=220
26.182532
28.529763
31.582713
33.950806
32.546520
26.748776
20.449758
15.797615
12.074709
10.472536
10.334849
12.005568
13.097525
12.630820
9.622574
8.444786
7.375479
7.119775
6.946921
6.276965
6.516576
6.940961
7.482767
8.101463
8.540750
8.375645
8.547902
9.596944
9.266734
9.694695
10.680556
11.123419
11.016726
12.862682
12.039542
11.882782
13.003945
12.950897
13.521910
14.489889
14.542937
13.938546
14.740825
15.406609
15.685558
16.102791
15.334487
14.699697
16.872883
15.602708
15.878677
16.467571
16.643405
16.465783
17.793775
17.699599
17.465949
18.354654
19.182563
20.474792
17.951727
17.393827
19.306540
19.707680
20.329952
20.599961
21.564960
23.435950
24.360418
29.313564
31.182766
37.798882
40.640831
50.518513
51.838756
56.528449
57.307482
58.798790
57.937503
56.523681
51.903725
47.832727
42.179823
37.882924
31.399727
27.604699
24.080873
21.336675
18.604994
18.476844
18.645525
17.358661
17.201900
16.607642
15.951991
16.362667
##ZVALUE=225
56.405663
60.252547
84.363818
112.550855
124.446750
125.851631
118.541718
90.199709
70.751905
53.570867
32.940507
24.190545
23.085475
25.105476
25.291443
24.064779
20.936728
19.028783
13.616681
11.445880
10.288954
7.784963
8.141994
8.634925
8.655787
9.298921
10.433793
9.716749
11.446476
11.897683
12.826920
11.555552
12.815595
13.224483
12.504458
14.522672
15.147924
14.464855
15.589595
14.716983
14.192462
16.572475
16.958714
16.521811
17.291903
17.809868
16.354918
18.766522
18.820763
18.236637
19.495487
19.329786
18.418431
19.827485
21.059513
19.856691
20.081997
20.715594
22.010803
20.760894
22.441745
23.883581
23.993850
25.499463
22.183657
25.235415
25.391579
24.793744
27.466416
28.338432
33.077598
39.287806
43.280721
46.233535
51.115751
52.406788
52.225590
53.889751
48.588514
48.077703
41.905642
38.418770
35.139918
30.775666
27.986765
24.842620
24.301410
22.071600
19.747615
19.762516
17.456412
18.843412
18.384457
19.424558
19.327998
18.446445
##ZVALUE=230
46.636462
50.305724
81.792474
148.307681
198.544860
261.943936
292.924643
302.312970
278.236866
234.568715
161.469579
111.542940
67.394972
51.212907
45.838952
48.483610
49.913526
46.120882
43.773651
37.059784
30.143857
20.225644
16.811490
12.778640
11.037588
9.754896
10.746717
10.801554
11.984706
11.368990
11.370778
13.215542
15.152693
13.159513
14.141798
15.869737
15.324950
15.418530
17.883778
17.428994
17.205477
18.286705
18.357635
18.567443
19.975901
20.872951
20.216703
20.717978
23.557544
22.549629
24.765730
23.982525
24.624467
25.311708
27.637482
25.889874
27.471781
27.344823
26.169419
30.484796
26.686788
31.456947
27.817488
30.110478
31.947494
31.176805
30.496716
33.428669
36.099553
38.398504
41.966438
44.126511
49.956441
52.927732
57.446957
58.456659
58.129430
56.062937
53.736567
49.777627
45.705438
45.878887
41.134953
36.200881
33.948421
31.539798
30.897856
28.281808
27.538538
25.474429
24.848580
24.819970
25.012493
24.013519
22.707582
23.730993
##ZVALUE=235
16.782880
18.047690
49.802661
99.779963
173.773766
303.621888
416.781902
555.238724
624.786615
623.744726
583.883524
463.964939
351.268649
217.007995
142.759681
93.340874
75.888634
78.819990
80.878735
79.194903
76.406002
67.384839
54.712892
39.862990
27.138591
20.701885
15.168786
14.239550
12.772679
13.564825
11.547804
14.145970
12.758970
15.402436
14.175773
16.537905
17.273426
17.424822
18.236637
19.002557
19.011497
20.404458
21.436810
23.014545
23.594499
25.666952
24.478436
27.989745
27.864575
29.329658
31.263828
34.304857
32.886863
36.159754
35.877824
36.200881
37.859678
35.030842
39.210916
38.599968
39.298534
38.119555
41.987896
38.614869
42.795539
42.427778
45.634508
41.843653
45.119524
49.994588
50.719976
57.855844
58.336854
65.271854
64.472556
70.685744
68.389773
66.954494
62.753558
59.381723
58.098435
54.848790
50.553679
44.685602
42.614937
41.314960
37.680864
34.617782
35.624504
33.586621
32.453537
30.476451
30.661821
31.611919
32.126904
30.871630
##ZVALUE=240
3.741980
3.470778
6.977916
27.708411
65.287948
155.650973
276.166797
486.092567
671.563745
848.169923
1001.220942
1015.681624
948.194861
799.720883
578.101873
409.269929
229.525566
157.675743
110.465884
99.072456
106.336474
114.379525
112.139583
98.919868
88.336468
62.136650
50.472617
34.955740
27.673841
18.205643
15.813708
14.888644
14.065504
14.423728
14.761686
16.269684
16.337633
17.672777
17.779469
19.564629
20.588636
23.148656
23.588538
26.757717
27.403831
30.545592
30.442476
34.406781
34.253597
39.336681
38.565993
38.408637
40.598512
43.165684
43.309927
47.502518
45.790672
45.454502
50.039887
49.320459
47.692657
50.125718
47.586560
50.613880
50.309896
50.615668
52.304864
53.569674
54.387450
56.872964
61.484575
66.432953
69.461465
71.808696
75.953603
74.755549
77.282786
71.679950
69.600940
70.024729
65.604448
63.169599
55.673718
53.759813
50.798655
44.561625
44.716001
44.016838
42.223930
40.645599
40.669441
39.242506
37.754774
37.190914
36.088824
35.932660
##ZVALUE=245
2.218485
2.459884
2.790689
2.791882
8.425713
20.359755
67.420602
139.356852
322.270989
503.133535
817.084908
1014.363766
1015.401483
1015.401483
1015.401483
1014.550924
849.521756
569.320917
378.146768
209.629536
136.896968
108.640790
112.297535
124.656558
130.997896
125.712752
110.922456
94.799995
74.294806
57.239532
40.741563
26.805997
20.812750
16.040802
14.790893
16.909838
17.029643
18.678904
19.158721
20.971894
20.622611
23.231506
24.748445
26.665926
28.856993
30.983686
33.404827
33.953786
38.048625
39.937496
41.079521
40.978789
41.960478
45.327544
47.355890
45.115948
45.806766
46.935678
47.642589
47.515631
46.364665
47.602654
47.519803
49.125552
49.156547
49.270988
49.880743
52.444935
50.206780
55.306554
53.490996
60.500503
59.291720
62.472820
63.667893
62.881708
63.023567
62.214732
60.772896
55.211782
53.030849
50.664544
48.755407
44.630766
45.135617
42.642951
41.461587
40.836930
39.292574
38.204789
38.256645
37.008524
35.223961
34.460425
35.001636
33.064485
##ZVALUE=250
2.435446
2.712607
2.497435
2.453923
2.853870
3.180504
5.234480
14.373660
63.667893
132.355690
319.757462
536.559820
793.395638
1015.681624
1015.681624
1015.681624
1015.681624
1015.681624
1015.681624
774.739981
514.447689
324.451923
164.763927
113.374591
107.651949
117.230415
132.057667
139.107704
133.426785
122.847557
104.513764
81.565976
61.031580
40.306449
29.959679
20.221472
18.013716
17.315745
17.257929
18.904805
20.370483
21.672845
24.359822
26.419759
27.675629
28.804541
32.030940
33.186674
34.536719
35.507679
38.190484
39.255619
39.842725
42.078495
43.049455
43.613911
44.560432
43.169856
43.360591
44.397712
43.584704
44.090748
43.783784
43.234825
41.906834
43.902993
43.012500
43.359995
44.333935
48.428774
45.172572
48.873425
51.276684
51.455498
54.389834
53.986907
52.139759
50.518513
48.553944
45.365691
44.593811
42.404532
39.664507
40.830970
38.939714
36.919713
36.714673
35.041571
35.256743
32.303929
33.854842
32.553673
32.418966
31.400919
30.761957
30.735731
##ZVALUE=255
2.042651
2.135634
2.378821
2.063513
2.812743
2.444983
2.834797
2.917647
3.473759
8.749962
48.149824
115.004778
230.165720
483.570695
742.805004
1015.681624
1015.681624
1015.681624
1015.681624
1015.681624
1015.681624
1015.681624
715.817809
450.223684
218.761563
135.928988
101.348758
104.847550
126.960874
137.227774
147.925615
142.824650
130.620003
102.772713
85.029602
59.747696
44.419765
29.900670
23.924708
20.566583
20.616651
20.411611
21.454692
24.350882
24.845600
27.008653
27.624965
28.500557
30.677915
32.027960
32.945871
34.150481
35.461783
35.362840
35.007000
37.183762
36.390424
36.811829
38.579702
37.219524
36.538839
37.094951
36.031604
36.766529
34.646988
34.681559
34.507513
34.809709
35.742521
37.942529
38.729906
41.303635
42.504668
44.053793
44.134855
43.155551
42.387843
42.259693
39.446950
38.314462
36.781430
34.286976
34.669638
32.897592
32.460690
31.440854
30.602813
30.802488
30.521750
29.913783
29.944777
28.273463
28.661489
28.533936
27.176738
28.465986
##ZVALUE=260
2.010465
1.898408
2.260804
1.860857
2.417564
2.074838
2.578497
2.496839
2.810955
2.881885
3.275871
4.943013
15.735626
65.875649
148.529410
347.836614
566.453934
927.627683
1015.695930
1015.695930
1015.695930
1015.695930
1015.695930
1015.695930
959.208012
650.683641
350.547433
200.691819
107.351542
94.027519
100.477934
124.482512
141.819715
152.908564
150.237679
132.707953
114.668608
85.105896
66.385865
44.769645
33.845901
24.677515
21.914840
21.350980
20.332932
22.455454
24.256706
24.396777
25.255680
26.620626
28.465986
29.181838
29.236674
30.564666
31.038523
30.790567
30.905604
31.277537
31.622648
31.822920
30.022860
31.281710
30.320883
31.333566
29.869676
29.396415
29.654503
30.194521
30.792952
32.185912
31.170845
33.982992
35.468936
34.844875
38.056970
37.480593
36.160946
35.614967
34.521818
32.402873
31.847954
30.035973
28.650761
28.969646
28.149486
28.132796
27.255416
26.996732
26.900768
26.360750
25.788546
24.954677
24.963617
25.946498
26.190877
24.907589
##ZVALUE=265
1.897812
1.999736
2.177954
1.671910
2.195835
1.847744
1.963973
2.076626
2.283454
2.504587
2.767444
2.649426
3.363490
3.351569
7.485747
40.656924
100.229979
251.712799
450.468659
870.585442
1015.681624
1015.681624
1015.681624
1015.681624
1015.681624
1015.681624
1015.681624
899.752975
490.060449
282.551646
158.072710
89.223981
87.044835
111.320615
132.023692
151.125789
156.759620
151.712894
136.839747
111.590624
88.819861
64.799786
47.371984
32.782555
25.578737
21.982789
21.541715
21.709800
23.095608
23.521781
25.108457
25.495887
26.061535
27.556419
26.391745
26.803613
27.174950
27.843714
27.337670
28.026700
28.924942
27.971864
27.728677
27.509928
27.221441
26.339889
26.568770
27.239919
28.483868
29.538870
30.512810
31.458735
30.727983
32.091737
32.455921
33.035874
33.268929
31.487942
30.434728
29.328465
27.743578
27.631521
26.110411
25.801659
24.817586
24.704933
24.888515
24.690628
24.774671
23.405552
23.726821
23.602843
24.027824
23.265481
23.201704
23.125410
##ZVALUE=270
1.955628
1.770854
1.683831
1.952648
1.856685
1.857877
2.055764
1.968741
2.044439
2.231598
2.547503
2.537966
2.716780
2.561808
2.500415
3.648996
4.284978
18.277764
52.050948
173.153877
338.580608
594.235659
1015.673876
1015.673876
1015.673876
1015.673876
1015.673876
1015.673876
1015.673876
1015.673876
750.776529
439.090729
239.304900
101.414919
75.062513
89.923739
110.713840
135.874748
151.860714
157.241821
154.040456
136.840940
115.802884
87.564588
67.997575
46.111941
35.210848
26.837587
23.081899
22.740960
22.353530
22.981763
23.126602
26.223660
25.075674
25.108457
25.205612
26.155710
26.397705
26.691556
26.335716
25.849938
26.364923
26.684999
26.635528
26.433468
26.097894
26.285648
26.563406
27.675629
29.729605
29.429793
29.918551
30.623674
30.793548
30.079484
29.277802
29.374957
29.023886
26.237965
26.262999
25.983453
24.768710
24.339557
22.973418
23.466945
23.233891
22.219419
22.853613
21.815896
21.654963
21.977425
21.659732
22.067428
21.561980
21.842718
##ZVALUE=275
1.609921
1.776814
1.811981
1.834631
1.726747
1.882911
1.841784
2.028942
1.785755
2.002716
2.274513
2.025962
2.266765
2.170801
2.294779
2.646446
3.153682
3.082752
3.560781
6.414652
39.201975
103.234649
310.354829
575.522780
940.901637
1015.681624
1015.681624
1015.681624
1015.681624
1015.681624
1015.681624
1015.681624
1012.854576
574.936867
325.441957
135.569572
73.346496
67.082644
85.006952
114.605427
132.677555
152.673721
157.260895
153.774619
139.353871
113.745928
92.321634
67.328811
51.744580
37.438869
30.024648
25.240779
24.441481
24.197698
24.493933
24.440885
24.893880
26.088953
26.664734
26.569963
26.828647
27.354956
27.165413
26.595592
26.151538
26.581883
27.069449
27.287602
28.686523
28.861761
28.612614
29.396415
29.957891
30.904412
30.077696
31.063557
30.803680
29.061437
27.632713
26.272535
25.781989
24.787784
24.191737
23.563504
22.149682
22.764802
21.931529
22.513866
21.419525
21.260977
21.123886
20.791888
20.285845
19.434690
19.987822
20.606518
##ZVALUE=280
1.515746
1.455545
1.585484
1.598597
1.520514
1.657605
1.755953
1.756549
1.689792
1.789927
1.922846
2.009869
1.820922
2.139807
2.173781
2.140999
2.675653
2.498627
2.771616
3.145933
3.262758
4.573464
23.484826
73.612928
168.408751
449.957848
768.015981
1015.677452
1015.677452
1015.677452
1015.677452
1015.677452
1015.677452
1015.677452
1015.677452
821.275711
478.625894
195.694566
93.179941
53.764582
60.195923
86.187720
109.148622
134.548545
148.118734
156.293511
150.030851
135.191679
117.288828
89.447498
71.813464
51.089525
40.800571
31.831861
27.425885
25.536418
26.264787
26.066899
27.436614
28.062463
27.768612
27.847886
28.156638
27.514696
29.264688
28.479695
27.992725
28.375983
29.118657
28.862953
30.629635
29.138923
30.430555
31.281710
31.143427
29.202700
28.946996
27.904510
26.869774
26.401877
26.537776
24.742484
23.550987
23.018718
22.584796
21.345615
22.424459
21.546483
20.731688
20.001531
20.295978
19.511580
19.330978
19.526482
19.056797
19.270778
##ZVALUE=285
1.496673
1.419783
1.431704
1.566410
1.649857
1.511574
1.436472
1.627803
1.469851
1.646876
1.698732
1.850724
1.734495
1.873970
2.004504
2.175570
2.095699
2.414584
2.277493
2.639890
2.737641
3.161430
3.466606
3.785491
10.805726
36.881566
129.392743
273.488760
602.836013
967.962742
1015.681624
1015.681624
1015.681624
1015.681624
1015.681624
1015.681624
1015.681624
1012.862921
675.516725
314.799547
154.374838
58.051944
43.975711
60.155988
78.478456
109.487772
124.529004
144.543648
153.851509
147.326589
138.995647
117.698908
97.833872
72.988868
56.216717
42.235851
35.616755
29.855967
29.223561
28.742552
28.986931
28.805733
29.581785
29.414892
29.154420
28.165579
29.585958
28.371811
30.328631
30.765533
31.222701
30.425787
30.885935
29.962659
29.509664
30.137897
28.458834
28.511882
27.808547
26.049614
25.774837
24.215579
23.716688
22.737980
22.357702
22.030473
21.726489
21.340847
21.130443
20.345449
20.211935
19.642711
19.410849
18.671751
18.699765
19.005537
##ZVALUE=290
1.077652
1.576543
1.399517
1.511574
1.466870
1.418591
1.422763
1.479983
1.762509
1.610518
1.713634
1.789927
1.836419
1.832843
1.877546
1.734495
1.573563
2.054572
2.155900
2.368689
2.300739
2.275705
2.569556
2.934933
3.327727
3.738999
4.870892
14.876723
70.559978
171.089768
354.620814
772.472024
1015.679836
1015.679836
1015.679836
1015.679836
1015.679836
1015.679836
1015.679836
1015.679836
920.670629
453.552604
228.695869
81.439614
40.503740
40.024519
53.900480
78.831911
99.147558
126.020908
141.600966
150.720477
151.107907
137.158632
120.167732
96.433759
78.233480
57.486892
47.385693
39.371848
34.096837
32.094717
31.049848
30.221939
31.461716
30.750632
29.779673
31.295419
30.550957
31.181574
31.011701
31.076670
31.390786
30.880570
31.070709
30.026436
28.802752
27.995706
27.098656
26.414990
24.968982
24.614930
23.555756
23.762584
23.118854
22.071600
21.922588
21.081567
20.930767
20.917654
20.044446
20.106435
20.189881
18.666983
18.341541
18.261671
##ZVALUE=295
1.362562
1.447797
1.437664
1.408458
1.363754
1.420975
1.423955
1.309514
1.445413
1.563430
1.618862
1.731515
1.659989
1.662970
1.836419
1.732707
1.812577
1.718998
1.878738
1.940727
2.293587
2.273917
2.416968
2.625585
2.911687
2.874732
2.904534
3.525615
4.061460
7.966757
27.755499
124.169588
282.366872
667.424798
1011.023521
1015.753746
1015.753746
1015.753746
1015.753746
1015.753746
1015.753746
1015.753746
1015.753746
639.910102
341.385603
117.067695
51.552653
30.615926
37.526488
55.713654
74.921846
103.114843
120.599866
142.426491
150.672793
148.219466
139.039755
117.165446
100.484490
77.150464
63.058734
48.275590
41.149855
35.307407
32.851696
32.024980
31.148791
31.173825
31.828880
31.418800
31.036735
31.644702
31.156540
30.548573
30.643940
29.624701
29.161572
27.804971
27.196407
25.919676
25.614500
24.358630
24.019480
23.544431
22.769570
22.039413
21.621585
21.652579
20.563602
19.600987
20.088553
19.408464
19.190907
19.345880
18.923879
18.404722
##ZVALUE=300
1.277924
1.118779
1.299977
1.218915
1.126528
1.398921
1.329780
1.423955
1.465678
1.485944
1.328588
1.619458
1.583695
1.556873
1.550913
1.636744
1.741648
1.767874
1.870990
1.674891
1.827478
1.842976
2.204776
2.142787
2.381802
2.429485
2.580881
2.914667
3.025532
3.516674
3.870726
4.785657
19.328594
66.922903
235.799551
462.940931
944.597721
1015.682817
1015.682817
1015.682817
1015.682817
1015.682817
1015.682817
1015.682817
1015.682817
966.174603
485.749841
251.688957
86.102486
38.009882
31.272769
39.467812
57.312846
73.318481
98.594427
117.808580
138.871670
145.787001
145.188570
138.510466
120.166540
102.317929
79.488754
64.119697
48.301816
40.740967
35.166740
33.032894
31.622648
30.457973
30.639768
30.838847
30.090809
29.986501
29.822588
29.150844
28.771758
26.834607
26.634932
25.786757
24.807453
24.721622
24.358630
23.027658
22.824407
21.756887
21.869540
20.990968
20.487905
20.232797
20.247698
19.600987
19.174814
19.095540
18.536448
18.126965
##ZVALUE=305
1.031756
1.294613
1.475811
1.191497
1.100898
1.495481
1.335740
1.413822
1.390576
1.315475
1.335740
1.334548
1.370907
1.428723
1.334548
1.646876
1.595616
1.384616
1.555681
1.678467
2.006888
1.918674
1.949668
1.902580
2.067685
2.285838
2.382994
2.330542
2.571940
2.746582
3.170967
3.214478
3.881454
4.351735
9.661913
37.723780
157.828927
348.164439
786.399841
1015.681624
1015.681624
1015.681624
1015.681624
1015.681624
1015.681624
1015.681624
1015.681624
1015.681624
673.470497
361.155868
135.352612
59.942603
29.681921
31.363964
42.373538
53.951740
77.687502
95.313787
118.333697
131.938457
143.103004
140.856504
129.279494
116.823912
94.223619
78.066587
59.117675
47.394633
37.973523
33.740997
30.630827
29.874444
29.083490
28.682947
28.355718
27.356744
26.433468
25.806427
25.066733
24.863482
24.100542
22.979975
22.936463
21.937490
22.566915
21.495819
21.217465
20.550489
20.495653
20.527840
19.282699
19.622445
18.686652
18.538833
17.816424
17.655492
##ZVALUE=310
1.247525
1.170635
1.261830
1.344681
1.165867
1.105666
1.276731
1.209974
1.191497
1.352429
1.293421
1.194477
1.447797
1.290441
1.285672
1.418591
1.419783
1.417994
1.529455
1.392961
1.554489
1.636744
1.715422
1.648664
1.724958
2.230406
2.015829
2.354980
2.287626
2.343655
2.480745
2.605915
2.645850
3.217459
3.591776
4.003644
4.958510
14.378428
81.464648
203.989744
526.557565
921.085477
1015.682817
1015.682817
1015.682817
1015.682817
1015.682817
1015.682817
1015.682817
1015.682817
968.125463
588.156581
239.145756
108.226538
38.945675
27.190447
31.849742
37.933588
52.027702
65.110922
88.600516
104.875565
121.621490
130.407810
130.882859
125.128627
109.401941
94.515681
71.249604
56.571960
42.736530
36.849976
30.642748
28.020740
26.288629
25.411844
24.769902
24.345517
22.851825
22.499561
21.504760
22.199750
21.509528
21.251440
20.395517
20.699501
20.417571
20.149946
20.096898
19.067526
18.652678
18.390417
18.367767
17.941594
17.515421
17.182827
##ZVALUE=315
1.235604
1.145601
1.243949
1.046658
1.152754
1.305938
1.164675
1.167655
1.225471
1.390576
1.363754
1.409650
1.430511
1.273751
1.256466
1.425743
1.383424
1.388788
1.496673
1.298785
1.525879
1.608729
1.613498
1.582503
1.714826
1.670718
2.012849
1.862645
2.076626
2.221465
2.141595
2.198815
2.361536
2.553463
3.040433
3.227592
3.262758
3.551841
4.162788
8.924603
32.926798
144.802928
330.751538
786.397457
1015.696526
1015.696526
1015.696526
1015.696526
1015.696526
1015.696526
1015.696526
1015.696526
1015.696526
763.224959
402.414799
144.353509
59.267879
26.718974
25.903583
30.076504
34.898520
48.951507
61.277747
79.585910
97.447634
114.140511
121.046901
121.811628
115.917921
100.358725
86.607933
67.729950
53.230524
40.253997
32.211542
25.927424
24.230480
22.515655
21.504760
21.280646
20.857453
20.213723
20.133853
19.956827
19.915700
19.477606
19.368529
19.386411
18.680692
18.514991
18.352866
17.910600
17.655492
17.215610
17.413497
17.102957
##ZVALUE=320
1.073480
1.114607
1.156926
0.947714
0.994802
1.119971
1.049638
1.116991
1.253486
1.163483
1.038909
1.219511
1.134872
1.186728
1.183748
1.204610
1.317859
1.323819
1.420975
1.444817
1.495481
1.338720
1.404881
1.524687
1.572967
1.633763
1.679659
1.828671
1.975894
1.820922
1.963973
2.178550
2.055764
2.079606
2.312660
2.401471
2.702475
2.990961
3.047585
3.683567
3.833771
5.078912
15.118718
83.305836
217.669010
577.262640
959.708691
1015.681624
1015.681624
1015.681624
1015.681624
1015.681624
1015.681624
1015.681624
1015.681624
957.099795
549.980402
218.702555
92.922449
30.346513
21.219850
20.856857
23.010969
29.472709
37.787557
54.336786
68.366528
86.212754
100.103617
111.375451
111.995935
107.478499
97.239614
77.438951
63.089728
46.618581
36.233664
27.763844
22.976995
20.228624
19.092560
17.964840
18.135905
18.014908
18.220544
17.979741
17.979741
17.697811
17.961860
17.742515
16.961694
17.676950
17.223954
16.667843
16.392469
16.555786
##ZVALUE=325
1.019835
0.955462
1.027584
0.950694
0.878572
0.991821
1.019835
1.029968
1.162887
1.237988
1.002550
1.032948
1.247525
1.108646
0.996590
1.320839
1.251698
1.292825
1.266599
1.413822
1.260638
1.266599
1.464486
1.565814
1.330972
1.388788
1.757741
1.628995
1.756549
1.759529
1.742840
1.980662
1.913905
2.109408
2.289414
2.006888
2.122521
2.443790
2.719760
2.749562
2.865791
3.435612
3.656745
4.377961
8.881688
55.377483
146.889687
398.427844
721.581578
1015.681624
1015.681624
1015.681624
1015.681624
1015.681624
1015.681624
1015.681624
1015.681624
1015.681624
747.106671
318.719745
141.232014
39.666891
18.900633
15.574694
15.917420
19.616485
23.978949
34.424663
46.637654
65.765977
80.307722
92.856884
102.034807
104.220510
97.752810
85.036755
71.888566
54.900646
43.037534
29.891729
24.405718
19.857883
18.009543
16.879439
16.634464
16.691685
16.676784
16.766787
16.299486
16.264915
16.507506
16.213655
15.961528
16.015768
16.190410
15.665889
##ZVALUE=330
1.117587
1.072884
1.072884
0.949502
1.014471
0.983477
0.951886
1.302958
1.049638
1.140833
1.187921
1.204610
1.087785
1.059771
1.010895
1.164675
1.050830
1.054406
1.030564
1.252890
1.121759
1.171827
1.300573
1.214743
1.253486
1.282692
1.411438
1.488924
1.518726
1.647472
1.528859
1.745820
1.747608
1.876950
1.933575
1.944900
1.861453
2.009869
2.300739
2.279878
2.502799
2.642870
3.082752
3.426671
3.692508
4.204512
5.417466
25.779605
86.376667
282.684565
550.277829
1015.681624
1015.681624
1015.681624
1015.681624
1015.681624
1015.681624
1015.681624
1015.681624
1015.681624
989.883542
466.009974
222.483873
68.861842
25.594831
13.955832
13.263822
15.085936
17.252564
23.618937
31.280518
45.666695
59.240460
77.221990
87.789893
96.997619
97.249746
90.614557
80.519915
64.760447
53.328872
37.544966
30.304790
23.013949
19.737482
17.677546
16.943812
15.887618
16.026497
16.218424
15.720725
15.734434
15.422702
15.422702
15.680790
15.195608
##ZVALUE=335
0.866652
0.931621
0.778437
0.882745
0.902414
0.850558
0.800490
0.912547
0.800490
0.913739
1.001954
0.953674
0.987649
0.885725
1.056790
1.003742
1.147985
1.071692
1.037717
1.003742
0.848770
1.027584
1.010895
1.054406
1.121759
1.021624
1.169443
1.320839
1.330972
1.298785
1.319647
1.439452
1.606941
1.588464
1.514554
1.545548
1.741648
1.883507
1.940727
2.139807
2.075434
2.209544
2.541542
2.576709
2.691746
2.958775
3.436804
3.857613
4.172921
12.381673
46.205521
184.710622
393.594503
889.236927
1015.554667
1015.554667
1015.554667
1015.554667
1015.554667
1015.554667
1015.554667
1015.554667
1015.554667
716.190934
364.238620
111.082792
39.372444
15.173554
13.528466
14.058948
15.092492
17.571449
22.360682
32.096505
42.568445
58.173537
69.904923
82.365870
89.301467
90.709925
85.476637
72.593689
62.955618
49.984455
40.214658
29.444695
23.942590
18.876791
17.419457
15.921593
14.976859
15.338659
14.583468
14.852881
15.148520
14.884472
##ZVALUE=340
0.875592
0.899434
0.866652
1.007915
0.760555
0.858903
0.818968
0.993609
0.849962
0.772476
1.098514
1.012683
0.895858
1.219511
1.023412
1.097918
0.951886
0.949502
1.040697
0.950694
1.113415
1.196861
1.115799
1.132488
1.165867
1.329780
1.447797
1.389980
1.191497
1.328588
1.430511
1.331568
1.481771
1.604557
1.398921
1.592636
1.808405
1.744628
1.887679
1.807809
1.800656
1.808405
2.048612
2.281666
2.410412
2.589822
2.714992
2.951622
3.297925
3.572702
4.043579
5.989671
20.379424
109.207034
272.691846
682.134032
1015.681624
1015.681624
1015.681624
1015.681624
1015.681624
1015.681624
1015.681624
1015.681624
1015.681624
909.308791
495.447516
186.677575
64.853430
17.886758
14.692545
13.774633
14.243722
14.772415
17.387867
22.072792
28.993487
40.405989
52.296519
67.173839
77.230930
84.675550
84.706545
79.900622
72.696805
60.395598
50.002933
37.281513
30.252934
22.979975
19.146800
16.089678
14.806986
14.475584
14.399886
14.323592
##ZVALUE=345
0.971556
0.932813
0.807643
0.802875
0.962615
0.854731
0.860691
1.034737
1.145601
0.882745
0.880957
0.981688
1.017451
1.070499
1.053810
1.087785
1.011491
1.100898
1.103878
0.929832
1.043677
1.095533
1.056790
1.096725
1.108646
1.163483
1.298785
1.132488
1.240969
1.276731
1.348853
1.382828
1.339912
1.373887
1.317859
1.525879
1.475811
1.405478
1.610518
1.860857
1.812577
1.869798
2.095699
2.105832
1.982450
2.202988
2.302527
2.591610
2.695918
3.019571
3.150702
3.675818
3.735423
4.379749
9.522438
61.751008
175.983906
479.305983
872.063637
1015.681624
1015.681624
1015.681624
1015.681624
1015.681624
1015.681624
1015.681624
1015.681624
1015.681624
691.396594
285.010934
116.359591
30.219555
15.666485
13.941526
13.568997
13.257861
13.602972
16.026497
19.899607
27.789474
36.585927
49.875975
60.021877
71.945786
77.109933
79.474449
76.237917
68.403482
59.224963
47.425628
38.032532
27.894974
22.319555
18.245578
16.074777
14.796853
##ZVALUE=350
0.888705
0.871420
1.043677
0.984669
1.075864
0.919700
0.910759
0.898838
0.841618
1.042485
0.911951
0.993609
0.813603
1.086593
1.028776
0.969768
0.954866
1.101494
1.206994
1.153946
1.232624
1.063943
1.193881
1.059771
1.075864
1.142621
1.012683
1.046658
1.275539
1.224875
1.242757
1.366735
1.373887
1.305938
1.382828
1.486540
1.395941
1.519918
1.589656
1.582503
1.497865
1.594424
1.694560
1.854897
1.987815
1.971722
1.811981
2.159476
2.201796
2.503991
2.579689
2.728701
3.002882
3.396869
3.749728
4.092455
5.763769
30.052662
98.772049
319.489837
617.773533
1015.681624
1015.681624
1015.681624
1015.681624
1015.681624
1015.681624
1015.681624
1015.681624
1015.681624
873.818994
401.585698
182.001591
45.245886
17.859936
12.654662
12.178421
11.631846
11.864901
12.622476
14.435649
19.162893
24.615526
33.352971
41.917562
54.096580
62.725544
70.079565
72.416663
69.876909
64.372420
54.714680
46.204925
35.527945
27.939677
21.847486
##ZVALUE=355
0.920892
0.945926
0.945926
0.844598
0.936985
0.890493
1.041889
1.000762
0.935793
1.050830
0.885725
1.012683
0.704527
1.039505
1.043677
1.041889
1.173615
1.081824
0.943542
1.020432
1.046658
1.257658
0.897646
1.146793
1.108646
1.236796
1.120567
1.228452
1.290441
1.269579
1.269579
1.190901
1.288652
1.132488
1.341701
1.381636
1.351833
1.470447
1.549721
1.648664
1.709461
1.675487
1.571774
1.691580
1.654625
1.693964
2.039671
1.864433
1.929998
2.314448
2.235770
2.523661
2.683997
2.963543
3.059506
3.578663
3.650784
3.839731
4.586577
14.968514
54.256916
213.117003
444.399714
947.076678
1015.681624
1015.681624
1015.681624
1015.681624
1015.681624
1015.681624
1015.681624
1015.681624
984.606743
459.166765
219.077468
62.969923
22.766590
12.463927
11.717677
11.049509
10.958910
11.439919
11.724830
13.644695
16.261935
22.436976
28.878450
39.094687
47.241449
57.237744
62.547922
66.283941
65.170527
58.191419
51.315427
42.587519
##ZVALUE=360
1.083612
1.055598
1.039505
1.032948
0.954866
1.224875
0.891685
0.817776
1.032948
0.994802
0.879765
0.982881
1.049638
0.926852
1.157522
1.029968
1.143813
1.006722
0.944734
1.125932
1.182556
1.113415
1.171827
1.279712
1.230836
1.242757
1.233816
1.249909
1.235604
1.296997
1.300573
1.314878
1.349449
1.260638
1.377463
1.441836
1.419783
1.469851
1.532435
1.561642
1.594424
1.609921
1.561642
1.557469
1.623631
1.840591
1.844764
1.903772
1.777411
1.954436
2.121925
2.284646
2.447963
2.664924
2.632737
2.966523
3.091693
3.115535
3.468990
3.967881
4.336834
7.033944
23.710728
113.813877
278.304815
695.861578
1015.675664
1015.675664
1015.675664
1015.675664
1015.675664
1015.675664
1015.675664
1015.675664
1015.675664
596.166849
306.442976
106.014609
37.187934
12.976527
11.655688
10.903478
10.439754
10.383725
10.487437
10.893941
11.744499
14.791489
17.786622
24.270415
31.578541
40.947795
48.038960
55.290461
59.590936
59.793591
##ZVALUE=365
0.879765
0.975728
0.891685
0.982881
0.999570
0.906587
1.026988
0.830889
0.946522
0.979900
1.022816
1.010895
0.897646
0.941753
0.996590
1.007915
1.032948
1.000762
1.052618
0.993609
0.992417
1.045465
0.976920
1.100898
1.273751
1.327991
1.220703
1.273751
1.144409
1.177788
1.134872
1.294613
1.218915
1.245737
1.336932
1.389980
1.435876
1.615882
1.500845
1.395941
1.538992
1.588464
1.497865
1.569986
1.625419
1.697540
1.734495
1.718998
2.075434
1.967549
1.888871
2.057552
2.108812
2.195835
2.491474
2.435446
2.648830
2.898574
2.977848
3.301501
3.549457
3.995895
4.209876
5.267859
9.987950
59.821606
171.411633
479.421616
877.241492
1015.681624
1015.681624
1015.681624
1015.681624
1015.681624
1015.681624
1015.681624
1015.681624
818.805099
441.885591
153.861642
56.726933
15.432835
11.194944
10.426641
10.163784
9.905696
9.590983
9.395480
9.672642
10.716915
12.078881
15.994906
20.296574
27.459860
34.169555
42.668581
##ZVALUE=370
0.923872
1.030564
0.866652
0.874996
0.968575
0.928640
0.975728
1.057982
1.151562
1.025796
0.966787
1.081824
1.014471
1.024604
0.998974
1.131892
1.065731
0.941753
1.025796
0.966787
1.141429
0.962615
1.000762
1.218915
1.087785
1.237988
1.144409
1.170635
1.167655
1.219511
1.151562
1.155734
1.165867
1.469851
1.343489
1.297593
1.267791
1.299977
1.370907
1.420975
1.402497
1.605749
1.512766
1.591444
1.689792
1.608729
1.610518
1.798868
1.748800
1.745820
1.856685
1.948476
1.865625
1.989603
2.039671
2.201796
2.206564
2.351999
2.451539
2.567768
2.850890
3.086925
3.204942
3.608465
3.882647
4.694462
6.397963
31.577945
107.549429
350.050926
666.617751
1015.681624
1015.681624
1015.681624
1015.681624
1015.681624
1015.681624
1015.681624
1015.681624
949.898958
539.332628
205.370784
87.421536
25.575757
12.427568
9.840727
9.334683
9.015799
8.747578
8.360744
8.410811
8.547902
9.146929
11.200905
13.668537
18.173456
##ZVALUE=375
0.881553
0.838637
0.948906
0.770688
0.895858
0.865459
1.054406
0.995994
0.963807
0.944734
0.954866
0.931621
0.868440
0.986457
1.171827
1.008511
0.895858
0.856519
0.874996
0.963807
1.150966
0.977516
1.055598
0.991821
0.937581
0.906587
0.880957
1.086593
0.997782
0.986457
1.098514
1.114607
1.166463
1.111627
1.176596
1.107454
1.247525
1.279712
1.364946
1.204610
1.318455
1.380444
1.207590
1.377463
1.439452
1.517534
1.442432
1.580715
1.330972
1.515746
1.576543
1.639724
1.620650
1.614690
1.614690
1.999736
1.831651
2.024770
2.109408
2.234578
2.253652
2.403855
2.565980
2.588630
2.838969
3.118515
3.607869
4.105568
4.943609
16.763806
61.877966
228.199363
494.678020
1014.100909
1015.681624
1015.681624
1015.681624
1015.681624
1015.681624
1015.681624
1015.681624
1015.681624
781.383514
374.048948
181.759596
52.406788
18.166900
9.465814
9.039640
8.628964
8.444786
8.047819
7.978678
7.776618
7.901788
8.305907
##ZVALUE=380
0.873804
0.782609
0.849962
0.809431
0.885725
0.797510
0.889897
0.875592
0.879765
0.922680
1.010895
0.955462
0.847578
0.950694
0.868440
0.841618
0.812411
0.893474
0.800490
0.952482
1.080632
0.945926
1.005530
0.984669
1.032948
1.091957
0.891685
0.900626
0.938773
0.950694
1.054406
0.980496
1.119971
1.198649
1.094937
0.984669
1.144409
1.061559
1.252890
1.271963
1.076460
1.110435
1.215935
1.176000
1.198649
1.321435
1.218915
1.271963
1.524687
1.388788
1.489520
1.450777
1.491904
1.572967
1.548529
1.603961
1.633763
1.610518
1.703501
1.897812
2.013445
1.888871
2.103448
2.379417
2.372861
2.720952
2.916455
3.304482
3.598928
4.142523
4.796982
8.472800
32.776594
162.068605
381.444693
895.099640
1015.681624
1015.681624
1015.681624
1015.681624
1015.681624
1015.681624
1015.681624
1015.681624
1015.681624
545.410514
276.971459
91.652870
32.647848
10.755658
8.666515
8.005500
7.744431
7.465482
7.573962
7.207990
##ZVALUE=385
0.751615
0.635982
0.650883
0.794530
0.861883
0.874996
0.837445
0.854731
0.764728
0.912547
0.770688
0.831485
0.831485
0.825524
0.878572
0.837445
0.920892
0.801682
0.939965
0.988841
0.808835
1.016855
0.946522
0.906587
0.911951
0.921488
0.893474
0.769496
0.945926
0.898838
0.914931
1.014471
1.229644
1.035929
1.028776
0.979900
0.989437
1.033545
0.986457
1.083612
1.043677
1.035929
1.180768
1.046658
1.110435
1.082420
1.124740
1.097918
1.107454
1.300573
1.324415
1.314878
1.405478
1.349449
1.433492
1.533628
1.565814
1.433492
1.511574
1.731515
1.607537
1.728535
1.848936
1.970530
1.910925
2.192855
2.444983
2.721548
2.936721
3.350973
3.716946
4.173517
4.495978
5.440712
14.169812
90.875626
242.601037
631.337762
1015.681624
1015.681624
1015.681624
1015.681624
1015.681624
1015.681624
1015.681624
1015.681624
1015.681624
774.572492
423.693657
166.682601
63.071847
14.738441
8.529425
7.464886
6.996989
7.063746
##ZVALUE=390
0.784993
0.810623
0.710487
0.712872
0.746846
0.763535
0.664592
0.850558
0.713468
0.834465
0.830889
0.920892
0.851750
0.740886
0.855923
0.831485
0.782609
0.762939
0.739694
0.876784
0.802875
0.777841
0.865459
0.834465
0.835657
0.879765
0.960827
1.001954
1.010895
0.927448
0.941753
0.942945
1.008511
0.938773
0.976920
0.880957
1.048446
0.966787
0.815988
1.112819
1.062751
0.978708
1.047850
1.076460
1.180768
1.075864
1.150966
1.206994
1.149774
1.292825
1.151562
1.232624
1.129508
1.326799
1.344681
1.373887
1.339912
1.537800
1.582503
1.665950
1.664758
1.803637
1.906753
1.928806
1.944900
1.992583
2.325773
2.569556
2.857447
3.185868
3.430843
3.690720
3.788471
4.095435
4.047751
4.484653
7.350445
45.239925
145.721436
459.029675
880.226493
1015.681624
1015.681624
1015.681624
1015.681624
1015.681624
1015.681624
1015.681624
1015.681624
1015.681624
648.511648
252.426863
111.444592
29.872656
11.120439
7.680655
##ZVALUE=395
0.664592
0.802875
0.794530
0.749826
0.783801
0.812411
0.815988
0.864863
0.890493
0.800490
0.776649
0.928640
0.764728
0.788569
0.814795
0.681877
0.935793
0.901818
1.013875
0.906587
0.901818
1.005530
0.953674
0.766516
0.912547
0.825524
0.858903
0.957847
0.908971
0.826716
0.962615
0.933409
1.032948
1.185536
0.855923
1.072884
1.047850
1.013875
1.078844
1.132488
1.080632
1.048446
1.104474
1.074672
1.198649
1.285672
1.231432
1.212955
1.207590
1.281500
1.485944
1.240969
1.282692
1.446605
1.494884
1.466870
1.486540
1.525879
1.464486
1.582503
1.634955
1.636744
1.752973
1.754761
1.898408
2.053976
2.279878
2.604723
2.639890
3.056526
3.310442
3.392696
3.492832
3.725886
3.580451
3.730655
3.956556
4.368424
5.495548
24.073720
94.780922
350.415707
679.796934
1015.726924
1015.726924
1015.726924
1015.726924
1015.726924
1015.726924
1015.726924
1015.726924
1015.726924
919.048786
382.702947
172.173977
49.092770
##ZVALUE=400
0.874996
0.894666
0.863671
0.721812
0.864863
0.904799
0.797510
0.854731
0.872612
0.886917
0.983477
0.893474
0.775456
0.696778
0.822544
0.746846
0.934601
0.889897
0.937581
0.871420
0.894666
0.833869
1.007915
0.867844
0.920892
0.975728
0.911951
0.946522
0.909567
1.009703
0.952482
0.971556
0.993609
0.885725
0.989437
1.068711
1.037717
1.143813
1.152754
1.188517
1.162887
1.138449
1.081824
1.351833
1.162887
0.945926
1.162887
1.412630
1.207590
1.243949
1.192689
1.276731
1.075864
1.306534
1.379848
1.265407
1.394749
1.457930
1.644492
1.547933
1.462698
1.714826
1.721978
1.664758
1.864433
1.965761
2.157688
2.390742
2.517700
2.888441
3.025532
3.015995
3.132820
3.249645
3.138781
3.367662
3.252625
3.340840
3.693700
4.256964
4.798770
14.189482
53.740740
208.608508
459.222794
987.286568
1015.785933
1015.785933
1015.785933
1015.785933
1015.785933
1015.785933
1015.785933
1015.785933
997.376442
519.472957
##END
