##TITLE=FQP00351
##FORMAT=SPECTACLE-ASCII V-1.2
##DATA TYPE=ULTRAVIOLET SPECTRUM
##SECOND TYPE=ULTRAVIOLET SPECTRUM
##DATE=10/03/17
##TIME=11:53:07
##SPECTROMETER/DATA SYSTEM=SPECTACLE
##XUNITS=NM EM
##YUNITS=ENERGY
##YFACTOR=1
##FIRSTX=220
##LASTX=410
##NPOINTS=96
##3DDATA=Equidistant
##ZUNITS=NM EX
##FIRSTZ=210
##LASTZ=400
##ZPOINTS=39
##XYDATA=(Y..Y)
##ZVALUE=210
2.863407
2.792478
2.234578
2.941489
3.027916
3.387928
3.117919
3.793836
3.599524
3.024936
4.163980
3.048778
3.437996
3.890991
3.580451
3.693700
4.082918
4.603863
4.629493
5.170703
4.819632
4.992485
6.191730
4.932880
5.812645
6.315708
6.573796
6.385446
7.194877
8.074641
6.842613
6.777644
8.269548
7.183552
8.532405
7.938743
8.137822
7.930994
9.159446
7.935762
9.271502
8.245707
9.673834
9.531975
8.636713
9.131432
9.289980
8.697510
9.109974
9.072423
10.677576
9.545684
10.001659
10.327697
9.810925
8.777976
10.086894
10.382533
10.039806
10.986924
10.216832
10.370612
10.231733
11.046529
11.117458
10.841489
11.758804
13.310909
14.033914
17.696619
19.191504
21.422505
24.037957
28.672814
30.425787
32.280684
34.224987
34.114718
34.211874
32.821894
30.167699
25.600791
21.020770
18.351674
15.072823
13.637543
11.570454
11.484623
10.605454
10.246634
10.647774
10.065436
10.355711
9.084940
9.701848
9.117723
##ZVALUE=215
7.159710
6.399751
5.599856
4.996657
4.818439
4.570484
4.832745
5.325675
4.694462
5.452633
5.607605
5.257726
4.707575
4.122853
4.475713
3.857613
3.872514
4.305840
4.439950
4.688501
4.955530
4.814863
5.535483
5.794764
5.742908
5.944967
6.138682
7.342696
7.341504
7.438660
7.241964
8.424520
8.103848
7.862449
8.659959
8.348823
9.690523
8.525848
8.976460
9.773970
9.273887
9.335876
10.377765
9.401441
8.592606
10.177493
10.098815
9.905696
9.680986
10.901690
9.915829
10.715723
10.541677
11.441708
11.573434
10.103583
11.370778
11.244416
11.995435
11.131763
12.155771
11.538863
12.175441
12.063980
12.437701
12.892485
12.794733
14.821887
15.421510
17.469525
19.936562
23.000836
24.877787
29.807687
29.237866
32.615662
34.807920
34.219623
35.950541
31.615496
29.698610
27.587414
23.607612
20.022988
19.323826
15.253425
13.681650
11.342764
11.291504
10.596514
8.837581
10.021925
10.700822
9.985566
9.992719
9.632707
##ZVALUE=220
23.082495
23.022890
25.837421
26.279688
24.947524
20.433664
16.471744
13.367534
10.959506
9.970665
10.823607
10.754466
11.049509
10.634661
9.624958
7.459521
7.215738
5.756617
6.366968
4.900694
5.504489
5.923510
6.283522
5.897880
6.576777
6.893873
7.936954
7.948875
8.336902
9.992719
9.582639
9.445548
9.828806
10.821819
10.930896
10.582805
11.403561
10.697842
12.767911
12.172461
11.355877
12.196898
12.435913
12.245774
12.360811
12.198687
13.090968
12.637973
12.328625
13.360977
13.283491
13.060570
13.196468
14.249682
13.851523
14.488697
13.413429
13.566613
14.299750
15.496612
14.763474
15.466809
14.627576
17.133951
14.170408
16.080737
17.540455
16.958714
20.118952
19.965768
22.542477
24.573803
26.316643
29.519796
33.040643
33.334494
33.032894
32.463670
31.560659
28.661489
29.418468
25.309920
24.312735
19.471645
17.512441
15.800595
14.485717
13.648868
11.764765
11.731982
11.284947
12.077689
11.695623
10.947585
10.774732
11.413693
##ZVALUE=225
37.787557
42.140484
56.393743
71.742535
79.493523
79.688430
72.735548
61.530471
46.902895
32.548904
26.205778
20.978451
21.608472
21.775961
24.682879
22.240877
20.125508
16.402602
13.360977
10.504723
8.414984
6.825924
5.604625
6.334782
7.395744
7.817745
8.242726
9.087920
9.129643
10.750890
9.698868
11.417866
11.156797
12.363791
12.891889
12.376904
12.242794
13.621449
14.045835
13.966560
14.246702
13.848543
14.622808
15.481710
14.541745
16.033649
16.619563
16.762614
15.729666
17.630458
18.259883
19.246936
19.434690
17.989874
17.689466
19.355416
19.865632
19.696951
20.055771
19.748807
20.521879
21.108985
20.115972
20.718575
23.022890
21.519661
21.614432
23.217797
24.185777
26.463866
27.093887
28.051734
30.317903
30.665994
32.530427
33.004880
32.931566
32.351613
30.362606
26.860833
27.237535
23.870468
22.285581
21.262765
21.629930
19.310713
17.237663
16.823411
18.119812
16.715527
15.504956
15.733838
15.086532
13.877749
12.753606
13.950467
##ZVALUE=230
28.681755
36.343932
57.702661
99.328756
137.335658
175.806880
189.529657
199.796557
190.201998
154.817700
114.248991
81.778765
56.297779
42.455792
40.712953
43.876767
47.002435
47.299862
40.233731
34.040809
27.538538
20.238757
13.585687
9.345412
9.180903
8.174777
9.237528
8.146763
8.799434
8.747578
9.568930
10.914803
11.680722
11.856556
11.486411
12.738705
13.782978
15.346408
14.730692
16.068816
17.459989
18.682480
18.496513
17.650723
20.098686
22.916794
22.981763
24.744868
23.312569
25.766492
25.383830
28.325915
27.322769
29.446483
31.070709
28.881431
28.117895
29.858947
28.859973
32.363534
32.367706
33.043623
31.658411
33.736825
32.980442
36.338568
35.253763
36.249757
36.399961
38.585663
40.773749
41.058660
44.557452
45.042634
47.417879
46.398640
45.330524
42.457581
40.990710
39.031506
38.468838
34.372807
33.941865
31.366944
32.009482
28.101802
26.929975
25.518537
24.401546
24.627447
22.286773
22.166967
20.993948
20.727515
21.723509
20.453930
##ZVALUE=235
12.749434
14.574528
31.958818
77.357888
127.233863
213.710666
286.718607
387.668610
428.240895
438.386798
399.740934
327.742696
238.736868
165.540576
110.441446
85.146427
72.151423
74.579716
77.840686
77.876449
74.599981
62.717795
47.194958
34.666657
25.295615
17.017722
13.873577
10.942817
10.098815
10.036826
10.558963
10.936856
11.936426
11.526942
12.177825
14.400482
15.019774
14.870763
17.123818
20.016432
20.277500
22.370815
24.578571
27.374625
30.696988
33.136606
34.985542
36.993623
38.783550
43.469667
46.475530
47.193766
46.960711
47.298670
47.952533
49.230456
51.119924
50.936937
53.059459
51.999688
54.779649
53.680539
56.155920
54.653883
53.770542
56.206584
55.627823
58.791637
57.324767
59.841871
61.578751
63.366890
67.707896
65.288544
67.473650
66.611767
67.549944
63.698888
61.059594
59.206486
55.347681
52.639842
51.279664
50.297976
46.821833
43.498874
43.947697
41.425824
37.972927
36.752820
32.716990
33.534765
32.415986
30.958652
34.902692
30.323863
##ZVALUE=240
3.252625
2.936721
8.228421
21.385550
62.045455
112.545490
226.674676
332.564712
497.163534
606.780648
705.121756
717.324615
680.403709
564.496517
439.144969
276.158452
199.298859
126.446486
102.819800
94.960928
106.076598
108.947754
111.616850
97.221732
80.504417
64.578652
44.166446
32.631755
22.696853
16.551614
12.870431
11.958480
10.935664
13.362765
14.128685
15.176535
16.961694
18.789768
20.366907
22.719502
26.011467
28.622746
33.167601
36.108494
40.097833
44.610500
47.161579
53.489804
56.237578
61.156750
64.018965
70.175529
66.771507
71.654916
70.888996
72.744489
74.616671
76.696873
74.631572
75.495839
77.524781
77.727437
77.377558
80.145597
76.104999
79.073906
78.507662
78.692436
75.765848
82.753897
82.758665
81.343651
85.405707
84.162951
83.085895
82.151890
83.192587
80.055594
76.943636
69.929957
72.378516
66.096783
63.534975
63.005686
56.489706
55.210590
56.705475
51.390529
49.365759
49.077868
47.921538
44.464469
42.340755
41.872859
41.659474
38.484931
##ZVALUE=245
2.883673
2.311468
2.839565
2.569556
6.507635
18.925667
61.350465
121.614933
264.992714
395.614505
622.529984
766.561031
885.856748
952.984691
926.192999
789.668560
639.394522
441.727638
305.162668
175.806880
121.848583
100.699663
107.889771
117.734671
123.969913
122.181773
104.036927
95.163584
72.132945
52.595735
39.900541
24.832487
18.619895
15.094876
14.287829
15.653968
17.351508
17.848611
20.064712
23.832917
26.627779
33.467412
37.996769
42.681694
45.959949
53.976774
58.281422
63.578486
67.078471
73.281527
76.976418
78.672767
85.245967
84.816813
85.743666
87.877512
89.169741
86.159706
86.535811
86.798668
85.643530
86.455941
85.731745
81.335902
81.567764
85.533857
84.054470
80.480576
83.009601
80.976486
80.858469
84.275603
80.238581
82.853436
80.498457
79.308748
77.591538
76.685548
73.044896
71.904659
66.275597
61.805844
64.314604
59.565902
57.679415
53.708553
53.478479
50.702691
48.062801
49.412847
45.731664
42.841434
42.340755
41.265488
42.237639
39.086938
##ZVALUE=250
2.538562
2.821684
2.444983
2.543926
2.608895
2.490878
3.925562
12.306571
61.509609
133.909583
310.548544
495.779514
714.609027
980.643034
1015.682817
1015.682817
1015.682817
1015.682817
881.206989
599.347949
401.761532
249.908566
138.678551
100.817680
105.658770
118.183494
129.815936
135.086775
134.136677
120.514631
105.630755
80.450773
61.519742
39.437413
28.288960
22.121668
19.913912
20.020604
22.219419
26.797652
30.254722
34.693480
40.656924
45.975447
51.446557
56.549907
61.126947
65.924525
69.499612
75.654984
78.436732
80.989003
83.867908
86.512566
87.945461
86.594820
86.491704
88.910460
86.479783
85.307956
85.008740
81.337690
81.529617
81.218481
78.331828
75.579882
73.838830
72.212815
73.093772
69.783926
72.517991
71.136951
71.801543
72.158575
69.585443
67.323446
69.541931
63.295960
62.718987
63.278675
57.350993
56.495667
52.450895
50.753951
46.108961
44.522882
43.916702
41.795969
42.801499
40.263534
40.578842
37.143826
38.787723
36.295652
35.934448
34.672618
##ZVALUE=255
1.907945
2.186894
2.555847
2.615452
2.444983
2.233982
2.687573
2.855659
3.008842
7.591844
35.042763
87.431669
184.623599
381.494761
574.592948
881.673694
1015.681624
1015.681624
1015.681624
1015.681624
1015.681624
871.704817
543.656945
343.073606
179.313421
116.975904
94.513893
102.400780
122.329593
137.143731
144.487619
138.821602
128.038526
104.755759
84.990859
59.126616
47.735572
33.520460
28.089881
27.744770
28.435588
33.398867
37.162900
42.862892
47.023892
52.355528
56.598783
60.425997
65.619946
71.536899
72.708726
74.098706
76.814890
76.007843
78.129768
76.798797
78.133941
76.955557
75.201988
73.136687
73.202848
71.030855
68.579912
66.412687
64.491630
61.414838
62.501431
59.517622
59.322715
56.924820
58.477521
56.770444
55.692792
55.640936
53.678751
51.194429
51.394701
51.033497
48.642755
47.101974
44.839978
42.593479
41.891932
40.008426
39.989948
37.245750
36.654472
36.149621
34.625530
36.059618
34.043789
32.523870
33.114552
31.041503
31.398535
29.853582
##ZVALUE=260
1.993775
2.017617
2.402663
1.952648
2.093911
1.964569
2.198815
2.146959
2.289414
2.578497
2.746582
4.605651
11.571646
44.807792
100.153685
194.915533
419.492722
648.888946
977.279544
1015.681624
1015.681624
1015.681624
1015.681624
1015.681624
848.443508
475.922823
293.914676
148.951411
101.107955
88.777542
102.517605
129.652619
142.159462
154.726505
148.731470
134.833455
115.632415
89.500546
71.447492
52.663684
45.274496
36.996603
36.280751
39.714575
43.748617
46.343803
48.531890
52.131414
55.481791
56.246519
57.765841
62.154531
62.993765
62.648654
64.859986
61.140656
62.474608
61.612725
60.943961
58.682561
59.455633
57.646632
55.549741
54.230690
53.657889
52.709579
51.808953
50.718784
49.364567
48.206449
48.149824
47.890544
46.264529
47.391653
45.071840
44.740438
43.514967
43.800473
41.871667
39.379001
39.665699
36.695600
36.075711
35.367608
34.261942
33.261776
31.726956
32.053590
32.598972
31.142831
30.992627
29.865503
28.922558
28.745532
28.399825
28.446913
##ZVALUE=265
1.777411
2.082586
1.868606
1.996756
1.783967
1.961589
1.959801
2.113581
2.156496
2.260804
2.180934
2.529621
2.542734
3.347993
7.217526
23.493767
84.846616
170.051455
383.333564
617.953539
985.630751
1015.681624
1015.681624
1015.681624
1015.681624
1015.681624
994.326472
636.914968
414.889455
219.081640
128.331780
82.652569
88.135004
116.704702
136.066675
154.622793
158.172846
154.439807
141.751766
120.085478
99.656582
76.414943
60.766935
48.119426
44.355989
43.065548
42.049885
44.102669
45.160651
48.062801
49.488544
49.101710
51.179528
51.173568
51.564574
52.193999
51.764846
51.431656
50.147772
49.924850
48.420429
47.479868
45.833588
45.405626
45.303702
43.968558
43.523908
42.304993
42.933822
41.846633
43.543577
42.103529
41.876435
40.766001
41.157603
40.507913
39.642453
39.155483
37.454963
35.896897
35.016537
35.170913
31.865835
31.918883
30.561686
29.781461
28.754473
29.482841
28.804541
28.591752
27.902722
26.860833
26.538968
26.241541
25.230646
26.383996
##ZVALUE=270
1.623631
1.676679
1.654625
1.796484
1.653433
1.791716
1.856685
1.861453
1.899600
2.025962
2.307892
2.237558
2.343655
2.136827
2.550483
2.803802
3.741980
13.255477
39.263964
131.557584
274.358988
504.315495
918.132663
1015.681624
1015.681624
1015.681624
1015.681624
1015.681624
1015.681624
940.601826
655.444860
338.572860
190.565586
89.806914
74.434876
91.180801
111.889839
143.613815
155.336857
166.852474
161.533952
146.956444
129.675865
102.315545
83.395839
63.413978
54.099560
46.642423
43.098927
42.233467
45.008659
44.787526
45.875907
45.113564
45.025945
44.550896
44.260621
45.236945
43.594837
43.582916
43.180585
43.593645
41.953921
41.971803
41.053891
39.266944
39.771795
39.312840
39.164424
38.470626
39.542913
39.404631
39.938688
39.043427
39.993525
38.269758
36.645532
36.618710
35.151839
34.796000
32.408834
31.098723
30.961633
29.749870
28.740764
28.317571
27.469993
27.974844
26.528835
25.744438
24.333596
24.387836
24.271607
24.029613
24.248958
23.194551
##ZVALUE=275
1.622438
1.871586
1.704693
1.607537
1.564622
1.682639
1.643896
1.755953
1.757741
1.934767
1.734495
1.893640
1.858473
2.251863
2.425909
2.506971
2.598763
2.864599
3.005862
7.067919
24.762750
73.973536
224.405527
428.935885
841.215849
1015.681624
1015.681624
1015.681624
1015.681624
1015.681624
1015.681624
1015.681624
828.760862
436.134934
247.629881
109.628439
69.498420
69.947839
88.373423
119.594932
139.904618
160.086751
168.097615
161.037445
151.540637
126.204491
106.982589
85.380673
69.015622
53.415895
48.235655
42.961836
42.776465
40.742755
40.956736
41.550994
41.978955
42.150617
41.001439
42.321682
41.594505
40.662885
40.532947
40.786862
39.904714
40.553808
38.808584
38.394928
40.164590
37.477612
38.859844
38.628578
38.996935
38.073659
38.233995
36.932826
36.174655
36.216974
35.445690
33.951998
32.616854
31.268597
30.138493
29.278994
27.416945
27.876496
27.040839
26.602745
25.164485
24.863482
24.026632
23.948550
23.110509
22.347569
21.839738
22.069812
##ZVALUE=280
1.447797
1.653433
1.708865
1.389980
1.604557
1.551509
1.542568
1.676679
1.716614
1.646876
1.795888
1.927614
1.837611
2.082586
2.049804
1.984835
2.204776
2.224445
2.493858
2.770424
3.137589
3.562570
15.861988
51.794648
169.865489
321.430564
632.539988
964.409709
1015.688777
1015.688777
1015.688777
1015.688777
1015.688777
1015.688777
995.746851
585.944653
341.623425
148.769617
79.250932
55.616498
65.861940
92.647672
116.930604
144.246817
159.179568
165.329576
160.830617
145.014524
129.802823
103.257895
85.277557
66.533685
53.713918
44.727921
40.847659
37.890673
38.639903
38.155913
39.268732
39.536953
38.467646
40.317774
39.789677
39.656758
39.204955
39.334893
38.502812
38.223863
37.567616
39.833784
38.948655
38.800836
38.583875
37.938952
37.795901
36.591887
35.038590
34.344792
34.729838
33.315420
31.597614
30.708909
29.484630
28.810501
28.680563
26.815534
26.340485
24.998784
25.027990
24.068952
23.601651
23.038983
22.225976
22.371411
21.618605
21.376610
##ZVALUE=285
1.304746
1.402497
1.445413
1.453757
1.381636
1.379848
1.470447
1.664758
1.706481
1.748800
1.677871
1.814961
1.611710
1.817942
1.832843
1.722574
1.947880
1.725554
1.804829
2.017617
2.516508
2.731681
2.838969
3.282428
7.414818
35.382509
88.419914
237.520933
418.775678
800.571442
1015.681624
1015.681624
1015.681624
1015.681624
1015.681624
1015.681624
1015.681624
813.881755
507.614017
234.671831
119.548440
53.907633
47.147870
65.015554
85.567832
115.814805
135.508776
154.670477
160.940886
157.799721
148.843527
126.624703
106.637478
82.712770
67.240000
51.434636
44.957995
40.674806
39.405823
38.310885
37.978888
38.539767
38.863420
38.435459
38.715601
38.698912
39.043427
38.446784
38.686991
38.366914
38.658977
38.751960
38.896799
37.017465
37.054420
35.219789
34.589767
34.130812
32.991767
31.826496
30.825734
30.114651
29.932857
27.742982
26.092529
26.280880
25.351644
25.425553
24.796724
24.056435
22.867918
22.445917
22.193789
21.739602
21.175742
19.789934
##ZVALUE=290
1.348853
1.310706
1.359582
1.397729
1.356602
1.513958
1.551509
1.537800
1.460910
1.423955
1.619458
1.415610
1.801848
1.805425
1.537800
1.678467
1.788735
1.818538
2.026558
2.085567
2.072453
2.223849
2.366900
2.599955
2.917647
2.983809
4.599690
12.866855
58.073997
135.655999
325.524807
582.340956
930.740833
1015.695930
1015.695930
1015.695930
1015.695930
1015.695930
1015.695930
1015.695930
714.828968
351.869464
179.154873
66.806674
39.735436
44.176579
57.724714
81.339478
102.865696
131.308436
147.913694
157.209635
157.045722
143.089890
128.374696
102.138519
83.265901
62.963963
52.530766
44.643879
41.080713
37.950873
36.904812
36.636591
37.311912
38.078427
37.574768
37.309527
37.400723
37.245750
37.457943
36.883950
36.103725
35.405755
34.556985
34.117699
33.700466
32.962561
31.940937
30.173659
29.461980
28.210878
27.120709
27.474761
26.163459
25.266409
25.500655
23.799539
24.037957
23.311973
22.813678
21.327734
20.927787
20.527840
20.677447
19.887686
##ZVALUE=295
1.207590
1.243949
1.228452
1.142621
1.331568
1.395941
1.367927
1.438856
1.474619
1.339912
1.405478
1.542568
1.482964
1.601577
1.575947
1.629591
1.526475
1.786947
1.698732
2.090931
1.805425
2.069473
2.114773
2.170801
2.548695
2.512932
2.573729
2.798438
3.455877
5.772710
19.858479
85.660815
196.185708
474.038720
781.808496
1015.681624
1015.681624
1015.681624
1015.681624
1015.681624
1015.681624
1015.681624
916.877389
477.141738
250.426531
89.970827
44.662952
30.384660
38.017631
58.999658
75.507760
104.605556
125.078559
143.000484
152.544975
150.177479
140.562654
120.760798
102.976561
79.442859
65.409541
50.132871
43.604970
38.656592
35.785437
35.269856
35.198927
34.863949
34.765601
35.103559
34.276843
33.742785
33.887625
33.506751
32.638907
31.469464
30.718446
30.190945
29.035807
28.601885
27.767420
26.950836
26.053786
25.290847
24.988651
24.051666
23.718476
23.394823
22.727847
22.261739
20.677447
20.753741
20.399690
19.153953
19.508600
18.958449
##ZVALUE=300
1.164675
1.241565
1.117587
1.141429
1.158714
1.212955
1.213551
1.335740
1.359582
1.217723
1.382828
1.203418
1.399517
1.311898
1.492500
1.427531
1.479983
1.466870
1.711845
1.483560
1.818538
1.752973
1.823902
2.001524
1.954436
2.128482
2.443790
2.528429
2.657771
2.809763
3.088713
3.747940
8.858442
52.871704
134.983659
353.673697
614.935756
1015.682817
1015.682817
1015.682817
1015.682817
1015.682817
1015.682817
1015.682817
1015.682817
650.206804
381.561518
163.207650
74.958801
32.110810
29.384494
40.108562
53.036809
76.604486
96.910000
121.112466
137.543678
146.835446
147.565603
136.021972
123.196840
99.744797
83.026886
64.406991
51.381588
41.448474
37.675500
33.980608
32.981634
32.294989
32.521486
31.945705
31.608939
31.165481
30.096769
29.587746
29.891729
29.087663
27.192831
27.408600
26.955605
25.716424
25.552511
24.514794
24.481416
23.933649
23.469925
22.531748
21.738410
21.602511
20.769835
20.334721
19.896626
20.105839
18.638968
18.736720
##ZVALUE=305
0.982881
0.972748
1.030564
0.886917
1.040697
1.143813
1.217723
0.959635
1.150966
1.120567
1.105666
1.289845
1.088977
1.171827
1.216531
1.405478
1.217723
1.283884
1.193881
1.455545
1.478791
1.425743
1.445413
1.467466
1.694560
1.696944
1.727939
1.727939
1.968741
2.279878
2.341866
2.543926
2.807975
3.216863
5.409718
30.001998
87.229609
254.148841
470.502973
892.695785
1015.521884
1015.521884
1015.521884
1015.521884
1015.521884
1015.521884
1015.521884
867.711902
536.894798
244.264603
119.847655
43.788552
28.483868
31.551719
39.511919
56.169629
72.905421
97.072721
115.926862
133.764744
141.056776
140.901804
130.588412
115.370750
96.583962
74.090958
59.625506
47.073960
39.954782
34.590960
30.893683
30.990839
29.865503
29.513836
29.337406
28.619766
28.100610
27.222633
26.869774
26.285648
25.251508
25.419593
24.565458
23.654699
23.914576
23.226738
22.447705
22.232533
21.831989
21.621585
20.802617
19.933581
19.837618
19.190907
19.453764
18.460751
##ZVALUE=310
1.139641
0.934601
1.114607
1.117587
1.022816
1.134872
1.199841
1.197457
1.058578
1.085997
1.199841
1.180768
1.065731
1.224875
1.140833
1.286864
1.287460
1.368523
1.419783
1.336932
1.345873
1.584888
1.439452
1.649857
1.617670
1.754761
1.775622
1.768470
1.902580
1.994967
1.974702
2.244711
2.407432
2.558827
2.931952
3.215671
3.843904
14.343858
46.432614
159.128904
321.655869
680.218935
1006.380916
1015.681624
1015.681624
1015.681624
1015.681624
1015.681624
1015.681624
1015.681624
762.986541
383.525491
204.316974
74.332952
35.063624
26.146770
29.953718
39.570928
50.094724
68.489909
85.645914
108.004808
121.186972
130.491853
132.212639
124.007463
111.633539
90.643764
74.910522
56.820512
45.469999
36.486983
31.937957
28.800964
27.932525
26.659966
26.290417
25.928617
25.578737
24.799705
24.702549
24.349689
23.161769
23.185611
23.365617
23.690462
22.082925
22.421479
21.985769
21.822453
20.954609
20.219684
19.808412
19.777417
19.494891
18.416643
##ZVALUE=315
1.170635
1.133680
1.021624
0.991821
0.931621
0.957847
0.971556
0.965595
1.008511
0.977516
1.088977
0.981688
1.145601
1.091957
1.058578
1.195669
1.351833
1.153946
1.424551
1.254678
1.269579
1.233816
1.284480
1.432896
1.454949
1.465678
1.625419
1.549721
1.761913
1.720786
1.663566
1.967549
1.842976
2.260804
2.287626
2.555847
2.701879
2.882481
3.301501
6.754994
23.819804
102.020502
236.865878
560.397506
915.727019
1015.640497
1015.640497
1015.640497
1015.640497
1015.640497
1015.640497
1015.640497
963.165760
515.046716
282.983780
107.909441
47.378540
24.052858
24.069548
29.215813
34.940839
47.398806
60.276985
79.067945
95.749497
113.165975
120.957494
122.658610
117.147565
101.631880
87.025762
68.302751
54.365993
40.994883
34.036636
28.000474
25.892854
24.405718
23.994446
23.364425
22.774935
23.390651
23.444891
22.488832
22.503734
22.449493
22.002459
21.935701
21.134615
21.087527
21.132827
20.427704
19.916892
19.450784
19.304752
19.129515
##ZVALUE=320
1.058578
1.038909
0.975728
1.043677
0.893474
0.954866
0.935793
1.049638
1.009703
0.998974
1.111627
1.073480
1.186728
1.063943
1.103878
1.159906
1.240969
1.146793
1.264811
1.323819
1.144409
1.145601
1.080632
1.310706
1.342893
1.290441
1.360774
1.639724
1.501441
1.499653
1.602769
1.674891
1.779795
1.922846
1.967549
2.031922
1.977682
2.264977
2.315640
2.881885
2.980828
4.051924
10.991693
57.533979
142.650604
371.212959
643.509030
1015.681624
1015.681624
1015.681624
1015.681624
1015.681624
1015.681624
1015.681624
1015.681624
647.120476
368.444920
156.311989
71.542859
27.080774
19.441843
19.930601
22.836924
30.294657
37.507415
53.437948
68.208575
89.242458
102.406740
113.199949
114.655495
107.209682
97.549558
79.530478
65.022707
48.277974
38.765669
29.462576
25.872588
22.841692
22.178888
22.015572
21.498799
21.309853
21.099448
21.063685
21.475554
20.728707
21.039844
20.334721
20.135641
19.854903
20.004511
19.394755
19.296408
18.762946
##ZVALUE=325
0.790954
0.683665
0.939965
0.841618
0.856519
0.827909
0.735521
0.878572
0.821948
0.954866
0.880957
0.879765
0.994802
0.866652
1.108646
1.079440
0.963807
1.039505
0.952482
1.172423
1.018643
1.177788
1.110435
0.969768
0.912547
1.219511
1.255870
1.188517
1.395941
1.417994
1.447797
1.534820
1.551509
1.383424
1.680851
1.612902
1.855493
1.928806
2.020597
1.983643
2.173781
2.418756
2.663732
3.130436
5.773902
36.664605
96.194744
257.998705
469.196439
899.981856
1015.564799
1015.564799
1015.564799
1015.564799
1015.564799
1015.564799
1015.564799
793.907642
478.030443
207.137465
97.595453
30.882955
16.613603
14.526844
16.154647
19.298792
24.346709
35.430789
47.693849
66.566467
81.437826
96.258521
104.471445
105.581880
99.488497
86.876750
73.770881
56.557655
45.692921
34.170747
27.597547
23.007989
21.888614
20.401478
20.618439
20.462871
20.415783
20.172000
20.047426
19.241571
19.478798
19.343495
18.975735
18.921494
18.846989
18.917918
##ZVALUE=330
0.877976
0.995994
0.861883
0.999570
0.967979
0.769496
0.923872
0.913739
0.817776
1.049638
1.065731
0.845790
1.005530
0.940561
1.054406
1.124740
1.058578
1.088977
1.005530
1.073480
1.119971
1.044869
1.178980
1.117587
1.108646
1.360774
1.229644
1.232624
1.240969
1.243949
1.220703
1.448989
1.387596
1.637936
1.444817
1.613498
1.679659
1.678467
1.740456
1.868606
1.995564
2.168417
2.265573
2.422929
2.630949
3.194809
3.999472
16.358495
53.444505
174.831748
338.417888
689.420700
997.370481
1015.681624
1015.681624
1015.681624
1015.681624
1015.681624
1015.681624
975.987911
649.733543
300.096869
148.084760
49.930811
21.215677
13.507605
13.765693
15.129447
17.682910
24.661422
32.643676
46.770573
59.984922
78.297853
89.118481
98.609924
100.149512
92.026591
85.359812
68.365932
55.877566
42.000413
33.456683
26.985407
23.270845
21.134615
20.460486
19.871593
19.301772
19.491911
19.168854
19.141436
18.991828
19.336939
18.879771
18.709898
##ZVALUE=335
0.949502
0.929832
0.781417
0.841618
0.917912
0.852942
0.990629
1.000762
0.991821
0.894666
0.931621
0.890493
0.922680
0.965595
0.994802
0.794530
0.983477
0.972748
1.194477
1.144409
1.078844
1.171827
1.101494
1.044869
1.358986
1.245737
0.941753
1.150966
1.267791
1.301765
1.241565
1.417994
1.427531
1.432896
1.331568
1.419783
1.430511
1.517534
1.658797
1.610518
1.816750
1.703501
2.037883
2.096891
2.137423
2.125502
2.453923
2.828836
3.194809
8.062720
28.579831
111.039877
235.749483
527.318716
856.800675
1015.682817
1015.682817
1015.682817
1015.682817
1015.682817
1015.682817
1015.682817
807.821751
427.573919
223.264694
75.427890
30.975938
14.679432
13.127923
13.737679
15.335679
18.270612
23.356676
33.940673
43.542981
58.830976
71.149468
84.903836
92.207789
92.801452
87.936521
76.705813
66.536665
52.764416
43.271780
33.124685
27.251840
23.110509
21.111965
19.445419
18.904805
18.327832
18.448830
18.132925
18.100739
18.549562
##ZVALUE=340
0.777841
0.830889
0.844598
0.815988
0.839829
0.831485
0.821948
0.891685
0.891685
0.919700
0.752807
0.836849
1.001954
0.960827
1.003742
0.852942
0.852942
0.725985
0.943542
1.037717
0.960827
0.946522
1.046658
1.019835
1.110435
1.203418
1.329780
1.185536
1.098514
0.989437
1.028776
1.203418
1.390576
1.253486
1.233816
1.376867
1.216531
1.492500
1.381636
1.636744
1.565814
1.539588
1.781583
1.743436
1.806617
1.952648
2.100468
2.156496
2.500415
2.726912
2.943873
4.331470
14.024973
71.668625
176.070929
438.067913
742.234588
1015.653014
1015.653014
1015.653014
1015.653014
1015.653014
1015.653014
1015.653014
990.146995
542.747974
298.341513
118.280649
45.594573
16.103983
13.293624
13.370514
13.718605
15.299916
17.787814
23.696423
30.893683
42.560697
54.243803
70.127845
79.318881
86.204410
87.173581
82.958937
75.305700
62.024593
52.666664
39.998889
33.284426
25.897622
22.406578
19.264817
18.294454
17.387867
17.162561
17.619729
##ZVALUE=345
0.785589
0.980496
0.688434
0.833869
0.814795
0.725985
0.799894
0.915527
0.869632
0.811815
1.018643
0.944734
0.774860
1.021624
1.080632
0.906587
0.888705
0.907779
0.948906
1.011491
0.890493
0.984669
0.982881
1.031756
0.896454
0.988841
0.963807
1.089573
1.104474
1.167655
1.061559
1.296997
1.225471
1.222491
1.342893
1.256466
1.348853
1.385808
1.419783
1.294613
1.424551
1.608729
1.452565
1.509786
1.626611
1.754761
1.923442
1.938939
2.105832
2.267957
2.417564
2.675653
2.721548
3.183484
6.818771
39.908886
113.683939
313.237906
564.539433
988.301635
1015.710831
1015.710831
1015.710831
1015.710831
1015.710831
1015.710831
1015.710831
741.376877
422.409773
166.450739
71.529746
22.745728
14.001727
13.113618
13.169646
13.233423
14.481544
16.521811
20.675659
29.674768
38.598776
52.384734
62.069893
73.428750
80.223680
81.772804
79.002976
69.976449
62.066913
49.709678
40.834546
31.340718
25.726557
20.456910
19.136667
17.040968
##ZVALUE=350
0.776649
0.887513
0.906587
0.847578
0.769496
0.897646
0.715852
0.822544
0.770688
0.841618
0.796914
0.819564
0.992417
0.843406
0.977516
0.994802
0.899434
1.015663
1.039505
1.046658
1.002550
0.777841
0.919700
0.987649
0.888705
1.046658
1.005530
1.076460
1.001954
1.277924
0.884533
0.839829
0.978708
0.989437
1.011491
1.397729
1.095533
1.166463
1.274943
1.351833
1.504421
1.265407
1.421571
1.386404
1.462698
1.566410
1.516938
1.663566
1.792908
1.937747
1.957417
2.088547
2.250671
2.440810
2.626777
3.238916
4.300475
20.625591
67.040920
213.501453
410.622954
840.936899
1015.681624
1015.681624
1015.681624
1015.681624
1015.681624
1015.681624
1015.681624
874.871612
535.658002
244.193673
110.591650
29.651523
14.647841
12.188554
11.776686
11.475682
11.991858
13.096929
15.379786
20.503998
26.029944
34.649968
43.945909
56.015849
64.277649
72.795749
74.685812
71.766973
66.322684
56.254864
47.748685
37.171841
29.911995
23.882985
##ZVALUE=355
0.827909
0.905991
0.852942
0.867844
0.807643
0.789762
0.749826
0.868440
1.017451
0.870824
0.851750
0.922680
0.877976
0.924468
1.049638
1.025796
0.880957
0.928640
0.974536
0.947714
1.079440
0.928640
0.970960
1.089573
0.872612
0.949502
0.977516
0.965595
1.109838
1.047850
1.054406
1.114607
1.094937
1.213551
1.072884
1.247525
1.300573
1.141429
1.103878
1.219511
1.344681
1.306534
1.221895
1.428723
1.340508
1.529455
1.358986
1.549721
1.747608
1.645684
1.837611
1.908541
1.967549
1.967549
2.068877
2.523661
2.661943
3.017783
3.535748
10.072589
36.079884
142.534971
298.929811
632.013679
976.275802
1015.681624
1015.681624
1015.681624
1015.681624
1015.681624
1015.681624
997.565985
660.921931
293.360949
137.314796
40.584803
16.773939
11.398792
10.900497
11.152625
11.041760
11.483431
12.395978
14.400482
17.382503
23.758411
30.174851
40.370822
48.740506
58.579445
64.538717
67.464709
66.585541
61.061978
54.654479
45.100451
##ZVALUE=360
0.911951
1.058578
0.898838
0.976920
0.910759
0.888705
0.897646
0.918508
0.797510
0.892878
0.798702
0.784993
0.840425
0.910759
0.899434
0.982881
0.794530
1.005530
0.979900
1.056790
1.113415
1.117587
1.014471
1.078844
1.025796
0.985861
1.160502
0.973940
1.091957
1.027584
1.099706
1.054406
1.186728
1.113415
1.198649
1.253486
1.196861
1.140833
1.189709
1.276731
1.291633
1.262426
1.277924
1.303554
1.427531
1.336932
1.433492
1.559854
1.528859
1.646876
1.625419
1.846552
1.790524
2.051592
2.139807
2.132654
2.317429
2.569556
2.605915
2.898574
3.180504
4.894733
15.606880
70.405602
167.665482
415.108800
719.474554
1015.681624
1015.681624
1015.681624
1015.681624
1015.681624
1015.681624
1015.681624
803.015828
391.996503
201.820731
72.551966
27.892590
11.778474
10.706782
10.537505
10.685921
10.870695
10.738969
11.351705
12.840629
15.299916
19.152761
26.260614
32.387972
43.324828
49.900413
57.146549
60.703754
61.346889
##ZVALUE=365
0.769496
0.865459
0.884533
0.795722
0.816584
0.724792
0.909567
0.901818
0.887513
0.803471
0.742674
0.842810
0.799894
0.939965
0.892878
0.845790
0.918508
1.060963
1.111627
1.072884
0.897646
0.996590
1.037717
0.867844
1.091957
1.015663
1.059771
1.097918
1.182556
1.167655
1.093745
1.017451
1.264811
1.121759
1.110435
1.106858
1.183748
1.078844
1.282692
1.310706
1.456738
1.374483
1.256466
1.236796
1.499653
1.490712
1.374483
1.489520
1.603961
1.584888
1.553893
1.634955
1.618862
1.562834
1.898408
1.969934
1.882911
2.170801
2.275705
2.368689
2.693534
3.050566
3.268719
3.731847
7.182956
40.834546
111.202002
297.591686
560.107827
1006.296873
1015.681624
1015.681624
1015.681624
1015.681624
1015.681624
1015.681624
966.455936
533.003807
282.323956
98.765492
37.969947
12.829900
10.454655
10.060668
10.147691
9.592772
9.907484
9.757876
10.109544
11.297464
13.006926
16.835928
21.118522
28.577447
35.643578
44.158697
##ZVALUE=370
0.787973
0.761747
0.965595
0.772476
0.842810
0.709891
0.898838
0.779629
0.822544
0.943542
0.836849
0.870824
0.839829
0.858903
0.994802
0.762939
0.822544
0.937581
0.897646
0.950694
0.834465
0.886917
0.825524
0.912547
1.002550
1.012683
1.022816
0.950694
0.965595
1.260638
1.012683
0.975728
1.094937
0.963807
1.112819
1.271963
1.115799
1.040697
1.198649
1.167655
1.099706
1.191497
1.228452
1.238585
1.270771
1.342893
1.267791
1.197457
1.345873
1.403689
1.459718
1.444817
1.567602
1.653433
1.633763
1.667738
1.640916
1.938939
1.819730
2.103448
2.042651
2.209544
2.305508
2.594590
2.899766
3.453493
4.297495
22.319555
74.511766
230.383873
436.893702
846.297741
1015.681028
1015.681028
1015.681028
1015.681028
1015.681028
1015.681028
1015.681028
655.577779
372.706652
146.240592
63.813925
18.751621
10.450482
9.063482
9.201765
8.954406
8.895993
8.885860
9.120703
9.312630
9.801984
12.228489
14.348626
19.367933
##ZVALUE=375
0.836849
0.760555
0.915527
0.682473
0.758767
0.680685
0.864863
0.761747
0.857711
0.838637
0.943542
0.956655
0.885725
0.835657
0.877976
0.895858
0.891685
0.952482
0.948906
0.907779
0.960827
1.003742
1.000762
0.976920
1.009703
0.986457
0.991821
0.898838
1.050830
0.999570
1.033545
0.774860
1.051426
1.000762
1.048446
1.126528
0.932813
1.201630
1.301765
1.140833
1.253486
1.086593
1.131892
1.168847
1.208782
0.994802
1.232624
1.167655
1.278520
1.291633
1.372695
1.299977
1.394749
1.247525
1.435876
1.409650
1.512766
1.562834
1.840591
1.768470
1.830459
1.859665
2.158880
2.211928
2.236962
2.504587
2.565980
3.027916
3.438592
11.443496
42.496920
155.366659
330.961943
726.861954
1015.681624
1015.681624
1015.681624
1015.681624
1015.681624
1015.681624
1015.681624
812.699795
508.461595
243.290663
119.053721
37.025809
14.415979
8.535981
8.418560
8.245707
7.904768
7.985830
8.064508
8.119941
8.479953
9.333491
##ZVALUE=380
0.662804
0.612736
0.749826
0.727773
0.767708
0.717640
0.816584
0.654459
0.726581
0.814795
0.741482
0.711679
0.748634
0.693798
0.739694
0.706911
0.822544
0.740886
0.938773
0.787973
0.771880
0.801682
0.802875
0.942945
0.805855
0.876784
0.897646
0.903606
0.844598
0.884533
0.840425
0.933409
0.891685
0.912547
1.038909
0.909567
1.025796
0.990629
0.919700
1.099706
1.097918
1.034737
1.007915
1.231432
1.071692
1.000762
1.048446
1.022816
1.051426
1.251698
1.125932
1.120567
1.142621
1.274943
1.261830
1.257658
1.309514
1.346469
1.341701
1.750588
1.479983
1.573563
1.660585
1.676679
1.825690
2.005696
2.158880
2.450943
2.482533
3.123879
3.583431
5.671978
22.927523
113.752484
266.941786
618.088841
973.059535
1015.625000
1015.625000
1015.625000
1015.625000
1015.625000
1015.625000
1008.771062
712.677836
343.554616
172.959566
57.626963
22.231936
9.001493
7.677674
7.695556
7.709861
7.383823
7.589459
7.561445
##ZVALUE=385
0.705719
0.699759
0.709891
0.751615
0.823736
0.749826
0.631809
0.667572
0.864863
0.884533
0.876784
0.657439
0.745654
0.818968
0.712872
0.792742
0.800490
0.754595
0.974536
0.806451
0.844598
0.941753
0.936985
0.797510
0.971556
0.902414
0.862479
0.791550
0.901818
0.863671
1.065731
0.989437
0.894666
0.998974
1.003742
0.834465
0.934601
0.960827
1.111627
0.884533
0.909567
0.958443
1.072884
0.981688
0.988841
1.209974
1.264811
1.004934
1.058578
1.108646
1.109838
1.245737
1.162887
1.094937
1.263618
1.316667
1.176596
1.295805
1.484752
1.385808
1.291633
1.323819
1.465678
1.593828
1.851916
1.704693
2.026558
2.172589
2.384782
2.668500
2.884865
3.278852
3.490448
4.105568
11.187792
68.498850
179.366469
465.879440
812.141895
1015.681624
1015.681624
1015.681624
1015.681624
1015.681624
1015.681624
1015.681624
957.480669
515.960455
286.566615
113.562942
43.893456
11.631846
7.857680
7.082820
7.196665
7.212758
##ZVALUE=390
0.681877
0.735521
0.730753
0.704527
0.715852
0.868440
0.634789
0.776649
0.617504
0.680685
0.668764
0.697970
0.729561
0.652671
0.704527
0.720620
0.915527
0.660419
0.753999
0.668764
0.837445
0.802875
0.971556
0.842810
0.906587
0.914931
0.948906
0.947714
0.871420
0.886917
0.907779
0.843406
0.829697
0.809431
0.906587
0.849962
0.872612
0.835657
1.056790
1.019835
1.056790
0.870824
1.002550
0.963807
0.988841
0.947714
0.989437
1.016855
1.020432
1.126528
0.999570
1.171827
1.222491
1.287460
1.230836
1.144409
1.283884
1.274943
1.300573
1.178980
1.436472
1.510978
1.545548
1.559854
1.545548
1.567602
1.808405
2.050996
2.125502
2.540946
2.710819
2.840757
2.747774
2.811551
3.021955
3.678799
5.445480
33.513904
114.192963
365.302563
696.610808
1015.681624
1015.681624
1015.681624
1015.681624
1015.681624
1015.681624
1015.681624
1015.681624
754.776597
425.444841
165.465474
71.780682
18.535852
8.624792
7.003546
##ZVALUE=395
0.592470
0.716448
0.978708
0.658631
0.717640
0.693798
0.725985
0.741482
0.593662
0.908971
0.833869
0.751615
0.884533
0.874996
0.621676
0.831485
0.814795
0.797510
0.795722
0.743866
0.737906
0.669956
0.606775
0.820756
0.823736
0.716448
0.950694
0.668764
0.727773
0.959635
0.872612
1.001954
0.855923
0.931621
0.997782
0.809431
0.925660
0.894666
0.977516
0.947714
0.951886
0.823736
1.056790
0.911951
0.891685
1.048446
1.016855
1.040697
1.065731
1.081824
1.191497
1.120567
1.214743
1.148582
1.128912
1.111627
1.260638
1.081824
1.110435
1.235604
1.313686
1.351833
1.250505
1.474619
1.569986
1.627803
1.735687
1.738667
2.021790
2.476573
2.234578
2.554655
2.501607
2.642870
2.482533
2.651811
2.954602
3.247857
3.807545
15.846491
60.627460
229.463577
466.257930
944.440961
1015.672684
1015.672684
1015.672684
1015.672684
1015.672684
1015.672684
1015.672684
949.834585
599.542856
275.138617
125.288963
36.967993
##ZVALUE=400
0.704527
0.865459
0.607967
0.917912
0.652671
0.684857
0.652671
0.629425
0.707507
0.623465
0.779629
0.814795
0.681877
0.650883
0.809431
0.687838
0.797510
0.715852
0.866652
0.648499
0.757575
0.809431
0.809431
0.708699
0.807643
0.945926
0.706911
0.800490
0.766516
0.948906
0.811815
0.784993
0.725985
0.900626
0.625849
0.994802
1.022816
0.765920
0.877976
0.966787
0.869632
0.941753
0.812411
0.978708
1.032948
0.983477
0.932813
0.934601
1.076460
0.983477
1.032948
1.090765
0.997782
1.094937
1.098514
1.001954
0.979900
1.219511
1.291633
1.142621
1.401901
1.215935
1.284480
1.244545
1.340508
1.494884
1.556873
1.765490
1.935959
2.014637
2.094507
2.056956
2.258420
2.285838
2.130866
2.174973
2.211928
2.635717
2.704859
2.964735
3.394485
8.933544
31.522512
119.662881
268.198848
640.354753
996.261835
1015.677452
1015.677452
1015.677452
1015.677452
1015.677452
1015.677452
1015.677452
730.794668
360.913873
##END
