##TITLE=FQP00301
##FORMAT=SPECTACLE-ASCII V-1.2
##DATA TYPE=ULTRAVIOLET SPECTRUM
##SECOND TYPE=ULTRAVIOLET SPECTRUM
##DATE=10/03/17
##TIME=12:12:28
##SPECTROMETER/DATA SYSTEM=SPECTACLE
##XUNITS=NM EM
##YUNITS=ENERGY
##YFACTOR=1
##FIRSTX=220
##LASTX=410
##NPOINTS=96
##3DDATA=Equidistant
##ZUNITS=NM EX
##FIRSTZ=210
##LASTZ=400
##ZPOINTS=39
##XYDATA=(Y..Y)
##ZVALUE=210
2.925992
3.125668
2.777576
3.239512
3.671646
3.468990
4.101992
4.734993
4.524589
5.137920
4.240870
5.587935
5.738735
5.325675
6.744862
6.967783
7.002950
8.051991
7.890463
7.876754
8.912683
10.242462
10.621548
11.083484
11.250973
12.796521
12.351871
13.546944
13.245940
13.683438
14.755726
13.713837
14.741421
15.332699
15.009642
15.974641
16.680956
16.817451
17.220974
18.126965
19.242764
17.189980
16.797781
18.420815
20.793676
20.544529
19.193888
20.066500
19.710660
19.769669
21.168590
20.931959
22.090673
22.147894
21.351576
22.254586
23.045540
22.747517
21.883845
23.708940
23.832917
23.686886
24.619699
23.712516
25.141835
25.152564
27.241707
31.283498
36.769509
41.249990
49.706697
58.432817
69.340467
77.628493
92.539787
96.457601
103.571415
104.226470
111.638904
106.990933
101.113915
92.032552
81.185699
66.118836
56.129694
45.335889
35.101771
29.402971
26.654601
26.610494
22.804737
22.436976
21.882653
23.292899
23.548603
22.766590
##ZVALUE=215
12.005568
11.277795
10.398626
7.840991
7.466674
6.257892
5.707741
5.651712
6.436706
6.672740
6.313920
7.880926
7.199645
7.815957
6.648898
7.106662
7.044673
7.344484
8.225441
8.380413
9.127855
9.307861
9.597540
9.982586
11.429787
11.829734
12.916923
12.819767
13.641715
14.261603
13.443828
14.425516
14.392734
15.263557
15.841722
14.832616
15.009642
16.420484
17.135739
17.673969
18.249750
18.379688
16.750693
17.832518
19.293427
18.156767
19.171834
19.252896
19.974709
20.101666
18.494725
19.496679
19.874573
19.871593
19.831657
20.067692
21.202564
19.314885
20.796657
21.662712
21.174550
21.690726
21.135807
21.357536
22.053719
23.877621
23.273826
26.262999
27.731657
35.247803
36.165714
44.365525
51.084757
58.290958
68.541765
73.094964
74.695945
81.625581
79.199672
76.216459
69.005489
64.202547
54.944754
46.275854
39.535761
33.167601
27.013421
27.127862
22.339821
18.676519
19.378662
18.244982
20.595789
18.494725
18.077493
18.187761
##ZVALUE=220
39.374828
38.000941
44.194460
42.819977
38.907528
31.270981
22.843480
18.169880
12.243986
12.298822
12.395978
12.219548
12.742877
13.009906
10.693669
9.019971
9.741783
7.407665
7.321835
7.028580
7.431507
8.743405
8.957982
8.926988
9.631515
10.065436
10.393858
10.929704
11.741519
11.928678
11.498928
12.211800
13.955832
13.252497
13.634562
13.761520
14.531612
15.138984
14.351606
15.038848
16.192794
15.802979
16.529560
15.445948
16.489625
15.738606
16.083717
14.742613
17.952919
16.249418
15.546679
17.375946
17.550588
17.807484
16.635656
18.458962
16.544461
17.520785
17.156601
17.745495
18.628836
17.508864
17.883778
18.585920
17.134547
17.455816
19.339919
20.643473
23.299456
25.711656
28.224587
34.622550
38.363934
41.190982
48.107505
52.673817
54.900646
54.892898
57.002902
54.764748
52.166581
44.320822
40.211678
33.769608
29.594898
23.982525
22.316575
19.285679
17.289519
17.310977
17.237663
16.647577
15.655756
15.205741
16.860962
16.258955
##ZVALUE=225
56.677461
61.043501
79.209805
107.974410
112.583637
106.953979
100.118518
76.878667
57.415962
41.887760
26.533604
22.950768
22.799969
25.101900
24.779439
24.456978
20.002723
18.135905
14.922619
12.393594
8.422732
8.558631
7.302761
7.797480
7.382631
9.103417
8.626580
9.507537
10.122657
10.607839
11.145473
11.897683
12.408495
12.158751
11.639595
13.697743
13.569593
12.969971
14.431477
14.786720
15.201569
15.717745
16.500950
15.867949
16.095638
16.671419
17.852783
16.154647
15.655756
18.817782
16.784668
18.297434
17.246604
17.831922
18.366575
17.567873
18.338561
17.142892
18.734932
19.150972
19.060969
17.866492
19.658804
20.103455
20.055771
20.179749
21.025538
20.988584
23.274422
27.247667
27.120709
31.739473
37.383437
39.712787
44.481754
46.174526
46.580434
48.885942
45.754910
45.884848
42.833686
36.840439
35.700798
31.424761
28.277636
24.992824
22.458434
22.291541
20.308495
20.425916
20.514727
18.396974
19.550920
19.290447
18.763542
18.871427
##ZVALUE=230
51.071644
58.710575
93.577504
159.648657
204.281807
253.775716
277.930498
264.669657
237.652659
198.384523
130.453706
88.859797
57.383776
46.264529
44.125915
47.079921
49.685836
47.397614
43.021441
36.766529
29.677749
19.768476
14.376640
12.937784
9.255409
10.822415
10.357499
10.544658
12.008548
10.882616
11.954904
12.400746
12.695789
12.267828
14.026761
15.932918
15.709996
15.906692
15.681982
17.367601
20.012856
19.831657
20.667911
20.708442
21.822453
20.591617
21.368861
22.557974
22.698641
23.593903
23.689866
23.959875
24.626851
25.917888
25.507808
27.444959
26.693940
26.872754
25.708675
25.585890
26.301742
27.246475
28.469563
26.467443
28.535724
29.284954
31.002760
31.771660
32.469630
37.414432
37.994981
44.331551
47.715902
51.262975
52.523613
56.050420
56.797862
52.099824
53.784847
53.505898
49.377680
46.758652
41.277409
38.337708
35.596490
32.813549
29.920936
30.069947
28.972626
27.058721
28.117895
29.104948
27.621984
28.648973
28.109550
26.422739
##ZVALUE=235
25.852919
27.837753
72.774887
125.326514
236.978531
337.733626
466.743708
541.485548
574.966669
558.289886
472.433567
382.544994
282.653570
174.791813
114.719868
80.035925
70.065856
74.444413
81.131458
80.768466
74.862838
68.650842
50.239563
38.995743
25.946498
19.516945
13.896823
11.667609
11.692643
10.997653
11.392832
12.181997
13.308525
13.192892
14.406443
14.668703
14.909506
17.151833
16.336441
17.743707
19.252896
21.407604
21.110773
23.336411
26.085973
26.511550
27.018785
31.409860
31.694770
31.945705
32.837987
31.914711
35.225749
34.060478
33.835769
36.895871
35.830736
35.930872
36.695600
37.495494
38.705468
39.006472
37.565827
38.554668
39.864779
40.147901
40.823817
45.181513
45.692921
46.010613
52.355528
52.827001
58.340430
58.508515
64.206719
63.601732
63.786507
62.685609
63.377619
61.481595
54.776669
53.553581
51.727891
49.281716
46.414733
44.354796
44.676661
41.767955
42.701960
42.383671
39.669871
39.291978
37.922859
37.992597
37.094951
35.757422
##ZVALUE=240
3.171563
4.173517
9.374619
35.496950
81.057549
194.674730
329.879522
574.865937
766.585469
907.845497
1015.136838
998.189449
855.882764
713.623762
491.020679
335.454941
193.255544
136.613846
101.727843
97.710490
106.717944
114.951730
113.326907
103.011727
85.635781
64.416528
47.063828
31.443834
26.245713
17.576814
15.060902
13.094544
14.744997
13.297796
15.088916
15.286803
15.201569
16.505718
18.395782
20.037889
23.205876
25.587678
27.955770
29.659867
32.807589
34.925938
36.602616
39.407611
41.104555
43.673515
43.560863
45.929551
47.711730
44.769645
48.845410
50.306916
49.498677
47.990680
49.297810
48.836470
50.606728
50.829649
50.420761
52.388906
51.651597
50.148964
55.000782
55.509806
56.429505
59.400797
61.642528
68.424940
65.649748
70.415735
72.679520
74.804425
75.602531
72.286725
73.460937
74.519515
70.127845
64.667463
60.090423
59.876442
58.430433
56.356788
58.146715
51.807761
53.101778
50.197840
48.372746
48.503876
49.401522
47.186613
47.674775
47.279000
##ZVALUE=245
2.837777
2.921820
2.589822
3.289580
8.718967
39.856434
90.547800
227.699876
379.168987
626.437664
817.825794
1015.681624
1015.681624
1015.681624
1015.681624
953.558683
705.116987
506.289005
303.410888
200.042725
126.859546
105.889440
113.646984
122.553706
126.127601
124.671459
112.529993
93.868971
76.230764
54.075718
38.826466
27.691722
19.012690
15.419722
13.734698
15.170574
15.478730
16.323924
19.792914
21.300912
23.709536
27.051568
30.641556
32.682419
38.335919
38.555861
41.818619
45.060515
46.405792
49.438477
51.606894
50.694942
54.278970
56.029558
55.670738
55.310726
57.548881
53.956509
56.603551
54.880977
55.784583
52.139759
55.410862
54.768920
52.747726
54.207444
56.316853
52.002668
57.379603
58.246851
59.334636
63.142776
63.738823
67.771673
69.972873
72.079897
72.107911
71.085691
70.175529
66.453815
64.070821
61.370730
60.576797
57.399869
57.169795
52.859783
52.749515
50.401688
52.709579
52.367449
50.435662
48.297644
48.243999
45.908689
48.544407
44.673681
##ZVALUE=250
2.507567
2.322793
2.496839
2.930760
2.891421
3.160834
5.043745
33.922791
87.723732
215.692520
381.263494
674.605966
911.238790
1015.681624
1015.681624
1015.681624
1015.681624
1015.681624
953.795910
725.134611
460.815430
296.383500
163.344741
119.352937
109.265447
119.392872
132.953525
136.242509
130.154490
120.822787
101.634860
84.874630
62.298775
41.368604
29.597878
21.467805
18.921494
18.734932
19.646883
21.782517
24.211407
28.042793
29.470921
34.480691
38.095713
40.165782
42.808652
47.422647
46.847463
51.231980
53.556561
54.553747
55.469871
57.876706
56.389570
55.225492
57.340860
56.593418
55.413842
54.780841
52.241683
52.814484
53.387880
53.741932
52.656531
51.448941
50.152540
48.393607
49.193501
52.952766
53.505898
55.644512
56.109428
58.591962
61.208606
61.387420
62.073469
61.041713
59.835911
57.290792
54.254532
52.976608
53.543448
49.892664
49.328804
48.460960
47.227740
46.316981
45.887828
47.137737
45.816898
42.332411
44.878721
41.992664
44.073462
42.880774
##ZVALUE=255
1.984835
2.166629
2.188683
2.374649
2.451539
2.131462
2.912879
2.785921
3.761649
10.168552
57.635903
130.059719
247.178674
492.293835
724.374652
1007.892489
1015.667915
1015.667915
1015.667915
1015.667915
1015.667915
981.687903
666.742921
445.040464
243.729949
161.791444
114.421844
108.773708
126.651525
139.257908
144.167542
141.359568
131.697655
106.690526
85.207820
60.604811
45.917630
30.631423
26.050806
22.130609
24.571419
27.612448
30.222535
33.636689
36.913753
38.484931
42.225718
43.538809
46.606660
48.915744
49.771667
51.710606
50.579906
50.737858
51.240921
50.062537
52.012801
49.620867
50.285459
46.539903
46.978593
45.915842
45.521855
44.434667
41.915774
43.058991
42.378902
42.175651
43.425560
43.698549
43.295622
44.112802
45.331717
47.903657
46.289563
47.792792
47.566891
47.679543
47.651529
45.574903
44.824481
44.318438
42.840838
42.111874
42.712688
41.380525
42.128563
39.781928
40.608644
40.366650
40.131807
40.132999
38.181543
38.862824
37.382841
39.215684
##ZVALUE=260
1.947880
1.573563
1.844764
1.772642
2.131462
2.332926
2.307892
2.411604
2.936721
2.925992
3.079772
5.423427
36.998987
95.444918
230.313540
409.636497
719.227791
952.543020
1015.681624
1015.681624
1015.681624
1015.681624
1015.681624
1015.681624
829.111934
510.214567
325.335860
165.720582
110.688806
93.350410
105.696917
129.046440
145.254731
153.069496
149.467587
134.417415
117.031932
89.960694
69.041848
51.190853
39.297938
33.958554
31.630993
31.424761
32.229424
34.307837
37.058592
37.707686
39.091706
41.575432
42.521954
42.013526
43.228865
43.227673
42.745471
42.859912
42.513609
41.354895
40.047765
38.970709
38.492680
39.065480
38.892627
36.067963
35.834908
35.644770
35.766959
35.870671
35.178661
35.799742
36.447644
37.856698
38.589835
39.010644
38.700700
39.940476
39.698482
38.921833
39.602518
37.481785
39.468408
37.697554
36.980510
37.259459
37.001967
35.370588
35.487413
35.724640
35.086870
34.545660
35.118461
35.929680
36.354661
34.231544
34.540892
35.498738
##ZVALUE=265
1.561642
1.576543
1.929998
1.697540
1.819730
2.023578
1.722574
1.914501
2.075434
2.055764
2.452731
2.492666
2.537966
3.364682
6.831884
40.850639
112.287998
284.979939
488.180518
870.888829
1015.608907
1015.608907
1015.608907
1015.608907
1015.608907
1015.608907
953.546762
673.883557
374.521613
224.194527
129.667521
83.236694
85.630417
113.638639
131.864548
154.000521
159.955621
155.682564
139.229894
116.539001
96.728802
71.357489
56.393743
42.900443
37.107468
34.696460
33.819675
35.687685
35.972595
35.113692
36.231875
37.315488
36.705732
36.304593
34.833550
36.607981
36.267638
33.908486
33.824444
33.120513
33.261776
32.032728
32.245517
31.215549
30.252934
30.533671
30.123591
31.472445
30.676723
32.604933
31.384826
34.332871
34.373999
35.185814
35.209656
35.773516
36.361814
36.787987
36.249757
35.007000
34.398437
34.488440
32.848716
33.170581
33.551455
33.546686
33.338666
33.056736
32.959580
32.330751
33.753514
32.806993
33.635497
32.338500
32.002926
31.407475
##ZVALUE=270
1.627803
1.524687
1.704693
1.793504
1.760721
1.822710
1.752973
2.058744
2.155900
2.269745
2.435446
2.321601
2.410412
2.583861
2.779961
3.075600
3.932714
11.693835
61.429739
157.021880
402.382612
695.814490
1015.681624
1015.681624
1015.681624
1015.681624
1015.681624
1015.681624
1015.681624
931.997895
630.211830
318.277478
178.112984
87.755919
71.108937
90.860724
112.557411
143.240690
155.465603
164.539814
158.901811
143.299699
125.939846
100.065470
79.349875
57.550669
47.091842
39.838552
35.613775
33.414960
33.636689
34.010410
32.298565
33.388734
32.338500
32.156706
31.710863
31.406879
30.562878
29.985905
29.723644
29.406548
28.928518
27.726889
28.396845
27.145743
28.421879
27.764440
29.642582
30.097961
31.003952
31.584501
32.534599
34.191608
34.355521
34.409761
34.089684
33.557415
33.199787
33.050776
32.947659
33.138990
31.116605
31.756759
30.839443
31.600595
31.034946
31.495690
31.549931
30.433536
30.866861
31.200647
29.874444
30.260682
30.930638
31.019449
##ZVALUE=275
1.477599
1.585484
1.753569
1.704693
1.629591
1.694560
1.737475
1.826882
1.588464
1.797676
1.891851
1.956820
2.155900
2.462864
2.478957
2.640486
2.947450
3.140569
3.400445
15.904903
67.662001
170.508623
407.287478
680.112839
1015.681624
1015.681624
1015.681624
1015.681624
1015.681624
1015.681624
1015.681624
1015.681624
882.642865
469.501615
268.554688
117.889643
73.177814
70.835948
89.664459
119.125843
139.425993
160.769820
165.678859
160.390735
151.004791
124.590993
102.646947
78.778863
62.671900
47.613978
38.659573
34.250617
31.592846
30.660629
30.857921
29.888749
29.035807
29.219985
28.622746
28.652549
27.490854
27.903914
27.606487
26.807785
27.586818
27.163625
26.899576
27.496815
28.629899
29.190779
30.321479
31.527877
31.801462
32.869577
33.164620
33.308864
34.276843
33.134818
32.754540
32.990575
33.128858
31.154752
31.262636
30.848980
30.722618
30.593872
30.654669
30.438900
30.085444
30.084848
30.035973
29.006600
28.917789
28.401613
29.190779
28.694868
##ZVALUE=280
1.639724
1.554489
1.784563
1.600981
1.708865
1.546741
1.795888
1.839995
1.526475
1.631975
1.963973
1.716614
1.982450
2.035499
2.164841
2.042651
2.197623
2.259612
2.303720
2.574921
3.227592
4.066825
22.155643
87.528825
297.277570
529.222488
935.083628
1015.675664
1015.675664
1015.675664
1015.675664
1015.675664
1015.675664
1015.675664
995.353460
595.750809
355.459452
159.629583
83.531737
55.771470
65.178871
92.641711
114.972591
141.867995
155.674815
163.627863
160.848498
143.765807
125.181675
97.776651
78.408718
58.087707
45.087934
35.163760
29.633641
26.641488
26.337504
25.568604
25.961995
26.627779
25.524497
26.040673
25.794506
25.990605
26.142597
25.731921
26.988983
27.664900
26.830435
28.504729
28.787851
29.348731
30.967593
31.106472
32.846928
31.431913
32.165647
32.137632
32.146573
31.406879
30.906796
30.386448
29.557943
29.354692
29.799938
29.313564
29.103756
29.183626
28.955936
29.121637
28.459430
29.173493
28.674603
27.878881
27.287602
27.615428
##ZVALUE=285
1.308918
1.353621
1.365542
1.518726
1.328588
1.475811
1.507998
1.494884
1.535416
1.546741
1.421571
1.561642
1.502633
1.797676
1.885891
1.611710
1.801848
1.970530
2.129674
2.129674
2.411604
2.503991
2.879500
3.092885
8.911490
28.844476
104.842782
220.590830
490.764976
787.054896
1015.685797
1015.685797
1015.685797
1015.685797
1015.685797
1015.685797
1015.685797
779.452920
490.224957
233.379006
118.509531
53.720474
46.351552
63.901544
83.884597
112.854838
132.586956
151.144862
155.055523
152.415633
141.810775
118.223429
99.665523
72.478652
55.382848
39.014816
30.368567
26.000738
24.205446
23.690462
23.235679
23.075938
23.859739
23.352504
23.479462
24.641752
24.776459
25.878549
25.937557
26.643872
27.267933
27.738810
28.483868
29.306412
30.070543
30.305982
29.607415
29.893517
30.247569
30.209422
29.678941
29.210448
29.869676
29.365420
29.246807
28.340816
28.154850
28.422475
28.986931
27.384758
28.944612
27.320981
27.769804
27.427673
26.628971
27.369857
##ZVALUE=290
1.204610
1.377463
1.286864
1.368523
1.275539
1.320839
1.254678
1.403689
1.414418
1.329780
1.446605
1.613498
1.378655
1.792908
1.530647
1.591444
1.621842
1.750588
1.923442
2.073646
2.044439
1.999736
2.211928
2.323985
2.733469
3.122687
4.045963
11.775494
53.892732
127.860904
253.367424
571.646690
914.679766
1015.682817
1015.682817
1015.682817
1015.682817
1015.682817
1015.682817
978.080034
663.846731
333.376527
171.243548
64.461827
37.415624
41.423440
54.522753
79.858899
98.091960
124.831796
138.460994
147.530437
146.909952
134.349465
115.917921
90.033412
70.328712
49.228668
37.832856
27.096868
24.132729
20.511746
20.453930
20.734668
20.884871
21.472573
21.791458
22.816658
23.200512
24.737716
25.354624
26.037693
27.331710
27.348995
27.020574
27.996898
28.204918
28.434992
27.693510
28.433800
28.060675
28.403997
28.099418
28.485656
28.357506
28.550625
28.073788
27.751923
27.604699
26.915669
26.612878
27.020574
27.243495
26.099682
26.294589
26.571751
##ZVALUE=295
1.147985
1.225471
1.247525
1.314878
1.218915
1.208782
1.231432
1.203418
1.265407
1.328588
1.377463
1.451969
1.400709
1.517534
1.482964
1.525879
1.494884
1.682639
1.813769
1.673698
1.742840
1.958609
2.187490
2.142787
2.285838
2.415776
2.631545
2.912879
3.398657
6.877780
21.626949
89.642406
191.032887
466.763973
795.620680
1015.681624
1015.681624
1015.681624
1015.681624
1015.681624
1015.681624
1015.681624
888.574719
455.345511
249.015689
91.295838
43.097734
27.770996
34.783483
52.745938
69.617629
96.219778
113.546848
134.224892
140.702724
138.722658
127.690434
106.156468
87.860823
64.717531
49.474835
34.447908
26.615858
21.489859
20.366907
19.916892
19.564629
20.131469
21.491647
21.929741
22.581816
23.739934
24.179816
25.358796
26.575923
26.624799
26.804805
27.094483
27.406812
27.160645
26.889443
27.110577
27.485490
27.271509
27.771592
27.262568
27.636886
27.831793
27.656555
26.738644
26.647449
27.060509
26.936531
26.469827
26.136637
26.205778
##ZVALUE=300
1.231432
1.314878
1.199841
1.193881
1.308918
1.196861
1.266599
1.303554
1.291633
1.220703
1.208782
1.170635
1.410842
1.321435
1.314878
1.289845
1.495481
1.405478
1.540780
1.559854
1.585484
1.588464
1.705885
1.881719
2.195835
1.903772
2.276897
2.399683
2.570748
2.815723
3.103614
3.430843
12.964606
44.990778
148.052573
291.185379
625.047684
975.126624
1015.681624
1015.681624
1015.681624
1015.681624
1015.681624
1015.681624
1015.681624
723.531842
353.307724
183.392763
64.792633
29.252768
22.980571
29.612780
47.011971
62.639713
86.116791
105.896592
124.959946
131.823421
131.342411
123.614669
103.676915
87.851882
65.054893
48.891902
35.072565
27.239919
22.163987
20.737648
19.488931
21.010637
21.748543
22.044778
23.170710
24.391413
24.782419
26.210546
25.913715
27.146935
26.665926
26.980639
26.984811
26.979446
27.057528
27.726889
27.676821
27.795434
27.760863
27.650595
27.348995
26.879907
26.633739
26.826859
25.949478
25.944710
26.431680
26.053786
##ZVALUE=305
0.995994
1.000762
0.912547
1.027584
1.002550
1.102686
1.162887
1.058578
1.104474
1.299977
1.153946
1.355410
1.355410
1.327991
1.264811
1.266599
1.366735
1.322627
1.276731
1.530647
1.492500
1.407862
1.683831
1.677871
1.810789
1.944900
1.699924
1.945496
2.062917
2.003908
2.033710
2.412796
2.660751
3.162622
4.890561
26.221871
76.808929
229.185820
429.247618
829.774737
1015.681624
1015.681624
1015.681624
1015.681624
1015.681624
1015.681624
1015.681624
830.363035
512.095690
228.246450
110.817552
35.558939
19.597411
20.751953
28.494000
44.720769
59.727430
82.368851
101.370811
117.796659
125.516653
125.165582
116.934776
99.397898
85.348487
63.612461
49.104691
35.355687
28.583407
24.302602
22.677779
23.298860
23.064613
24.090409
24.087429
25.156736
25.771856
26.229620
26.696920
27.103424
27.874708
28.760433
28.365850
28.499961
28.711557
28.389692
28.737783
28.993487
27.731657
28.011799
27.871728
27.481914
27.561784
26.281476
26.041865
26.146770
##ZVALUE=310
0.824928
0.964999
0.975728
1.099706
1.002550
1.200438
1.032948
1.073480
1.130700
1.226664
1.122952
1.049638
1.215935
1.239777
1.096725
1.228452
1.102686
1.241565
1.257658
1.234412
1.307726
1.299977
1.557469
1.340508
1.584888
1.497865
1.568794
1.477599
1.850724
1.856685
2.074838
2.188683
2.415776
2.397895
2.646446
3.132820
3.722906
10.233521
55.028796
134.170651
352.181792
627.970695
1015.682817
1015.682817
1015.682817
1015.682817
1015.682817
1015.682817
1015.682817
1015.682817
681.930780
401.825905
167.059898
75.438619
24.657845
16.288757
20.632744
26.728511
39.984584
53.898692
75.828433
91.944933
110.875964
119.532943
121.783614
114.432573
100.702643
85.631609
64.431429
51.227808
37.922859
32.340884
27.710795
26.565790
25.794506
26.165843
26.675463
26.833415
27.897954
28.027892
28.293729
28.753877
29.199719
29.615760
29.990673
29.626489
30.019879
29.095411
29.874444
29.672980
29.519796
28.636456
29.284954
28.649569
28.198957
27.687550
##ZVALUE=315
1.000762
1.034737
1.085997
1.057982
0.872612
0.907779
0.919700
1.053810
1.155734
1.160502
1.117587
1.155734
1.239777
1.139641
1.224875
1.182556
1.137853
1.197457
1.212955
1.237988
1.368523
1.384616
1.336932
1.478791
1.378655
1.468658
1.620650
1.593828
1.569986
1.588464
1.842976
1.864433
1.815557
2.077818
2.300739
2.484918
2.576709
2.821684
2.939701
6.298423
22.873878
106.484890
245.271325
583.997965
958.177447
1015.678644
1015.678644
1015.678644
1015.678644
1015.678644
1015.678644
1015.678644
987.887979
543.689728
292.625427
101.158619
39.710999
16.439557
14.964938
19.597411
25.737882
38.433671
51.103830
72.079897
87.876916
105.254650
114.524961
116.432905
113.287568
97.393990
85.213780
66.617727
54.222941
40.818453
35.241842
30.029416
28.397441
27.973652
28.273463
28.878450
28.626919
29.304624
29.860735
30.081868
30.312538
30.611753
30.374527
30.610561
30.850768
30.510426
30.565858
30.030608
30.244589
29.828548
29.017925
29.193759
##ZVALUE=320
1.041889
1.087785
0.941753
0.993609
1.038909
0.890493
1.027584
1.164675
1.068711
0.980496
1.068711
0.967979
1.020432
1.053810
1.016855
0.948906
1.163483
1.124740
1.170635
1.351833
1.334548
1.321435
1.288652
1.280904
1.460910
1.343489
1.391768
1.446605
1.469851
1.541972
1.543760
1.738667
1.587868
1.778603
1.935959
2.021790
2.253652
2.435446
2.342463
2.758503
3.064871
4.065633
10.049939
55.445433
143.488646
400.144458
709.339976
1015.681624
1015.681624
1015.681624
1015.681624
1015.681624
1015.681624
1015.681624
1015.681624
739.923716
417.138934
169.788003
74.344873
23.257732
14.671683
15.331507
18.247962
24.954677
33.632517
50.537586
65.233707
85.889697
99.184513
111.793876
115.329623
109.963417
99.813938
82.086921
68.044662
52.070618
43.148994
35.522580
32.181740
30.473471
29.838681
30.162930
30.632615
31.063557
30.968785
30.970573
31.122565
31.834841
31.554699
31.676888
31.356812
30.278563
30.113459
30.297637
29.746890
29.693842
##ZVALUE=325
1.014471
1.072884
1.080632
0.988841
1.007915
0.960827
1.115799
1.247525
1.118779
1.070499
1.021624
1.114607
1.065731
1.112819
1.278520
1.183748
1.168847
1.301765
1.060963
1.304746
1.395941
1.240969
1.301765
1.275539
1.236796
1.301765
1.420975
1.427531
1.398921
1.486540
1.601577
1.784563
1.775622
1.827478
1.909733
1.835823
1.823902
2.166629
2.082586
2.226830
2.601743
2.908707
2.911687
3.483891
6.121993
35.853982
96.027851
264.024734
500.735641
965.018868
1015.779972
1015.779972
1015.779972
1015.779972
1015.779972
1015.779972
1015.779972
912.360549
552.433729
241.007805
113.673806
34.298897
16.648769
14.416575
15.681982
19.227862
24.888515
35.829544
49.544573
69.311857
83.064437
100.103617
108.836889
110.898614
106.179714
92.297792
81.691742
64.536929
53.654909
42.291880
36.584735
32.983422
32.237768
31.374693
31.051636
31.155944
31.235814
31.525493
31.714439
30.341744
31.228662
31.134486
30.486584
30.264854
30.598640
29.817820
##ZVALUE=330
0.902414
0.891685
1.113415
0.818968
0.793934
0.854731
0.792742
0.795722
0.986457
1.082420
0.956655
1.025796
0.942945
1.043677
1.099706
1.147985
1.069903
0.833869
1.026988
1.083612
1.041889
1.171827
1.078844
1.088977
1.247525
1.301765
1.314878
1.150966
1.307726
1.267791
1.376867
1.273751
1.578927
1.644492
1.685619
1.607537
1.730919
1.731515
1.876950
2.038479
1.859665
2.099872
2.389550
2.555847
2.803802
3.387928
4.145503
16.145706
51.365495
172.503591
341.719985
724.126697
1015.681624
1015.681624
1015.681624
1015.681624
1015.681624
1015.681624
1015.681624
1015.681624
753.709674
343.663692
169.849992
56.983829
23.345947
14.885664
14.961958
17.030835
20.376444
27.249455
35.443902
50.649643
64.806938
83.744526
96.026659
105.154514
107.274652
100.803971
92.519522
76.225996
64.168572
50.922632
43.924451
37.663579
34.219623
31.456947
31.224489
30.936599
30.631423
30.691624
30.081868
29.988885
30.043721
29.607415
29.465556
28.953552
##ZVALUE=335
1.028776
0.891685
0.771880
0.787973
0.746846
0.700951
0.796914
0.863671
0.792742
0.831485
0.808835
0.944734
0.911951
0.907779
1.119971
0.946522
0.996590
0.912547
0.918508
0.943542
0.766516
0.990629
1.058578
1.118779
1.055598
1.046658
1.261830
1.112819
1.096725
1.078844
1.120567
1.168847
1.270771
1.193881
1.349449
1.300573
1.465678
1.437664
1.552701
1.507998
1.741648
1.668930
1.814961
2.229810
2.218485
2.385974
2.610683
2.910495
3.097653
6.983876
23.950934
101.403594
221.292973
520.991683
863.839984
1015.682817
1015.682817
1015.682817
1015.682817
1015.682817
1015.682817
1015.682817
887.729526
470.815897
245.591998
81.279874
33.535957
16.091466
14.958978
16.425848
17.484426
21.689534
26.179552
37.543774
48.289895
65.347552
77.235699
91.375709
99.642873
100.736618
97.189546
86.012483
75.219870
62.955618
53.447485
43.326616
37.724972
32.938719
31.466484
30.053854
29.337406
28.990507
28.473735
28.956532
28.712749
28.277636
##ZVALUE=340
0.820756
0.702739
0.707507
0.824928
1.033545
0.780821
0.871420
0.831485
0.956655
0.821948
0.827909
0.957847
1.037717
0.985861
0.842810
0.964999
0.814795
0.981688
0.877976
0.832677
0.882745
0.950694
1.013875
0.978708
1.009703
0.902414
1.024604
1.158714
1.022816
1.082420
1.216531
1.227856
1.097918
1.103878
1.146793
1.356602
1.240969
1.336932
1.300573
1.478791
1.486540
1.502633
1.680851
1.774430
1.909733
1.994967
1.895428
2.075434
2.458692
2.600551
2.829432
4.251599
11.911988
62.579513
155.958533
398.029685
684.479475
1015.681624
1015.681624
1015.681624
1015.681624
1015.681624
1015.681624
1015.681624
990.045667
548.678637
305.476785
123.104453
49.200654
17.986894
15.162826
15.769601
16.254783
18.761754
21.411777
28.127432
35.083890
48.199892
59.483647
76.407790
86.186528
94.588995
95.627904
91.255903
84.150434
71.545839
61.791539
50.279498
42.633414
35.829544
32.119751
29.299855
27.858615
27.786493
27.175546
27.226806
##ZVALUE=345
0.753999
0.856519
0.819564
0.723600
0.648499
0.704527
0.917912
0.892878
0.773668
0.751615
0.870824
0.835657
0.844598
0.876784
0.885725
0.863671
0.945926
0.845790
0.760555
0.976920
0.932813
0.890493
0.941753
0.851750
0.900626
0.934601
0.985861
0.767708
0.727773
1.073480
0.981688
1.113415
1.029968
1.022816
1.016855
1.250505
1.241565
1.196861
1.290441
1.311898
1.315475
1.444817
1.639724
1.561642
1.530647
1.670718
1.660585
1.806617
1.890659
2.151728
2.329946
2.508759
2.675653
2.923608
5.854964
33.428669
97.323656
265.770555
483.461618
909.751654
1015.681624
1015.681624
1015.681624
1015.681624
1015.681624
1015.681624
1015.681624
719.239712
420.369506
179.045796
80.215931
26.178956
16.272664
15.292764
15.818477
16.909838
17.889738
20.933747
25.301576
34.057498
43.236613
58.259964
69.156885
80.301762
86.872578
89.444518
86.400509
79.148412
70.379972
58.714747
49.314499
38.947463
34.202933
29.784441
28.106570
26.366711
##ZVALUE=350
0.746846
0.715852
0.735521
0.723600
0.746846
0.731945
0.903606
0.761747
0.778437
0.889897
0.908971
0.872612
0.732541
0.796914
0.807643
0.909567
0.868440
0.871420
0.859499
0.887513
0.828505
0.836849
0.908971
0.868440
0.976920
1.049638
0.875592
0.883937
1.048446
1.036525
1.085997
1.009703
1.080632
1.120567
1.096725
1.218915
1.179576
1.351833
1.251698
1.208782
1.353621
1.299977
1.274943
1.401901
1.340508
1.436472
1.614690
1.501441
1.637936
1.617670
1.744628
2.184510
1.978874
2.221465
2.570748
2.821684
3.487468
17.518997
57.137609
183.643699
355.378985
737.396479
1015.681624
1015.681624
1015.681624
1015.681624
1015.681624
1015.681624
1015.681624
832.313895
518.606901
239.399672
111.077428
32.665730
17.058849
14.402866
14.841557
15.175939
15.473962
17.318726
19.799471
25.491714
31.062961
40.590763
49.517751
62.545538
71.496964
79.318881
80.915689
80.143809
74.300766
64.115524
55.805445
45.902729
39.051771
32.319427
##ZVALUE=355
0.560880
0.635982
0.693798
0.582933
0.540614
0.748634
0.606775
0.580549
0.585914
0.718832
0.726581
0.642538
0.650883
0.795722
0.691414
0.684857
0.666976
0.855923
0.860691
0.822544
0.733733
0.773668
0.720620
0.719428
0.823736
0.755787
0.855923
0.828505
0.863671
0.849962
0.782609
1.014471
0.895858
1.035929
1.041889
1.016855
1.107454
0.988841
1.057982
1.191497
0.973940
1.066923
1.240969
1.123548
1.414418
1.144409
1.218915
1.136661
1.341701
1.367927
1.486540
1.703501
1.748800
1.706481
2.030730
2.097487
2.291799
2.629757
3.055930
6.393790
37.558675
104.704499
281.980634
509.845018
952.683687
1015.546918
1015.546918
1015.546918
1015.546918
1015.546918
1015.546918
1005.398035
598.347783
325.840712
123.182535
53.545833
18.182993
13.476610
13.326406
13.544559
13.948679
14.893413
16.397834
18.324852
22.073984
27.025938
36.353469
43.936968
55.423975
63.807964
70.835948
74.458718
71.840882
67.965984
59.572458
52.463412
##ZVALUE=360
0.806451
0.723600
0.835657
0.696778
0.821948
0.928640
0.684857
0.889897
0.708699
0.812411
0.632405
0.734925
0.963807
0.864863
0.829697
0.863671
0.851750
0.871420
0.832677
0.855923
0.826716
0.954866
0.866652
0.850558
0.947714
0.852942
0.836849
0.897646
0.930429
1.105666
0.934601
1.028776
1.188517
1.123548
1.002550
1.149774
1.003742
1.162887
1.051426
1.169443
1.160502
1.412630
1.255870
1.254678
1.272559
1.467466
1.384616
1.523495
1.540780
1.536608
1.556873
1.546741
1.680851
1.845956
1.870990
1.938939
2.195835
2.229810
2.496839
2.871752
2.930760
4.777908
14.349818
65.564513
161.601901
405.681729
678.696036
1015.681624
1015.681624
1015.681624
1015.681624
1015.681624
1015.681624
1015.681624
819.376111
422.823429
219.507813
75.296760
30.968785
13.897419
13.079643
13.042688
13.305545
13.826489
14.096498
15.037656
16.398430
19.344687
22.952557
30.528903
37.090778
48.444867
55.088997
62.849522
67.181587
66.943765
##ZVALUE=365
0.840425
0.892878
0.737906
0.852942
0.866652
0.840425
0.611544
0.776649
0.870824
0.860691
0.697970
0.919700
0.825524
0.762939
0.824928
0.857711
0.868440
0.786781
1.090765
0.847578
0.923872
0.987649
0.713468
0.757575
0.876784
0.995994
0.982881
0.961423
0.854731
0.916719
0.891685
1.081824
0.930429
0.930429
0.925660
1.136661
1.154542
0.914931
1.156926
1.187921
1.154542
1.199841
1.147985
1.281500
1.324415
1.391768
1.349449
1.449585
1.432896
1.438856
1.528859
1.753569
1.641512
1.810789
1.680851
1.724958
1.822710
1.891851
2.001524
2.384782
2.458692
2.715588
3.061891
3.560781
6.699562
41.095614
111.220479
291.868448
541.558862
976.581573
1015.681624
1015.681624
1015.681624
1015.681624
1015.681624
1015.681624
983.425975
557.809472
299.946666
106.119514
41.732788
14.984608
12.215972
12.240410
12.218952
12.524724
12.698770
12.914538
13.394952
14.494658
16.480684
20.388961
25.473833
32.537580
39.842725
48.999786
##ZVALUE=370
0.824928
0.866652
0.747442
0.756979
0.884533
0.806451
0.837445
0.748634
0.912547
0.740886
0.765920
0.688434
0.732541
0.940561
0.788569
0.738502
0.642538
0.862479
0.805855
0.792742
0.757575
0.812411
0.773668
0.997782
1.049638
0.902414
0.995994
0.875592
0.898838
0.954866
1.013875
1.032948
0.851750
0.992417
0.984669
1.079440
0.974536
1.131892
1.186728
1.123548
0.911951
1.244545
1.077652
1.136661
1.206994
1.055598
1.099706
1.410842
1.472831
1.232624
1.309514
1.295805
1.620650
1.524687
1.542568
1.728535
1.692772
1.792908
1.821518
1.947880
1.984835
2.207756
2.396703
2.686977
2.873540
3.188848
4.176497
21.143556
71.977973
227.440000
434.916615
841.232538
1015.681624
1015.681624
1015.681624
1015.681624
1015.681624
1015.681624
1015.681624
681.530833
390.572548
156.063437
68.522692
21.216869
12.559891
11.282563
11.358857
11.210442
11.083484
11.622906
11.823773
12.195706
13.170838
15.450716
17.882586
22.482872
##ZVALUE=375
0.792742
0.929832
0.787973
0.877976
0.838637
0.579953
0.725985
0.856519
0.863671
0.765920
0.757575
0.844598
0.979900
0.895858
0.753999
0.732541
0.731945
0.756979
0.829697
0.785589
0.791550
0.776649
0.833869
0.824928
0.955462
0.988841
0.960827
0.907779
0.953674
0.911951
0.983477
0.922680
0.924468
0.822544
0.923872
1.041889
1.069903
1.039505
1.128912
1.012683
0.847578
1.084805
1.133680
1.098514
1.281500
1.165867
1.345873
1.153946
1.233816
1.236796
1.221895
1.244545
1.312494
1.349449
1.293421
1.384616
1.395941
1.476407
1.526475
1.734495
1.624823
1.769662
1.843572
1.901984
2.017617
2.301931
2.477765
2.767444
3.357530
10.010004
36.251545
136.983395
304.223895
700.073838
1015.681624
1015.681624
1015.681624
1015.681624
1015.681624
1015.681624
1015.681624
844.519734
535.039902
261.019468
128.836632
39.570928
16.318560
10.253787
10.164976
9.841919
10.124445
10.198951
10.322928
10.791421
11.352897
12.111664
##ZVALUE=380
0.692606
0.691414
0.707507
0.685453
0.636578
0.839829
0.779629
0.706911
0.743866
0.778437
0.816584
0.732541
0.659823
0.710487
0.800490
0.657439
0.656843
0.816584
0.699759
0.859499
0.738502
0.833869
0.848770
0.868440
0.774860
0.736713
0.844598
0.765920
0.590682
0.720620
0.756979
0.906587
0.909567
0.917912
0.899434
0.980496
0.985861
0.919700
0.885725
0.956655
1.091957
1.005530
0.996590
0.932813
0.922680
1.002550
1.060963
0.932813
1.194477
1.060963
1.171827
1.025796
1.134872
1.107454
1.176000
1.215935
1.277924
1.358986
1.459718
1.381636
1.542568
1.579523
1.634955
1.720786
1.644492
1.908541
2.075434
2.332926
2.620816
2.988577
3.293753
5.318522
18.837452
93.551874
226.213932
556.630492
914.552808
1015.682817
1015.682817
1015.682817
1015.682817
1015.682817
1015.682817
1003.885865
703.300834
350.295901
180.207491
60.990453
24.306774
10.674596
9.372830
9.282827
9.225607
9.495616
9.563565
10.216832
##ZVALUE=385
0.668764
0.847578
0.662804
0.645518
0.740886
0.510812
0.743866
0.558496
0.715852
0.744462
0.684857
0.675917
0.753999
0.820756
0.701547
0.668764
0.801682
0.724792
0.665784
0.795722
0.844598
0.720620
0.773668
0.891685
0.786781
0.772476
0.898838
0.713468
0.729561
0.825524
0.652671
0.862479
0.999570
0.784993
0.836849
1.029968
0.910759
0.895858
0.934601
1.011491
0.942945
0.858903
0.908971
0.927448
1.015663
0.927448
0.913739
1.002550
0.997782
0.999570
1.037717
0.986457
1.188517
1.098514
1.162887
1.024604
1.157522
1.212955
1.192689
1.288652
1.317859
1.226664
1.367927
1.412630
1.538992
1.630783
1.664758
1.977682
2.066493
2.508759
2.688766
3.038645
3.024936
3.531575
9.234548
54.174662
141.884685
364.498496
650.460720
1015.685797
1015.685797
1015.685797
1015.685797
1015.685797
1015.685797
1015.685797
947.896838
506.815910
285.071731
113.807917
45.300722
13.130903
8.815527
8.509755
8.623600
8.488894
##ZVALUE=390
0.594854
0.501871
0.606775
0.537634
0.498891
0.522733
0.615716
0.596642
0.582933
0.581741
0.691414
0.710487
0.480413
0.475645
0.676513
0.667572
0.627637
0.516772
0.644922
0.639558
0.610948
0.699759
0.744462
0.692606
0.740886
0.655651
0.696778
0.780821
0.753999
0.696778
0.690818
0.779629
0.670552
0.638962
0.796914
0.736713
0.781417
0.786781
0.729561
0.864863
0.845790
0.772476
0.647902
0.856519
0.826716
0.870824
0.964999
0.880957
1.071692
0.919700
0.971556
1.023412
0.999570
1.041889
1.068711
1.104474
1.097918
1.189709
1.121759
0.960827
1.149774
1.159906
1.294613
1.293421
1.365542
1.235604
1.358986
1.858473
1.880527
2.105832
2.232790
2.238750
2.315640
2.796650
2.652407
3.052950
4.643798
28.511882
92.922449
287.809968
542.207956
986.624956
1015.610695
1015.610695
1015.610695
1015.610695
1015.610695
1015.610695
1015.610695
758.401752
439.708829
175.253749
77.784657
20.347834
9.665489
8.097887
##ZVALUE=395
0.714660
0.708699
0.662804
0.626445
0.524521
0.574589
0.600815
0.598431
0.649691
0.665784
0.836849
0.679493
0.736713
0.691414
0.794530
0.664592
0.678897
0.603795
0.713468
0.708699
0.674725
0.715852
0.624657
0.603795
0.899434
0.798702
0.827909
0.952482
0.777841
0.764728
0.832677
0.760555
0.822544
0.746846
0.831485
0.807643
0.932813
0.768900
0.824928
0.787973
0.773668
0.959635
0.771880
0.739694
0.814795
0.954866
1.041889
0.979900
0.926852
0.999570
1.030564
0.933409
0.962615
1.037717
1.072884
1.153946
0.885725
1.166463
1.110435
1.365542
1.284480
1.120567
1.068711
1.379848
1.122952
1.448989
1.529455
1.634955
1.796484
2.080798
2.158880
2.373457
2.335906
2.322793
2.342463
2.347827
2.574921
2.701879
3.317595
14.996529
57.447553
208.405852
399.031639
773.114562
1015.685797
1015.685797
1015.685797
1015.685797
1015.685797
1015.685797
1015.685797
950.443745
589.790940
258.230567
120.960474
37.867427
##ZVALUE=400
0.554919
0.594854
0.566840
0.551939
0.497699
0.610948
0.598431
0.632405
0.613928
0.694990
0.666976
0.662804
0.718832
0.597835
0.636578
0.635982
0.609756
0.747442
0.541806
0.745654
0.628829
0.551939
0.630617
0.713468
0.602603
0.822544
0.721812
0.574589
0.760555
0.799894
0.636578
0.624657
0.641942
0.686646
0.786781
0.835657
0.693798
0.784993
0.903606
0.674725
0.790954
0.719428
0.939965
0.817776
0.876784
0.885725
0.984669
0.842810
0.947714
0.942945
1.028776
0.860691
0.915527
1.026988
0.951886
0.861883
1.005530
1.001954
1.267791
1.254678
1.284480
1.288652
1.116991
1.178980
1.263618
1.403689
1.336932
1.546741
1.772642
1.911521
2.017617
2.016425
1.935959
1.999736
1.910925
2.125502
2.181530
2.230406
2.315640
2.721548
3.326535
5.980730
32.057762
93.451738
277.764797
518.816710
968.677998
1015.681624
1015.681624
1015.681624
1015.681624
1015.681624
1015.681624
1015.681624
661.077499
398.882627
##END
