##TITLE=QP00351
##FORMAT=SPECTACLE-ASCII V-1.2
##DATA TYPE=ULTRAVIOLET SPECTRUM
##SECOND TYPE=ULTRAVIOLET SPECTRUM
##DATE=10/03/17
##TIME=11:42:04
##SPECTROMETER/DATA SYSTEM=SPECTACLE
##XUNITS=NM EM
##YUNITS=ENERGY
##YFACTOR=1
##FIRSTX=220
##LASTX=410
##NPOINTS=96
##3DDATA=Equidistant
##ZUNITS=NM EX
##FIRSTZ=210
##LASTZ=400
##ZPOINTS=39
##XYDATA=(Y..Y)
##ZVALUE=210
2.607703
2.946854
2.687573
2.663732
2.690554
3.495812
3.908873
3.214478
3.658533
3.427863
3.601909
3.530979
3.204942
3.654957
3.488660
3.492832
4.049540
4.330873
4.186630
4.513860
4.745722
4.375577
5.283952
4.557967
4.881620
5.990863
5.875826
5.817413
5.880594
5.581975
6.205440
6.275773
5.388856
6.823540
6.980896
6.593466
7.109642
6.595850
7.046461
6.715655
6.139874
7.588863
6.895661
6.457567
7.588863
7.262826
7.293820
8.284450
7.132888
8.550882
7.424951
8.897781
8.453727
8.612871
8.988976
8.285642
8.556843
8.665919
7.680655
8.677840
8.121729
8.483529
8.792877
8.326769
9.273887
9.937882
9.070635
9.782910
11.011958
12.674928
14.790893
16.524792
19.680858
20.350814
22.718906
23.155808
23.292899
25.652647
22.430420
21.930933
19.810796
17.886758
14.762878
13.717413
11.938810
11.624694
8.880496
9.174943
7.724762
7.435679
7.425547
6.768703
6.631613
7.959604
8.332729
7.444620
##ZVALUE=215
5.514622
6.083846
5.265474
4.776716
5.356669
4.567504
4.102588
4.096627
4.580617
5.129576
4.773736
5.264878
5.311966
4.376769
4.101992
4.644990
3.891587
3.451705
4.629493
5.156994
5.064607
5.260706
5.383492
5.943775
5.746484
5.792975
5.848408
6.469488
6.688833
6.615520
6.784797
6.522536
6.231666
6.869435
6.951690
6.511807
7.110834
7.439852
7.382631
7.435679
7.302761
7.293820
7.745624
8.085966
7.153749
8.048415
7.444620
7.367730
7.886887
8.747578
8.163452
8.560419
8.834600
8.607507
8.443594
9.301901
8.436441
8.444786
8.648634
9.053946
9.655952
9.112954
8.659959
8.120537
9.021759
10.484457
9.239912
10.224581
10.977983
13.268590
15.617609
17.057657
19.418597
19.357800
20.994544
22.627711
22.116899
22.943616
20.337701
19.974709
17.914772
15.927553
16.321540
12.886524
11.769533
9.566545
9.064674
8.589625
8.223653
7.195473
8.046627
6.925464
7.224679
7.403493
7.433891
7.388592
##ZVALUE=220
16.493797
18.449426
19.628406
21.478534
20.349622
17.087460
14.454722
11.814833
10.246634
9.770989
10.830760
11.732578
11.717677
9.730458
8.347631
8.043647
6.167889
5.916953
5.031824
5.562901
5.346537
5.494952
6.548762
5.481839
5.784631
5.612969
5.860925
6.164908
6.026626
6.012917
6.456971
7.403493
6.882548
7.162690
6.880760
6.034970
7.099509
8.072853
7.821918
7.261634
8.193851
8.320808
7.337928
7.746816
7.886887
7.465482
8.427501
8.476973
7.249713
7.934570
9.018779
9.076595
9.519458
9.638667
9.644628
9.725690
10.070801
9.378791
9.418726
10.067821
10.532737
10.607839
9.825826
10.533929
10.695457
10.263920
10.643601
10.798573
10.888577
14.786720
15.762448
18.035769
18.996000
21.070838
23.048520
23.083687
22.408962
20.866990
23.880601
20.544529
19.384623
18.087626
16.457438
14.554858
12.771487
12.385845
10.964870
9.309649
9.170771
8.641481
7.590652
8.360744
8.041859
8.961558
8.794665
8.437634
##ZVALUE=225
28.321743
32.656789
43.060780
58.693886
65.724850
71.437955
70.294738
61.039925
43.145418
35.868883
24.031997
22.395849
22.477508
23.187995
23.589730
23.224950
19.610524
17.834902
14.883876
10.177493
8.112788
5.861521
5.470514
6.900430
5.632639
6.776452
7.525682
6.850958
6.266832
7.049441
7.655621
7.633567
8.527637
7.724762
7.042885
7.644892
8.192658
9.012818
8.051991
7.044673
8.411407
8.556843
8.190870
8.550882
8.533597
8.125901
7.768869
9.474754
8.830428
9.411573
9.587407
10.617971
8.697510
10.171533
10.658503
10.641813
11.001825
11.504889
12.088418
11.724830
11.772513
11.990666
12.277961
11.465549
13.042688
13.651848
12.211800
12.769699
13.588667
15.227795
16.791821
19.046664
21.268725
21.801591
23.497939
22.306442
21.459460
20.697713
22.412539
18.695593
18.178821
17.171502
17.325878
15.206933
13.297796
13.631582
13.260841
11.109710
10.831952
11.167526
10.700822
11.574626
10.875463
9.467602
10.439754
10.083914
##ZVALUE=230
26.762486
31.903982
54.031610
88.938475
127.856731
162.441730
188.931823
197.039843
189.407468
158.991814
117.514729
83.601475
56.425929
44.122934
44.164658
44.240952
47.603846
47.782660
40.200949
34.665465
26.468635
20.326972
14.336705
10.861754
8.377433
8.136630
7.287860
7.154942
6.611943
7.461905
8.341670
8.335710
8.052588
7.991791
8.296967
9.432435
8.478761
8.080602
9.066463
9.719729
8.352995
9.521842
8.470416
8.986592
9.013414
9.409785
9.662509
9.941459
9.489655
11.589527
10.595918
12.574792
12.270808
12.474656
12.416840
13.392568
14.559627
14.696717
15.822649
15.508533
15.486479
14.380813
17.049909
14.151931
17.119646
15.920997
17.320514
17.748475
19.037724
18.631816
22.831559
24.701953
25.155544
26.367903
26.517510
26.656985
26.664734
24.345517
26.904941
23.048520
23.386478
20.247698
20.189881
17.866492
18.222928
16.636848
16.281605
15.167594
15.409589
14.997721
14.740825
15.504956
14.058948
13.231635
13.051629
14.106631
##ZVALUE=235
11.313558
12.745857
28.314590
65.388680
111.691952
187.523961
256.505609
353.058577
394.241810
424.044728
388.010740
330.780745
234.183669
173.805952
111.346841
81.353784
73.225498
77.046752
81.596971
85.624456
78.027844
63.231587
51.350594
37.938952
26.278496
18.158555
12.690425
9.278655
9.245872
9.077787
9.147525
9.278655
8.786917
8.903742
8.545518
8.968711
8.394718
9.701848
9.459853
9.923577
10.376573
9.532571
8.908510
9.394884
9.751916
9.917617
10.195971
11.333823
12.161732
12.554526
13.591647
14.081597
15.428662
16.392469
16.317964
15.620589
18.806458
18.523932
18.532872
21.284819
19.914508
21.348000
19.587874
22.215843
22.885799
21.939874
21.957755
23.403764
25.151968
24.892688
25.844574
29.726624
29.782653
30.876994
32.804608
33.421516
33.777952
32.202601
32.338500
28.508902
27.615428
26.534796
26.435852
25.240779
23.187995
22.918582
20.898581
21.262765
19.134879
19.717813
19.518733
21.282434
18.603802
19.240975
18.920898
17.057657
##ZVALUE=240
2.727509
2.779961
6.717443
14.542937
44.389963
86.286664
179.722905
277.974606
438.550711
554.314852
662.295818
682.966709
649.948716
540.818572
424.228907
270.906687
194.455981
126.083493
98.652840
98.109841
105.461478
111.426711
107.453465
99.661946
80.467463
64.236522
44.444799
31.608939
21.987557
14.224648
12.485981
9.832978
9.869933
9.733438
11.035800
9.672642
10.636449
9.909868
8.701682
9.704828
9.612441
10.040998
9.489655
9.987950
10.328889
11.057854
10.103583
11.879802
11.385679
13.991594
15.061498
14.880896
15.914440
19.398928
17.371774
19.461513
21.135807
20.096898
22.228956
21.616817
24.108887
22.781491
23.417473
24.718642
23.913980
26.076436
25.692582
27.062893
26.202798
28.779507
29.298663
31.821728
33.548474
35.166740
36.577582
35.583973
34.638643
36.907792
33.981800
32.804608
31.709671
28.825998
29.614568
27.908683
28.260946
27.105808
24.361610
23.437738
25.009513
23.874640
23.266673
22.635460
24.094582
20.936728
19.979477
20.425916
##ZVALUE=245
2.242923
2.866983
2.692938
2.652407
5.037785
11.723638
41.698813
81.999898
197.149515
310.649872
511.232615
661.494732
783.717632
857.522488
837.000608
718.461871
598.182678
405.256748
285.881758
168.958902
122.318864
102.536678
110.102892
123.420954
123.658776
120.981932
107.776523
89.166760
71.702600
50.573945
36.513805
23.857951
16.495585
11.762977
10.122657
10.155439
9.479523
8.912683
9.170771
9.707808
8.817911
8.810759
8.868575
10.027885
9.337664
10.540485
9.772778
9.818673
12.040734
13.226867
13.235807
13.659596
14.775991
16.740561
16.013980
17.106533
18.519759
18.213987
20.953417
21.647811
21.299720
21.510720
21.868944
23.908615
23.600459
23.231506
23.765564
23.483634
25.809407
26.364923
27.899742
30.916929
30.385852
31.495690
32.154918
32.247901
31.327605
30.701756
30.853748
30.749440
29.012561
27.610660
26.552677
26.304722
26.239753
24.455786
22.180676
24.644732
23.875833
23.251772
21.624565
23.451447
21.834970
20.913482
22.082925
22.268891
##ZVALUE=250
2.100468
2.394915
2.375841
2.791882
2.870560
2.702475
3.136992
9.908676
26.508570
78.885555
158.467889
325.998664
484.393835
717.326999
868.791938
1002.990007
1015.665531
939.953923
808.734894
565.858483
392.983556
263.371468
144.961476
107.047558
104.626417
115.704536
130.151510
137.507915
130.046606
119.744539
97.003579
77.777505
56.579709
36.520958
24.626851
14.591813
11.302829
9.400845
8.014441
7.944703
8.216500
8.499622
8.569956
8.822680
8.600950
8.851886
8.728504
9.573698
10.282993
10.187626
11.372566
12.814999
12.868643
12.818575
13.452768
14.527440
16.222000
15.991926
17.301440
18.418431
18.653870
17.807484
19.448996
19.094944
18.996000
20.830631
19.951463
21.673441
21.394491
23.344755
24.018884
25.290847
24.931431
27.792454
27.207732
27.459860
28.367639
28.227568
26.216507
26.429892
24.608970
24.747849
23.963451
24.849772
23.034811
21.988750
21.216869
22.494793
21.186471
20.249486
22.283792
21.291971
21.378994
21.234751
19.665956
19.871593
##ZVALUE=255
1.928806
1.987815
2.080798
2.301931
2.372861
2.143979
2.333522
2.397895
2.702475
4.715919
23.421645
57.436824
117.963552
268.191695
430.268645
695.027709
893.945694
1015.615463
1015.615463
1015.615463
1005.544662
835.132599
538.535714
346.554518
182.075500
119.832754
95.510483
102.479458
124.372840
135.355592
139.670968
138.623714
125.697851
100.136995
80.231428
54.524541
35.968423
21.647811
14.847517
9.445548
8.615851
7.524490
7.462502
7.921457
7.625818
8.126497
7.431507
8.358955
8.760691
9.240508
9.964705
10.796785
10.783672
11.953712
12.268424
11.544824
13.117790
13.721585
13.792515
14.539957
14.788508
14.209747
14.659762
14.393926
15.492439
15.811920
15.825629
16.753674
17.999411
18.991828
19.046664
20.617843
20.768642
22.628903
23.918748
22.840500
23.667812
21.322966
21.778941
21.404624
20.807981
18.900633
19.959807
19.465685
20.589828
18.744469
19.419789
18.758774
17.949939
17.957687
18.562675
17.570853
17.619729
18.420815
17.063618
16.898513
##ZVALUE=260
1.915693
2.034903
2.049804
1.924634
2.174973
2.250671
1.984835
2.243519
2.362728
2.570748
2.597570
3.183484
11.568666
33.490658
97.372532
190.106630
406.680703
608.679652
895.547867
1015.681624
1015.681624
1015.681624
1015.681624
1003.519893
787.983537
479.997993
306.570530
154.431462
104.107857
88.286996
100.341439
123.808980
141.501427
145.360827
142.688751
124.329925
107.254982
78.116655
57.284832
36.458969
25.050640
13.866425
10.470748
7.835627
7.808805
7.697940
7.904768
7.830858
8.087754
9.031892
9.338856
9.976625
10.034442
10.704994
11.123419
11.655688
12.288690
12.226701
12.952685
14.048815
13.278723
13.887882
13.581514
13.915896
15.051961
14.927983
14.132857
15.386939
15.222430
16.011000
16.851425
18.034577
18.480420
19.046664
19.257665
18.997788
19.086599
19.428730
19.441843
18.348694
18.167496
17.874837
17.127991
16.976595
16.911626
17.127991
16.707778
16.098619
17.004609
17.158985
16.891956
15.950799
16.509891
16.785860
16.172528
15.517473
##ZVALUE=265
1.811981
1.954436
1.891851
1.935959
1.616478
2.065897
1.859665
1.912713
2.387762
2.204776
2.368689
2.083778
2.535582
2.962947
5.756617
25.333762
63.308477
164.358616
302.248597
598.009825
873.007774
1015.688777
1015.688777
1015.688777
1015.688777
1015.688777
965.400934
691.016912
396.272540
232.223868
137.446523
78.574419
80.994964
107.584000
126.435757
145.112872
149.889588
144.717693
129.140615
102.945566
80.650449
53.575635
38.021803
21.595955
14.966726
9.522438
8.026958
8.192658
8.208752
8.860826
9.017587
9.904504
10.683537
11.234879
12.037754
12.692809
12.114644
12.981892
13.095737
13.776422
13.838410
13.975501
14.020801
14.131665
14.187694
15.330911
14.703870
15.497804
15.703440
16.417503
16.864538
16.392469
18.163919
18.184781
18.654466
18.763542
18.585920
18.181801
18.065572
16.564727
16.157627
15.731454
16.448498
15.518665
15.066862
15.434623
15.873909
15.676618
16.216636
14.796853
14.838576
14.766455
14.731884
15.064478
15.709996
14.907718
##ZVALUE=270
1.626611
1.843572
1.679659
1.602769
1.750588
1.848936
1.647472
1.927614
1.707673
2.138615
2.108812
2.052784
2.240539
2.457500
2.603531
2.708435
3.733635
9.034872
44.046640
100.623965
252.817869
462.590456
849.138498
1015.681624
1015.681624
1015.681624
1015.681624
1015.681624
1015.681624
900.840759
619.450808
314.448476
180.676579
86.532831
67.880750
83.061457
105.082989
131.336451
145.086646
151.740909
147.193670
126.098990
106.951594
79.409480
56.192875
34.705997
24.046898
14.919639
11.269450
9.738803
9.889603
10.545850
10.965466
11.175871
11.352897
12.450814
12.414455
13.289452
13.471842
14.473796
14.851689
14.863610
14.763474
14.903545
14.913678
15.092492
15.320778
15.744567
15.886426
16.276836
16.279817
17.320514
17.076731
17.532706
17.729998
17.361641
17.517805
17.369986
16.743541
15.893579
16.104579
15.566945
14.991760
14.800429
14.385581
14.328957
14.905930
14.213920
14.711618
14.251471
14.334917
13.877749
13.733506
14.302731
13.803840
13.844967
##ZVALUE=275
1.388788
1.359582
1.522899
1.451969
1.336932
1.696944
1.855493
1.632571
1.647472
1.728535
1.483560
1.862645
1.669526
1.771450
1.958609
2.210736
2.233982
2.588630
2.543926
6.432533
22.333860
60.101748
183.704495
353.396535
703.240037
986.029506
1015.553474
1015.553474
1015.553474
1015.553474
1015.553474
1015.553474
838.691592
447.461009
253.791809
108.366013
63.857436
60.617924
77.864528
107.041001
123.822689
144.908428
149.119496
143.943429
128.674507
100.863576
81.975460
56.505799
40.943623
25.969744
18.228889
14.580488
12.262464
11.612773
11.877418
13.108850
14.046431
14.790893
14.763474
15.869737
16.096830
15.426874
16.078949
16.002655
16.602874
16.227961
16.634464
16.412735
17.126799
17.357469
17.322898
17.806888
17.941594
18.393993
17.630458
17.079711
17.476678
16.900897
17.183423
16.307831
15.732646
14.872551
14.103651
14.526844
14.290810
14.317632
13.717413
13.460517
12.868643
13.034940
12.964606
12.677908
12.871623
12.042522
12.617707
12.741685
##ZVALUE=280
1.373887
1.388788
1.491904
1.560450
1.465678
1.517534
1.699924
1.540780
1.603961
1.582503
1.675487
1.912713
1.661777
1.756549
1.734495
2.031922
1.903772
2.189875
2.213717
2.509952
2.710819
3.234744
14.222860
46.409965
148.271918
280.707479
561.770797
862.826705
1015.635729
1015.635729
1015.635729
1015.635729
1015.635729
1015.635729
975.955725
574.233532
344.236493
151.232481
75.890422
46.306849
55.275559
79.700947
100.245476
125.044584
139.292479
145.931840
142.352581
125.167966
106.758475
79.926848
61.038733
42.268634
29.820800
20.819902
17.110705
15.607476
14.811754
16.042590
16.623735
16.877651
17.681718
18.125772
18.311739
17.741919
17.558932
18.328428
18.090606
18.297434
17.775893
18.812418
18.641949
18.385649
18.856525
18.740892
18.408895
17.795563
17.510653
17.336607
16.767979
16.078949
15.686750
15.214682
14.784932
14.154911
14.489889
13.942719
13.616681
13.130903
12.777448
12.419820
13.015866
12.062788
12.227893
12.222528
12.021661
12.010932
##ZVALUE=285
1.327991
1.214743
1.327991
1.322627
1.382828
1.593828
1.472831
1.370907
1.598597
1.708865
1.474619
1.746416
1.715422
1.742840
1.756549
1.683831
1.959801
1.933575
2.110600
1.996756
2.438426
2.630949
2.640486
3.165603
6.302595
30.065775
76.233745
207.317472
372.102857
712.954998
992.058516
1015.681624
1015.681624
1015.681624
1015.681624
1015.681624
1015.681624
791.457891
498.762727
234.604478
116.637945
47.471523
37.136674
53.934455
73.086619
100.938678
120.070577
137.155652
145.815611
142.920613
130.239725
108.990669
89.861751
65.488815
48.938990
33.158660
26.132464
22.226572
20.089746
20.500422
20.283461
20.180941
19.983649
20.509958
19.422770
20.134449
20.478964
20.708442
20.740628
20.737648
20.300746
20.759702
20.972490
19.821525
19.609928
18.978715
19.195676
18.454790
17.605424
16.866922
16.271472
15.846491
14.836788
14.142990
14.757514
14.308691
13.532639
13.480783
13.511777
12.729764
12.346506
12.564659
11.909604
12.318492
11.654496
11.438727
##ZVALUE=290
1.376867
1.436472
1.414418
1.267791
1.340508
1.337528
1.433492
1.565814
1.177788
1.328588
1.503825
1.441836
1.549721
1.536608
1.600981
1.726747
1.758933
1.916885
1.680851
1.930594
1.855493
2.214909
2.147555
2.153516
2.896786
2.754927
3.911853
10.002851
43.467879
108.359456
218.544006
489.704609
798.110962
1015.644670
1015.644670
1015.644670
1015.644670
1015.644670
1015.644670
970.810652
657.757521
330.522656
170.756578
64.119697
33.683777
36.060810
48.183799
72.962642
93.529820
118.875504
133.867860
145.331621
144.252777
132.774711
113.692880
88.729858
69.715977
50.484538
40.480494
31.409860
27.161837
24.021864
23.619533
22.830963
22.865534
22.538900
22.567511
22.997856
22.798777
22.071600
22.088885
22.170544
21.853447
21.410584
20.418763
19.951463
19.627810
18.371940
18.285513
17.469525
17.155409
16.235709
15.780926
15.414953
15.223622
13.901591
13.923645
13.780594
13.860464
12.985468
13.282895
12.760758
12.038946
12.134910
11.592507
12.078881
##ZVALUE=295
1.294613
1.184940
1.449585
1.296997
1.254678
1.156926
1.247525
1.240969
1.275539
1.297593
1.273751
1.301765
1.244545
1.446605
1.703501
1.437664
1.600981
1.680851
1.619458
1.733899
1.872778
1.938939
1.970530
1.842976
2.198815
2.389550
2.796650
2.856851
2.800822
5.192757
15.979409
67.782402
157.426000
391.312838
654.221773
1015.681624
1015.681624
1015.681624
1015.681624
1015.681624
1015.681624
1015.681624
838.958621
448.884964
248.511434
90.435743
41.489601
26.185513
32.950640
51.503778
70.494413
97.501874
116.664767
136.080980
144.802928
141.893625
133.024454
112.124681
95.259547
71.505904
56.172609
41.073561
34.737587
28.501749
26.048422
24.977922
24.620891
23.961663
23.941994
23.934841
23.936629
23.294687
22.687912
22.272468
21.604896
20.586848
21.205544
19.337535
19.569993
17.984509
17.605424
16.958714
15.891790
15.571713
16.175508
15.099645
14.550686
13.928413
13.309717
13.060570
13.017654
12.237430
12.457967
12.153983
11.558533
11.307597
##ZVALUE=300
1.155734
1.151562
1.142621
1.144409
0.991821
1.225471
1.176000
1.172423
1.396537
1.293421
1.133680
1.253486
1.199841
1.511574
1.282692
1.567602
1.489520
1.632571
1.450777
1.432896
1.606941
1.588464
1.754761
1.990795
1.963973
2.070665
1.888871
2.344847
2.317429
2.764463
2.935529
3.293753
10.840893
35.050511
123.320818
249.302983
545.960665
878.420472
1015.682817
1015.682817
1015.682817
1015.682817
1015.682817
1015.682817
979.717970
665.771961
337.806940
178.758502
64.525604
31.451583
26.974678
35.456419
52.185655
68.871975
93.854666
112.585425
134.054422
139.721632
140.704513
133.360624
113.404989
96.311569
72.912574
59.480667
43.034554
35.417676
29.534698
26.829839
24.698973
24.528503
23.075938
23.439527
22.908449
22.629499
21.699667
20.932555
20.655990
20.387769
18.497705
18.157959
17.424822
16.606450
16.705990
16.238689
15.735626
15.317798
14.748573
14.439821
13.807416
13.034940
13.604760
12.059808
12.217760
12.194514
11.896491
11.735559
##ZVALUE=305
1.141429
1.174808
1.130700
1.120567
1.278520
1.190901
1.083612
1.015663
1.278520
1.147985
1.383424
1.183748
1.127720
1.240969
1.343489
1.323819
1.486540
1.407862
1.471639
1.452565
1.430511
1.443624
1.524687
1.764894
1.635551
1.705885
1.856685
2.066493
2.044439
2.151728
2.412796
2.416968
2.633929
2.934933
4.580617
23.524761
67.643523
201.321840
378.387570
741.425753
1015.681624
1015.681624
1015.681624
1015.681624
1015.681624
1015.681624
1015.681624
804.512501
508.178473
237.672925
118.719935
44.124722
25.571585
28.132796
35.918951
52.782893
68.566799
92.725754
109.449625
127.222538
134.653449
134.283900
126.750469
107.759833
92.316866
67.806840
54.178834
40.296912
32.644868
26.251674
24.133921
22.738576
21.805763
21.030903
20.647645
19.633770
19.790530
18.925667
18.718839
17.854571
16.854405
16.264915
16.266704
15.361905
14.948845
14.617443
14.282465
13.910532
13.269782
13.000965
12.547970
12.013912
11.998415
11.398792
11.267662
10.817647
##ZVALUE=310
0.990629
1.131892
1.071692
1.092553
1.202822
1.154542
1.243949
1.156926
1.007915
1.272559
1.100898
1.132488
1.212955
1.152754
1.417994
1.109838
1.216531
1.324415
1.255870
1.435876
1.370907
1.301765
1.421571
1.605749
1.711845
1.726747
1.938939
1.904964
1.789927
1.872778
1.915693
2.120733
2.089739
2.446771
2.835989
2.838969
3.328919
11.103749
35.606623
124.638677
254.436731
553.412437
874.621868
1015.681624
1015.681624
1015.681624
1015.681624
1015.681624
1015.681624
1004.894972
712.317824
362.018943
196.115971
72.688460
33.811927
23.164749
26.875734
35.373569
45.683980
64.925551
81.421733
102.152824
115.352869
123.820901
126.775503
117.426515
104.448795
83.495975
67.531466
49.695969
38.790703
28.415918
24.317503
20.513535
18.954873
18.568635
17.637610
16.974807
16.806722
15.996695
15.602708
15.137792
14.500618
14.405847
13.897419
13.868809
13.539791
13.235807
12.766719
12.551546
12.425780
11.379719
11.428595
11.641979
10.902882
10.976791
##ZVALUE=315
0.891685
1.143813
1.118779
1.042485
1.202822
1.266599
1.188517
1.187921
1.157522
1.168847
1.143813
1.093745
1.114607
1.266599
1.133680
1.131892
1.247525
1.134872
1.507998
1.343489
1.309514
1.203418
1.336932
1.405478
1.524687
1.612902
1.622438
1.621842
1.631975
1.757741
1.842976
1.883507
2.023578
1.994967
2.195835
2.502799
2.446771
2.738833
3.084540
5.481839
18.421412
78.487396
182.050467
437.914729
726.926923
1015.737653
1015.737653
1015.737653
1015.737653
1015.737653
1015.737653
1015.737653
914.646983
494.653583
273.231864
104.644895
45.553446
21.595955
20.698905
24.245977
29.680729
42.115450
55.230856
74.171424
90.325475
107.379556
114.804506
116.894841
110.815763
94.945431
79.352856
61.312914
46.806931
32.398701
25.893450
19.994974
17.049909
15.684962
14.906526
14.536977
14.154911
14.015436
13.311505
13.215542
13.151765
13.113618
12.837648
12.219548
11.922717
11.788607
11.815429
11.525750
11.116862
11.035800
10.656714
10.925531
##ZVALUE=320
0.957847
1.067519
0.938773
1.118779
1.056790
1.061559
1.133680
0.948906
1.100898
1.020432
1.138449
0.970960
1.054406
1.038909
1.161695
1.110435
1.127720
1.314878
1.183748
1.157522
1.349449
1.186728
1.111627
1.296997
1.455545
1.394749
1.574755
1.447797
1.530647
1.655817
1.604557
1.726747
1.638532
1.740456
1.763701
1.961589
2.034903
2.100468
2.126694
2.718568
2.777576
3.509521
8.641481
44.718981
115.410686
309.862494
548.025966
968.007445
1015.681624
1015.681624
1015.681624
1015.681624
1015.681624
1015.681624
1015.681624
635.271668
362.276435
154.977441
71.575642
24.368763
15.985966
16.464591
19.023418
25.328994
32.575727
48.731565
62.571764
82.864761
95.282793
105.443597
107.488632
99.895000
90.132952
71.020722
55.404902
39.830804
29.541850
20.945668
17.090440
13.835430
12.744665
12.135506
12.329817
11.641979
11.459589
11.563897
11.414886
11.088848
10.637641
10.214448
10.783672
10.557771
10.193586
10.225773
10.476708
10.114908
##ZVALUE=325
0.998974
0.918508
1.027584
0.853539
0.947714
1.028776
0.935793
0.947714
0.986457
1.098514
0.970960
0.985861
1.106858
1.003742
1.001954
0.881553
1.184940
0.988841
1.087785
0.938773
1.172423
1.166463
1.315475
1.163483
1.179576
1.313686
1.297593
1.283884
1.362562
1.364946
1.246929
1.424551
1.469851
1.533628
1.618862
1.693964
1.624823
1.908541
1.982450
2.184510
2.152920
2.463460
2.672672
3.017783
5.328655
29.086471
78.705549
215.965509
401.375890
787.215829
1015.650630
1015.650630
1015.650630
1015.650630
1015.650630
1015.650630
1015.650630
766.858459
475.007892
214.831829
102.045536
30.270815
14.144778
12.005568
12.527704
15.493631
19.975901
30.334592
41.655898
60.202479
72.932839
87.975860
95.970631
97.546577
92.170835
78.570843
66.055655
48.559904
37.184954
24.615526
18.429756
13.661981
12.105703
11.182427
10.999441
10.406971
10.519624
9.824634
10.221601
10.029674
10.154843
9.516478
9.789467
9.954572
9.858608
9.275675
##ZVALUE=330
0.905991
0.891685
0.941753
0.986457
1.023412
0.917912
0.889897
1.041889
0.986457
0.936985
0.833869
0.919700
0.963807
0.850558
0.975728
1.084805
1.024604
1.119971
1.085997
1.004934
1.176000
0.964999
1.147985
1.121759
1.201630
1.209974
1.225471
1.243949
1.282692
1.235604
1.399517
1.377463
1.397729
1.426935
1.532435
1.574755
1.572967
1.652837
1.830459
1.939535
1.951456
1.942515
2.155900
2.356768
2.513528
2.830625
3.478527
13.310909
42.381883
141.030550
280.259848
591.900945
909.292698
1015.681624
1015.681624
1015.681624
1015.681624
1015.681624
1015.681624
970.378518
634.459853
291.685462
147.443414
49.264431
18.941760
10.261536
9.727478
11.078715
13.201833
19.610524
26.899576
40.901899
53.753853
71.231723
82.730651
90.343952
91.056824
84.425807
75.331926
58.650970
46.601892
32.307506
24.357438
17.692447
13.791919
11.552572
10.451674
10.154843
9.846687
9.393692
9.532571
9.431839
9.244680
9.371638
9.303689
9.197593
##ZVALUE=335
0.962615
0.895858
0.912547
0.911951
0.827909
0.841618
0.852942
0.763535
0.982881
0.905991
0.974536
0.977516
0.696778
1.050830
0.847578
0.990629
0.957847
0.996590
1.017451
1.018643
1.019835
1.031756
0.995994
0.967979
1.131892
1.217723
1.161695
1.156926
1.108646
1.076460
1.162887
1.235604
1.344681
1.334548
1.299977
1.357794
1.508594
1.427531
1.630783
1.506805
1.602769
1.699924
1.882911
1.979470
2.147555
2.297759
2.399683
2.759695
3.041625
6.215572
21.349788
87.249875
189.100504
440.208912
738.441944
1015.681624
1015.681624
1015.681624
1015.681624
1015.681624
1015.681624
1015.681624
788.245797
410.521626
218.337774
77.784657
28.238893
10.778904
9.567738
9.458661
10.680556
13.429523
17.320514
26.811957
36.904812
52.848458
64.847469
77.344775
84.029436
85.032582
80.080628
68.653822
58.098435
43.489933
34.529567
23.887753
18.261671
13.266802
11.393428
10.216832
9.437799
9.332895
8.999705
9.022951
9.276867
8.908510
##ZVALUE=340
0.886917
0.770688
0.896454
0.908971
0.803471
0.844598
0.844598
0.825524
0.710487
0.770688
0.850558
0.864863
0.861883
1.084805
0.931621
0.937581
0.897646
0.950694
0.868440
0.930429
0.896454
0.999570
0.895858
1.009703
1.015663
1.074672
1.022816
1.047850
1.116991
1.070499
1.259446
1.208782
1.151562
1.129508
1.274943
1.222491
1.397729
1.401901
1.348853
1.579523
1.485944
1.644492
1.775622
1.610518
1.713634
1.847744
2.013445
1.944900
2.100468
2.390742
2.616644
3.806949
10.817647
52.852631
134.844780
347.826481
603.223443
1002.751589
1015.681624
1015.681624
1015.681624
1015.681624
1015.681624
1015.681624
959.167480
514.863729
285.696983
113.445520
42.825937
12.755990
9.881854
9.481907
9.678602
10.828972
13.067722
18.040538
24.811625
37.087798
47.707558
63.275695
72.465539
79.638958
79.391003
74.175000
67.427754
54.299831
43.330789
31.909943
24.770498
17.546415
13.377666
10.734797
10.078549
9.212494
8.632541
8.890629
##ZVALUE=345
0.841618
0.826716
0.851750
0.919700
0.814795
1.008511
0.770688
0.748634
0.803471
0.778437
0.888705
0.756979
0.739694
0.879765
0.809431
0.913739
0.894666
0.838637
0.959635
0.908971
0.865459
0.979900
0.981688
0.982881
1.006722
1.010895
1.029968
1.057982
1.130700
1.134872
1.079440
1.150966
1.207590
1.178980
1.266599
1.339912
1.386404
1.393557
1.219511
1.330972
1.396537
1.364946
1.350641
1.379848
1.590848
1.678467
1.596808
1.755953
1.894832
2.018809
2.022982
2.277493
2.526641
2.838969
5.552769
31.428933
87.761879
240.009427
439.409614
835.524797
1015.678644
1015.678644
1015.678644
1015.678644
1015.678644
1015.678644
1015.678644
668.433905
383.755565
158.935785
66.952705
19.259453
10.944605
9.513497
9.515882
9.193420
9.550452
12.441874
15.318990
23.609996
31.794906
45.168996
55.837631
67.057610
71.750879
74.214935
70.965886
63.615441
54.832697
42.333603
32.874942
22.718906
17.657876
12.720823
10.905862
9.024739
##ZVALUE=350
0.896454
0.833869
0.812411
0.731945
0.819564
0.827909
0.839829
0.934601
0.852942
0.735521
0.855923
0.835657
0.936985
0.909567
0.808835
0.993609
0.959635
0.918508
0.954866
0.821948
0.972748
1.013875
0.945926
0.954866
0.933409
1.036525
0.986457
1.008511
1.048446
1.042485
1.074672
1.082420
1.156926
1.221895
1.257658
1.065731
1.115799
1.276731
1.299977
1.283884
0.943542
1.284480
1.445413
1.409650
1.536608
1.425743
1.512766
1.653433
1.610518
1.613498
1.721978
1.827478
1.984835
2.170801
2.584457
2.746582
4.035830
17.619729
51.648617
160.150528
310.073495
645.646453
968.755484
1015.681624
1015.681624
1015.681624
1015.681624
1015.681624
1015.681624
788.743496
479.671955
206.755400
92.418790
24.587512
11.738539
9.036660
8.570552
8.440614
8.440614
9.107590
10.944605
15.420914
19.982457
29.424429
37.827492
49.851537
58.440566
65.232515
67.564845
65.789819
60.467720
49.538612
41.177869
29.685497
22.901893
16.423464
##ZVALUE=355
0.763535
0.865459
0.818968
0.760555
0.879765
0.725985
0.737906
0.597835
0.737906
0.766516
0.874996
0.796914
0.713468
0.941753
0.856519
1.022816
0.919700
0.885725
0.889897
0.853539
1.009703
0.795722
0.967979
0.982881
0.883937
0.907779
1.036525
0.894666
1.119971
1.132488
0.863671
1.223683
1.089573
1.067519
1.132488
1.023412
1.003742
1.267791
1.245737
1.245737
1.225471
1.170635
1.162887
1.229644
1.274943
1.292825
1.363754
1.470447
1.526475
1.590848
1.579523
1.636744
1.730919
1.728535
1.994967
2.028942
2.263784
2.711415
2.721548
8.213520
27.732849
104.471445
216.138959
471.234918
763.534904
1015.640497
1015.640497
1015.640497
1015.640497
1015.640497
1015.640497
949.086547
603.922606
269.256830
128.815770
37.223697
14.163852
8.577704
8.366704
7.922649
7.692575
8.134842
8.444786
10.314584
13.122559
18.950701
25.075674
35.198927
43.499470
52.432418
59.016943
61.380863
61.185956
54.922700
48.366785
38.133860
##ZVALUE=360
0.702739
0.838637
0.773668
0.733733
0.810623
0.800490
0.819564
0.817776
0.867844
0.921488
0.882745
0.958443
0.749826
0.822544
0.757575
0.863671
0.947714
0.896454
0.825524
1.031756
0.826716
0.996590
1.071692
0.963807
1.009703
1.123548
1.081824
1.197457
1.089573
0.977516
0.984669
1.071692
1.072884
1.161695
1.131892
1.084805
1.200438
1.111627
1.039505
1.167655
1.214743
1.089573
1.191497
1.336932
1.246929
1.311898
1.429915
1.408458
1.497865
1.291633
1.634955
1.532435
1.751781
1.790524
1.888871
1.835823
2.201796
2.278686
2.293587
2.783537
2.859831
4.561543
12.825727
55.336952
132.545829
329.445601
580.083728
985.964537
1015.681624
1015.681624
1015.681624
1015.681624
1015.681624
1015.681624
758.122802
371.454954
191.720724
66.079497
24.410486
9.329915
8.081794
7.902980
7.710457
7.372499
7.220507
7.707477
8.910894
11.348724
14.552474
21.440983
27.855635
38.204789
44.561625
51.723719
55.398941
55.381656
##ZVALUE=365
0.908971
0.770688
0.716448
0.779629
0.693798
0.772476
0.957847
0.912547
0.887513
0.768900
0.905991
0.787973
0.837445
0.869632
0.860691
0.990629
0.831485
0.895858
0.839829
0.928640
1.026988
0.966787
0.922680
1.006722
0.786781
0.927448
0.992417
1.013875
1.016855
0.945926
1.029968
1.264811
1.018643
1.131892
1.228452
1.089573
1.138449
1.247525
1.181960
1.221895
1.215935
1.220703
1.310706
1.407862
1.372695
1.414418
1.396537
1.451969
1.263618
1.428723
1.619458
1.679659
1.615882
1.658797
1.735687
1.726747
1.959801
2.025962
2.118945
2.216697
2.420545
2.653599
2.858639
3.304482
6.089807
30.172467
80.150962
219.622850
416.143537
809.491873
1015.694737
1015.694737
1015.694737
1015.694737
1015.694737
1015.694737
911.657810
512.127876
276.316404
98.388791
37.835836
11.117458
8.363724
7.809997
7.413626
7.186532
6.909966
6.589890
6.812811
7.804632
9.307861
13.002753
17.451644
25.011897
31.988621
40.016770
##ZVALUE=370
0.832677
0.752807
0.818968
0.842810
0.759959
0.909567
0.931621
0.784993
0.974536
0.783801
0.865459
0.917912
0.971556
0.964999
0.942945
0.857711
0.813603
0.840425
0.808835
0.822544
0.990629
0.903606
0.840425
1.034737
0.973940
1.025796
1.062751
0.973940
0.930429
1.093745
0.945926
1.145601
0.975728
1.097918
1.029968
0.858903
1.124740
1.206994
1.064539
1.129508
1.276731
1.337528
1.185536
1.204610
1.307726
1.259446
1.174808
1.192689
1.195669
1.320839
1.358986
1.426935
1.334548
1.522899
1.591444
1.624823
1.646876
1.764894
1.900792
2.042651
1.983643
2.296567
2.216697
2.457500
2.527833
2.912879
3.840923
15.146732
49.871802
164.489746
316.044688
628.032684
956.486464
1015.678644
1015.678644
1015.678644
1015.678644
1015.678644
1015.678644
619.294643
350.183845
137.067437
60.476661
18.192530
8.681417
6.926656
6.677508
6.420612
6.221533
6.154776
6.123781
6.167889
6.825924
8.472800
10.788441
15.687943
##ZVALUE=375
0.781417
0.836849
0.770688
0.830889
0.853539
0.857711
0.797510
0.833869
0.936985
0.926852
0.891685
0.747442
0.744462
0.881553
0.869632
0.802875
0.800490
0.922680
0.884533
0.894666
0.858903
0.824928
0.836849
0.826716
0.883937
1.006722
1.084805
0.947714
1.055598
1.101494
0.900626
1.012683
0.912547
0.982881
0.952482
1.134872
0.983477
0.986457
1.072884
1.101494
1.144409
1.201630
1.106858
1.209974
1.265407
1.247525
1.312494
1.393557
1.187921
1.192689
1.123548
1.279712
1.354814
1.399517
1.176596
1.237988
1.551509
1.520514
1.500845
1.624823
1.644492
1.663566
1.763701
1.766682
1.929998
2.090931
2.287626
2.567768
3.022552
8.205771
26.334524
98.135471
217.467546
503.218770
807.528496
1015.684605
1015.684605
1015.684605
1015.684605
1015.684605
1015.684605
774.625540
493.284464
241.302848
117.701888
34.758449
12.383461
6.546974
6.205440
5.999804
5.898476
5.569458
5.263686
5.328655
5.489588
5.766749
##ZVALUE=380
0.887513
1.005530
0.857711
0.869632
0.935793
0.845790
0.823736
0.835657
0.928640
0.947714
0.844598
0.955462
1.039505
1.078844
0.941753
0.979900
0.990629
1.014471
1.015663
1.016855
0.955462
0.884533
0.869632
1.004934
1.047850
0.935793
1.040697
0.986457
1.106858
1.131892
0.982881
1.010895
1.078844
1.039505
1.105666
1.013875
1.116991
0.977516
1.027584
1.174808
1.159906
1.084805
1.152754
1.174808
1.346469
1.113415
1.063943
1.200438
1.270771
1.281500
1.183748
1.269579
1.368523
1.328588
1.418591
1.386404
1.427531
1.481771
1.480579
1.465678
1.645684
1.706481
1.761913
1.621842
1.873970
1.904964
2.013445
2.133846
2.422929
2.692938
3.025532
4.817843
15.030503
69.174767
161.883831
392.054915
658.657551
1015.818715
1015.818715
1015.818715
1015.818715
1015.818715
1015.818715
975.801945
672.420859
335.437655
172.498822
56.936741
21.267533
7.611513
5.984902
5.765557
5.515814
5.454421
5.372763
5.123615
##ZVALUE=385
0.741482
0.632405
0.678897
0.716448
0.807643
0.803471
0.694990
0.691414
0.682473
0.777841
0.812411
0.700951
0.750422
0.799894
0.784993
0.721812
0.805855
0.727773
0.811815
0.768900
0.761747
0.818968
0.823736
0.878572
0.709891
0.941753
0.777841
0.742674
0.691414
0.808835
0.926852
0.773668
0.781417
0.928640
1.026988
0.936985
0.951886
0.882745
0.837445
0.931621
0.851750
0.925660
0.945926
0.880957
0.943542
0.967979
1.002550
1.144409
0.994802
1.010895
0.937581
1.047850
1.088977
0.938773
1.132488
1.244545
1.149774
1.060963
1.114607
1.229644
1.241565
1.119971
1.288652
1.356602
1.509786
1.640916
1.604557
1.736879
1.863837
2.206564
2.346635
2.544522
2.509952
3.475547
8.282661
41.740537
105.811954
275.177360
497.652888
917.821527
1015.681624
1015.681624
1015.681624
1015.681624
1015.681624
1015.681624
873.518586
506.649017
281.133652
100.668669
38.115978
9.486675
6.069541
5.424619
5.280972
4.914999
##ZVALUE=390
0.688434
0.726581
0.764728
0.763535
0.750422
0.705719
0.774860
0.686646
0.602603
0.623465
0.769496
0.737906
0.635982
0.785589
0.738502
0.865459
0.824928
0.772476
0.795722
0.824928
0.693798
0.734925
0.759959
0.804663
0.716448
1.009703
0.712872
0.909567
0.857711
0.768900
0.831485
0.823736
0.931621
0.906587
0.930429
0.752807
0.914931
0.782609
0.899434
0.712872
0.922680
0.942945
0.815988
0.813603
0.789762
1.026988
0.866652
0.976920
1.009703
0.941753
0.991821
0.957847
0.828505
0.982881
0.985861
1.114607
1.114607
1.098514
1.134872
1.164675
1.385808
1.327991
1.279712
1.207590
1.359582
1.405478
1.573563
1.596808
1.826882
2.051592
2.214909
2.156496
2.445579
2.485514
2.477765
2.809763
4.741549
17.581582
77.794790
181.872845
433.077812
702.315569
1015.681624
1015.681624
1015.681624
1015.681624
1015.681624
1015.681624
989.958048
700.396895
356.450677
181.302428
60.442686
20.901561
6.586909
5.280972
##ZVALUE=395
0.756979
0.709891
0.679493
0.742674
0.648499
0.801682
0.607967
0.650883
0.797510
0.856519
0.876784
0.798702
0.855923
0.722408
0.590682
0.792742
0.793934
0.736713
0.615716
0.761747
0.749826
0.758767
0.871420
0.731945
0.906587
0.660419
0.817776
0.737906
0.743866
0.807643
1.021624
0.808835
0.938773
0.657439
0.766516
0.731945
0.785589
0.798702
0.894666
0.846982
0.950694
0.881553
0.993609
0.998974
0.921488
0.857711
0.923872
1.016855
0.939965
1.073480
1.078844
0.945926
0.869632
0.922680
1.038909
1.077652
1.038909
1.071692
1.112819
1.174808
1.077652
1.188517
1.243949
1.250505
1.193881
1.298785
1.448989
1.421571
1.671910
1.815557
1.989603
1.918674
2.172589
2.034903
2.150536
2.024770
2.230406
2.360940
2.825856
11.510849
41.404963
147.360563
284.558535
565.106869
868.945718
1015.681624
1015.681624
1015.681624
1015.681624
1015.681624
1015.681624
830.194950
523.077846
227.654576
105.979443
31.914711
##ZVALUE=400
0.695586
0.581741
0.742674
0.645518
0.588894
0.763535
0.846982
0.750422
0.595450
0.727773
0.732541
0.713468
0.710487
0.712872
0.772476
0.612736
0.658631
0.734925
0.672936
0.759959
0.826716
0.725985
0.693798
0.772476
0.910759
0.754595
0.626445
0.774860
0.748634
0.843406
0.785589
0.730753
0.785589
0.740886
0.723600
0.768900
0.829697
0.827909
0.804663
0.894666
0.818968
0.819564
0.818968
0.679493
0.875592
0.722408
0.840425
0.926852
0.948906
0.857711
0.887513
0.869632
0.930429
0.967979
1.030564
1.033545
1.053810
1.197457
1.072884
1.024604
0.982881
1.012683
1.160502
1.137853
1.219511
1.439452
1.286864
1.589656
1.595616
1.851916
1.822710
1.902580
1.941919
1.957417
1.879930
1.989603
1.909733
2.217889
2.310872
2.468824
2.672672
6.599426
22.078753
83.144903
184.634924
429.121852
704.509616
1015.679836
1015.679836
1015.679836
1015.679836
1015.679836
1015.679836
970.273018
653.366446
329.476595
##END
