##TITLE=QP00651
##FORMAT=SPECTACLE-ASCII V-1.2
##DATA TYPE=ULTRAVIOLET SPECTRUM
##SECOND TYPE=ULTRAVIOLET SPECTRUM
##DATE=10/03/17
##TIME=13:00:57
##SPECTROMETER/DATA SYSTEM=SPECTACLE
##XUNITS=NM EM
##YUNITS=ENERGY
##YFACTOR=1
##FIRSTX=220
##LASTX=410
##NPOINTS=96
##3DDATA=Equidistant
##ZUNITS=NM EX
##FIRSTZ=210
##LASTZ=400
##ZPOINTS=39
##XYDATA=(Y..Y)
##ZVALUE=210
2.434850
2.588630
2.661943
2.958775
2.673864
2.663732
3.303885
2.692938
3.134608
3.509521
3.223419
2.732873
2.829432
3.061891
3.506541
3.574491
3.580451
3.582835
3.540516
4.505515
3.663898
3.922582
4.402995
4.150867
4.694462
4.620552
4.436970
4.387498
4.985929
5.432963
4.782677
5.452633
5.465746
5.911589
5.084872
5.369782
5.071759
5.440712
6.678700
5.984902
6.175637
6.543994
6.039739
5.903840
5.521774
6.286502
6.700754
5.882978
5.895495
6.815791
6.008744
5.700588
5.928874
6.051660
5.890727
5.950928
6.749630
6.393790
6.942749
7.609725
6.635785
7.180572
6.230474
6.691813
6.266832
6.825924
7.661581
7.835627
8.348823
9.792447
12.137890
12.787580
14.804602
15.882850
16.630888
18.219948
16.545653
15.705824
16.599894
15.551448
15.184879
12.175441
10.741949
9.910464
8.650422
8.853674
6.562471
6.654859
5.834699
5.464554
6.638765
5.875826
7.070899
5.673766
6.567836
6.408691
##ZVALUE=215
6.529689
6.093979
6.033778
5.091429
4.703999
4.151464
4.494786
4.887581
4.709959
5.089641
4.844666
4.742742
4.053712
3.500581
3.739595
3.966689
3.844500
3.626943
4.125834
3.562570
3.920794
4.554987
4.552603
4.647970
4.281998
5.046725
4.978776
5.267859
4.727840
5.484819
4.893541
4.906654
5.142689
6.304979
5.695820
5.749464
6.273985
6.091595
6.411672
5.586743
6.424785
6.641746
5.658865
5.542636
6.609559
6.508827
5.363822
6.449819
6.471872
6.871819
6.220937
6.302595
6.887913
7.040501
6.419420
6.518960
6.841421
6.902814
7.113814
6.813407
7.051826
6.540418
6.878972
6.925464
8.044839
7.094741
7.457733
8.905530
7.771850
9.175539
10.546446
11.755824
12.493730
14.708638
15.127659
14.602542
16.475916
15.768409
15.746951
14.515519
13.378859
12.767911
11.662841
10.400414
8.002520
7.747412
6.937981
6.987453
5.877614
6.364584
5.676746
6.680489
6.425977
5.867481
6.329417
6.250739
##ZVALUE=220
18.475652
18.349886
18.620491
19.850731
21.492839
18.444657
14.238954
11.512637
10.091662
10.522604
10.949969
11.493564
10.714531
10.890961
9.267926
7.392764
6.321669
4.723668
4.556775
4.012585
4.580617
4.747510
5.069971
4.191995
4.951954
5.170703
5.447865
5.074739
5.509853
5.078912
5.263686
5.510449
5.799532
5.953908
5.455613
5.146861
5.664825
5.711913
6.200671
6.284714
6.798506
6.784797
7.114410
6.884933
6.505847
6.561875
6.576777
6.316900
7.489920
5.958676
6.924868
6.785989
6.550550
8.231997
7.292628
7.712841
6.972551
7.764697
7.106662
7.399917
8.076429
8.448958
7.541776
7.946491
8.000731
8.536577
7.832646
8.943677
8.016825
10.615587
11.888742
12.636781
13.464689
14.759898
17.603636
17.269850
17.494559
14.637709
14.738441
15.344620
14.225841
13.692975
12.454987
11.574626
9.525418
8.955598
8.245707
6.885529
8.171797
7.599592
7.233620
7.037520
6.927848
7.074475
6.748438
6.667972
##ZVALUE=225
29.236674
31.640530
44.461489
60.249567
67.342520
66.770911
65.397620
52.601695
43.406487
33.140779
22.810698
23.818612
22.843480
24.891496
23.202896
22.618771
19.445419
16.492605
12.238622
9.070635
7.055998
5.786419
5.479455
5.901456
5.373955
5.726814
5.742908
5.537868
5.954504
6.742477
6.285906
6.567836
6.247759
6.404519
6.321669
6.808639
6.776452
6.474853
7.536411
6.774664
6.348491
7.697940
6.985664
7.062554
7.012486
7.499456
7.847548
7.130504
6.624460
7.407665
8.000731
7.451773
8.436441
7.842779
7.775426
8.263588
7.277727
8.757710
8.672476
8.557439
9.247661
8.828640
9.554625
8.717775
8.606911
9.714961
9.745955
9.923577
10.443926
11.903644
12.021661
14.856458
15.518665
17.008781
17.853975
16.748905
18.105507
16.464591
16.416907
15.147924
13.398528
15.022755
12.723804
12.324452
12.157559
11.257529
11.848807
10.171533
9.435415
9.098649
9.075999
9.207726
8.629560
8.545518
9.015799
8.989573
##ZVALUE=230
28.637648
32.336712
50.506592
86.278915
120.531917
160.349607
175.919533
186.312795
172.535777
145.348907
104.192495
78.518987
51.792860
43.045878
43.450594
46.675801
47.747493
46.314597
43.856502
35.529733
28.873682
17.268658
12.794733
9.436607
6.612539
6.300807
6.566644
6.484985
6.806850
6.884933
7.357597
7.101893
6.682873
6.869435
7.675886
7.959604
6.513000
7.145405
7.952452
7.438660
8.437634
8.050799
8.172989
8.506775
7.957816
8.560419
8.212924
7.591844
9.016991
8.203983
8.037686
8.641481
9.156466
8.193851
9.025931
10.102987
10.522604
10.022521
10.322928
10.151863
10.881424
10.930896
10.382533
11.292696
11.999607
11.741519
12.523532
12.985468
14.626980
14.948845
16.438961
18.102527
18.020868
22.465587
20.127892
20.465851
20.336509
21.802783
18.293858
20.908713
19.044876
17.577410
16.867518
15.771985
15.335679
14.764667
13.384819
12.755990
13.583899
13.581514
14.388561
12.778640
13.213754
12.307763
11.919737
12.309551
##ZVALUE=235
10.676980
12.144446
29.730797
54.990649
109.109879
160.428882
248.894691
313.403606
366.908908
374.040008
339.929461
288.859606
215.659738
136.170983
103.530884
76.437593
66.852570
77.536702
78.491569
78.039765
73.545575
65.316558
51.822662
39.782524
23.511648
17.066598
12.337565
8.980632
7.457733
8.017421
7.276535
7.234812
7.125735
7.711649
7.630587
8.245707
8.202791
8.258820
7.898808
8.163452
7.996559
8.561611
7.890463
9.191632
8.012652
9.314418
8.674860
9.385943
9.429455
9.782910
8.925796
9.479523
11.442900
10.991693
10.485649
11.092424
12.428761
11.844635
11.068583
12.246966
13.007522
12.375712
14.203787
13.339520
13.871789
14.082789
15.658736
14.114976
17.346740
18.183589
21.160841
20.941496
22.765994
24.827719
24.524927
26.728511
27.152896
25.349855
24.721622
24.206638
23.892522
22.372603
23.376942
19.786954
19.140840
20.510554
19.474626
18.562675
17.582774
19.528866
19.053817
17.685890
16.509891
16.107559
17.963648
17.241836
##ZVALUE=240
2.758503
3.229976
5.716681
17.328858
35.941601
84.364414
155.630708
275.443792
379.858017
479.441881
580.737591
604.987741
550.729632
478.751659
356.675982
256.247520
155.727863
117.544532
95.426440
99.344850
104.756951
116.203427
108.806491
97.663999
78.709722
60.463548
44.721961
30.692816
20.315647
12.985468
10.573864
9.988546
9.320974
9.114742
8.578897
8.548498
8.572936
9.097457
9.531975
8.321404
9.092689
8.450747
8.823872
9.042621
9.687543
9.745955
9.222627
9.848475
9.287596
9.943843
9.864569
10.579824
9.971857
10.732412
10.685921
11.954904
13.272762
12.066960
13.465881
13.006926
13.047457
14.487505
14.910698
14.364719
15.809536
16.190410
16.359687
18.552542
17.435551
19.296408
21.050572
23.137927
24.861693
25.989413
28.165579
28.153658
27.800798
28.017759
26.447773
27.481914
26.444793
25.458932
27.203560
26.975870
25.749803
24.333000
25.349855
22.084713
21.489859
22.399426
23.332834
21.257997
19.104481
22.560954
21.542907
20.663738
##ZVALUE=245
2.345443
1.949668
1.972914
2.802610
3.576875
12.644529
30.950904
87.652802
160.247684
288.554430
417.959690
600.674748
700.432658
757.077932
738.455653
628.359914
516.282916
353.968740
244.353414
147.645473
109.688640
101.425648
108.545423
124.525428
128.186941
121.736526
106.839538
88.845491
69.679618
51.362514
31.636953
22.453666
15.619993
9.996891
8.975863
8.749962
8.503795
8.725524
7.733703
9.498596
9.242892
8.062720
8.458495
9.011626
7.736683
9.047985
8.982420
8.490682
9.252429
8.220673
8.194447
9.299517
9.454489
9.138584
9.699464
10.661483
10.365844
10.960698
12.257695
12.041926
13.332963
12.409687
12.569427
13.242960
13.513565
14.354587
16.167760
15.928745
15.865564
17.896891
18.795729
21.172762
23.995638
23.978949
24.290681
25.673509
25.070906
25.120974
26.505589
24.336576
25.928617
25.233626
23.766756
25.312901
24.043918
23.879409
24.328828
23.328662
21.158457
20.878911
22.577643
21.449924
21.443963
20.984411
21.198988
21.303892
##ZVALUE=250
2.139807
2.379417
2.312660
2.277493
2.383590
2.697706
3.077984
7.392764
28.733611
65.476894
162.725449
272.883773
409.841537
611.962676
755.807757
879.549980
886.558890
814.571977
707.737803
501.895547
341.948867
223.687887
129.933953
98.504424
102.684498
119.691491
132.674575
136.365891
130.988955
116.489530
103.296638
74.956417
57.171583
35.461783
22.612810
13.816953
10.688901
8.457899
7.985830
7.883906
8.499622
7.009506
7.883906
7.435679
7.654428
8.047819
7.547736
7.701516
8.360744
8.683801
8.444786
8.904934
8.600950
9.109974
9.271502
9.327531
9.823442
10.366440
11.126995
9.960532
10.434985
11.330843
11.582971
11.949539
12.280941
12.933612
12.791753
14.265776
15.037656
16.305447
17.820597
18.515587
21.198988
20.832419
21.752715
21.050572
22.427440
23.201704
22.595525
22.310615
20.752549
23.395419
22.423863
22.432804
22.373796
21.588802
20.045638
21.362901
19.900799
21.659732
20.285845
21.021962
20.132661
19.936562
20.663738
21.494627
##ZVALUE=255
1.902580
2.000928
1.698732
1.845956
1.917481
1.985431
2.208948
2.382994
2.761483
4.410744
21.600723
52.541494
107.718706
238.792896
382.136703
606.348515
776.108503
949.998498
1011.904478
988.361835
874.709487
706.900954
447.560549
288.251638
153.668523
107.690692
91.335773
100.810528
123.971701
135.003924
141.555667
136.275887
124.038458
100.590587
78.291893
53.032637
35.150647
21.494627
14.229417
9.003878
7.482767
7.277727
7.307529
7.158518
7.615685
7.077456
7.861853
7.717609
7.397532
7.477999
8.569956
8.178949
8.495450
8.047819
8.269548
8.743405
7.777810
9.025931
8.838773
9.032488
9.825826
9.552836
10.286570
10.049939
11.005998
10.545850
11.044741
13.064742
13.485551
14.188886
15.264750
15.769601
16.744733
18.123984
19.375682
20.030737
19.941926
21.183491
19.181967
20.404458
20.089746
18.670559
19.770861
19.149780
19.646883
18.797517
18.487573
19.559860
19.487739
19.812584
20.014644
18.105507
19.083619
19.097924
19.581914
20.151734
##ZVALUE=260
1.816750
1.729727
1.731515
1.878738
1.787543
1.919866
1.844764
1.859665
2.095699
2.112985
2.353787
3.281832
8.359551
33.972859
77.620745
157.152414
331.043601
503.700972
780.451894
970.443487
1015.681624
1015.681624
1015.681624
879.067779
675.852895
404.095650
253.922939
134.369731
92.165470
86.255670
100.760460
126.842856
138.724446
145.178437
147.126913
126.149654
112.606883
78.417659
58.599710
34.078956
23.766756
13.630986
8.114576
7.868409
6.566644
6.654859
6.734729
6.596446
7.120967
7.158518
6.605983
6.949902
7.522702
7.404685
8.039474
7.503629
8.190870
8.626580
7.827878
8.335710
8.476973
8.912683
8.352995
8.920431
9.821653
9.763837
10.748506
11.517406
11.824965
12.263656
12.925863
13.689995
15.411973
15.024543
16.348958
16.207695
16.704798
17.605424
17.350912
17.070770
16.774535
15.968680
17.273426
17.170906
16.839504
17.793775
17.630458
17.360449
17.618537
17.675757
17.774701
17.913580
18.347502
17.493963
17.579794
17.815828
##ZVALUE=265
1.533628
1.546741
1.543760
1.602769
1.693964
1.845956
1.583695
1.644492
1.924634
1.906753
2.111793
1.975894
2.136827
2.289414
5.110502
22.546649
53.869486
143.827796
259.868503
506.165624
747.501850
978.225470
1015.681624
1015.681624
1015.681624
1015.681624
861.362815
629.341602
354.797840
209.171772
117.375851
75.649619
82.327724
108.778477
128.356814
147.480965
152.293444
142.764449
128.848553
105.782747
82.144737
53.807497
37.222505
21.401644
14.059544
8.729696
7.450581
6.757975
6.629825
7.016659
7.031560
7.231832
7.429719
7.010698
7.022619
7.189512
7.050633
7.650852
8.165836
8.194447
7.492900
8.266568
8.317828
8.545518
9.058714
9.592772
9.396672
10.421872
10.553598
11.053681
11.452436
12.865663
13.515949
14.164448
15.015602
14.448762
14.613867
15.123487
15.419722
14.890432
15.132427
15.582442
15.664697
15.743971
15.423894
15.764832
15.988946
15.172958
15.977621
16.601682
16.777515
15.917420
15.547872
15.434623
16.285777
16.767979
##ZVALUE=270
1.426935
1.428723
1.479983
1.494884
1.631975
1.412630
1.348853
1.611710
1.669526
1.767874
1.878738
1.745820
1.930594
1.879930
1.967549
2.278686
2.944469
11.110902
32.710433
102.650523
209.844708
373.504758
693.554878
959.314704
1015.682817
1015.682817
1015.682817
1015.682817
1005.343795
775.591731
533.369780
279.742479
158.879757
74.650645
64.536929
83.399415
106.681585
133.485794
144.182444
151.789784
146.485567
128.997564
108.206868
77.456832
55.376887
34.401417
22.967458
13.569593
10.015965
7.364750
7.104874
6.217957
7.351637
6.603599
6.771684
7.682443
7.575750
7.130504
7.913709
7.888675
8.089542
8.290410
8.634925
8.510947
8.560419
8.753538
9.042621
9.175539
9.357929
10.286570
10.957718
12.269616
13.241768
12.757778
13.818741
13.377666
13.313890
13.825893
13.757944
13.780594
13.704896
14.116764
14.012456
14.114976
13.485551
13.642907
13.588667
14.419556
14.085770
14.143586
14.018416
14.345646
13.965964
14.768839
15.335679
14.900565
##ZVALUE=275
1.489520
1.493692
1.365542
1.417994
1.126528
1.352429
1.420975
1.539588
1.447797
1.586676
1.671910
1.764894
1.489520
1.824498
1.902580
2.032518
2.295971
2.081990
2.500415
5.863905
19.869804
55.468678
162.975788
312.243700
602.178574
853.945613
1015.772820
1015.772820
1015.772820
1015.772820
1015.772820
965.362787
695.304871
373.339653
210.283995
92.464685
57.659745
59.429407
77.528954
106.145740
124.699473
145.252943
150.001645
142.244697
129.447579
102.020502
82.330704
56.469440
40.386915
22.977591
15.478730
9.921789
8.277893
6.878972
7.425547
7.207990
7.418990
7.637739
8.006692
8.056760
8.764863
8.423924
8.717775
8.226633
8.829832
8.845925
9.069443
9.112954
10.018945
10.235906
10.754466
11.376739
12.089610
12.954473
12.738705
13.703704
13.395548
13.122559
13.414621
13.289452
13.216734
13.123751
12.734532
12.703538
13.353825
12.637973
12.931824
12.711883
13.022423
13.128519
13.020635
12.677908
13.163686
12.603998
12.959838
13.653636
##ZVALUE=280
1.232624
1.186728
1.349449
1.307726
1.270771
1.300573
1.181960
1.264811
1.451969
1.482964
1.386404
1.519918
1.429915
1.430511
1.493692
1.644492
1.549721
1.820922
2.024770
2.188683
2.311468
2.903938
13.486743
43.105483
132.396817
245.700479
480.633974
726.248622
1015.681028
1015.681028
1015.681028
1015.681028
1015.681028
1015.681028
821.458697
471.712947
280.117989
123.399496
63.276887
44.677854
54.996610
80.180764
102.552772
129.052997
141.161680
147.589445
141.912699
124.321580
106.723905
78.356862
58.017969
36.456585
24.846792
15.069842
10.515451
8.074641
7.585883
7.594824
8.062720
7.909536
8.028746
8.089542
8.488894
8.417964
8.791685
9.231567
9.412766
9.581447
9.392500
10.047555
10.436773
10.750890
11.399984
12.255907
11.614561
12.395978
12.637973
12.135506
11.684895
11.905432
12.264848
12.587905
12.564659
11.958480
11.853576
12.192726
11.976957
12.339950
11.910796
11.922717
12.263656
12.128949
12.036562
11.773705
12.628436
12.327433
##ZVALUE=285
1.117587
1.096725
1.119971
1.214743
1.173615
1.072884
1.152754
1.457930
1.297593
1.225471
1.063943
1.266599
1.314878
1.269579
1.318455
1.529455
1.511574
1.541972
1.621842
1.653433
1.916885
1.972914
2.284646
2.497435
6.926656
22.671819
77.315569
158.521533
346.678495
563.811660
1015.681624
1015.681624
1015.681624
1015.681624
1015.681624
1015.681624
970.895886
690.011978
362.570882
200.617909
99.756718
42.032599
36.584735
52.730441
73.080659
100.629926
119.054914
139.145851
143.036842
139.423609
127.602816
109.566450
82.083941
61.660409
39.332509
25.835633
15.876889
11.395812
8.917451
8.504987
8.230805
8.088946
8.287430
8.626580
8.815527
8.679628
9.215474
9.509921
9.872913
9.527802
10.599494
10.937452
11.563897
11.476874
11.649728
12.359619
12.260675
12.131929
11.857748
12.331605
11.837482
11.723638
12.478828
11.971593
11.530519
11.809468
11.353493
11.354685
11.297464
11.234879
11.543632
11.478662
10.977983
11.028647
11.793971
11.316538
##ZVALUE=290
1.189709
1.154542
1.000762
1.026988
0.926852
1.037717
1.113415
1.112819
1.041889
1.269579
1.243949
1.342893
1.180768
1.269579
1.336932
1.339912
1.294613
1.344681
1.505613
1.650453
1.880527
1.761913
1.834631
2.007484
2.205968
2.204776
3.042817
12.852550
40.074587
98.555684
242.087841
419.100523
744.209886
1006.928682
1015.681624
1015.681624
1015.681624
1015.681624
1015.681624
862.079859
575.734973
281.163454
144.499540
51.729679
30.143857
36.190748
47.985911
71.716905
91.312528
111.149549
131.115913
138.494968
135.462880
125.671625
102.078915
83.169937
58.013797
39.696693
24.718642
17.840862
12.254715
9.919405
9.340644
8.767843
8.918643
9.054542
9.336472
8.991957
9.473562
10.477901
10.539889
11.276603
11.195540
11.654496
11.905432
11.534691
12.136698
12.116432
11.622906
11.098981
11.685491
11.323690
11.120439
11.111498
11.405945
11.288524
11.102557
11.243820
11.516809
11.549592
11.461973
11.279583
11.166930
11.048913
11.093616
11.222959
##ZVALUE=295
1.128912
0.987649
0.887513
1.051426
1.049638
1.104474
1.075864
1.090765
1.304746
1.251698
1.260638
1.285672
1.042485
1.315475
1.163483
1.128912
1.242757
1.093745
1.159906
1.512766
1.446605
1.716614
1.653433
1.775622
1.828671
2.155900
2.015829
2.428889
2.581477
4.448891
14.417768
61.919689
147.174001
356.191397
588.112473
969.654918
1015.681624
1015.681624
1015.681624
1015.681624
1015.681624
982.098579
707.314014
378.136635
203.778744
74.965954
34.348965
23.220778
29.241443
48.165917
64.376593
89.870691
107.872486
127.113461
133.946538
130.442977
120.446682
100.329518
80.362558
55.930614
40.665865
25.497675
18.118620
12.900829
10.135770
9.519458
9.418726
9.451509
9.644628
9.912848
10.334849
10.940433
10.980964
11.487603
11.581779
11.164546
12.233853
11.784434
11.273623
11.572838
11.431575
11.095405
11.632442
11.200905
11.491776
11.311769
11.238456
10.963678
11.123419
10.670424
10.943413
10.680556
10.587573
10.668635
10.498762
11.004806
##ZVALUE=300
0.952482
1.057982
0.905991
1.030564
0.812411
1.006722
0.979900
1.082420
1.199841
1.064539
1.101494
0.883937
1.071692
1.119971
1.213551
1.243949
1.354814
1.266599
1.376867
1.327991
1.261830
1.372695
1.385808
1.475811
1.560450
1.597404
1.783967
1.899600
1.818538
2.171993
2.449751
3.001690
6.738901
37.117600
94.117522
248.965621
439.562798
798.440576
1015.681624
1015.681624
1015.681624
1015.681624
1015.681624
1015.681624
873.782039
502.232909
299.076438
130.730867
60.624480
21.750927
19.294620
28.627515
40.993690
61.692595
79.800487
105.414987
120.775700
128.897429
126.264691
116.275549
100.858808
77.280998
59.992671
40.604472
28.730631
18.249750
13.493896
11.413693
10.507703
9.937882
10.495782
10.790825
11.000633
11.404753
11.364818
11.809468
11.683702
11.777878
11.609793
11.116862
11.637807
11.262894
11.057854
11.772513
11.287928
11.362433
11.149645
11.146665
11.146665
10.664463
10.715723
10.601878
10.142922
10.080934
10.558963
10.442734
##ZVALUE=305
0.812411
0.798702
0.910759
0.830889
0.973940
1.073480
0.982881
0.948906
1.023412
0.937581
1.091957
1.111627
0.954866
1.001954
1.098514
1.108646
1.180768
1.128912
1.163483
1.264811
1.107454
1.122952
1.217723
1.367927
1.290441
1.364946
1.363754
1.563430
1.624823
1.978874
2.039671
2.176762
2.363920
2.684593
4.098415
22.488832
63.679814
182.930827
337.139964
641.327500
929.296613
1015.673876
1015.673876
1015.673876
1015.673876
1015.673876
997.185707
652.810931
408.545732
186.944008
90.209842
30.030608
16.064644
18.717647
26.199818
41.951537
57.557821
80.451965
99.004507
114.242435
122.633576
120.851994
111.396909
94.223619
77.534914
54.356456
40.843487
26.573539
19.200444
13.481975
11.769533
10.935664
11.314750
11.146665
10.915995
11.253953
11.528730
11.515617
10.615587
10.878444
10.965466
11.341572
11.193752
11.462569
10.956526
11.297464
11.145473
11.228919
10.704994
10.595918
10.565519
10.355711
10.967851
10.236502
10.465980
10.161996
##ZVALUE=310
0.806451
0.806451
0.760555
0.912547
0.797510
0.843406
0.938773
0.936985
1.010895
0.904799
1.033545
1.022816
1.050830
0.908971
0.903606
1.116991
1.188517
1.048446
0.909567
1.020432
1.129508
1.330972
1.170635
1.143813
1.293421
1.338720
1.453757
1.418591
1.406670
1.717806
1.657605
1.660585
1.805425
1.955628
2.073646
2.209544
2.573729
10.583997
34.139752
112.894773
226.163864
474.950671
734.243989
1015.681624
1015.681624
1015.681624
1015.681624
1015.681624
1015.681624
840.983987
566.893816
282.807946
148.728490
52.234530
21.259785
13.797879
15.970469
24.742484
35.276413
53.154826
69.045424
92.154741
105.877519
114.441514
115.501881
106.804967
95.290542
73.421597
57.944655
40.262938
28.292537
19.412637
15.182495
12.219548
11.632442
10.799766
11.174679
10.835528
10.930896
10.752678
11.230707
10.890961
10.895729
11.016726
10.781884
11.377931
11.306405
11.038780
10.674596
10.618567
10.834932
10.687709
10.145903
10.510683
10.563731
10.836720
##ZVALUE=315
0.831485
0.800490
0.873804
1.026988
0.808835
0.887513
0.801682
0.904799
0.820756
0.650883
0.815988
0.937581
0.873804
0.928640
0.990629
0.918508
0.952482
0.997782
1.010895
0.976920
0.993609
1.136661
0.892878
1.096725
1.142621
1.204610
1.307726
1.330972
1.486540
1.319647
1.294613
1.614690
1.550913
1.676679
1.727939
1.953840
2.012849
2.323985
2.360940
4.905462
16.961694
70.238709
163.255930
383.229852
619.791746
989.526510
1015.682817
1015.682817
1015.682817
1015.682817
1015.682817
981.860757
714.203715
388.124585
211.812854
78.341961
31.320453
12.438893
11.459589
15.691519
21.707416
34.630895
47.272444
66.236854
82.534552
101.176500
109.249949
110.240579
103.494525
87.942481
73.477626
53.808689
40.939450
27.045608
19.900799
14.408827
11.888742
10.767579
10.703802
10.452867
10.576844
11.073947
10.707974
10.778904
10.890961
11.184812
11.139512
11.040568
10.850430
10.686517
10.938644
10.748506
10.888577
10.092854
10.326505
10.334849
##ZVALUE=320
0.853539
0.827909
0.999570
0.712872
0.783801
0.765920
0.638962
0.763535
0.755787
0.689626
0.806451
0.889897
0.784993
0.830889
0.981688
0.773668
0.831485
0.897646
0.925660
1.086593
1.048446
0.950694
1.099706
1.007915
1.125932
1.176596
1.107454
1.148582
1.121759
1.129508
1.213551
1.343489
1.260638
1.328588
1.590848
1.491904
1.655817
2.016425
1.860857
2.126694
2.254844
2.798438
7.769465
39.603710
101.249814
270.968676
460.526943
795.997977
1015.681624
1015.681624
1015.681624
1015.681624
1015.681624
1015.681624
853.473544
477.701426
275.228620
114.524961
49.722791
15.949607
10.801554
11.227727
13.584495
20.380616
28.522611
44.709444
59.091449
78.273416
91.803670
102.966428
105.529428
98.150969
88.111758
69.320798
54.253936
37.091970
27.545691
18.748641
14.818907
12.137890
10.953546
10.731816
10.689497
11.122823
10.527968
10.470748
10.515451
10.552406
10.827780
10.818839
10.939837
10.744929
10.670424
10.583997
10.160804
10.492802
##ZVALUE=325
0.842810
0.794530
0.670552
0.773668
0.512600
0.763535
0.707507
0.687838
0.735521
0.791550
0.891685
0.868440
0.755787
0.918508
0.826716
0.881553
0.972748
0.814795
0.850558
0.877976
0.892878
0.887513
0.951886
0.952482
1.034737
0.912547
1.072884
1.163483
1.174808
1.106858
1.154542
1.185536
1.176596
1.373887
1.571774
1.416802
1.344681
1.564622
1.548529
1.800656
1.979470
1.984835
2.239943
2.342463
4.211664
25.217533
66.987872
180.409551
332.637429
646.817684
935.151577
1015.681624
1015.681624
1015.681624
1015.681624
1015.681624
969.457030
603.670478
367.589593
159.426928
75.033903
22.718906
11.008978
9.382963
10.356903
14.137626
18.675923
29.293895
41.078925
59.762001
74.175000
87.837577
96.362829
98.316669
92.407465
78.822970
65.408945
48.920512
36.513805
24.870634
18.189549
13.935566
12.047887
11.401772
10.691881
10.701418
10.532737
10.856986
10.485649
10.418892
10.260940
10.137558
9.792447
10.186434
9.976625
9.900928
##ZVALUE=330
0.779629
0.652671
0.669956
0.728965
0.721812
0.833869
0.801682
0.657439
0.688434
0.776649
0.849962
0.909567
0.818968
0.835657
0.653863
0.873804
0.677705
0.765920
0.974536
0.669956
0.846982
1.042485
0.730753
0.904799
0.979900
0.874996
0.918508
0.979900
0.853539
1.007915
1.126528
0.994802
1.120567
1.099706
1.129508
1.248717
1.189709
1.356602
1.411438
1.409650
1.721978
1.621842
1.753569
2.146959
2.076626
2.401471
3.008842
11.268854
36.055446
119.367838
233.438611
494.461656
753.972530
1015.684009
1015.684009
1015.684009
1015.684009
1015.684009
1015.684009
732.687712
472.786427
221.374631
112.501979
38.180947
15.648603
9.037852
8.916855
10.117888
12.373924
19.284487
26.378632
40.832758
53.000450
72.219968
82.734823
92.002749
92.695951
86.174607
76.532960
59.071779
47.909617
33.417940
25.101900
17.607808
14.507771
12.008548
11.031628
10.849833
10.171533
10.150671
10.282993
10.144711
10.176897
9.836555
9.300709
9.489655
##ZVALUE=335
0.626445
0.542998
0.525713
0.638962
0.642538
0.783801
0.810623
0.831485
0.536442
0.792742
0.836849
0.754595
0.519753
0.794530
0.714660
0.919700
0.773668
0.687838
0.695586
0.847578
0.796914
0.703931
0.618696
0.845790
0.876784
0.833869
1.070499
0.895858
1.122952
1.017451
0.992417
0.978708
1.133680
0.890493
0.994802
1.128912
1.191497
1.160502
1.131892
1.348853
1.284480
1.505613
1.449585
1.635551
1.621842
1.954436
1.974702
2.122521
2.391934
5.393624
18.337965
72.485805
154.771805
356.936455
598.788857
977.330804
1015.684605
1015.684605
1015.684605
1015.684605
1015.684605
871.014595
595.578551
312.939882
165.258646
59.959888
23.356676
9.761453
8.643866
9.103417
10.095835
12.980700
17.381907
27.365685
37.486553
53.140521
64.888000
78.933835
84.796548
86.552501
81.556439
69.432855
58.836937
44.464469
35.032630
24.971962
19.084811
14.144778
12.305975
10.801554
10.104775
9.833574
9.726882
9.536743
9.550452
9.703636
##ZVALUE=340
0.589490
0.535846
0.562668
0.631809
0.555515
0.659823
0.685453
0.684857
0.649691
0.659823
0.801682
0.816584
0.743866
0.530481
0.751615
0.658631
0.696778
0.748634
0.784993
0.710487
0.932813
0.686646
0.844598
0.943542
0.701547
0.699759
0.851750
0.716448
0.856519
0.822544
0.947714
0.818968
1.161695
0.949502
1.040697
1.079440
1.077652
0.914931
1.202822
1.168847
1.120567
1.241565
1.301765
1.322627
1.439452
1.373887
1.556873
1.539588
1.799464
2.071857
2.016425
3.028512
8.917451
43.757558
107.339621
276.504755
478.282571
830.764771
1015.681624
1015.681624
1015.681624
1015.681624
1015.681624
993.569493
725.382566
386.485457
215.463638
86.835623
34.145713
11.148453
9.128451
8.902550
9.314418
10.458827
12.216568
18.183589
25.086999
36.421418
48.948526
63.974857
73.752999
80.630779
82.426667
76.110959
69.021583
55.483580
45.646429
32.696724
25.875568
17.612576
13.982654
11.283755
10.290742
9.565949
9.260774
9.744763
##ZVALUE=345
0.586510
0.648499
0.527501
0.732541
0.550747
0.569820
0.447631
0.616908
0.665784
0.570416
0.500679
0.586510
0.920892
0.819564
0.787973
0.663996
0.680685
0.672936
0.563860
0.553727
0.620484
0.736713
0.817776
0.688434
0.712872
0.685453
0.891685
0.794530
0.862479
0.894666
0.937581
0.799894
0.846982
0.969768
0.960827
0.907779
0.858903
0.827909
0.966787
1.070499
1.000762
1.091957
1.146793
1.311898
1.190901
1.151562
1.333952
1.501441
1.255870
1.475811
1.866817
1.771450
1.985431
2.283454
4.227757
24.667978
67.693591
185.702443
343.609452
651.556849
920.109749
1015.681624
1015.681624
1015.681624
1015.681624
1015.681624
850.132704
511.036515
292.020440
115.478635
51.753521
16.775727
10.307431
8.754730
8.869767
8.692741
9.380579
11.957884
15.567541
24.149418
33.042431
46.957731
56.171417
67.814589
72.744489
74.951649
73.156953
64.045787
55.905581
43.421984
33.965707
23.661852
18.017888
13.346672
10.995865
9.927750
##ZVALUE=350
0.585914
0.452995
0.500679
0.482798
0.512600
0.618696
0.528693
0.494719
0.548959
0.571609
0.516772
0.536442
0.544786
0.487566
0.584722
0.630617
0.596642
0.686646
0.621676
0.579953
0.616908
0.625849
0.597835
0.641942
0.639558
0.560880
0.694990
0.845790
0.739694
0.766516
0.799894
0.709891
0.913739
0.735521
0.813603
0.823736
0.832677
0.698566
0.723600
0.889897
0.954866
0.892878
1.066923
0.986457
1.188517
1.048446
1.124740
1.320839
1.379848
1.209974
1.313686
1.665950
1.508594
1.590848
1.743436
1.993775
2.542734
12.826920
39.339662
123.550892
242.253542
507.571697
757.126808
1015.574932
1015.574932
1015.574932
1015.574932
1015.574932
959.368944
583.586693
355.056524
155.240893
69.887638
20.519495
10.439754
8.496642
8.027554
8.005500
7.906556
8.983612
10.892749
15.769601
21.092892
29.994845
38.809776
51.692724
59.533715
66.837668
68.581700
67.355633
61.079860
50.286651
41.878819
30.602813
23.816824
17.091632
##ZVALUE=355
0.590682
0.673532
0.518560
0.717640
0.719428
0.639558
0.850558
0.599623
0.697970
0.749826
0.581741
0.618696
0.631809
0.671744
0.654459
0.735521
0.737906
0.729561
0.787973
0.663996
0.666976
0.731945
0.860691
0.859499
0.740886
0.795722
0.840425
0.641942
0.779629
0.931621
0.931621
0.742674
0.904799
0.886917
0.762939
0.791550
0.909567
0.807643
0.879765
0.907779
0.881553
1.005530
1.057982
1.089573
1.008511
1.032948
1.029968
1.095533
0.968575
1.297593
1.203418
1.390576
1.405478
1.684427
1.676679
1.577735
1.892447
1.957417
2.311468
6.474853
21.955967
83.209872
171.650648
372.231603
610.619783
977.785587
1015.681624
1015.681624
1015.681624
1015.681624
1015.681624
700.979829
442.917943
198.330879
94.670653
29.429793
12.469888
8.124709
7.786751
7.605553
7.713437
7.695556
8.595586
10.199547
13.122559
19.010901
25.697947
35.847425
43.965578
53.687692
60.115457
63.543916
61.634779
56.097507
48.978925
39.853454
##ZVALUE=360
0.629425
0.519753
0.501871
0.607967
0.594854
0.597835
0.549555
0.535846
0.610948
0.680685
0.508428
0.674725
0.530481
0.524521
0.656843
0.592470
0.647902
0.683665
0.702739
0.708699
0.817776
0.834465
0.728965
0.790954
0.753999
0.787973
0.859499
0.624657
0.726581
0.777841
0.831485
0.736713
0.879765
0.802875
0.791550
0.920892
0.914931
0.728965
0.836849
0.800490
0.880957
0.803471
0.980496
0.939965
0.948906
0.963807
1.010895
0.982881
1.021624
1.025796
1.111627
1.380444
1.245737
1.345873
1.302958
1.579523
1.516938
1.661777
1.830459
1.968741
2.285838
3.208518
9.522438
41.764975
102.485418
260.599852
446.785688
765.480995
1010.653973
1015.646458
1015.646458
1015.646458
1015.646458
821.675658
549.755692
268.780589
139.727592
50.636530
19.919872
8.523464
7.786751
7.581711
7.352829
7.423759
7.420778
7.790923
8.482933
11.509657
14.983416
21.678805
28.530955
39.216876
46.285987
54.107904
57.003498
56.868792
##ZVALUE=365
0.717640
0.681877
0.598431
0.576973
0.633597
0.525713
0.514984
0.556707
0.680685
0.605583
0.622869
0.543594
0.528693
0.680685
0.637770
0.669956
0.675917
0.540614
0.833869
0.792742
0.831485
0.784993
0.723600
0.749826
0.761747
0.764728
0.616908
0.917912
0.671744
0.914931
0.809431
0.708699
0.706911
0.758767
0.735521
0.847578
0.934601
0.882745
0.946522
0.962615
0.943542
0.983477
0.846982
0.939965
1.000762
1.098514
1.041889
0.923872
0.957847
1.135468
1.174808
1.284480
1.226664
1.341701
1.335740
1.297593
1.498461
1.482964
1.776814
1.818538
1.684427
1.933575
2.122521
2.386570
4.460812
23.744702
63.318610
169.678926
322.337747
623.507500
873.438716
1015.682817
1015.682817
1015.682817
1015.682817
930.856466
666.009784
367.373824
199.716687
71.089864
28.229952
9.637475
7.548928
7.342696
6.925464
6.819963
6.970763
6.608963
6.945729
7.667542
9.502769
13.190508
18.039942
25.475621
32.424927
41.244626
##ZVALUE=370
0.639558
0.652671
0.687838
0.608563
0.776649
0.972748
0.783801
0.855923
0.784993
0.740886
0.823736
0.706911
0.838637
0.878572
0.740886
0.863671
0.728965
0.630617
0.746846
0.708699
0.702739
0.929832
0.865459
0.729561
0.767708
0.772476
0.884533
0.838637
0.905991
0.867844
0.884533
0.828505
0.822544
0.846982
0.860691
0.850558
0.843406
0.900626
0.941753
1.053810
1.147985
0.908971
0.967979
1.110435
1.115799
0.916719
1.164675
1.065731
1.020432
1.070499
1.060963
1.195669
1.144409
1.233816
1.091957
1.158714
1.311898
1.191497
1.438856
1.439452
1.725554
1.840591
1.889467
1.803637
2.039671
2.381802
3.041625
11.949539
39.233565
127.963424
242.544413
472.537875
715.469718
1015.764475
1015.764475
1015.764475
1015.764475
1010.924578
784.713030
442.728996
245.621800
95.656514
43.554902
14.805794
8.204579
6.921887
6.561875
6.272793
6.182790
5.977750
6.094575
6.343722
7.041693
9.006858
11.171699
16.255975
##ZVALUE=375
0.646710
0.504851
0.649691
0.582933
0.618696
0.654459
0.728965
0.731945
0.526905
0.664592
0.659823
0.493526
0.619888
0.575781
0.570416
0.691414
0.709891
0.752807
0.650883
0.797510
0.659823
0.792742
0.736713
0.666976
0.754595
0.709891
0.701547
0.649691
0.753999
0.749826
0.629425
0.667572
0.676513
0.947714
0.755787
0.711679
0.737906
0.750422
0.644922
0.885725
0.784993
0.979900
0.947714
0.896454
0.939965
0.920892
1.015663
0.916719
0.916719
0.901818
0.999570
0.863671
1.016855
1.074672
1.004934
0.927448
1.170635
1.125932
1.058578
1.167655
1.286864
1.229644
1.389980
1.334548
1.515746
1.539588
1.697540
2.106428
2.287626
5.968809
20.815730
76.571703
163.295865
372.312665
593.631864
931.581855
1015.681624
1015.681624
1015.681624
1015.681624
915.933847
570.907593
356.650949
162.238479
79.296827
24.648905
10.548830
6.265640
5.932450
5.704761
5.672574
5.423427
5.361438
5.317926
5.786419
6.242990
##ZVALUE=380
0.662804
0.601411
0.545979
0.598431
0.742674
0.571609
0.549555
0.603795
0.625849
0.642538
0.509620
0.633597
0.573993
0.609756
0.611544
0.646710
0.677705
0.594854
0.584722
0.554919
0.667572
0.637770
0.686646
0.795722
0.657439
0.637770
0.740886
0.788569
0.664592
0.738502
0.649691
0.654459
0.719428
0.629425
0.462532
0.826716
0.924468
0.825524
0.686646
0.751615
0.725985
0.854731
0.875592
0.822544
0.736713
0.938773
0.922680
0.851750
0.852942
0.857711
1.062751
0.825524
0.867844
0.823736
0.896454
1.053810
0.896454
1.078844
1.150966
1.216531
1.022816
1.208782
1.204610
1.336932
1.329780
1.233816
1.431704
1.476407
1.776814
1.914501
2.152920
3.272891
14.547706
44.948459
139.453411
265.888572
518.399477
777.499676
1015.681624
1015.681624
1015.681624
1015.681624
995.555520
777.066946
462.682843
272.111893
110.348463
48.666000
13.741851
6.818771
5.609989
5.321503
5.228519
5.072951
4.980564
5.071759
##ZVALUE=385
0.631809
0.607967
0.567436
0.683665
0.396967
0.702739
0.439882
0.552535
0.614524
0.494719
0.537634
0.676513
0.562668
0.604987
0.567436
0.611544
0.585914
0.399947
0.653863
0.597835
0.698566
0.706911
0.712872
0.652671
0.580549
0.684857
0.573993
0.719428
0.654459
0.768900
0.748634
0.968575
0.620484
0.820756
0.756979
0.658631
0.606775
0.701547
0.749826
0.669956
0.679493
0.715852
0.665784
0.781417
0.781417
0.727773
0.717640
0.865459
0.676513
0.721812
0.724792
0.737906
0.715852
0.782609
0.933409
0.808835
0.917912
0.850558
0.928640
1.028776
0.880957
0.821948
1.017451
1.137853
1.170635
1.308918
1.202822
1.367927
1.490712
1.386404
1.695752
1.917481
2.058744
2.228618
5.634427
29.622912
78.249574
204.966664
378.971696
691.195726
949.157476
1015.690565
1015.690565
1015.690565
1015.690565
879.786611
633.807778
348.078609
195.796490
77.926517
30.366778
8.442998
5.520582
5.095601
4.978776
4.756451
##ZVALUE=390
0.598431
0.617504
0.584722
0.628829
0.625849
0.621676
0.704527
0.780821
0.592470
0.609756
0.639558
0.521541
0.492930
0.553727
0.652671
0.559688
0.649691
0.569820
0.655651
0.642538
0.667572
0.585914
0.654459
0.561476
0.703931
0.646710
0.649691
0.733733
0.521541
0.567436
0.629425
0.579953
0.670552
0.641942
0.560880
0.621676
0.835657
0.779629
0.621676
0.762939
0.586510
0.697970
0.768900
0.742674
0.842810
0.632405
0.789762
0.840425
0.678897
0.861883
0.645518
0.832677
0.941753
0.644922
0.687838
0.881553
0.907779
0.897646
0.939965
1.030564
0.866652
0.838637
0.960827
0.936985
1.063943
1.124740
1.319647
1.343489
1.375675
1.520514
1.625419
1.622438
1.786947
1.909733
1.887679
1.990795
3.207922
16.243458
52.308440
161.413550
307.648778
595.559478
837.020874
1015.703678
1015.703678
1015.703678
1015.703678
994.469523
776.710510
474.926829
276.331902
112.367868
49.579740
13.239980
6.113648
4.877448
##ZVALUE=395
0.605583
0.528693
0.371933
0.470877
0.555515
0.580549
0.551939
0.528693
0.622869
0.545979
0.595450
0.533462
0.605583
0.552535
0.465512
0.451803
0.536442
0.544786
0.727773
0.709891
0.568628
0.553727
0.614524
0.698566
0.576973
0.649691
0.547767
0.593662
0.555515
0.526905
0.524521
0.629425
0.561476
0.633597
0.540614
0.640750
0.691414
0.731945
0.639558
0.550747
0.576973
0.636578
0.701547
0.689626
0.835657
0.812411
0.821948
0.704527
0.661612
0.766516
0.752807
0.713468
0.677705
0.749826
0.881553
0.904799
0.893474
0.718832
0.730753
0.724792
0.863671
0.773668
0.761747
0.885725
0.913739
1.012683
1.054406
1.148582
1.300573
1.364946
1.454949
1.567602
1.592636
1.640916
1.732707
1.627803
1.724958
1.960993
2.187490
9.361506
33.987761
116.851926
225.328803
442.082882
674.864650
992.669463
1015.681028
1015.681028
1015.681028
1015.681028
937.185884
589.834452
370.689631
160.244703
75.083971
23.361444
##ZVALUE=400
0.552535
0.436902
0.648499
0.467896
0.637770
0.611544
0.667572
0.526905
0.479817
0.552535
0.611544
0.438690
0.574589
0.455976
0.454783
0.441670
0.502467
0.480413
0.601411
0.595450
0.509620
0.637770
0.522733
0.582933
0.624657
0.481606
0.561476
0.658631
0.655651
0.607967
0.792742
0.597835
0.612736
0.696778
0.552535
0.661612
0.763535
0.571609
0.636578
0.710487
0.711679
0.617504
0.658631
0.581741
0.501871
0.801682
0.639558
0.623465
0.716448
0.659823
0.645518
0.841618
0.816584
0.738502
0.756979
0.684857
0.869632
0.704527
0.808835
0.740886
0.761747
0.849962
0.902414
0.910759
0.949502
0.833869
1.077652
1.121759
1.187921
1.255870
1.402497
1.493692
1.563430
1.350641
1.472831
1.472831
1.445413
1.597404
1.596808
1.587868
2.265573
4.743934
17.366409
69.453716
149.706602
335.623622
535.126925
834.720731
1015.681624
1015.681624
1015.681624
1015.681624
987.702012
686.900616
455.463529
227.917433
##END
