##TITLE=QP00301
##FORMAT=SPECTACLE-ASCII V-1.2
##DATA TYPE=ULTRAVIOLET SPECTRUM
##SECOND TYPE=ULTRAVIOLET SPECTRUM
##DATE=10/03/17
##TIME=12:04:11
##SPECTROMETER/DATA SYSTEM=SPECTACLE
##XUNITS=NM EM
##YUNITS=ENERGY
##YFACTOR=1
##FIRSTX=220
##LASTX=410
##NPOINTS=96
##3DDATA=Equidistant
##ZUNITS=NM EX
##FIRSTZ=210
##LASTZ=400
##ZPOINTS=39
##XYDATA=(Y..Y)
##ZVALUE=210
3.081560
2.393723
2.801418
2.899766
2.752542
3.647804
3.502965
2.999902
3.198981
3.385544
2.732873
2.892613
3.167987
3.369451
3.261566
3.739595
3.866553
3.497601
4.404783
4.662871
3.986955
4.444718
4.490614
5.131960
5.458593
5.873442
4.696846
5.660653
5.637407
5.463958
5.330443
6.295443
6.153584
6.937981
7.473826
6.718636
7.475615
6.707907
7.149577
6.464720
6.736517
6.732941
7.397532
6.918907
7.008910
7.255673
7.295609
7.348657
7.401705
7.859468
8.664727
8.160472
8.082986
8.317828
8.610487
8.234978
8.391738
9.146929
8.278489
8.721948
8.975863
8.134842
9.177923
8.240938
8.939505
9.790659
9.637475
10.974407
12.355447
13.637543
17.384887
17.888546
20.143986
22.198558
24.735928
23.857951
26.072860
25.110841
25.854707
22.111535
19.552708
20.121932
17.672777
15.514493
14.066696
11.512637
10.002851
9.934902
8.197427
8.636713
8.638501
8.111000
8.452535
8.355975
8.787513
9.157658
##ZVALUE=215
6.408691
6.814599
6.116629
4.896522
4.357696
4.668832
4.450679
4.615784
4.798770
5.082488
4.575849
4.996657
4.291534
3.897548
4.471540
4.470944
3.943443
4.039407
3.765821
4.517436
4.355907
4.855990
4.320741
5.494952
5.047917
5.017519
5.972981
5.517602
5.902648
5.922914
6.982684
6.743670
6.314516
7.239580
6.341934
6.875992
7.064939
6.502867
7.229447
7.166862
7.321835
7.153749
8.058548
7.644892
7.838607
7.486939
8.248687
8.686781
8.499622
8.019805
8.389950
8.218884
7.856488
8.560419
7.928610
8.601546
8.592606
8.580685
8.656979
9.155869
8.908510
8.710623
8.052588
8.880496
9.572506
9.102821
9.154677
11.011958
11.416674
14.083982
15.291572
18.596649
18.700957
21.498799
22.117496
24.800897
25.009513
23.648739
23.520589
21.108985
20.689964
18.846989
15.872717
15.302896
12.828708
11.067986
10.222793
10.231733
9.701848
9.291768
8.761883
9.110570
7.507801
8.209944
8.808970
9.014606
##ZVALUE=220
20.318627
20.560622
22.559762
22.228956
21.343827
16.596913
15.257597
12.240410
9.738803
10.133982
9.968877
10.747910
10.818839
10.404587
9.181499
6.853938
6.117821
5.278587
4.576445
5.156994
5.299449
4.881620
5.525947
5.225539
5.820990
6.698966
5.859733
5.965829
5.940795
6.293654
6.659627
7.624626
6.863475
6.874800
6.923676
7.256866
6.342530
8.053780
7.800460
7.771850
8.210540
7.634759
8.241534
8.083582
8.695722
8.346438
8.919835
9.439588
8.460879
8.394718
9.447932
8.370876
9.150505
9.062886
8.469820
8.731484
9.987950
10.272861
8.950830
9.889603
10.159612
10.474920
10.280609
10.428429
9.880662
10.487437
10.852814
12.981892
13.846755
14.583468
16.972423
19.438863
20.914674
24.760962
24.613738
24.751425
27.072430
25.406480
23.022890
22.806525
20.130873
18.763542
17.662644
16.213655
15.243888
13.690591
12.511611
12.260675
11.224747
11.306405
10.347962
10.594726
9.105802
10.256767
10.057688
9.614825
##ZVALUE=225
31.053424
34.341812
47.074556
65.417886
74.078441
75.298548
72.060823
61.013699
43.706894
36.311746
26.020408
20.836592
23.605824
22.507906
23.846626
21.479726
19.717813
17.257929
12.622476
8.923411
7.386804
5.715489
5.961657
5.813837
5.632639
6.061792
7.440448
5.779862
6.731749
6.280541
7.647872
7.952452
6.497502
8.337498
7.657409
7.524490
8.645654
8.924603
8.421540
8.325577
8.201599
9.144545
9.025931
9.436607
9.529591
8.876920
9.240508
8.780956
9.587407
10.184646
10.463595
10.393858
10.936856
9.779930
11.187792
10.864735
11.663437
11.295676
11.376739
12.520552
11.933446
11.241436
11.572838
12.649894
13.172626
13.173819
13.813972
13.521910
15.669465
18.273592
18.759966
23.343563
22.235513
24.011731
26.021600
25.801659
26.888847
26.615858
24.007559
23.466945
21.021962
20.621419
20.497441
18.155575
17.733574
16.935468
15.971661
15.244484
15.040636
14.772415
14.321804
13.021827
14.617443
13.645887
14.253855
13.950467
##ZVALUE=230
30.455589
33.073425
55.343509
94.688535
130.057931
174.801946
196.266770
203.906894
190.589428
157.953501
119.868517
84.195733
57.923794
42.504668
42.551756
47.496557
46.973825
45.552850
41.863918
33.446550
26.429892
19.297600
12.928843
9.346604
8.017421
7.240772
6.595850
8.064508
7.532835
6.904602
7.842779
7.975698
8.556843
8.346438
9.110570
8.725524
8.990765
9.924769
9.128451
10.259748
10.873675
9.812713
10.044575
9.932518
10.462999
9.899735
10.712743
11.244416
10.197759
11.199713
11.594892
11.641979
11.539459
11.081696
12.579560
14.112592
14.211535
13.956428
13.316870
14.120936
14.797449
14.538765
15.414953
15.616417
15.540719
16.645789
18.320680
19.517541
19.284487
22.124648
23.955703
26.023984
28.002858
30.361414
31.389594
32.233596
32.453537
28.268695
30.395985
28.434992
28.182864
26.171803
26.653409
24.263859
23.376942
22.874475
21.773577
23.063421
20.580888
21.402836
21.145940
20.426512
20.126700
21.484494
19.915700
19.835830
##ZVALUE=235
10.864735
13.570786
27.407408
66.359639
116.682649
200.770497
267.880559
364.341736
421.744585
433.721542
404.545665
340.084434
240.618587
173.336864
107.964873
82.969666
65.892935
73.521733
76.354742
78.490973
75.442791
63.804984
51.274896
38.550496
26.676655
17.176867
13.500452
9.988546
9.753704
8.017421
8.934736
8.951426
9.955764
10.191798
9.431839
9.565949
9.825826
10.696650
9.790659
10.167956
10.554790
11.018515
11.503696
10.855794
11.018515
12.613535
11.116862
12.376904
12.854934
13.062954
12.292862
13.403893
13.617873
13.182759
13.324618
14.169812
14.715791
16.026497
15.373826
15.433431
16.715527
18.524528
19.734502
18.091798
19.558668
21.273494
22.504926
20.575523
24.630427
24.730563
28.475523
32.230616
33.065677
35.639405
38.414598
38.507581
39.795637
38.923621
37.420988
36.440492
34.396648
33.321977
33.318996
31.989813
33.523440
32.803416
31.683445
28.953552
31.677485
30.347705
29.932857
29.529929
28.174520
29.997826
30.590892
28.464794
##ZVALUE=240
2.852678
3.266931
6.865859
15.080571
48.007965
90.615749
182.496905
288.491845
443.114638
565.871596
678.120852
695.394874
649.712682
544.403791
424.664617
267.048478
192.846656
122.588873
99.480748
96.249580
108.212829
112.006664
107.731819
99.765658
75.097680
64.570904
45.690536
32.053590
20.958781
14.269948
13.019443
10.415912
10.632873
10.101795
10.989904
10.371804
10.236502
10.308623
10.216832
10.189414
9.702444
11.547804
11.249781
10.993481
11.825562
11.229515
11.724830
10.999441
13.007522
12.477636
12.450814
12.562871
11.922717
14.032722
13.510585
14.459491
14.806986
16.371608
16.968846
16.978979
18.082857
19.067526
19.098520
19.167662
22.021532
22.921562
23.055673
24.473667
25.673509
29.758811
30.053854
35.505891
35.120845
37.951469
40.850639
41.582584
41.806698
39.598942
40.927529
42.049885
42.674541
39.762855
39.481521
41.189790
38.942695
37.321448
37.113428
39.442778
39.581656
34.948587
36.127567
34.823418
35.598874
35.128593
35.970807
35.406947
##ZVALUE=245
2.447963
2.515912
2.506971
2.422929
4.492998
13.628602
34.576654
98.131895
179.638863
331.610441
485.741496
693.078637
814.176798
899.795890
854.913592
730.021000
604.772568
394.164920
273.397565
159.550905
121.137500
101.470947
107.700825
122.109652
127.592683
120.276809
109.892488
90.602636
70.032477
53.902864
32.745600
24.726987
16.165972
11.399984
10.955930
9.450912
9.778738
10.099411
10.078549
9.518862
9.605885
9.620786
10.133982
9.882450
9.566545
9.483695
9.434819
10.262728
10.807514
9.936690
11.536479
11.818409
12.489557
12.560487
12.093782
13.454556
13.038516
14.142990
14.919639
14.791489
15.931726
16.906857
16.818643
18.012524
18.217564
20.300746
20.582676
22.600889
24.630427
27.006865
27.409792
29.187799
32.514930
33.158660
34.399629
38.169622
37.635565
38.176775
38.941503
37.417412
37.655830
38.998723
38.284659
37.178993
37.025809
36.939979
37.385821
38.115978
37.051439
36.670566
35.917759
36.470890
35.662651
34.452677
34.685731
36.524534
##ZVALUE=250
2.162457
2.251863
2.197623
2.486706
2.093911
2.396703
3.459454
8.435845
31.169653
71.278811
183.135867
314.261913
481.871963
715.720654
886.578560
1015.653610
1015.653610
948.417783
813.822746
575.777888
391.037464
251.258612
141.666532
105.607510
104.439855
119.667649
129.807591
137.813687
131.551623
119.033456
102.943778
76.920986
55.874586
34.459829
24.145842
15.539527
11.478662
9.177923
8.371472
9.215474
9.271502
8.882880
8.902550
8.720756
9.206533
9.737611
10.469556
9.899735
9.438992
9.865761
10.625720
11.143684
10.028481
11.113882
11.254549
11.392832
11.227727
11.761785
13.151765
13.119578
13.709664
14.052987
15.053749
15.553832
16.352534
17.091632
16.856790
19.035935
20.266771
21.441579
24.562478
25.986433
28.529763
29.281974
31.362772
33.136606
33.419728
36.968589
34.482479
34.350753
34.050941
32.690763
33.467412
34.443736
34.296513
33.658743
32.861829
33.228993
34.458637
33.074617
34.622550
34.241676
34.198761
34.626722
33.882856
32.190681
##ZVALUE=255
1.945496
2.200603
1.963973
1.922846
2.193451
2.662539
2.615452
2.384782
2.492666
4.352927
19.943714
53.663850
143.472552
257.190466
469.375849
674.261451
959.585905
1015.681624
1015.681624
1015.681624
1015.681624
781.437755
562.891960
312.763453
188.216567
111.548901
95.535517
105.107427
120.531917
136.948824
143.586993
139.687657
122.977495
101.386905
79.326630
53.687692
38.800836
22.093654
15.677810
10.698438
9.556413
8.731484
8.842945
9.031892
9.230971
8.463860
8.000731
8.703470
8.932948
8.884668
10.131598
9.082556
9.665489
10.676980
10.410547
10.882616
10.798573
11.411905
10.728836
11.819601
12.366772
13.115406
13.861656
13.468862
13.670921
14.792681
15.340447
17.320514
17.629862
20.416975
21.371841
23.505688
25.865436
26.410818
26.473999
28.059483
28.610826
29.657483
29.508471
28.789639
30.140877
31.048656
30.131936
30.755997
29.417872
29.511452
30.576587
30.943751
31.050444
31.128526
31.343699
31.781793
30.573606
32.419562
31.353831
32.140613
##ZVALUE=260
1.939535
1.980662
2.010465
1.867414
1.984835
2.017617
1.966953
2.040863
2.526641
2.956986
2.748966
3.680587
10.114908
38.651824
87.324977
220.018625
377.285480
641.793013
877.465010
1015.676856
1015.676856
1015.676856
1015.676856
1013.597846
716.259480
484.516621
273.521543
161.933899
96.466541
86.258650
100.202560
126.450658
140.011907
148.405433
145.012736
124.907494
108.504891
77.717900
59.539676
37.649870
24.345517
15.027523
11.345744
8.309484
8.113980
8.105636
8.329749
8.822680
8.966923
8.782744
8.928776
9.178519
9.437799
9.291768
9.327531
9.618998
10.036826
10.331869
10.921955
10.600686
11.248589
12.276769
12.229681
12.321472
12.838840
12.647510
13.809800
14.875531
16.403794
18.164515
19.204617
20.632744
21.440983
23.839474
24.062991
24.331808
25.691986
25.729537
25.537610
25.916696
26.552677
25.986433
25.925636
26.937723
26.711822
27.217865
27.481914
27.607679
27.156472
27.232766
28.928518
28.320551
28.076768
27.548671
28.469563
28.383732
##ZVALUE=265
1.817942
1.611710
1.518726
1.864433
1.817942
1.852512
1.962781
1.944900
1.860857
2.436638
2.156496
2.457500
2.540946
2.930760
6.115437
26.350617
65.466762
169.332623
312.064886
599.431992
877.134800
1015.681624
1015.681624
1015.681624
1015.681624
1015.681624
953.110456
679.577589
370.851755
222.912431
133.805871
81.857443
83.413720
108.950734
127.892494
146.651864
151.934624
144.704580
130.069852
103.461742
81.036687
53.944588
39.532781
22.993684
16.721487
10.702610
9.099841
8.460879
8.539557
8.848906
9.008646
8.645654
9.214878
9.800792
9.116530
10.339618
10.307431
10.059476
10.303855
10.270476
10.785460
11.689663
11.753440
12.120605
12.248755
13.215542
13.330579
14.434457
15.178919
16.911626
17.804503
17.741919
19.980669
21.692514
22.089481
22.634864
23.317933
23.291707
23.320913
23.403764
23.891926
24.045706
24.091601
24.112463
24.665594
25.425553
24.561882
26.138425
25.429726
26.103854
25.599599
26.614666
26.325583
26.061535
28.228760
27.092695
##ZVALUE=270
1.669526
1.599789
1.796484
1.679659
1.658797
1.786947
1.953840
1.847744
1.869798
1.915693
1.988411
2.213717
2.209544
2.225637
2.249479
2.818704
3.369451
13.502836
38.009882
127.719641
257.188678
464.694500
845.891833
1015.681624
1015.681624
1015.681624
1015.681624
1015.681624
1015.681624
908.905864
623.805523
323.727727
177.235603
82.319975
66.744685
84.952712
107.030869
132.923722
148.404837
153.086782
147.100687
132.146478
111.292601
78.431964
58.516860
36.716461
25.430918
16.041994
12.419820
10.252595
8.882880
8.980632
8.971691
9.417534
10.039806
9.996891
10.705590
10.295510
9.833574
11.149645
11.212826
11.287928
11.280775
11.746883
12.313724
12.893677
14.009476
14.868975
14.886856
16.735792
16.822815
18.220544
18.518567
20.820498
21.834970
21.974444
22.090673
22.660494
23.036599
23.086667
22.664666
23.231506
23.660660
23.653507
23.159981
23.852587
23.257732
23.474693
24.514794
24.882555
24.424791
24.042726
24.590492
25.369525
24.580956
25.025606
##ZVALUE=275
1.590848
1.699924
1.447797
1.653433
1.649857
1.606941
1.774430
1.548529
1.555681
1.653433
1.968741
1.874566
1.805425
1.840591
2.194643
2.400875
2.313852
2.570748
2.721548
6.739497
24.336576
68.804622
202.105045
384.991765
745.044947
1000.225544
1015.688777
1015.688777
1015.688777
1015.688777
1015.688777
1015.688777
817.013979
435.525775
248.868465
107.432604
64.285994
61.470866
78.375936
106.277466
126.555562
146.608949
152.411461
145.807862
131.121874
103.785992
84.109902
58.479905
41.497946
26.234984
18.234849
13.016462
10.672808
9.895563
9.945631
9.985566
9.991527
10.500550
10.490417
11.418462
10.858774
11.842847
11.852980
12.448430
12.590885
13.014674
13.773441
14.332533
15.184879
15.680790
16.992688
18.126965
19.087791
19.489527
21.851659
21.324754
21.841526
21.776557
22.393465
22.131801
22.103786
22.401810
22.921562
22.067428
22.962689
22.407770
23.144484
23.794770
22.648573
23.553967
23.178458
23.788810
23.071766
24.426579
23.182631
24.124980
##ZVALUE=280
1.300573
1.339912
1.413822
1.400709
1.412630
1.267791
1.545548
1.509786
1.718998
1.919866
1.833439
1.906753
1.925826
1.717806
1.949668
1.961589
2.107620
2.068877
2.180934
2.624989
3.210902
4.075766
13.051629
61.483979
143.153667
346.725583
575.298667
965.075493
1015.681624
1015.681624
1015.681624
1015.681624
1015.681624
1015.681624
969.735980
571.974516
339.562893
144.894719
74.066520
48.360825
56.059957
81.252456
104.049444
127.941966
143.050551
147.516727
143.716931
125.450492
105.804801
79.531670
59.784651
39.296746
27.586818
17.335415
13.462901
11.229515
10.537505
10.702610
10.472536
11.825562
11.203885
12.218952
12.326837
12.187958
13.044477
13.425946
13.596416
14.876723
14.475584
16.179681
16.537905
18.081665
18.690825
20.009875
21.162629
21.406412
20.828843
21.552444
21.408796
21.963716
21.696687
22.592545
22.201538
22.166967
22.321939
21.692514
22.261739
21.789670
21.821856
22.894740
22.528768
21.871924
22.306442
22.471547
22.544861
22.219419
##ZVALUE=285
1.356602
1.510978
1.459718
1.390576
1.365542
1.303554
1.423955
1.322627
1.614690
1.358986
1.532435
1.678467
1.649857
1.869798
1.853704
1.752973
1.886487
1.995564
2.186894
2.114773
2.360940
2.301931
2.821684
3.017783
7.751584
26.553869
90.877414
190.072656
412.859917
677.467585
974.326730
1015.686989
1015.686989
1015.686989
1015.686989
1015.686989
1015.686989
781.849623
490.481853
226.553679
114.501715
47.099590
38.729906
54.029822
74.120760
104.313493
122.733712
139.377713
144.373775
139.422417
128.508806
104.827881
85.033774
59.193969
42.647719
27.001500
18.591881
14.264584
12.175441
11.379719
11.930466
11.743903
12.546778
12.910962
13.045669
13.597608
14.490485
14.697909
15.676618
16.528964
17.191768
17.529726
19.246936
19.682646
20.829439
20.683408
20.535588
21.607876
21.060705
22.255778
21.240711
21.838546
21.329522
21.694899
21.784902
22.500753
22.320747
21.993518
21.897554
22.273660
22.582412
21.728873
21.781921
22.132993
22.412539
21.590590
##ZVALUE=290
1.236796
1.447797
1.202822
1.170635
1.318455
1.293421
1.556873
1.357794
1.186728
1.428723
1.384616
1.453757
1.454949
1.431704
1.501441
1.717806
1.625419
1.793504
1.615882
1.896620
1.761913
2.342463
2.385974
2.130866
2.670884
3.138781
3.537536
14.471412
44.294596
138.036609
265.394449
572.652817
892.117023
1015.681624
1015.681624
1015.681624
1015.681624
1015.681624
1015.681624
974.904895
384.557843
332.254767
183.852911
65.207481
33.801794
35.737753
49.588680
72.297454
92.099905
117.819905
131.032467
141.718984
139.221549
123.318434
108.159781
78.798532
61.218739
41.189790
29.324889
19.557476
15.761852
13.561845
12.753606
13.109446
13.197660
13.752580
14.364719
15.215874
15.754700
16.382933
17.339587
18.118620
18.540621
19.553900
20.399690
20.946860
20.327568
20.974874
21.024942
21.200776
20.925999
21.535754
21.822453
22.197962
21.945834
21.623969
22.349954
21.899939
22.151470
21.509528
22.519827
21.360517
21.600723
22.231936
21.776557
22.018552
##ZVALUE=295
1.221895
1.331568
1.262426
1.396537
1.422763
1.507998
1.588464
1.433492
1.633763
1.670718
1.578927
1.457930
1.560450
1.665950
1.533628
1.717806
1.778603
1.887679
1.854897
2.009869
2.202988
1.930594
2.031922
2.303720
2.200603
2.438426
2.790689
2.954602
3.299713
5.305409
17.526746
77.451468
176.542401
424.304008
708.958507
1015.875936
1015.875936
1015.875936
1015.875936
1015.875936
1015.875936
1015.875936
844.180584
461.627841
256.486535
94.037652
42.672753
24.397969
30.864477
48.748851
65.345764
90.673566
109.370947
128.412843
135.460496
132.192969
121.478438
101.629496
82.415938
59.797764
44.291615
29.033422
21.911860
17.417669
15.721917
14.610887
14.788508
15.441775
15.442967
16.931891
17.510653
18.184781
18.196702
19.715428
20.490885
21.226406
20.948648
21.017790
21.108985
22.228956
21.601915
22.143722
22.101998
22.591949
22.242665
22.096634
22.268891
22.130609
22.722483
22.518635
22.596717
22.089481
21.593571
21.876693
21.508932
22.244453
##ZVALUE=300
1.158714
1.078844
1.206994
1.159906
1.188517
1.110435
0.988841
1.095533
1.127720
1.141429
1.159906
1.370907
1.243949
1.417994
1.343489
1.401901
1.348853
1.471639
1.439452
1.435876
1.484752
1.623631
1.693964
1.732707
1.723766
1.868606
2.003908
2.391934
2.526641
2.606511
2.823472
3.628731
12.192726
40.935874
140.008926
277.238488
589.476824
931.371450
1015.681624
1015.681624
1015.681624
1015.681624
1015.681624
1015.681624
983.895063
668.658018
329.502821
178.567767
63.520670
27.361512
21.273494
28.176904
44.180751
59.491992
83.501935
102.656484
123.050809
130.209923
128.208995
119.652748
100.517869
83.449483
61.107874
45.736432
31.210780
23.917556
18.243790
16.631484
15.892982
16.988516
17.625690
17.800927
19.128919
20.030737
20.085573
20.390749
20.723939
21.295547
21.979809
21.688938
22.271872
21.982789
22.472739
22.618771
22.183657
22.590756
23.053885
22.489429
22.398829
21.926761
22.057891
22.265911
22.284985
21.922588
21.647811
21.964908
##ZVALUE=305
1.153946
0.921488
1.102686
1.210570
1.052618
0.993609
1.189709
1.032948
1.076460
1.337528
1.330972
1.337528
1.309514
1.260638
1.164675
1.232624
1.451969
1.404881
1.283884
1.364946
1.377463
1.598597
1.487732
1.562834
1.858473
1.829863
1.902580
2.081990
2.004504
1.954436
2.243519
2.460480
2.688766
3.131628
6.425977
22.360682
95.209479
208.628774
476.205945
764.936805
1015.681624
1015.681624
1015.681624
1015.681624
1015.681624
1015.681624
1015.681624
873.131752
461.957455
250.049829
95.219612
40.371418
17.981529
19.111633
28.567910
40.549636
61.796904
79.981685
101.583004
113.469958
124.482512
123.775601
113.669634
101.347566
78.633428
63.250661
44.464469
33.399463
24.103522
20.494461
19.315481
19.338727
19.156933
19.480586
20.292997
20.913482
20.784736
21.381974
21.759868
22.224784
22.203922
22.811890
22.937655
23.014545
23.633838
23.298860
22.668839
23.150444
23.165941
22.878647
22.776723
22.358894
22.078753
22.164583
21.724701
21.395683
##ZVALUE=310
0.892878
0.894666
0.856519
0.980496
0.886917
0.874996
0.750422
0.881553
0.789762
0.908971
0.974536
0.976920
0.890493
1.063943
1.136661
0.937581
1.064539
1.221895
1.183748
1.075864
1.315475
1.054406
1.298785
1.363754
1.368523
1.425743
1.532435
1.731515
1.608729
1.675487
1.915693
2.074838
2.056956
2.284646
2.334714
2.869964
3.485680
9.501576
53.642988
129.612684
322.555900
557.826757
976.060033
1015.543938
1015.543938
1015.543938
1015.543938
1015.543938
1015.543938
1015.543938
648.404956
386.531949
162.441730
73.233843
23.313761
15.056729
18.585920
24.690628
38.242936
51.082969
73.566437
88.775754
108.067989
115.719438
118.944645
112.263560
97.533464
82.864761
60.352683
46.449900
33.515692
27.583838
22.832751
21.255612
21.191835
20.969510
20.892620
21.388531
21.244884
21.818876
22.394657
23.282766
22.727847
22.786856
23.547411
23.383498
23.946762
23.832917
23.312569
23.419857
22.953749
22.692680
22.605658
22.268891
22.528768
22.206903
##ZVALUE=315
1.017451
0.881553
1.090765
0.917912
1.025796
1.029968
0.886917
0.985861
1.091957
1.018643
1.080632
1.075864
1.146793
1.164675
1.086593
1.205802
1.015663
1.256466
1.201630
1.393557
1.331568
1.266599
1.528859
1.469851
1.257658
1.483560
1.733899
1.664758
1.757741
1.821518
1.846552
1.912713
1.881719
2.138615
2.175570
2.213717
2.600551
2.950430
3.008842
5.840659
21.773577
92.274547
201.107860
457.766652
763.456821
1015.678644
1015.678644
1015.678644
1015.678644
1015.678644
1015.678644
1015.678644
930.522680
497.604012
267.900825
96.556544
38.250685
14.950633
13.445616
18.052459
23.475885
35.918951
49.268603
69.267750
85.487962
104.369521
112.305880
113.247633
107.887983
92.420578
78.804493
62.134862
48.330426
35.521984
29.421449
24.218559
22.321939
22.233725
21.598935
22.067428
22.336841
22.689700
22.990704
23.182631
23.525953
24.130940
23.488998
24.076700
24.358630
23.962855
23.342967
23.838878
23.400784
22.744536
22.819638
22.704601
##ZVALUE=320
0.926852
0.894666
0.927448
0.743866
0.919700
1.062751
0.932813
0.986457
0.941753
0.973940
0.953674
0.883937
1.244545
1.040697
1.106858
1.024604
0.996590
1.202822
1.201630
1.245737
1.248717
1.006722
1.247525
1.250505
1.194477
1.312494
1.305938
1.302958
1.421571
1.312494
1.477599
1.486540
1.720786
1.850724
1.876950
1.904964
1.972914
2.267957
2.336502
2.613664
2.734661
3.806949
10.039806
53.500533
135.683417
351.651907
588.959455
981.758833
1015.655994
1015.655994
1015.655994
1015.655994
1015.655994
1015.655994
1015.655994
684.171915
393.012762
159.064531
67.811608
20.294785
12.949705
13.778806
16.227961
22.477508
31.779408
48.904419
62.636733
82.555413
96.376538
107.903481
109.613538
105.520487
94.992518
76.894760
62.565804
46.720505
37.240982
29.023886
25.784969
23.392439
23.024678
22.652745
22.373796
23.407936
23.517609
23.421645
23.619533
24.034977
23.820996
23.472905
24.141669
23.393631
23.251772
23.136735
23.300648
22.989511
##ZVALUE=325
0.966787
0.875592
0.893474
0.996590
0.977516
0.943542
0.923872
0.882745
0.879765
0.984669
1.010895
1.090765
1.146793
1.121759
0.980496
1.106858
1.084805
1.173615
1.098514
1.104474
1.269579
1.247525
1.096725
1.170635
1.146793
1.407862
1.190901
1.375675
1.208782
1.353621
1.341701
1.416802
1.549721
1.667738
1.562834
1.795888
1.874566
1.762509
1.976490
2.250671
2.133846
2.227426
2.688766
2.994537
5.471706
33.598542
94.420910
256.393552
461.417437
862.959623
1015.681624
1015.681624
1015.681624
1015.681624
1015.681624
1015.681624
1015.681624
817.930698
508.330464
226.207972
104.535818
29.896498
14.357567
12.027621
13.114810
16.709566
21.855831
33.678412
45.697689
64.455867
79.180002
95.122457
102.083683
105.337501
100.455880
86.586475
74.135661
58.332682
46.659708
35.514832
29.991865
25.673509
24.080873
23.313761
23.822784
23.191571
23.211837
23.309588
23.734570
23.401976
23.866892
23.604631
22.644997
23.200512
23.016930
22.968650
##ZVALUE=330
1.030564
0.887513
0.893474
0.917912
0.882745
0.926852
1.087785
0.850558
1.000762
0.976920
1.051426
1.041889
1.092553
1.125932
0.984669
0.899434
0.889897
1.112819
1.105666
1.135468
1.231432
1.207590
1.111627
1.281500
1.256466
1.174808
1.296997
1.257658
1.356602
1.255870
1.435876
1.479983
1.500845
1.411438
1.599789
1.576543
1.679659
1.819730
1.818538
1.840591
1.986623
2.198815
2.233982
2.310872
2.435446
2.709627
3.756881
15.494823
49.254894
163.225532
318.557024
657.060742
977.139473
1015.737653
1015.737653
1015.737653
1015.737653
1015.737653
1015.737653
971.165895
643.533468
303.441882
152.277946
52.721500
21.221638
12.165904
12.091994
13.861656
16.981959
24.363995
31.799674
45.690536
59.806705
78.694820
90.287924
99.411607
99.971890
94.655752
85.326433
69.128871
57.798624
43.978691
35.896897
29.999614
26.567578
24.599433
24.083853
23.510456
23.646951
23.035407
23.038983
22.632480
22.222996
22.493601
22.520423
22.593737
##ZVALUE=335
0.798702
0.844598
0.946522
0.834465
1.052618
0.922680
0.983477
0.817776
0.867844
1.011491
0.910759
0.926852
0.761747
0.852942
0.974536
0.901818
0.970960
0.926852
1.011491
1.161695
1.074672
1.060963
0.981688
0.928640
1.184940
1.079440
1.202822
1.227856
1.268983
1.103878
1.041889
1.177788
1.238585
1.336932
1.168847
1.409650
1.412630
1.498461
1.626611
1.492500
1.622438
1.836419
1.916885
1.878738
2.051592
2.553463
2.490878
2.748966
3.089905
7.268786
26.121736
104.626417
221.675038
510.605574
837.242007
1015.681624
1015.681624
1015.681624
1015.681624
1015.681624
1015.681624
1015.681624
830.022097
442.164540
231.831670
77.312589
29.986501
13.707876
12.415648
13.365746
14.571548
17.877817
22.898912
33.252835
43.874979
60.108900
72.627664
86.209774
92.140436
94.140768
90.769529
79.739690
69.692731
54.939985
45.524836
36.632419
30.532479
26.074648
23.739934
22.522807
22.250414
22.494793
22.245646
21.892786
21.924973
22.135973
##ZVALUE=340
0.873804
0.803471
0.794530
0.795722
0.723600
0.899434
0.760555
0.827909
0.871420
0.754595
0.856519
0.933409
0.738502
0.981688
0.963807
1.006722
1.023412
0.906587
0.830889
0.972748
0.949502
0.935793
0.919700
0.965595
0.973940
0.952482
1.158714
0.962615
1.073480
0.978708
1.274943
1.303554
1.187921
1.130700
1.151562
1.157522
1.394749
1.246929
1.315475
1.400709
1.420975
1.540780
1.449585
1.749992
1.657605
2.048612
2.169609
2.158880
2.378821
2.673864
2.702475
4.389882
12.408495
63.288808
155.714750
389.302969
673.857927
1015.681624
1015.681624
1015.681624
1015.681624
1015.681624
1015.681624
1015.681624
967.244506
519.960523
289.991498
116.409659
45.699477
15.784502
13.147593
13.579726
14.236569
16.086698
18.180609
24.302602
32.039881
44.432878
55.755973
71.906447
81.967711
89.529753
89.518428
84.942579
78.211427
65.361857
56.024790
43.666959
36.500692
29.602647
25.852919
22.816658
22.107959
21.336675
21.240711
21.083951
##ZVALUE=345
0.770688
0.855923
0.925660
0.815988
0.879765
0.842810
0.819564
0.822544
0.905991
0.946522
0.990629
0.921488
0.965595
0.906587
0.787973
0.901818
0.976920
0.988841
0.938773
0.928640
0.880957
1.012683
0.907779
1.115799
1.005530
1.072884
1.095533
1.013875
1.092553
1.127720
0.929832
1.159906
1.135468
1.041889
1.197457
1.209974
1.255870
1.238585
1.315475
1.258850
1.316667
1.462698
1.451969
1.582503
1.526475
1.657605
1.670718
1.806617
1.823902
2.205968
2.157688
2.496839
2.593994
3.277659
5.769730
34.928918
97.343922
260.178447
473.513007
890.770555
1015.718579
1015.718579
1015.718579
1015.718579
1015.718579
1015.718579
1015.718579
682.212710
389.164686
155.669451
69.508553
22.883415
14.260411
13.256669
13.622642
13.793707
14.884472
17.653704
22.004843
30.999780
40.415525
55.377483
65.228939
75.415969
81.532001
83.994865
81.526637
73.548555
65.470934
53.349733
44.264793
34.369826
29.021502
24.378896
22.381544
20.565987
##ZVALUE=350
0.727773
0.787973
0.798702
0.759959
0.721812
0.773668
0.871420
0.827909
0.711679
0.941753
0.791550
0.817776
0.813603
0.784993
0.659823
0.887513
0.870824
0.911951
0.547767
0.987649
1.153946
1.054406
0.912547
0.832677
1.065731
1.103878
1.000762
0.964999
0.995994
1.084805
1.083612
1.048446
1.218915
1.045465
0.995994
0.987649
1.198649
1.114607
1.218915
1.141429
1.273751
1.268983
1.294613
1.367927
1.467466
1.418591
1.650453
1.563430
1.620650
1.696944
1.923442
1.888871
2.130866
2.247691
2.408624
2.840757
3.754497
18.433928
55.587888
173.902512
342.603922
711.011887
1012.845635
1015.681624
1015.681624
1015.681624
1015.681624
1015.681624
1015.681624
822.460651
499.495864
222.508907
102.415681
29.205680
14.820695
12.897849
12.793541
12.823939
13.408661
14.506578
17.079711
22.409558
27.893782
38.122535
46.699643
59.394836
67.466497
73.914528
76.904893
75.072646
69.918633
59.373975
51.142573
40.748715
34.006834
27.256608
##ZVALUE=355
0.922680
0.785589
0.783801
0.808835
0.814795
0.801682
0.830889
0.717640
0.895858
0.767708
0.861883
0.805855
0.897646
0.803471
0.825524
0.838637
0.791550
0.888705
0.773668
0.856519
0.948906
0.845790
0.800490
1.023412
0.913739
1.061559
0.960827
1.008511
1.056790
0.988841
1.062751
1.002550
1.156926
0.878572
0.972748
1.171827
1.126528
1.205802
1.271963
1.118779
1.098514
1.328588
1.402497
1.283884
1.438856
1.394749
1.410842
1.580715
1.651645
1.508594
1.614690
1.752973
1.782775
2.045631
2.047420
2.161860
2.433658
2.667904
3.199577
9.195805
32.856464
124.033689
255.047679
543.030500
869.840980
1015.659571
1015.659571
1015.659571
1015.659571
1015.659571
1015.659571
968.529582
622.950792
273.412466
129.991770
40.208697
17.469525
12.197495
11.861920
12.298822
12.726784
12.986660
14.052987
16.025901
19.189715
25.549531
32.263994
42.559505
50.992966
61.583519
67.117810
70.266724
69.557428
64.295530
57.411790
47.663450
##ZVALUE=360
0.875592
0.838637
0.777841
0.929832
0.872612
0.881553
0.739694
0.832677
0.839829
0.919700
0.875592
0.913739
0.874996
0.979900
0.858903
0.842810
0.961423
0.906587
1.010895
0.912547
0.860691
0.944734
1.024604
0.820756
0.942945
1.040697
1.006722
1.061559
1.144409
1.113415
1.058578
1.045465
0.953674
1.148582
1.088977
1.241565
1.166463
1.230836
1.215935
1.190901
1.374483
1.272559
1.329780
1.229644
1.195669
1.488924
1.446605
1.325607
1.413822
1.568794
1.561642
1.658797
1.690984
1.951456
1.860857
2.118945
2.164841
2.501607
2.368689
2.781749
3.244877
4.792809
15.625954
70.964694
169.256926
414.331555
689.883828
1015.681624
1015.681624
1015.681624
1015.681624
1015.681624
1015.681624
1015.681624
764.185786
375.122428
194.808841
70.554614
27.643442
12.510419
11.568666
11.572838
11.704564
11.892915
12.252927
12.961626
13.731718
17.462969
21.002889
27.945638
35.025477
45.626760
53.009987
59.883595
63.230991
63.619614
##ZVALUE=365
0.801682
0.714660
0.898838
0.715852
0.847578
0.853539
0.786781
0.808835
0.949502
0.855923
0.689626
0.776649
0.824928
0.844598
0.912547
0.835657
0.849962
0.833869
1.008511
0.974536
1.053810
0.916719
0.958443
0.938773
1.025796
1.063943
1.035929
1.063943
1.082420
0.939965
0.972748
1.094937
0.982881
1.049638
0.948906
1.088977
1.042485
1.030564
1.168847
1.157522
1.103878
1.275539
1.337528
1.220703
1.297593
1.534820
1.430511
1.211762
1.228452
1.516938
1.519918
1.417994
1.462698
1.710653
1.736879
1.755953
1.948476
2.010465
2.103448
2.315640
2.453923
2.752542
3.041625
3.430843
6.829500
37.435889
101.814866
263.755918
492.922664
932.940841
1015.682817
1015.682817
1015.682817
1015.682817
1015.682817
1015.682817
932.021737
517.329574
281.236768
103.092790
40.419698
13.797879
11.197925
10.623932
11.050701
10.870695
11.242628
11.662841
11.709929
12.885928
14.469624
18.970966
23.689866
31.292439
38.153529
47.559738
##ZVALUE=370
0.769496
0.623465
0.810623
0.828505
0.676513
0.627637
0.772476
0.890493
0.836849
0.859499
0.659823
0.817776
0.859499
0.848770
1.070499
0.871420
0.793934
0.899434
0.880957
1.010895
1.006722
0.879765
0.929832
0.810623
0.987649
0.896454
0.971556
1.020432
0.994802
0.993609
1.018643
1.003742
1.007915
1.117587
1.114607
1.065731
1.128912
1.069903
1.077652
1.074672
1.193881
1.197457
1.212955
1.279712
1.186728
1.151562
1.330972
1.178980
1.411438
1.271963
1.346469
1.565814
1.383424
1.547933
1.676679
1.714826
1.605749
1.603961
1.667738
1.885891
1.873970
2.131462
2.336502
2.586842
2.826452
3.114939
4.090667
17.674565
61.605573
202.651620
379.037857
732.768774
1015.681624
1015.681624
1015.681624
1015.681624
1015.681624
1015.681624
1015.681624
665.059686
384.268761
152.340531
67.203641
19.909739
11.022687
9.993911
9.927750
9.858608
9.953976
9.878874
10.065436
10.645986
11.463761
13.382435
16.115904
20.984411
##ZVALUE=375
0.954866
0.690818
0.744462
0.803471
0.789762
0.712872
0.748634
0.828505
0.736713
0.936985
0.904799
0.853539
0.950694
0.891685
0.734925
0.883937
0.903606
0.768900
0.834465
0.884533
0.801682
0.960827
0.990629
0.875592
0.876784
0.945926
0.956655
0.932813
0.877976
0.885725
0.992417
1.080632
0.865459
0.968575
0.881553
1.019835
1.020432
1.200438
0.999570
1.183748
1.233816
1.216531
1.050830
1.223683
1.169443
1.179576
1.211762
1.235604
1.136661
1.245737
1.180768
1.193881
1.327991
1.303554
1.372695
1.323819
1.558661
1.669526
1.560450
1.560450
1.630783
1.816750
1.863837
1.998544
2.054572
2.141595
2.349615
2.797842
3.403425
8.793473
31.359792
122.044683
265.346766
610.876083
963.097811
1015.685797
1015.685797
1015.685797
1015.685797
1015.685797
1015.685797
856.346488
530.839562
243.411660
118.982792
36.507845
14.854670
9.250641
9.224415
8.970499
9.146929
9.509921
9.116530
9.622574
9.898543
10.641813
##ZVALUE=380
0.719428
0.721812
0.704527
0.729561
0.773668
0.753999
0.572801
0.706911
0.786781
0.692606
0.849962
0.804663
0.752807
0.828505
0.776649
0.797510
0.740886
0.793934
0.711679
0.807643
0.650883
0.771880
0.812411
1.093745
0.914931
0.855923
0.963807
0.961423
0.756979
0.756979
0.893474
0.970960
0.849962
0.892878
1.136661
0.969768
0.872612
0.951886
0.968575
1.057982
1.080632
0.960827
1.003742
0.866652
0.777841
1.031756
1.200438
1.205802
1.152754
1.085997
1.191497
1.207590
1.169443
1.210570
1.113415
1.312494
1.288652
1.345873
1.291633
1.527667
1.434684
1.531839
1.567602
1.654625
1.755953
1.792908
2.081990
2.005696
2.411604
2.979636
3.217459
5.389452
18.027425
84.509850
200.463533
491.133928
812.928677
1015.681624
1015.681624
1015.681624
1015.681624
1015.681624
1015.681624
1014.373899
729.403496
364.883542
191.779733
65.460801
24.922490
9.738803
8.275509
8.258820
8.214712
8.279681
8.318424
8.657575
##ZVALUE=385
0.726581
0.828505
0.753999
0.607967
0.639558
0.740886
0.813603
0.711679
0.668764
0.839829
0.725985
0.746846
0.893474
1.010895
0.685453
0.737906
0.724792
0.785589
0.792742
0.832677
0.798702
0.888705
0.757575
0.865459
0.926852
0.725985
0.839829
0.759959
0.759959
0.872612
0.717640
0.757575
0.778437
0.748634
0.840425
0.984669
0.917912
0.896454
0.869632
0.837445
0.754595
0.768900
0.824928
0.955462
0.904799
0.930429
1.106858
1.157522
0.985861
0.953674
1.029968
1.064539
1.142621
1.015663
1.200438
1.130700
1.207590
1.139641
1.228452
1.145601
1.466870
1.348853
1.227856
1.396537
1.405478
1.510978
1.663566
1.962781
2.062917
2.245903
2.456903
2.751946
2.862811
3.521442
9.078979
49.465895
125.104785
320.259333
572.374463
999.454856
1015.684009
1015.684009
1015.684009
1015.684009
1015.684009
1015.683413
932.998657
514.302850
291.943550
119.721889
47.349930
12.555718
8.146763
7.625818
7.326603
7.586479
##ZVALUE=390
0.660419
0.565648
0.805855
0.660419
0.716448
0.695586
0.682473
0.659823
0.677705
0.616908
0.671744
0.813603
0.550747
0.669956
0.757575
0.795722
0.714660
0.673532
0.711679
0.816584
0.770688
0.694990
0.649691
0.747442
0.763535
0.732541
0.683665
0.658631
0.885725
0.916719
0.926852
0.910759
0.742674
0.800490
0.889897
0.780821
0.852942
0.822544
0.830889
0.889897
0.862479
0.756979
1.001954
1.048446
0.906587
0.827909
0.908971
0.991821
0.823736
0.913739
0.896454
0.946522
0.960827
0.938773
1.125932
1.118779
1.020432
1.076460
1.100898
1.128912
1.230836
1.203418
1.176000
1.342893
1.373887
1.521707
1.624823
1.642704
1.832843
1.881719
2.216697
2.415776
2.472997
2.635717
2.702475
2.813935
5.024672
28.913617
89.228749
262.490511
487.077832
926.599503
1015.682817
1015.682817
1015.682817
1015.682817
1015.682817
1015.682817
1015.682817
710.936785
408.431888
165.616870
73.513985
19.464493
8.914471
7.308722
##ZVALUE=395
0.725985
0.555515
0.556707
0.699759
0.712872
0.851750
0.755787
0.591874
0.730753
0.564456
0.593662
0.743866
0.610948
0.697970
0.736713
0.776649
0.746846
0.662804
0.790954
0.731945
0.741482
0.780821
0.548959
0.540614
0.727773
0.726581
0.847578
0.666976
0.768900
0.831485
0.775456
0.805855
0.666976
0.706911
0.820756
0.713468
0.761747
0.755787
0.684857
0.813603
0.891685
0.856519
0.970960
0.836849
0.895858
0.879765
0.789762
0.996590
0.871420
0.840425
0.938773
0.959635
0.961423
1.130700
1.012683
1.087785
0.966787
0.917912
1.012683
1.095533
1.157522
1.340508
1.257658
1.126528
1.286864
1.566410
1.591444
1.625419
1.632571
1.942515
2.072453
2.067685
2.274513
2.347827
2.024770
2.422929
2.485514
2.791882
3.500581
17.910600
67.063570
216.184855
391.246676
721.675754
1008.562446
1015.681624
1015.681624
1015.681624
1015.681624
1015.681624
1015.681624
863.247514
542.251468
249.340534
117.220879
35.580993
##ZVALUE=400
0.527501
0.674725
0.861883
0.721812
0.579953
0.555515
0.662804
0.492930
0.767708
0.558496
0.697970
0.772476
0.669956
0.706911
0.624657
0.800490
0.594854
0.637770
0.589490
0.677705
0.697970
0.747442
0.723600
0.720620
0.742674
0.823736
0.579953
0.730753
0.668764
0.751615
0.947714
0.735521
0.697970
0.763535
0.851750
0.732541
0.720620
0.851750
0.912547
0.882745
1.009703
0.797510
0.760555
1.024604
0.884533
0.755787
0.755787
0.879765
0.914931
1.059771
0.932813
1.067519
0.851750
0.942945
0.939965
1.014471
0.975728
1.125932
1.064539
1.021624
1.074672
1.092553
1.170635
1.247525
1.233816
1.243949
1.343489
1.590848
1.758933
1.763701
1.884699
1.949668
2.012849
1.987815
1.899600
1.958609
2.148747
2.146959
2.265573
2.560616
2.824664
8.808970
33.994913
130.056739
281.324983
594.700575
934.943557
1015.673876
1015.673876
1015.673876
1015.673876
1015.673876
1015.673876
977.127552
654.146671
326.259732
##END
