##TITLE=QP00302
##FORMAT=SPECTACLE-ASCII V-1.2
##DATA TYPE=ULTRAVIOLET SPECTRUM
##SECOND TYPE=ULTRAVIOLET SPECTRUM
##DATE=10/03/17
##TIME=12:08:09
##SPECTROMETER/DATA SYSTEM=SPECTACLE
##XUNITS=NM EM
##YUNITS=ENERGY
##YFACTOR=1
##FIRSTX=220
##LASTX=410
##NPOINTS=96
##3DDATA=Equidistant
##ZUNITS=NM EX
##FIRSTZ=210
##LASTZ=400
##ZPOINTS=39
##XYDATA=(Y..Y)
##ZVALUE=210
3.294945
2.457500
2.844930
3.092885
3.547668
3.507733
3.895760
4.067421
4.663467
4.422665
5.630851
5.363822
6.004572
5.146861
6.891489
6.631613
6.824732
9.187460
8.035898
8.614659
8.867979
10.770559
10.788441
11.356473
12.466908
13.065934
12.896657
14.182925
15.109777
15.809536
15.529990
15.375614
16.071796
15.918612
16.621947
16.966462
19.886494
19.424558
17.126799
17.668605
20.609498
20.254850
19.378662
20.148754
20.629764
21.833777
21.241903
21.271706
23.401976
22.740960
22.276640
24.596453
24.998784
23.524761
23.384690
23.214817
23.099780
25.733709
25.269985
23.683906
24.451613
25.414824
25.459528
24.755001
27.362704
30.190945
30.768514
33.311844
42.020679
49.093962
61.821938
66.581964
84.631443
93.615651
108.566880
116.207600
124.435425
123.873949
125.319958
125.563741
118.183494
111.358762
96.390843
85.032582
67.944527
54.460764
40.340424
36.143661
30.209422
27.190447
25.397539
27.475953
25.488734
24.286509
24.887919
25.807619
##ZVALUE=215
9.537935
10.011792
9.845495
7.677674
7.252693
6.463528
5.179644
6.521940
6.273985
6.528497
7.204413
7.614493
8.089542
7.748604
7.031560
7.787943
7.584691
8.520484
9.590983
10.248423
9.973645
10.536909
12.002587
11.610985
11.878610
13.220906
13.492703
14.765859
14.601946
14.419556
16.647577
15.431643
16.866922
16.278625
17.273426
18.696785
16.903877
16.928911
17.362833
18.351674
19.024611
17.525554
19.697547
20.614862
20.015836
21.416545
20.706654
21.831989
22.272468
21.179914
20.962954
20.332932
21.349788
22.014976
21.384954
23.008585
21.975636
23.721457
23.524761
25.208592
22.641420
24.500489
22.575855
25.578737
24.900436
25.942922
27.746558
27.631521
31.529665
34.970641
41.068792
49.933791
57.003498
64.345002
72.313547
77.582598
79.172850
82.833767
79.092979
81.691742
72.395802
68.395734
52.364469
47.856569
38.177967
30.655861
25.772452
22.377968
19.726753
18.741488
18.835664
19.602776
18.206835
18.984675
18.486977
16.548634
##ZVALUE=220
39.661527
42.127967
43.673515
46.895742
39.802790
36.255717
29.135942
19.397736
12.449622
10.278821
11.839867
12.433529
11.869669
13.336539
10.151863
9.603500
8.435845
8.369684
7.854700
8.174777
8.369684
8.855462
10.391474
10.721684
9.320974
10.801554
11.205673
11.042953
12.471676
12.815595
12.959838
13.969541
14.754534
13.813972
14.382601
15.290976
15.380979
16.718507
15.710592
15.416741
16.179681
15.732646
16.809702
17.006993
17.359853
18.205643
18.569827
19.419789
17.953515
20.471811
20.083785
20.992756
20.454526
22.867918
21.159649
20.668507
19.553900
21.299720
20.703673
20.043850
22.849441
24.525523
24.213791
23.595691
23.353696
24.269819
27.732849
29.701591
30.209422
36.151409
41.145682
49.804449
55.585504
66.339970
72.036982
76.703429
80.741644
75.326562
78.697801
73.492527
72.850585
64.481497
60.606599
49.954653
46.476722
36.236644
32.157898
27.711987
24.564862
24.707913
23.008585
22.349954
23.090839
22.248626
20.772815
21.121502
##ZVALUE=225
76.553822
76.052547
102.607608
141.346455
158.393979
166.969895
159.083009
132.412910
101.886988
76.080561
46.320558
30.252934
25.263429
26.441813
26.302934
25.520921
22.593737
19.426942
17.290711
13.698936
12.033582
10.713935
10.283589
11.600852
10.346770
10.540485
12.952685
13.368726
12.929440
13.471842
12.949705
15.470982
15.057921
14.979839
15.447736
15.830994
15.755892
15.556812
16.944408
15.263557
18.460751
17.822981
17.809868
19.031763
19.312501
18.626451
19.578934
19.758940
21.419525
21.195412
22.229552
21.614432
22.269487
21.064878
22.383928
22.697449
23.663640
23.638606
24.709702
24.154782
26.403666
26.324987
26.273727
27.525425
27.407408
25.089979
28.484464
31.835437
35.848618
42.376518
44.455528
54.877996
56.633949
69.718957
69.794655
74.586868
74.183941
70.281625
73.290467
69.341660
62.068701
56.344867
50.682425
46.981573
43.542981
36.610961
34.438968
29.794574
28.017759
28.626919
27.970672
26.865602
26.082993
26.107430
26.636720
25.650859
##ZVALUE=230
45.804977
51.674843
89.161992
156.549811
210.050941
292.089581
333.997011
357.109904
338.775516
282.682776
222.315788
151.493549
88.417530
59.964657
49.847960
47.877431
50.671697
48.377514
44.936538
36.043525
30.407906
22.922754
16.251802
13.266802
11.697412
11.825562
12.600422
12.515783
11.795759
12.976527
11.891723
12.941957
13.735890
14.177561
13.960600
14.981627
16.621947
16.469955
16.542673
16.627908
17.275810
16.674995
17.849803
17.569661
19.894838
19.246936
19.377470
18.545985
20.574927
19.447803
20.260811
21.445751
22.340417
22.818446
21.971464
22.003651
23.396611
24.803877
25.139451
24.356842
23.927689
25.025606
25.971532
26.997924
29.567480
29.238462
29.168725
29.827952
34.432411
37.140846
39.999485
47.704577
51.913857
56.492686
59.352517
59.842467
58.444738
58.183670
59.714913
57.050586
53.428411
48.113465
44.364929
41.802526
40.113926
37.265420
34.537911
33.366680
32.279491
31.126738
29.624701
30.776858
29.261708
28.430820
28.800964
29.660463
##ZVALUE=235
17.957687
19.166470
57.199597
112.672448
222.014785
334.350467
498.009920
610.822439
688.652992
690.591931
596.574545
480.175614
361.965895
220.833421
144.381523
90.918541
72.161555
74.389577
81.545711
79.724789
75.498819
66.823959
52.026510
39.158463
27.574897
19.793510
15.428662
13.147593
10.870695
11.783838
11.282563
12.086630
12.754798
13.518929
13.287663
14.368892
12.549758
12.311935
14.084578
16.039610
15.446544
14.271736
15.708804
16.204715
17.675757
17.380714
17.353892
16.685724
17.759800
18.526912
18.196702
18.595457
21.058917
20.607710
19.368529
22.210479
21.655560
23.816824
24.001598
24.834871
26.359558
27.033687
27.690530
27.661920
29.783845
29.531717
31.273961
33.700466
36.596656
42.248964
46.441555
49.736500
55.897832
60.997605
61.968565
62.503815
62.923431
63.359737
60.978532
60.088634
58.071613
53.656697
48.921704
48.542619
45.097470
41.719675
42.276978
39.883852
38.025975
39.595962
39.504766
38.711429
39.071441
37.096739
36.717653
37.413836
##ZVALUE=240
2.906919
3.759861
10.674000
28.908849
82.201958
155.185461
318.273902
496.068001
747.165680
912.040472
1015.681624
1015.681624
944.705009
747.729540
574.753881
345.863700
228.231549
137.630701
106.584430
98.575950
109.699965
113.671422
113.672614
99.999905
83.616972
67.745447
47.966838
35.672784
24.545789
19.282699
15.290976
13.710856
12.111664
13.583899
12.950897
12.998581
12.349486
12.720823
14.001727
13.761520
14.151931
15.956759
14.738441
15.841722
14.994740
15.265942
16.657710
18.415451
16.278625
18.082857
17.772913
18.325448
19.030571
20.568967
20.020604
23.908615
20.415783
21.003485
24.436712
23.343563
26.763678
26.685596
25.709867
27.489662
29.129982
31.344891
29.733777
34.269691
38.998723
41.218996
43.402910
45.997500
51.234961
56.538582
58.903694
61.523914
60.258508
59.214830
57.162642
58.537722
57.171583
53.831935
51.070452
49.801469
48.456788
48.569441
46.516657
45.587420
45.368671
46.274662
46.256781
45.376420
44.466853
42.844415
43.907762
43.013692
##ZVALUE=245
2.727509
2.765656
2.749562
2.765656
6.346703
17.534494
55.277944
121.304989
284.813643
451.022983
749.956369
953.450799
1015.668511
1015.668511
1015.668511
995.751023
824.142694
544.149876
364.612937
201.972723
135.150552
107.483864
113.860965
122.846961
127.214789
119.746923
110.446811
92.912912
69.727898
53.298473
36.691427
27.413964
19.024611
13.579726
13.376474
12.676716
12.732744
12.571812
11.876822
13.005733
13.986826
13.370514
13.730526
13.136864
13.289452
14.188886
14.612675
15.266538
15.367866
15.797615
15.250444
16.794801
18.594861
17.832518
16.865730
18.472672
19.060969
19.596815
19.897819
20.223856
20.995736
22.608638
24.271607
25.397539
24.584532
27.736425
28.823614
32.226443
33.639669
35.551786
38.186908
43.616891
47.053695
49.303770
50.361753
51.073432
53.576827
52.060485
51.986575
51.246881
50.515532
46.495795
45.573711
48.363805
47.903657
45.475960
46.193600
42.701960
44.466853
42.290688
43.454766
41.050911
43.678880
41.997433
42.478442
42.473674
##ZVALUE=250
2.248883
2.449751
2.530813
2.698898
2.696514
2.878904
3.637671
13.960600
39.004683
89.948773
231.796503
407.735705
703.667998
928.117037
1015.681624
1015.681624
1015.681624
1015.681624
1015.751958
787.300467
536.919832
284.283757
177.042484
111.903548
105.159879
118.940473
128.859878
139.369965
133.461952
119.405985
104.357600
77.979565
58.434606
36.621690
25.552511
16.997457
13.766885
12.145638
12.334585
12.306571
11.004806
12.219548
11.769533
12.668967
13.553500
13.157725
12.738705
13.864636
14.195442
12.759566
14.066696
15.077591
15.908480
15.915632
16.481876
16.655922
17.091632
17.395616
18.961430
18.307567
19.367933
19.838810
19.341707
22.160411
21.827817
22.488832
24.488568
26.337504
27.000904
33.199787
34.404993
36.693811
39.956570
42.324662
44.182539
47.078729
45.951605
45.157671
47.620535
44.833422
43.619871
44.372678
41.243434
42.370558
41.449666
39.396882
40.644407
40.214658
41.419864
40.112734
39.663911
39.628744
38.712621
40.105581
39.803982
41.804910
##ZVALUE=255
2.133846
2.017617
2.057552
2.330542
2.302527
2.684593
2.505779
3.302693
2.854466
5.845428
31.418800
79.622865
166.756511
371.172428
594.044924
948.829651
1015.682817
1015.682817
1015.682817
1015.682817
1015.682817
1015.682817
676.051974
425.947905
213.732719
137.510896
101.611614
105.596781
125.139952
139.502883
144.783854
141.815543
130.778551
103.985667
83.374977
56.338906
39.191842
23.944974
17.944574
12.943745
11.044741
11.914968
11.927485
10.928512
11.221766
12.185574
11.671782
11.889935
12.588501
13.005733
13.463497
13.101697
13.260841
13.396740
14.488697
14.822483
14.780760
16.469955
16.726851
16.392469
17.123818
17.607808
17.827749
18.609762
19.013882
20.450950
21.783710
22.177696
23.162961
26.794672
29.098988
31.168461
34.498572
34.829974
37.553906
38.664937
38.080812
38.118958
39.564967
37.481785
37.938952
39.160848
37.169456
36.627650
36.810637
36.422610
35.967827
36.396980
35.832524
36.528707
38.244724
36.979914
35.504699
36.038756
35.930872
37.247539
##ZVALUE=260
2.090931
2.083778
2.114773
1.990795
2.169609
2.195835
2.115965
2.886653
2.563596
2.753735
2.735853
3.720522
17.928481
48.162937
137.006640
274.163485
568.983555
844.432712
1015.681624
1015.681624
1015.681624
1015.681624
1015.681624
1015.681624
964.846611
570.033789
359.861851
183.184743
113.707781
94.588995
100.838542
127.691627
144.258738
151.236653
145.799518
126.934648
111.651421
82.338452
62.387586
39.593577
27.699471
18.220544
13.101697
11.670589
11.347532
10.753870
11.908412
10.670424
11.637807
12.547970
12.127757
12.345910
12.725592
12.984872
12.806654
12.980700
13.886690
14.215708
15.328526
14.944673
16.717911
17.148852
16.934872
18.396974
18.094778
20.088553
19.759536
20.740628
21.695495
23.877621
25.270581
30.588508
30.315518
31.367540
33.189654
33.471584
34.210682
34.601688
35.072565
34.000874
34.806728
33.621788
36.245584
34.784675
34.508705
34.053922
32.058954
32.959580
33.605695
34.123659
33.833981
33.754706
34.545660
35.653710
35.340786
34.833550
##ZVALUE=265
2.046824
1.891851
1.772642
1.920462
2.124906
1.953840
2.292991
2.287626
2.085567
2.370477
2.382994
2.675653
2.622604
3.303885
7.705688
37.613511
94.464421
255.044699
471.285582
902.320743
1015.653610
1015.653610
1015.653610
1015.653610
1015.653610
1015.653610
1015.653610
876.648426
497.184992
288.556814
161.213875
86.874962
83.301663
110.353827
127.864480
149.590969
154.235959
148.518682
132.469535
108.859539
83.812475
57.371855
42.140484
25.854707
18.268824
14.343858
12.182593
12.185574
12.283921
12.860894
12.505651
12.452602
12.781620
13.254881
13.677478
14.223456
14.835596
14.501810
14.799833
15.700459
15.344620
16.333461
15.722513
16.712546
17.399788
18.758774
19.005537
19.791722
21.096468
22.681952
24.395585
26.891828
28.697848
30.891895
31.363964
32.053590
33.069849
32.495856
31.613708
31.567812
32.040477
30.565858
31.824708
31.039715
31.713843
30.659437
31.222701
31.268597
31.177998
32.130480
32.062531
31.981468
30.639768
32.763481
32.474995
32.597780
##ZVALUE=270
1.939535
1.649857
1.726747
1.942515
1.850724
1.807809
1.911521
2.118945
2.033710
2.049804
2.382994
2.440810
2.704859
2.705455
2.741814
3.047585
4.782677
13.853908
62.264800
162.839890
362.419486
780.150890
1015.681624
1015.681624
1015.681624
1015.681624
1015.681624
1015.681624
1015.681624
1015.681624
765.219927
398.385525
223.175883
98.474622
72.396994
86.605549
107.363462
135.193467
148.733854
157.523751
151.884556
133.269429
113.775730
83.017945
62.274933
41.244626
28.490424
18.923879
15.200973
13.425946
13.356805
12.038946
12.912750
13.464689
13.849735
14.075637
14.093518
14.968514
14.740825
15.752912
15.315413
16.659498
16.891956
17.343760
17.291903
18.658638
18.694997
19.150972
20.542741
22.071600
23.542643
24.770498
26.072860
28.411746
29.384494
29.519796
30.325651
30.289888
30.554533
30.060410
30.193925
29.023886
29.314756
28.759837
28.801560
29.185414
30.795932
30.260682
28.946996
29.540658
29.596686
29.637814
29.604435
30.521750
29.634833
29.988885
##ZVALUE=275
1.584888
1.460910
1.723766
1.654625
1.731515
1.776814
1.783967
1.540780
1.845956
1.958609
1.889467
1.904964
2.314448
2.068877
2.555847
2.618432
2.716780
2.916455
3.437996
7.928610
28.588772
83.643794
266.595483
513.035655
975.585580
1015.681624
1015.681624
1015.681624
1015.681624
1015.681624
1015.681624
1015.681624
1015.681624
589.951873
334.167480
137.643814
72.206855
63.581467
82.340837
110.110641
129.613876
148.909688
154.057741
148.031712
133.232474
107.225776
87.448955
62.254667
46.074986
28.930902
21.822453
15.816689
14.883876
13.461709
14.174581
14.013648
13.901591
14.226437
15.016794
15.326738
16.383529
16.141534
17.065406
17.414689
17.565489
17.825961
18.074512
19.829869
21.034479
21.714568
22.413731
24.464726
25.869608
26.875734
27.755499
28.254986
28.771758
28.746724
28.863549
28.018951
28.424859
28.303862
28.219819
28.098822
28.425455
28.565526
28.184652
28.254986
28.150678
28.346777
28.085709
28.218627
27.696490
28.178692
28.153658
29.032826
##ZVALUE=280
1.731515
1.588464
1.761913
1.737475
1.827478
1.795888
1.598597
1.755953
1.897812
2.017617
1.733899
1.949668
2.076626
1.929998
2.106428
2.235770
2.654791
2.569556
2.783537
2.690554
3.208518
4.074574
18.553734
63.031912
210.879445
407.930017
800.220966
1015.771627
1015.771627
1015.771627
1015.771627
1015.771627
1015.771627
1015.771627
1015.771627
803.050995
485.124588
202.867985
95.400810
52.315593
58.756471
84.776878
106.533766
132.558942
146.198869
151.643753
146.614909
128.265619
111.070871
82.461834
64.022541
42.034984
30.975938
21.369457
17.196536
15.309453
14.760494
14.605522
15.363693
16.280413
15.790462
16.559958
16.972423
17.878413
18.846989
18.764734
18.958449
19.868612
20.659566
21.133423
23.017526
24.934411
25.983453
26.588440
27.200580
28.152466
28.318763
27.405620
27.765632
27.105808
26.948452
26.993752
27.919412
27.993917
28.278828
27.013421
27.051568
28.460622
27.779937
26.984811
27.260780
26.903749
27.445555
26.826859
27.359724
27.706623
##ZVALUE=285
1.350641
1.418591
1.461506
1.590848
1.478791
1.497865
1.690984
1.548529
1.441836
1.743436
1.639724
1.943707
1.668930
1.882911
1.686811
1.996756
2.186894
2.302527
2.116561
2.411604
2.582669
2.979636
2.863407
3.825426
8.209944
40.977001
105.618834
295.092463
533.639789
973.583460
1015.681624
1015.681624
1015.681624
1015.681624
1015.681624
1015.681624
1015.681624
964.486003
618.872643
281.623006
137.988925
55.101514
41.901469
57.120919
77.541471
104.491711
124.116540
142.464638
149.480700
143.945813
130.513906
110.421777
88.488460
63.127875
46.717525
30.860901
22.427440
17.769933
16.280413
15.097857
16.275644
15.625954
16.704798
17.005801
17.435551
17.460585
18.564463
19.511580
19.813776
21.208525
22.033453
23.813844
23.926497
24.911761
25.809407
25.600791
26.795864
26.304722
26.440620
26.272535
26.196837
26.385784
26.430488
26.753545
27.017593
26.652813
26.470423
26.978850
27.095675
26.835799
25.979877
26.252866
26.389956
26.633739
26.178956
25.944710
##ZVALUE=290
1.378655
1.218915
1.306534
1.429915
1.483560
1.220703
1.346469
1.475811
1.580715
1.513958
1.529455
1.535416
1.612902
1.799464
1.867414
1.889467
1.754761
1.931787
1.993775
1.997948
2.153516
2.447963
2.786517
2.859831
3.186464
3.319979
4.836917
13.763905
66.421628
164.443851
335.459709
723.950863
1015.681624
1015.681624
1015.681624
1015.681624
1015.681624
1015.681624
1015.681624
1015.681624
821.018815
409.807563
209.758878
73.429942
37.019849
37.558675
51.858425
74.217916
94.773769
119.612813
136.317611
143.719912
142.656565
129.049420
109.557509
82.173944
63.946843
43.114424
32.329559
22.768974
19.238591
17.006993
16.402602
16.452670
17.075539
16.846657
17.666817
18.378496
19.317865
20.316839
21.415949
22.435784
23.533702
24.662614
24.679899
25.724769
25.097728
25.941730
25.631785
25.532842
25.724769
25.758743
26.010871
26.090741
26.283860
26.020408
26.855469
25.997758
26.109815
26.440620
25.929809
26.710629
26.192665
26.004910
25.752783
26.303530
##ZVALUE=295
1.349449
1.286864
1.158714
1.362562
1.380444
1.446605
1.193881
1.332760
1.420975
1.290441
1.440644
1.374483
1.502633
1.512766
1.738667
1.679659
1.691580
1.645684
1.892447
1.662970
1.880527
2.171993
2.392530
2.336502
2.653599
2.868772
2.791882
3.244877
3.760457
6.768703
36.713481
109.186769
255.634785
611.333847
971.519947
1015.681624
1015.681624
1015.681624
1015.681624
1015.681624
1015.681624
1015.681624
999.431610
542.011857
295.950770
107.652545
48.236847
27.489662
32.893419
49.983859
67.853928
92.829466
111.328959
130.581856
136.123896
133.734941
125.728846
102.160573
85.246563
60.583949
47.013760
32.149553
25.005937
19.993782
18.031597
17.502904
17.979741
18.359423
19.302964
20.363927
20.666718
21.857619
22.887588
23.569465
24.295449
24.727583
24.581552
24.844408
25.273561
25.620461
26.146770
25.887489
24.868846
26.144981
26.704669
26.275516
26.631951
26.681423
26.265979
26.271939
25.747418
25.972724
25.830865
25.762916
25.749803
25.300980
##ZVALUE=300
1.192689
1.298785
1.249909
1.288652
1.183748
1.352429
1.401901
1.413822
1.333952
1.287460
1.390576
1.532435
1.417994
1.476407
1.452565
1.539588
1.587868
1.617670
1.613498
1.724958
1.663566
1.968741
1.822710
2.206564
2.302527
2.413988
2.633929
2.709627
2.985597
2.894998
3.356934
4.338622
15.694499
55.516958
192.064643
385.791659
821.614861
1015.682817
1015.682817
1015.682817
1015.682817
1015.682817
1015.682817
1015.682817
1015.682817
878.166556
436.508656
233.600736
82.232952
34.614801
23.712516
30.573606
46.473742
62.181950
86.834431
105.949640
124.660730
131.488442
129.078627
123.220682
102.921724
85.467696
63.218474
48.995614
33.778548
26.450753
21.419525
19.812584
19.453764
19.855499
21.114945
22.176504
22.653937
23.215413
23.806691
24.411678
25.576949
25.369525
24.566650
24.356842
25.611520
25.980473
25.547743
25.762916
26.383996
27.049780
26.873946
27.246475
26.960969
26.687980
26.142597
26.228428
26.553869
25.966763
25.199652
25.741458
##ZVALUE=305
1.266599
1.246929
1.157522
1.061559
1.299977
1.213551
1.255870
1.215935
1.151562
1.388788
1.307726
1.386404
1.332760
1.447797
1.402497
1.316667
1.388788
1.485944
1.542568
1.579523
1.674891
1.766682
1.835823
1.739860
2.057552
1.972914
2.008677
2.344847
2.670884
2.340674
2.808571
3.034472
3.348589
3.733635
8.349419
29.042959
124.311447
280.203819
655.241609
998.647809
1015.681624
1015.681624
1015.681624
1015.681624
1015.681624
1015.681624
1015.681624
1015.681624
588.920712
327.544808
126.560926
51.777959
20.885468
20.740628
30.881763
42.793751
63.840747
80.264807
102.382898
115.497708
126.556754
126.345754
114.563704
101.858974
81.073642
63.721538
46.107769
36.334991
27.233958
23.766756
21.648407
21.241903
22.388697
23.094416
23.791790
24.417639
25.018454
24.829507
25.089979
25.592446
26.133657
25.537610
26.400685
26.364923
26.458502
26.436448
27.555823
26.722550
26.546717
26.574731
27.216673
26.521683
26.296973
26.263595
26.086569
25.679469
##ZVALUE=310
1.134872
1.113415
1.203418
1.171827
1.208782
1.122952
1.164675
1.168847
1.331568
1.283884
1.352429
1.385808
1.216531
1.209974
1.351833
1.436472
1.445413
1.460910
1.571774
1.530647
1.522899
1.772642
1.579523
1.653433
1.985431
1.952648
1.826882
2.024770
2.252460
2.013445
2.318621
2.664924
2.648830
2.971888
3.299713
3.456473
4.338622
15.419722
54.154992
194.180608
396.447778
859.670639
1015.712619
1015.712619
1015.712619
1015.712619
1015.712619
1015.712619
1015.712619
1015.712619
958.078504
482.266545
254.653692
86.893439
32.529831
16.947985
20.154715
28.626919
39.007664
57.100654
73.798895
95.985532
107.874870
119.223595
120.374560
112.576485
101.276636
82.398653
65.441728
48.156977
38.977861
29.707551
26.822686
24.296641
23.924708
23.791790
24.253726
23.839474
24.452806
24.861693
25.120974
26.069880
25.737882
26.624799
26.612878
25.960803
26.854873
26.512742
26.444793
26.884675
26.689768
26.647449
26.584864
26.367903
26.127696
25.760531
##ZVALUE=315
0.987649
1.004934
1.141429
1.153946
1.237988
1.222491
1.169443
0.958443
1.139641
1.207590
1.299977
1.189709
1.225471
1.208782
1.170635
1.342893
1.247525
1.204610
1.294613
1.406670
1.505613
1.438856
1.628995
1.441836
1.537800
1.660585
1.559854
1.630783
1.703501
2.010465
2.136827
2.052784
2.389550
2.334714
2.304912
2.826452
3.126860
3.397465
3.722906
7.568598
27.754903
124.280453
281.364918
659.153461
1015.675664
1015.675664
1015.675664
1015.675664
1015.675664
1015.675664
1015.675664
1015.675664
1015.675664
667.938590
362.089872
127.650499
49.640536
17.793775
15.739799
19.928813
25.710464
39.011836
51.546693
71.796775
86.411834
105.041862
114.352703
116.017461
110.395551
96.134543
82.066655
64.908862
50.926805
38.806796
31.737685
26.964545
25.066733
23.985505
24.431944
24.831891
24.979711
24.563670
25.233626
25.882721
26.152730
26.749969
26.879907
26.583672
26.823878
26.805997
26.552677
26.136637
26.396513
26.197433
25.840998
25.690794
##ZVALUE=320
0.880957
0.915527
0.886917
0.953674
1.019835
1.157522
1.121759
1.071692
1.018643
0.996590
0.876784
1.083612
1.064539
1.013875
0.990629
0.991821
1.097918
1.185536
1.186728
1.166463
1.181960
1.334548
1.399517
1.277924
1.219511
1.530647
1.385808
1.527667
1.701713
1.538992
1.616478
1.754761
2.000928
1.843572
1.965761
2.056956
2.500415
2.842546
2.760887
2.871752
3.204942
4.775524
13.288856
71.848631
189.725757
504.118800
855.976939
1015.548706
1015.548706
1015.548706
1015.548706
1015.548706
1015.548706
1015.548706
1015.548706
876.774788
504.052639
211.577415
90.885758
25.115609
14.838576
15.366673
18.156767
24.845600
32.776594
48.886538
63.243508
85.283518
98.503828
108.958483
111.192465
105.436444
95.928907
78.248978
64.814687
48.256516
39.060712
30.840635
27.134418
24.611950
25.040507
25.189519
24.546981
26.013851
26.235580
25.998950
26.405454
26.157498
25.947690
26.438832
25.284886
25.607944
25.543571
26.001930
25.445819
25.279522
##ZVALUE=325
1.079440
0.976920
1.014471
1.244545
1.110435
1.011491
1.049638
1.039505
1.050830
0.966787
1.079440
1.233816
1.011491
1.204610
1.179576
1.099706
1.029968
1.141429
1.085997
1.191497
1.320839
1.213551
1.292825
1.284480
1.656413
1.439452
1.492500
1.476407
1.624823
1.667738
1.643896
1.543760
1.830459
1.917481
1.811981
1.840591
2.088547
2.033710
2.280474
2.482533
2.719760
3.176928
3.485680
4.060864
7.433891
47.046542
126.744509
345.522761
638.302565
1015.682817
1015.682817
1015.682817
1015.682817
1015.682817
1015.682817
1015.682817
1015.682817
1015.682817
677.169561
297.569633
136.794448
37.687421
16.888976
13.981462
15.017986
18.137693
23.710728
34.734607
47.121644
67.051649
80.557466
97.190738
104.461908
107.663870
101.915598
88.754892
75.732470
60.362816
48.468709
36.831498
31.077862
27.275681
26.300550
25.457740
25.347471
25.249720
25.219917
25.448799
25.688410
26.039481
25.641918
25.307536
25.364757
25.490522
24.932623
25.431514
##ZVALUE=330
0.955462
0.962615
0.886917
0.887513
0.954866
0.787973
0.974536
0.997782
0.950694
1.027584
1.124740
1.118779
1.148582
1.102686
1.074672
1.080632
1.088977
1.115799
1.074672
1.185536
1.173615
1.116991
1.217723
1.255870
1.496673
1.404881
1.383424
1.435876
1.513958
1.376867
1.438856
1.445413
1.524687
1.560450
1.648664
1.924634
1.837611
2.059937
1.992583
2.182722
2.399683
2.244711
2.480745
2.854466
3.146529
3.653765
4.702806
21.029711
68.674684
231.880546
462.244749
947.685838
1015.681624
1015.681624
1015.681624
1015.681624
1015.681624
1015.681624
1015.681624
1015.681624
899.331570
421.970487
212.440491
70.428848
25.524497
13.947487
13.863444
15.626550
18.361807
25.324821
33.364892
47.825575
61.921477
78.987479
92.168450
100.975633
101.827979
95.282793
86.598992
71.130991
58.985949
45.396686
38.072467
31.804442
28.663874
26.383996
25.259852
25.198460
24.552941
24.775863
24.780631
24.546981
24.662614
24.902821
24.371743
24.538636
##ZVALUE=335
1.062751
1.096725
0.901818
1.013875
0.896454
0.971556
0.951886
0.891685
0.952482
0.956655
1.025796
0.968575
1.049638
0.965595
1.196861
1.197457
1.067519
1.128912
1.140833
1.178980
1.078844
1.146793
1.372695
1.418591
1.196861
1.321435
1.283884
1.399517
1.306534
1.212955
1.367927
1.350641
1.449585
1.545548
1.710653
1.638532
1.738667
1.804829
1.807809
1.873970
2.028942
1.975894
2.029538
2.545714
2.602935
2.665520
3.212690
3.478527
3.848672
9.477735
35.219789
146.596432
316.941738
722.464919
1015.688777
1015.688777
1015.688777
1015.688777
1015.688777
1015.688777
1015.688777
1015.688777
1015.688777
607.856512
313.186646
100.839734
38.416982
15.805960
14.585853
14.819503
16.376972
19.633770
24.901628
35.654902
46.128631
63.284636
75.869560
88.309646
95.473528
96.333623
91.673732
81.407428
71.077943
56.750774
47.264695
38.010478
31.996965
27.473569
26.045442
24.441481
24.129748
23.893714
23.847818
23.886561
23.948550
23.646951
##ZVALUE=340
0.910759
0.743866
0.856519
0.842810
0.993609
0.866652
0.754595
0.983477
0.927448
1.010895
0.914931
0.918508
0.988841
0.940561
0.934601
0.983477
0.964999
0.968575
0.870824
1.081824
0.968575
1.099706
1.014471
1.155734
1.068711
1.196861
1.006722
1.158714
1.212955
1.264811
1.400709
1.428723
1.387596
1.620650
1.543760
1.527667
1.514554
1.440644
1.682639
1.592636
1.779795
1.905560
1.918674
2.159476
2.188683
2.282858
2.453923
2.570748
2.966523
3.096461
3.605485
5.273819
17.004609
92.613697
228.165388
565.621853
960.693955
1015.681624
1015.681624
1015.681624
1015.681624
1015.681624
1015.681624
1015.681624
1015.681624
768.254995
425.198674
168.212652
63.546896
19.220710
15.319586
15.284419
15.949607
17.511845
19.997954
26.055574
32.703876
45.415759
56.862831
72.704554
83.512664
90.155602
91.359615
87.397695
80.810785
67.311525
57.307482
45.435429
37.830472
30.885935
27.167797
24.786592
23.192763
23.236871
23.008585
23.300648
##ZVALUE=345
0.752807
0.685453
0.785589
0.841618
0.933409
0.877976
1.011491
0.926852
0.947714
0.892878
0.818968
0.894666
0.818968
0.813603
0.873804
0.763535
0.798702
0.835657
0.871420
0.970960
0.996590
0.996590
0.932813
0.935793
1.059771
1.099706
1.110435
0.920892
1.083612
0.984669
1.099706
1.288652
1.200438
1.185536
1.215935
1.295805
1.285672
1.376867
1.494884
1.516938
1.470447
1.775622
1.704693
1.573563
1.673698
2.088547
1.919866
2.019405
2.256632
2.291799
2.527833
2.939701
3.122687
3.737807
7.893443
49.877763
143.411756
396.023989
717.083812
1015.589833
1015.589833
1015.589833
1015.589833
1015.589833
1015.589833
1015.589833
1015.589833
970.640779
575.777888
227.716565
98.576546
29.024482
16.600490
15.170574
15.382767
15.667677
16.364455
19.189715
23.350716
31.808615
40.853620
54.672956
65.278411
77.675581
82.884431
85.477829
82.556605
74.975491
66.222548
54.401755
45.002699
35.407543
30.475855
25.878549
23.561716
22.125840
##ZVALUE=350
0.997782
0.918508
0.924468
0.716448
0.848770
0.828505
0.946522
0.842810
0.792742
0.963807
0.860691
0.960827
0.981688
0.938773
0.970960
0.980496
0.955462
1.000762
0.848770
0.965595
1.046658
1.041889
0.909567
1.091957
0.893474
1.130700
1.160502
1.195669
1.118779
1.210570
1.307726
1.222491
1.388788
1.295805
1.320839
1.361966
1.417994
1.529455
1.502633
1.492500
1.543760
1.365542
1.569986
1.599789
1.759529
1.841784
1.888871
2.011657
2.034903
2.086759
2.325773
2.717972
2.749562
2.842546
3.203750
3.447533
4.934669
24.580956
76.621771
244.313478
487.443805
975.700617
1015.681624
1015.681624
1015.681624
1015.681624
1015.681624
1015.681624
1015.681624
1015.681624
724.150538
322.744846
146.023631
38.674474
17.736554
14.375448
14.338493
14.336705
15.017986
15.797615
18.214583
23.458600
29.276609
39.220452
47.684908
60.219765
68.237782
76.313615
77.461600
75.916648
70.750713
60.369968
52.887797
42.316914
35.338998
29.055476
##ZVALUE=355
0.869632
0.980496
0.914931
0.696778
0.757575
0.773668
0.822544
0.818968
0.753999
0.752807
0.934601
0.943542
0.820756
0.861883
0.886917
0.827909
1.040697
0.906587
0.898838
0.850558
1.075864
0.866652
1.033545
0.951886
1.038909
1.016855
1.113415
1.075864
1.082420
1.096725
1.100898
1.230836
1.167655
1.191497
1.135468
1.232624
1.307726
1.354814
1.401901
1.570582
1.417994
1.402497
1.482964
1.477599
1.469851
1.735687
1.712441
1.902580
1.822710
1.978874
1.962781
2.294779
2.350807
2.265573
2.526641
2.777576
3.008842
3.360510
4.173517
9.343624
53.817630
142.790675
394.671559
709.331036
1015.599966
1015.599966
1015.599966
1015.599966
1015.599966
1015.599966
1015.599966
1015.599966
829.452872
462.516546
186.672807
75.825453
21.136999
14.154911
13.762712
13.638735
13.743639
14.291406
15.481710
17.088652
21.685958
25.451779
34.638643
42.974949
53.471923
61.794519
68.926811
70.941448
69.428682
64.935684
57.293773
49.623847
##ZVALUE=360
0.871420
0.976920
0.851750
0.876784
0.908971
0.800490
0.963807
0.857711
0.992417
0.867844
1.023412
1.048446
1.159906
1.221895
1.073480
0.838637
1.044869
0.988841
0.969768
1.087785
0.960827
1.123548
1.180768
1.075864
1.169443
1.133680
1.211762
1.162887
1.282692
1.278520
1.163483
1.116991
1.243949
1.108646
1.296997
1.311898
1.405478
1.463890
1.601577
1.396537
1.560450
1.563430
1.558661
1.683831
1.627803
1.608729
1.728535
1.784563
1.733899
2.043843
2.027750
2.002716
2.175570
2.314448
2.399683
2.701879
2.740622
2.894998
3.138781
3.731847
4.068613
6.339550
19.624829
87.620020
210.556388
528.308749
913.713574
1015.681624
1015.681624
1015.681624
1015.681624
1015.681624
1015.681624
1015.681624
1015.681624
606.141686
317.415595
111.242533
41.243434
14.971495
13.539791
13.517737
13.311505
13.548732
13.906956
14.377832
15.944839
18.230677
21.816492
29.180646
36.503673
47.046542
53.883791
61.291456
64.045787
65.045953
##ZVALUE=365
1.008511
0.943542
0.975728
0.982881
0.874996
0.892878
0.987649
0.970960
1.071692
0.841618
0.941753
1.035929
0.918508
1.092553
0.899434
1.033545
0.940561
1.004934
0.988841
1.244545
1.003742
1.142621
1.136661
1.093745
1.080632
1.099706
1.161695
1.341701
1.149774
1.144409
1.296997
1.121759
1.117587
1.100898
1.237988
1.327991
1.391768
1.318455
1.451969
1.362562
1.362562
1.485944
1.415610
1.566410
1.600981
1.569986
1.829863
1.658797
1.669526
1.808405
1.801848
1.973510
1.792908
2.124906
1.868606
2.232790
2.355576
2.613664
2.564788
2.829432
3.158450
3.574491
3.882647
4.525781
8.802414
48.450828
131.254792
354.751945
667.982697
1015.655994
1015.655994
1015.655994
1015.655994
1015.655994
1015.655994
1015.655994
1015.655994
842.821002
461.995602
168.516636
65.333843
18.273592
12.846589
12.292862
12.486577
12.350678
12.424588
12.431741
12.941957
13.857484
15.782714
19.958615
24.731755
32.439828
39.850473
48.328638
##ZVALUE=370
0.853539
0.963807
1.000762
0.916719
0.940561
0.957847
0.999570
0.840425
0.805855
1.062751
0.846982
1.021624
1.151562
1.023412
1.019835
0.984669
0.888705
1.116991
1.035929
1.055598
1.178980
1.117587
1.128912
0.985861
1.043677
1.219511
1.093745
1.149774
1.103878
1.124740
1.144409
1.021624
1.206994
1.105666
1.316667
1.236796
1.159906
1.211762
1.147985
1.388788
1.264811
1.308918
1.299977
1.458526
1.453757
1.502633
1.429915
1.493692
1.645684
1.584888
1.678467
1.767874
1.757741
1.709461
1.997948
1.908541
1.847744
2.162457
2.283454
2.714992
2.729893
2.843738
2.931952
3.239512
3.420711
3.911853
5.525947
24.520755
83.101988
278.427601
526.545644
992.350578
1015.681624
1015.681624
1015.681624
1015.681624
1015.681624
1015.681624
1015.681624
968.116522
587.942600
241.413713
111.638904
33.384562
14.409423
11.167526
11.384487
10.850430
11.221766
11.379719
11.359453
11.640787
12.389421
14.624000
17.324686
22.262931
##ZVALUE=375
0.855923
0.844598
0.752807
0.843406
0.808835
0.860691
0.971556
1.003742
0.851750
1.066923
1.007915
0.951886
1.077652
0.994802
1.011491
0.855923
0.886917
0.874996
0.952482
1.121759
0.985861
1.204610
1.004934
1.047850
1.097918
0.947714
1.136661
1.032948
0.975728
1.025796
1.077652
1.090765
1.102686
1.080632
1.238585
1.226664
1.109838
1.248717
1.248717
1.282692
1.126528
1.254678
1.287460
1.208782
1.299977
1.315475
1.324415
1.311898
1.431704
1.471639
1.468658
1.542568
1.597404
1.521707
1.591444
1.681447
1.595616
1.817942
1.846552
1.923442
2.157688
2.186894
2.220869
2.385974
2.525449
2.771616
2.972484
3.710985
4.218817
12.968779
48.615932
181.518793
388.777852
868.060589
1015.681624
1015.681624
1015.681624
1015.681624
1015.681624
1015.681624
1015.681624
1015.681624
817.586780
397.400856
205.109715
63.462853
22.126436
10.927916
10.244846
10.175705
9.966493
10.231733
10.189414
10.449886
10.651946
11.525750
##ZVALUE=380
0.842810
0.877976
0.788569
0.846982
0.713468
0.818968
0.781417
0.812411
0.853539
0.753999
0.835657
0.846982
0.932813
0.867844
1.006722
0.859499
0.902414
0.887513
0.930429
0.928640
0.808835
0.848770
0.835657
0.928640
0.934601
0.879765
1.016855
0.861883
0.936985
0.961423
0.820756
1.083612
1.114607
0.974536
0.976920
1.053810
0.992417
0.943542
0.989437
1.166463
1.103878
1.077652
1.249909
1.053810
1.183748
1.179576
1.281500
1.244545
1.301765
1.272559
1.395941
1.357794
1.375675
1.259446
1.318455
1.416802
1.494884
1.590848
1.632571
1.625419
1.760721
1.916885
1.833439
2.071857
2.131462
2.194643
2.394915
2.733469
3.167987
3.625751
4.176497
7.140636
26.422739
129.334927
297.011733
701.463819
1015.650630
1015.650630
1015.650630
1015.650630
1015.650630
1015.650630
1015.650630
1015.650630
1015.650630
580.377579
312.695503
113.348961
41.405559
12.097955
9.770989
9.645820
9.343624
9.012818
9.673834
9.601712
##ZVALUE=385
0.858903
0.787973
0.801682
0.593662
0.730753
0.885725
0.720620
0.832677
0.772476
0.860691
0.846982
0.742674
0.987649
0.843406
0.744462
0.926852
0.824928
0.778437
0.805855
0.688434
0.884533
0.899434
0.751615
0.885725
0.945926
1.152754
0.895858
0.987649
0.842810
1.074672
0.944734
0.848770
0.984669
0.929832
1.004934
1.056790
1.019835
1.076460
1.061559
0.934601
1.032948
0.906587
1.099706
1.088977
1.170635
1.127720
1.090765
1.270771
1.102686
1.144409
1.125932
1.205802
1.259446
1.297593
1.199841
1.504421
1.381636
1.406670
1.351833
1.450777
1.502633
1.685619
1.780987
1.693964
1.810789
1.850724
2.109408
2.414584
2.451539
2.917647
3.184676
3.591776
4.077554
4.901886
12.914538
77.287555
201.565623
513.727665
900.852680
1015.681624
1015.681624
1015.681624
1015.681624
1015.681624
1015.681624
1015.681624
1015.681624
852.921009
515.867472
225.160718
91.019869
18.650889
9.684563
8.646846
8.638501
8.549690
##ZVALUE=390
0.792742
0.663996
0.621676
0.710487
0.891685
0.847578
0.682473
0.775456
0.931621
0.815988
0.718832
0.712872
0.847578
0.944734
0.804663
0.939965
0.639558
0.805855
0.987649
0.765920
0.855923
0.814795
0.845790
0.859499
0.950694
0.874996
0.761747
1.034737
0.978708
0.807643
0.974536
0.942945
0.960827
0.898838
0.925660
0.972748
1.003742
0.991821
0.846982
1.104474
0.969768
0.998974
1.095533
0.956655
1.015663
1.191497
1.220703
0.972748
1.145601
1.002550
1.090765
1.020432
1.124740
1.280904
1.285672
1.331568
1.170635
1.365542
1.214743
1.511574
1.397729
1.480579
1.533628
1.488924
1.904964
1.860857
1.931787
2.176762
2.479553
2.715588
3.003478
3.050566
3.156662
3.282428
3.526807
4.045963
6.649494
38.871765
125.756860
393.068790
743.569732
1015.681624
1015.681624
1015.681624
1015.681624
1015.681624
1015.681624
1015.681624
1015.681624
1015.681624
763.406754
352.584720
171.615481
41.697621
12.398958
8.758903
##ZVALUE=395
0.821948
0.658631
0.762939
0.752807
0.839829
0.711679
0.708699
0.874996
0.749826
0.678897
0.805855
0.719428
0.690818
0.707507
0.589490
0.789762
0.835657
0.710487
0.847578
0.853539
0.874996
0.814795
0.812411
0.933409
0.821948
0.770688
0.962615
0.890493
0.896454
0.786781
0.863671
0.871420
0.806451
0.965595
0.869632
1.010895
1.029968
1.047850
1.023412
0.955462
1.051426
0.921488
1.079440
0.822544
1.027584
0.989437
1.080632
1.056790
1.257658
1.014471
1.198649
1.100898
1.197457
1.086593
1.125932
1.468658
1.321435
1.247525
1.290441
1.320839
1.285672
1.310706
1.367927
1.656413
1.534820
1.709461
1.866817
1.901984
2.368689
2.485514
2.646446
2.802610
2.702475
2.850890
2.916455
3.158450
3.104806
3.630519
4.269481
21.360517
81.063509
280.682445
542.753935
1003.174782
1015.681624
1015.681624
1015.681624
1015.681624
1015.681624
1015.681624
1015.681624
1015.681624
882.470012
456.965566
236.955881
82.026720
##ZVALUE=400
0.533462
0.711679
0.782609
0.644922
0.736713
0.755787
0.751615
0.877976
0.644922
0.756979
0.708699
0.702739
0.791550
0.646710
0.780821
0.673532
0.836849
0.631809
0.767708
0.776649
0.878572
0.762939
0.830889
0.969768
0.932813
0.762939
0.896454
0.922680
0.914931
0.802875
0.879765
0.799894
0.826716
0.854731
0.892878
1.039505
0.902414
0.871420
0.925660
0.937581
0.956655
0.949502
0.935793
1.048446
1.098514
0.940561
1.048446
1.019835
1.096725
0.998974
0.941753
1.155734
1.115799
1.001954
1.155734
1.264811
1.121759
1.281500
1.480579
1.402497
1.465678
1.353621
1.367927
1.499653
1.466870
1.744628
1.711845
2.039671
2.055764
2.405643
2.640486
2.640486
2.841949
2.517700
2.624989
2.705455
2.650619
2.905726
3.091693
3.481507
3.844500
11.043549
44.221878
177.884698
375.228524
822.196007
1015.681624
1015.681624
1015.681624
1015.681624
1015.681624
1015.681624
1015.681624
1015.681624
963.272452
500.756502
##END
