##TITLE=QP00652
##FORMAT=SPECTACLE-ASCII V-1.2
##DATA TYPE=ULTRAVIOLET SPECTRUM
##SECOND TYPE=ULTRAVIOLET SPECTRUM
##DATE=10/03/17
##TIME=13:06:48
##SPECTROMETER/DATA SYSTEM=SPECTACLE
##XUNITS=NM EM
##YUNITS=ENERGY
##YFACTOR=1
##FIRSTX=220
##LASTX=410
##NPOINTS=96
##3DDATA=Equidistant
##ZUNITS=NM EX
##FIRSTZ=210
##LASTZ=400
##ZPOINTS=39
##XYDATA=(Y..Y)
##ZVALUE=210
3.141761
3.499985
2.975464
2.733469
3.176928
3.272891
3.645420
3.697872
3.512502
3.545880
3.348589
3.718734
4.513860
4.907846
4.111528
4.678965
4.260540
5.348921
4.678965
5.509853
5.851984
6.081462
6.656647
7.136464
7.384419
5.883574
7.939935
7.417798
8.849502
8.156896
8.813739
8.407831
8.538961
8.261800
10.177493
9.420514
9.318590
9.791851
9.540915
10.319948
9.518862
12.626648
10.877848
10.543466
10.586977
9.487867
11.369586
11.208653
11.106730
12.174845
11.443496
11.457801
11.835694
12.048483
11.872649
11.987686
11.881590
13.273954
13.731718
12.758970
14.193654
14.050603
14.786720
14.281869
14.134645
14.733672
14.995933
15.746951
17.115474
21.854639
25.218725
29.124618
36.668777
38.640499
42.689443
43.261647
49.149990
46.947598
44.759512
43.263435
39.268732
34.416914
31.185746
27.592778
24.148822
19.518733
16.283989
13.822913
12.241602
12.373924
12.201667
11.931658
12.778640
13.105869
12.976527
13.659596
##ZVALUE=215
11.203885
9.788871
8.784533
6.450415
5.654693
5.342960
5.160570
4.723668
6.493926
5.873442
5.858541
6.191730
5.201697
5.295873
4.920959
5.157590
4.595518
5.558729
6.177425
5.157590
5.466938
6.233454
6.397963
6.698966
6.513000
7.174611
8.471608
7.418990
7.792711
9.205937
7.364750
7.847548
8.666515
8.149743
7.928610
8.665919
8.637905
9.415746
9.299517
9.898543
9.403825
9.279847
9.410977
10.158420
10.031462
9.274483
10.967851
10.745525
10.108948
11.073947
10.787845
10.713935
11.718869
12.007952
12.936592
12.226701
11.500716
12.008548
12.391806
12.366772
12.310743
12.912750
12.769699
13.081431
13.025999
14.147758
14.611483
14.477968
16.685724
20.371675
22.212863
27.403831
30.199885
34.162998
37.766695
42.926669
44.814944
45.843720
47.086477
44.386983
41.147470
34.515858
30.282736
26.036501
20.489693
17.377734
15.685558
14.388561
12.845993
13.520718
11.720657
11.700988
11.785626
12.415648
11.931658
11.842847
##ZVALUE=220
38.189888
43.075681
45.443773
47.859550
42.894483
30.862689
24.563670
17.147660
12.051463
12.137890
11.489987
12.840629
13.092756
11.957884
11.128783
9.121895
7.957816
7.105470
6.974936
7.274747
7.131696
7.432699
7.217526
7.579923
8.222461
8.761883
9.809732
8.353591
10.340810
9.462833
9.786487
10.943413
9.560585
10.611415
9.728670
11.306405
12.069941
10.348558
11.729598
10.901690
10.705590
11.744499
11.363626
11.221766
11.578798
11.397600
11.548996
13.231635
12.936592
12.090802
12.712479
14.296770
12.775660
13.134480
14.226437
14.646649
15.327930
14.143586
14.581680
12.816787
14.454722
14.380813
14.413595
15.175939
16.002655
15.753508
18.771887
18.345714
19.903779
26.480556
27.517676
33.036470
36.422610
38.840771
42.839646
45.169592
47.749877
45.562983
46.814680
48.240423
43.366551
37.591457
34.877658
29.106736
25.401711
20.050406
17.944574
15.880466
14.426708
13.577938
14.571548
14.588833
14.379621
13.846755
13.085604
12.778640
##ZVALUE=225
60.946941
64.768791
88.995695
117.619634
125.628710
126.587749
112.254620
80.335736
58.549643
39.709806
26.716590
23.274422
22.629499
24.842620
24.791956
23.853779
20.466447
18.158555
15.785694
11.495948
9.031892
7.720590
7.922649
7.484555
7.992983
8.433461
9.094477
8.638501
9.353757
10.323524
9.576678
10.155439
9.923577
9.323955
11.026859
10.170937
11.082888
10.771751
11.091828
11.374950
11.059642
10.910630
11.151433
10.965466
11.628866
12.386441
13.233423
12.570620
13.308525
13.815761
12.275577
12.888908
13.041496
13.110638
14.147758
14.797449
14.158487
14.698505
14.446974
15.217662
13.976693
14.674664
15.059710
15.828609
14.549494
16.809702
17.928481
18.912554
19.853711
21.181703
24.663806
29.412508
32.273531
33.221841
37.150979
37.540793
35.031438
36.770701
36.168694
36.866665
33.731461
32.209754
27.344823
23.496747
22.157431
19.112825
17.556548
15.832782
15.029907
15.200973
13.834834
14.715791
13.698936
13.635755
13.323426
12.782812
##ZVALUE=230
43.551922
49.866438
77.519417
126.803517
170.381665
216.119885
239.854455
236.685872
218.964815
174.574852
127.329826
90.998411
56.131482
48.138499
44.538975
46.192408
50.201416
47.272444
41.790605
38.944483
28.411746
21.947622
14.111996
10.028481
9.327531
7.832646
9.166598
8.855462
8.951426
9.690523
9.450912
10.173917
10.662675
9.522438
9.592772
9.635687
10.224581
8.842945
9.920597
10.559559
10.057688
10.335445
10.615587
10.235906
11.011958
11.919737
11.844635
11.005998
11.824965
11.704564
13.065934
13.569593
14.191866
13.934970
13.142824
13.529658
14.248490
15.043616
13.999939
15.901923
15.588999
15.948415
15.904903
15.307665
16.800761
16.896725
16.566515
18.156767
19.193888
22.932887
21.934509
25.561452
28.548837
31.114817
32.971501
33.219457
34.337640
31.760931
31.197667
28.796792
28.158426
25.491714
24.535656
21.008849
22.040606
20.056963
18.208623
17.934442
17.853975
17.201900
16.946793
17.041564
17.669797
16.895533
16.491413
17.257929
##ZVALUE=235
13.186932
18.147826
36.801696
100.548863
178.205967
300.705433
415.681005
579.958558
647.811890
644.087791
594.661832
489.048958
324.109793
218.329430
139.451623
96.516609
76.940656
76.479912
84.015727
81.212521
77.992678
67.749619
53.925514
37.232637
28.986931
18.257499
14.503598
11.619925
9.999871
9.754896
9.277463
10.144711
9.832978
10.821819
10.902882
10.837913
10.679960
11.825562
12.152791
11.899471
12.006760
13.313890
12.660623
12.533665
13.688803
12.804866
13.632774
13.987422
14.657974
14.753938
14.040470
16.024709
15.450716
15.818477
16.479492
15.645623
17.576814
18.097758
17.621517
17.411709
18.908978
18.503666
19.043684
19.567609
20.782948
19.904971
22.913814
23.944974
24.981499
27.233958
28.148890
33.037663
34.692883
39.839745
40.389895
41.538477
41.486621
43.335557
38.678646
38.447976
35.540462
31.686425
29.339790
28.319955
28.264523
25.238991
24.258494
25.438666
24.165511
24.995804
24.514794
23.886561
23.729801
23.420453
24.654865
21.856427
##ZVALUE=240
2.796650
3.398657
10.389686
27.049780
71.573853
138.284564
267.289877
406.159759
608.876944
726.000667
826.619864
832.379460
764.568448
631.500483
486.042500
312.496424
220.853686
142.043829
109.574795
104.173422
110.356808
112.581849
111.415982
101.292729
78.926682
64.600706
48.854947
34.644604
23.728609
17.497540
12.422800
11.131763
11.742711
10.826588
10.284781
10.973811
11.053681
12.078881
10.467768
11.153817
11.684895
11.384487
13.651848
13.767481
11.095405
12.703538
13.575554
12.248755
14.257431
12.881756
14.673471
14.693737
14.515519
15.753508
16.274452
17.662644
18.178821
18.064976
16.674995
17.751455
17.408729
19.579530
22.558570
19.356608
20.515919
21.622777
22.761822
24.219751
23.815632
27.387738
30.727983
32.492876
35.106540
37.325621
42.709708
40.461421
40.750504
39.738417
37.256479
39.545894
35.419464
35.245419
29.332638
30.419827
30.058622
28.947592
29.711723
28.127432
26.993752
27.397871
26.741624
28.049946
27.178526
25.726557
26.996732
25.039911
##ZVALUE=245
2.433658
2.040863
2.533793
2.589822
4.937649
12.480617
42.603016
91.187954
209.737420
338.906646
551.021695
709.389448
849.696994
936.993957
921.632648
810.507536
666.697621
473.837852
329.645872
196.636915
136.821866
109.301805
111.038685
126.725435
128.243566
122.548938
110.621452
89.655519
72.110891
53.479671
34.685731
24.961829
16.641617
13.320446
11.794567
9.631515
11.412501
10.438561
10.964870
10.096431
10.889769
10.654926
10.568500
10.547638
11.110902
11.486411
11.428595
11.034608
12.563467
13.709664
12.601614
13.264418
14.108419
14.053583
13.617873
13.615489
14.967918
15.633702
15.032887
16.123652
16.620755
17.079711
17.827749
19.007921
18.581748
20.055771
20.735860
22.245646
23.632646
24.980903
26.526451
28.344989
31.795502
33.345819
34.227967
35.202503
38.206577
35.349727
35.991669
35.780668
31.882524
32.565594
30.049682
29.513836
28.781891
27.265549
27.542710
26.399493
24.278760
24.870634
26.790500
25.571585
25.825500
23.868680
23.327470
25.628805
##ZVALUE=250
2.257824
2.060533
2.399683
2.842546
2.501607
2.577901
3.236532
8.262992
33.499599
75.920820
186.883807
324.663520
493.787527
741.668940
909.199715
1015.681624
1015.681624
1010.711789
888.676643
632.583499
439.535975
290.232897
156.618953
112.724900
108.397007
118.859410
134.911537
137.306452
131.013989
120.006800
102.392435
77.287555
58.433414
36.970973
24.720430
15.429854
12.416840
10.945797
9.454489
9.382963
11.058450
9.994507
9.641647
9.454489
10.161996
10.010600
10.742545
11.060834
10.319948
11.268854
11.241436
12.542605
11.780858
11.270642
11.363626
13.149977
13.309717
12.284517
14.113784
13.694763
15.519857
14.465451
15.678406
14.748573
17.079711
16.482472
17.144680
18.857718
20.322800
20.091534
22.546649
24.608970
25.502443
28.836727
29.364824
28.800964
30.000806
31.064749
28.778911
29.127598
27.493834
25.772452
25.989413
26.331544
25.204420
25.252700
24.425983
24.293661
25.631785
24.085641
23.509860
24.359822
24.264455
24.215579
23.061633
23.616552
##ZVALUE=255
1.896620
2.017617
1.991987
2.197623
2.140999
2.057552
2.361536
2.065897
2.461672
4.249811
22.832751
56.962967
120.835900
275.445580
448.033810
725.317001
923.530459
1015.606523
1015.606523
1015.606523
1015.606523
922.936797
608.193874
394.748449
201.753974
127.878785
97.840428
103.325844
124.085546
138.339996
147.353411
143.028498
128.036737
101.995468
82.177520
55.713654
37.509799
22.313595
14.741421
10.481477
9.334683
8.911490
8.859634
8.477569
9.142756
9.075999
9.329915
9.097457
9.094477
10.460615
9.024739
9.631515
10.704994
10.623932
10.532737
11.291504
11.251569
11.552572
12.155771
12.862682
11.935830
12.875795
13.494492
13.775826
13.955832
14.873743
15.624762
15.630722
16.329885
17.869473
19.827485
20.708442
21.428466
24.729967
24.296641
25.141835
25.980473
25.831461
24.467707
24.383664
23.642778
23.137927
22.694468
22.021532
22.791624
21.429658
22.748709
21.492839
23.862720
22.138953
21.275878
22.510886
22.662878
20.522475
22.149682
21.583438
##ZVALUE=260
1.515746
1.554489
1.826882
1.732707
1.700521
1.525879
1.973510
2.403855
2.089739
2.579689
2.713799
3.086925
12.753606
33.130646
97.282529
198.808908
419.090986
632.965565
869.238973
1015.681624
1015.681624
1015.681624
1015.681624
1010.487676
793.515444
478.050709
306.590796
161.687732
107.172728
89.584589
101.007819
128.169656
139.746666
151.468515
146.996975
129.649639
108.550787
80.176592
58.960915
35.686493
24.850965
14.872551
10.793805
8.763671
8.409619
7.871985
8.458495
8.640885
9.049773
9.145737
9.111762
9.565949
9.498000
9.660721
10.436773
9.913445
10.006428
10.629892
11.219978
11.027455
11.390448
11.546612
12.712479
12.486577
13.147593
13.306737
13.930798
14.791489
15.162826
16.553998
17.728806
19.957423
19.572973
20.470619
21.434426
20.810962
22.449493
21.110773
21.820664
21.611452
20.588636
20.169616
21.330714
19.651651
19.835830
20.303726
19.267797
19.193888
20.662546
19.341707
19.784570
20.265579
20.287633
19.470453
20.721555
20.958781
##ZVALUE=265
1.743436
1.736879
1.635551
1.846552
1.495481
1.581907
1.992583
1.904964
1.868606
1.802444
2.023578
2.187490
2.528429
3.006458
6.613731
21.088719
77.110529
156.994462
348.654985
575.027466
931.195021
1015.681624
1015.681624
1015.681624
1015.681624
1015.681624
1001.723409
667.552948
441.195965
230.454803
134.732723
81.131458
83.294511
109.937787
130.840540
148.684978
154.010653
145.592690
130.983591
105.474591
83.315969
57.015419
38.811564
22.855997
15.493631
10.511875
8.700490
8.485913
8.117557
9.148717
8.996725
8.529425
9.379983
9.541512
9.171963
9.556413
9.273887
9.592772
9.815693
10.930896
10.806918
10.899901
10.954738
11.514425
12.074709
11.850595
13.233423
13.089776
14.466643
14.706850
16.436577
17.038584
17.434955
19.046664
19.783974
19.091964
19.676685
19.684434
18.737912
18.848777
18.588901
18.964410
18.323660
18.451810
18.232465
17.921925
18.449426
18.625855
18.745661
18.203855
18.278956
19.125938
18.229485
19.218922
18.774867
19.635558
##ZVALUE=270
1.543760
1.565814
1.445413
1.421571
1.537800
1.373887
1.496673
1.584888
1.705885
1.804829
1.748800
2.128482
2.227426
2.031922
2.255440
2.676845
3.145933
12.450814
38.307905
123.881698
253.762603
459.140539
839.601755
1015.681624
1015.681624
1015.681624
1015.681624
1015.681624
1015.681624
924.217701
632.011890
347.560644
197.107792
91.030002
68.947673
85.636973
107.105970
131.382942
150.620937
155.540705
149.825811
131.871700
110.572577
77.430606
58.546662
35.391450
24.925470
15.709996
11.864901
9.336472
8.800626
9.283423
8.683801
9.176731
10.083914
10.104775
10.245442
10.607839
10.246634
10.295510
10.885000
10.625720
11.019707
11.540651
11.502504
11.677742
12.231469
13.117790
13.258457
13.549924
15.162826
16.139746
17.140508
17.683506
18.289685
18.520951
18.442869
18.514991
18.119812
17.892718
17.692447
17.215610
17.593503
17.436743
16.685724
18.311739
17.368793
17.356873
17.099977
17.085671
17.708540
17.622709
17.082691
17.691851
17.742515
17.546415
##ZVALUE=275
1.356602
1.413822
1.356602
1.330972
1.524687
1.449585
1.409650
1.321435
1.605749
1.559854
1.416802
1.394749
2.029538
1.671910
1.703501
2.320409
2.361536
2.151728
2.893806
7.002950
23.421645
65.960884
195.893645
382.533073
739.649534
1002.257466
1015.690565
1015.690565
1015.690565
1015.690565
1015.690565
1015.690565
815.505981
437.799692
251.780748
108.917952
66.082478
62.274933
80.163479
108.828545
126.647949
149.168968
153.957605
148.286819
132.324696
104.231834
84.223747
58.802962
41.025877
25.647879
17.465949
11.910796
9.899735
9.275675
9.369850
9.340644
9.976625
10.308623
9.998679
11.146665
10.692477
10.963678
10.749698
11.794567
11.110902
11.934638
11.830926
12.588501
13.378859
12.878776
13.614893
15.730858
16.601682
17.265677
17.665625
17.354488
16.761422
17.484426
17.940998
16.529560
16.933680
16.689897
15.971661
16.081929
15.669465
15.886426
16.089678
16.530752
15.304685
16.416907
15.893579
16.188622
16.089678
16.854405
15.675426
16.067624
##ZVALUE=280
1.306534
1.311898
1.443624
1.220703
1.424551
1.338720
1.478791
1.456738
1.541972
1.405478
1.361966
1.744628
1.288652
1.826882
1.740456
1.745820
2.004504
2.097487
2.134442
2.512932
2.800822
3.556609
16.799569
56.421757
174.971819
323.246717
619.828701
920.531750
1015.692949
1015.692949
1015.692949
1015.692949
1015.692949
1015.692949
968.706608
560.370684
328.975916
141.556859
72.182417
47.323704
57.514906
82.925558
106.125474
129.693747
145.629644
149.670839
144.619942
128.613710
107.788444
80.477595
61.026812
37.844777
27.491450
17.550588
13.563633
11.351705
10.452867
10.416508
10.118484
10.528564
11.476874
11.095405
10.994673
11.338592
11.684895
11.863708
11.790991
12.618899
13.077855
13.436675
14.428496
15.334487
15.773773
16.277432
16.747713
17.021894
17.350912
17.193556
17.097592
16.108751
16.197562
16.164780
15.728474
15.452504
15.804768
15.910864
15.756488
15.809536
15.080571
15.109777
15.114546
15.748739
15.277863
14.820695
15.060902
15.900731
##ZVALUE=285
1.233816
1.245737
1.397729
1.276731
1.232624
1.229644
1.480579
1.513958
1.485944
1.612902
1.631975
1.373887
1.565814
1.552701
1.573563
1.463890
1.787543
1.526475
1.755953
2.315640
2.145767
2.234578
2.949834
3.041625
8.973479
27.797818
96.736550
204.073787
464.875698
749.742985
1015.733480
1015.733480
1015.733480
1015.733480
1015.733480
1015.733480
1015.733480
791.832805
487.130880
220.092535
108.467937
46.118498
38.246512
55.767894
74.837804
104.106665
122.267604
141.273737
148.900747
142.910480
130.824447
108.147860
87.617636
61.284900
42.929649
26.591420
19.079447
13.578534
11.835694
10.938644
10.609627
10.849833
11.149645
11.447668
11.525750
12.032986
12.264848
12.252927
13.014674
14.176965
14.438629
14.670491
15.840530
16.000867
16.092658
16.740561
16.177893
16.184449
16.469955
15.590787
16.127825
15.481710
15.335679
15.965700
15.340447
15.597939
15.782714
15.446544
15.917420
15.446544
15.030503
14.957786
15.519857
14.908910
15.055537
15.046597
##ZVALUE=290
1.168847
1.115799
1.089573
1.093745
1.141429
1.239777
1.278520
1.365542
1.103878
1.189709
1.348853
1.386404
1.591444
1.230836
1.586676
1.630783
1.659989
1.666546
1.736879
1.816750
1.815557
1.945496
2.033710
2.370477
2.440810
2.608895
3.809929
11.790991
54.304600
129.513741
259.261727
569.694638
908.638835
1015.681624
1015.681624
1015.681624
1015.681624
1015.681624
1015.681624
1015.681624
717.066526
347.748995
174.193978
62.575936
33.263564
37.073493
49.649477
73.829889
94.171762
118.682981
133.687854
142.577887
140.835643
125.690699
109.668970
80.925822
61.525702
40.915608
29.205680
19.019842
14.683604
12.185574
11.540651
11.370778
11.611581
11.278987
12.084842
11.900663
13.101697
13.357997
14.605522
14.323592
14.879704
15.789866
15.520453
15.840530
16.009808
15.433431
15.859604
15.569925
15.085936
15.309453
15.142560
15.426874
15.176535
14.804602
14.805794
15.328526
15.337467
15.349984
15.099645
14.629960
15.087724
14.714599
14.337897
14.507771
##ZVALUE=295
1.043677
1.006722
1.225471
0.956655
1.004934
0.982881
1.263618
1.174808
1.094937
1.214743
1.078844
1.167655
1.250505
1.219511
1.134872
1.327991
1.378655
1.541972
1.524687
1.802444
1.538992
1.796484
1.752973
1.971722
1.904964
2.022982
2.526641
2.832413
2.906919
5.337000
17.835498
80.269575
186.078548
454.850793
756.927729
1015.659571
1015.659571
1015.659571
1015.659571
1015.659571
1015.659571
1015.659571
963.893533
514.169931
272.432566
92.037916
40.784478
25.246739
31.662583
48.998594
66.806674
92.853904
112.040639
129.524469
138.845444
135.753751
123.644471
102.777481
83.465576
58.602691
43.401718
28.283000
20.299554
15.539527
12.844801
11.609793
11.675954
12.190938
12.601614
13.081431
13.414621
14.325976
14.390945
15.315413
15.583634
15.404820
15.297532
15.725493
15.906692
15.051961
14.989972
15.173554
15.646815
15.720725
15.173554
15.166998
14.561415
15.200973
15.514493
14.967918
15.079975
14.703870
14.589429
15.129447
14.949441
14.169812
##ZVALUE=300
0.893474
0.997782
1.070499
0.994802
1.244545
1.059771
1.265407
0.912547
1.074672
0.984669
0.952482
1.242757
1.038909
1.208782
1.358986
1.127720
1.184940
1.338720
1.343489
1.455545
1.550913
1.546741
1.590848
1.848936
1.933575
1.719594
1.879930
2.280474
2.369881
2.141595
2.706647
3.223419
11.937618
41.391850
145.230889
290.039778
613.694787
957.909822
1015.682817
1015.682817
1015.682817
1015.682817
1015.682817
1015.682817
1015.682817
773.995519
387.063622
203.555822
68.583488
28.600693
21.638870
28.673410
45.031905
60.300827
83.164573
102.020502
123.801827
131.224990
128.236413
120.925903
101.166964
83.458424
60.098767
45.461655
29.033422
21.322966
15.832782
13.607740
12.772679
13.022423
13.237000
14.050603
14.560819
14.565587
14.997721
15.023947
14.946461
15.404820
14.900565
15.025735
15.512705
15.079975
14.945865
15.507936
15.651584
15.322566
14.937520
15.034676
14.886856
14.964938
14.199615
14.689565
13.940930
14.428496
14.603734
14.321804
##ZVALUE=305
0.801682
0.872612
0.959635
1.018643
1.093745
0.925660
0.883937
1.112819
0.993609
0.961423
1.051426
1.033545
1.039505
1.039505
1.119971
1.091957
1.013875
1.404881
1.151562
1.292825
1.392961
1.189709
1.380444
1.459718
1.710653
1.777411
1.896620
1.778603
1.903772
2.182722
2.318621
2.296567
2.656579
2.956986
4.810691
28.154850
80.553889
234.570503
431.925654
821.591020
1015.665531
1015.665531
1015.665531
1015.665531
1015.665531
1015.665531
1015.665531
872.089863
550.919771
252.118707
121.508837
38.552880
19.694567
20.472407
27.636886
42.794943
59.088469
81.650615
99.756718
116.924644
125.220418
122.950673
115.077496
96.732974
80.504417
56.481957
42.945743
28.876662
21.570921
16.776919
14.855862
14.014840
14.280677
14.462471
14.407635
14.676452
14.139414
14.397502
14.693737
14.384985
14.468431
14.786720
14.212728
15.055537
15.314817
14.980435
14.840961
14.981627
15.128851
14.949441
14.760494
14.906526
14.107823
14.475584
14.737844
14.061928
##ZVALUE=310
0.886917
0.792742
0.768900
0.881553
0.861883
0.979900
0.942945
1.095533
1.137853
1.030564
0.864863
0.972748
1.096725
1.083612
1.089573
0.979900
1.021624
1.036525
1.158714
1.197457
1.203418
1.226664
1.353621
1.243949
1.545548
1.596808
1.585484
1.810789
1.846552
1.600981
1.938939
1.963973
2.146959
2.234578
2.427697
2.698898
3.123879
13.031960
44.772625
152.183771
305.672884
643.958449
976.015925
1015.687585
1015.687585
1015.687585
1015.687585
1015.687585
1015.687585
1015.687585
755.053759
390.425920
209.860802
74.379444
28.582811
15.665889
17.672777
26.063919
36.539435
55.022836
70.875883
93.035698
106.357932
116.779804
117.527843
109.110475
97.164512
76.480508
60.608983
42.337775
31.215549
22.399426
18.540621
15.630722
14.959574
14.479756
14.215708
14.074445
13.992786
14.288425
14.356971
14.425516
14.593601
14.643669
14.528632
14.363527
14.672875
14.868975
14.982820
15.088916
14.790893
14.556646
14.668703
14.150739
14.102459
14.179945
##ZVALUE=315
0.817776
1.019835
0.892878
0.771880
0.866652
0.862479
0.914931
0.900626
0.885725
1.027584
1.019835
0.982881
0.964999
0.779629
0.988841
0.897646
1.024604
1.013875
0.975728
1.078844
1.112819
1.182556
1.074672
1.226664
1.220703
1.582503
1.464486
1.504421
1.491904
1.455545
1.533628
1.613498
1.503825
1.999736
1.894832
1.911521
2.248883
2.508759
3.027916
6.161928
22.784472
100.243688
224.173665
517.707467
841.456652
1015.681624
1015.681624
1015.681624
1015.681624
1015.681624
1015.681624
1015.681624
913.192034
497.683883
270.227790
97.623467
39.351583
14.948845
13.762712
17.101765
22.555590
35.420656
48.959851
67.331791
84.336996
101.922750
109.473467
110.960603
106.675625
90.228915
75.971484
57.251453
42.708516
29.595494
22.933483
16.960502
15.427470
13.553500
13.775826
14.103651
13.935566
13.855696
13.981462
14.428496
14.463663
14.360547
14.130473
14.440417
14.608502
14.301538
14.308691
14.145970
14.233589
14.156699
13.925433
14.082789
##ZVALUE=320
0.719428
0.883937
0.845790
0.777841
0.760555
0.676513
0.846982
0.876784
0.830889
0.668764
0.856519
0.842810
0.842810
1.019835
0.846982
1.054406
0.993609
1.035929
0.937581
0.978708
1.087785
0.969768
1.154542
1.195669
1.086593
1.225471
1.222491
1.350641
1.440644
1.546741
1.313686
1.630783
1.758933
1.399517
1.590848
1.652837
1.800656
2.076626
2.231598
2.261996
2.678633
3.490448
10.054708
54.740906
144.400597
381.846428
647.075772
1015.660763
1015.660763
1015.660763
1015.660763
1015.660763
1015.660763
1015.660763
1015.660763
686.963797
398.144722
165.487528
71.478486
20.523667
12.452602
13.021827
14.826655
21.587610
30.008554
46.853423
61.920881
79.727769
95.353723
105.332732
106.687546
100.676417
89.581609
71.210861
56.417584
40.037632
30.473471
21.735430
17.569661
14.895797
13.714433
13.523698
13.730526
13.823509
13.908744
14.056563
13.601780
14.096498
14.090538
13.932586
13.707876
13.909936
13.540983
13.836622
13.853908
13.678670
##ZVALUE=325
0.900626
0.823736
0.680685
0.884533
0.885725
0.787973
0.915527
0.816584
0.815988
0.855923
0.945926
1.026988
0.971556
0.867844
0.857711
1.029968
0.946522
0.784993
1.084805
1.118779
0.989437
0.983477
1.085997
1.034737
1.269579
1.096725
1.155734
1.080632
1.213551
1.049638
1.289845
1.332760
1.420975
1.514554
1.640916
1.624823
1.753569
1.799464
1.694560
1.936555
2.267957
2.581477
2.425909
3.402829
6.058812
37.015676
100.829601
279.670954
524.308681
875.234008
1015.681624
1015.681624
1015.681624
1015.681624
1015.681624
1015.681624
1015.681624
914.588571
484.219790
270.190835
99.237561
38.193464
13.307929
11.089444
12.012720
14.173985
20.645857
29.470921
45.481920
60.068965
77.228546
90.221763
100.405812
101.167560
93.699694
85.176826
67.270994
53.743720
37.566423
28.799772
20.646453
17.475486
14.766455
13.922453
13.435483
13.450980
13.735890
13.756752
13.481975
13.451576
13.462901
13.118982
13.305545
13.269782
13.173819
13.086796
##ZVALUE=330
0.727773
0.759959
0.753999
0.609756
0.784993
0.764728
0.860691
0.846982
1.054406
0.821948
0.820756
0.779629
0.936985
0.829697
0.754595
1.009703
0.934601
0.801682
0.766516
0.885725
0.855923
0.965595
1.005530
1.067519
1.060963
1.244545
1.258850
1.256466
1.202822
1.034737
1.265407
1.254678
1.329780
1.480579
1.441836
1.598597
1.563430
1.523495
1.669526
1.726747
1.804829
1.794696
1.967549
2.331734
2.456903
3.011823
3.561974
15.914440
52.813888
180.779696
353.620648
736.045837
1015.681624
1015.681624
1015.681624
1015.681624
1015.681624
1015.681624
1015.681624
995.299816
677.681565
321.190953
164.006948
54.895878
20.616651
10.675788
10.379553
11.709929
14.277697
20.657778
28.711557
42.458773
55.785775
74.740648
85.171461
94.785690
94.872713
88.919997
78.799725
61.686635
49.988627
35.119653
28.179884
20.524859
17.303824
14.388561
13.766885
13.302565
13.007522
13.106465
12.673736
13.032556
12.773871
12.728572
12.807846
12.610555
##ZVALUE=335
0.742674
0.667572
0.896454
0.819564
0.790954
0.878572
0.736713
0.708699
0.795722
0.858903
0.702739
0.892878
0.809431
0.766516
0.771880
0.852942
0.774860
0.743866
0.772476
0.787973
0.842810
0.999570
1.077652
0.923872
0.936985
0.917912
0.966787
0.934601
1.141429
1.071692
1.141429
1.243949
1.324415
1.316667
1.382828
1.221895
1.566410
1.374483
1.493692
1.638532
1.592636
1.804829
1.841784
2.068877
2.203584
2.403855
2.490878
2.822876
3.173947
7.874966
29.860735
118.251443
255.027413
581.840873
956.705809
1015.675664
1015.675664
1015.675664
1015.675664
1015.675664
1015.675664
1015.675664
932.985544
488.362908
253.852010
82.675815
31.133890
12.394786
10.708570
10.579824
11.774898
14.756918
19.477606
29.207468
39.518476
55.927634
67.479610
80.730915
87.398887
87.721944
84.073544
72.355866
61.800480
46.884418
37.707686
27.321577
21.377802
16.907454
14.824867
13.277531
12.808442
12.604594
12.143850
12.187958
12.391806
12.141466
##ZVALUE=340
0.738502
0.709891
0.655651
0.591874
0.661612
0.784993
0.755787
0.786781
0.742674
0.814795
0.624657
0.657439
0.779629
0.846982
0.718832
0.846982
0.783801
0.838637
0.930429
1.056790
0.720620
0.855923
0.816584
0.866652
0.972748
0.887513
0.830889
1.084805
0.999570
0.954866
0.947714
1.004934
1.139641
1.066923
1.263618
1.149774
0.976920
1.007915
1.088977
1.370907
1.406670
1.405478
1.571774
1.756549
1.729727
1.867414
2.040863
2.107620
2.279878
2.593994
2.684593
4.308820
13.396740
70.892572
175.604820
446.987748
761.627555
1015.681624
1015.681624
1015.681624
1015.681624
1015.681624
1015.681624
1015.681624
1003.461480
590.535998
330.265760
122.331977
47.679543
15.248656
11.274815
10.855794
10.840893
12.098551
13.868809
19.840598
26.288629
39.044619
50.796866
64.615607
75.156689
83.019733
82.826614
78.633428
70.251822
58.412552
47.513843
34.878850
27.607679
20.186901
16.731620
14.176965
12.576580
12.449622
11.969805
11.817813
##ZVALUE=345
0.576973
0.602603
0.748634
0.655651
0.731945
0.694990
0.794530
0.639558
0.750422
0.735521
0.645518
0.662804
0.857711
0.668764
0.649691
0.714660
0.791550
0.696778
0.757575
0.774860
0.867844
0.871420
1.048446
0.902414
0.923872
0.913739
0.888705
0.945926
1.093745
0.933409
0.988841
1.023412
0.987649
1.042485
0.961423
1.119971
1.065731
0.972748
1.141429
1.163483
1.272559
1.323819
1.377463
1.565814
1.634955
1.669526
1.676679
1.841784
1.865625
1.922846
2.223849
2.369881
2.522469
2.898574
6.271601
42.163730
120.179653
320.410728
573.273897
996.992588
1015.681624
1015.681624
1015.681624
1015.681624
1015.681624
1015.681624
1015.681624
715.415478
411.860943
167.768598
73.826909
22.532940
11.896491
10.748506
10.438561
10.221601
10.841489
13.248920
16.673803
25.372505
34.967661
48.744678
58.378577
68.486929
74.688792
76.595545
74.436665
66.319704
57.073832
45.457482
35.511851
25.809407
20.943880
15.857816
13.682842
12.252927
##ZVALUE=350
0.779629
0.645518
0.689626
0.537634
0.627637
0.539422
0.702739
0.619888
0.710487
0.767708
0.695586
0.768900
0.839829
0.776649
0.647902
0.712872
0.796914
0.790954
0.767708
0.807643
0.859499
0.854731
0.839829
0.872612
0.969768
0.986457
0.866652
0.888705
0.856519
0.845790
0.955462
1.041889
1.033545
1.008511
1.134872
1.172423
1.016855
0.990629
1.111627
1.214743
1.090765
1.290441
1.262426
1.384616
1.275539
1.409650
1.499653
1.572967
1.744628
1.656413
1.691580
2.013445
2.117753
2.311468
2.522469
3.086925
3.751516
19.722581
68.622828
221.222639
420.119762
840.115547
1015.684605
1015.684605
1015.684605
1015.684605
1015.684605
1015.684605
1015.684605
878.836513
533.903837
240.795612
112.752914
31.065941
13.398528
10.249615
9.716749
9.493828
9.591579
10.227561
12.207627
17.353892
22.654533
32.546520
41.267872
53.648949
61.735511
69.131851
70.864558
68.525672
63.077807
53.168535
44.740438
34.222603
26.866794
19.722581
##ZVALUE=355
0.585914
0.602603
0.924468
0.655651
0.583529
0.631809
0.769496
0.817776
0.643730
0.807643
0.905991
0.904799
0.710487
0.603795
0.759959
0.692606
0.733733
0.790954
0.771880
0.644922
0.787973
0.777841
0.827909
0.838637
0.981688
0.794530
0.919700
0.859499
1.003742
0.950694
0.878572
1.017451
0.994802
0.983477
0.902414
0.953674
0.990629
1.146793
0.920892
1.138449
1.249909
1.193881
1.411438
1.144409
1.161695
1.305938
1.225471
1.212955
1.488924
1.536608
1.596808
1.674891
1.824498
1.773834
2.083778
2.169609
2.376437
2.736449
3.119707
9.744763
36.233664
144.990683
300.939679
629.437566
969.696641
1015.678644
1015.678644
1015.678644
1015.678644
1015.678644
1015.678644
990.083814
662.835836
296.228528
140.848756
41.494966
16.368628
10.079741
9.465814
8.961558
8.999705
8.965731
9.763837
11.869669
14.172792
20.480752
26.815534
36.939979
45.227408
55.454969
61.349869
64.914823
62.970519
57.809949
51.358938
41.370988
##ZVALUE=360
0.615716
0.692606
0.737906
1.002550
0.719428
0.752807
0.713468
0.630617
0.814795
0.815988
0.752807
0.844598
0.791550
0.826716
0.747442
0.777841
0.650883
0.673532
0.762939
0.832677
0.718832
0.941753
0.838637
0.830889
0.853539
0.943542
0.969768
1.006722
0.951886
1.073480
0.906587
0.870824
0.974536
1.019835
1.038909
1.009703
0.861883
0.953674
1.020432
1.054406
1.190901
1.111627
1.227856
1.208782
1.165867
1.216531
1.275539
1.477599
1.371503
1.567602
1.598597
1.727939
1.669526
1.578927
1.954436
1.887679
2.078414
2.208948
2.308488
2.755523
3.047585
4.965663
15.912652
74.411035
183.545947
461.068749
764.957666
1015.708447
1015.708447
1015.708447
1015.708447
1015.708447
1015.708447
1015.709043
776.990652
379.129052
195.007920
68.744421
26.078820
10.667443
9.245872
8.805990
8.664727
8.554459
8.684993
9.076595
10.019541
12.781620
16.251802
23.259521
30.092001
40.498972
48.120618
55.382848
57.993531
58.786869
##ZVALUE=365
0.718832
0.816584
0.737906
0.808835
0.740886
0.721812
0.710487
0.739694
0.735521
0.692606
0.905991
0.723600
0.766516
0.684857
0.701547
0.712872
0.754595
0.761747
0.815988
0.758767
0.854731
0.964999
0.828505
0.916719
0.969768
0.894666
0.923872
0.834465
0.973940
0.853539
0.854731
0.948906
1.000762
1.087785
0.950694
0.936985
1.169443
0.924468
0.995994
1.092553
1.169443
1.108646
1.129508
1.267791
1.263618
1.356602
1.361966
1.446605
1.266599
1.444817
1.549721
1.549721
1.569986
1.647472
1.844764
1.759529
2.025962
1.893640
2.188683
2.418756
2.520680
2.919436
3.116727
3.888607
7.169843
43.853521
127.290487
354.707837
626.111031
1015.681624
1015.681624
1015.681624
1015.681624
1015.681624
1015.681624
1015.681624
1015.681624
625.882745
342.025757
122.792721
43.960810
12.058616
9.095669
8.658767
8.350611
7.967949
8.001924
7.803440
8.229613
9.217858
10.776520
14.781952
18.998981
26.652813
33.024549
42.336583
##ZVALUE=370
0.746846
0.856519
0.810623
0.882745
0.773668
0.614524
0.679493
0.735521
0.810623
0.766516
0.890493
0.779629
0.761747
0.822544
0.828505
0.757575
0.735521
0.796914
0.870824
0.801682
0.936985
0.838637
0.966787
0.843406
0.930429
0.897646
0.849962
0.811815
0.884533
0.791550
0.940561
0.883937
1.139641
1.117587
1.110435
1.095533
1.106858
0.977516
1.089573
1.034737
1.104474
1.187921
1.270771
1.001954
1.107454
1.188517
1.210570
1.285672
1.375675
1.223683
1.346469
1.441836
1.316667
1.430511
1.459718
1.567602
1.705885
1.783967
1.713634
1.967549
2.024770
2.190471
2.361536
2.600551
2.748966
3.189445
4.311800
21.764636
75.022578
245.373845
455.898643
876.152515
1015.743017
1015.743017
1015.743017
1015.743017
1015.743017
1015.743017
1015.743017
701.272488
393.123627
151.973963
66.232681
19.950867
10.048747
7.824898
8.034706
7.632971
7.344484
7.155538
7.185936
7.366538
7.987618
10.111928
12.205839
17.519593
##ZVALUE=375
0.746846
0.664592
0.714660
0.720620
0.713468
0.669956
0.612736
0.719428
0.695586
0.751615
0.650883
0.622869
0.775456
0.801682
0.843406
0.754595
0.731945
0.746846
0.712872
0.681877
0.684857
0.868440
0.864863
0.683665
0.840425
0.852942
1.007915
0.684857
0.762939
0.774860
0.815988
0.738502
0.941753
0.912547
0.898838
0.879765
0.987649
0.863671
0.958443
0.845790
0.816584
0.788569
1.123548
0.838637
0.932813
1.031756
1.233816
1.157522
1.057982
0.994802
1.143813
1.262426
1.152754
1.326799
1.245737
1.431704
1.374483
1.410842
1.485944
1.652837
1.690984
1.604557
1.582503
2.121925
1.901984
2.197623
2.641678
2.877712
3.342628
10.100603
39.313436
153.847337
334.787369
744.404793
1015.684605
1015.684605
1015.684605
1015.684605
1015.684605
1015.684605
1015.684605
887.761712
550.638437
250.770450
122.089982
36.519766
13.768673
7.378459
7.335544
6.841421
6.870627
6.469488
6.674528
6.587505
6.605983
7.129908
##ZVALUE=380
0.692606
0.573993
0.585914
0.505447
0.554919
0.603795
0.498891
0.709891
0.629425
0.614524
0.583529
0.756979
0.634789
0.619888
0.565648
0.518560
0.707507
0.751615
0.639558
0.548959
0.746846
0.705719
0.732541
0.899434
0.846982
0.763535
0.793934
0.801682
0.776649
0.787973
0.714660
0.710487
0.651479
0.751615
0.896454
0.769496
0.861883
0.920892
0.995994
0.943542
0.872612
0.959635
0.906587
0.953674
0.859499
0.859499
0.988841
0.871420
0.978708
1.048446
1.088977
1.088977
1.157522
1.177788
1.230836
1.162887
1.240969
1.399517
1.239777
1.387596
1.241565
1.620650
1.546741
1.468658
1.752973
1.909733
2.040863
2.254844
2.537966
3.127456
3.296733
5.853772
20.370483
102.273822
246.461630
595.359802
965.029597
1015.681624
1015.681624
1015.681624
1015.681624
1015.681624
1015.681624
1015.681624
732.258558
356.544852
181.279778
62.266588
23.652911
8.563995
7.095933
6.446838
6.254911
6.165504
6.302595
6.142855
##ZVALUE=385
0.725985
0.784993
0.809431
0.714660
0.796914
0.698566
0.774860
0.926852
0.747442
0.920892
0.678897
0.820756
0.635982
0.697970
0.889897
0.801682
0.782609
0.741482
0.732541
0.768900
0.950694
0.775456
0.751615
0.858903
0.821948
0.874996
0.934601
0.967979
1.036525
0.901818
0.851750
1.064539
0.891685
0.872612
0.911951
0.869632
1.077652
0.911951
0.959635
1.047850
1.039505
1.005530
0.943542
0.928640
1.094937
1.042485
1.101494
1.001954
1.194477
1.213551
1.187921
1.216531
1.113415
1.151562
1.136661
1.298785
1.197457
1.341701
1.406670
1.342893
1.451969
1.482964
1.379848
1.613498
1.760721
1.718998
1.870990
2.259612
2.382994
2.679825
2.932549
3.271699
3.727674
4.230738
10.032654
57.275891
160.689950
457.322001
861.285925
1015.850902
1015.850902
1015.850902
1015.850902
1015.850902
1015.850902
1015.850902
1007.068753
553.743839
303.282738
117.705464
47.086477
12.217760
7.549524
6.802678
6.627440
6.497502
##ZVALUE=390
0.514984
0.694990
0.629425
0.672936
0.631809
0.705719
0.695586
0.672936
0.634789
0.601411
0.566840
0.745654
0.516772
0.667572
0.587702
0.563860
0.503659
0.555515
0.393987
0.513792
0.692606
0.561476
0.679493
0.583529
0.608563
0.672936
0.742674
0.704527
0.586510
0.737906
0.722408
0.825524
0.703931
0.567436
0.624657
0.669956
0.727773
0.561476
0.705719
0.784993
0.783801
0.939965
0.764728
0.898838
0.716448
0.885725
0.900626
0.860691
0.843406
0.825524
0.866652
1.003742
0.980496
0.800490
0.907779
1.037717
1.216531
0.969768
1.130700
1.264811
1.181960
1.146793
1.197457
1.303554
1.293421
1.470447
1.486540
1.690984
1.994967
2.062917
2.051592
2.437830
2.645850
2.591610
2.791882
3.064871
5.170703
31.420588
96.704960
307.788849
597.263575
1015.681624
1015.681624
1015.681624
1015.681624
1015.681624
1015.681624
1015.681624
1015.681624
767.117739
435.572863
174.947977
79.456568
22.177696
8.902550
5.870461
##ZVALUE=395
0.379682
0.470877
0.475645
0.394583
0.442863
0.437498
0.423789
0.488758
0.385642
0.461936
0.347495
0.500679
0.434518
0.365973
0.509620
0.451803
0.413656
0.482798
0.405908
0.579953
0.590682
0.424981
0.572801
0.506639
0.356436
0.571609
0.536442
0.521541
0.444651
0.519753
0.414848
0.524521
0.545979
0.603795
0.645518
0.474453
0.663996
0.552535
0.439882
0.607967
0.716448
0.735521
0.666976
0.544786
0.723600
0.680685
0.724792
0.649691
0.692606
0.696778
0.740886
0.803471
0.869632
0.852942
0.956655
0.832677
0.839829
0.782609
0.971556
0.994802
1.000762
1.000762
1.061559
1.116991
1.072884
1.112819
1.293421
1.345873
1.718998
1.774430
1.874566
2.123713
2.108812
1.970530
2.240539
2.221465
2.272725
2.539754
3.267527
15.982985
61.010718
218.816996
421.756506
827.694535
1015.553474
1015.553474
1015.553474
1015.553474
1015.553474
1015.553474
1015.553474
919.167995
558.769703
238.175988
111.117959
34.923553
##ZVALUE=400
0.504851
0.507832
0.647902
0.595450
0.622869
0.617504
0.575781
0.510812
0.637770
0.703931
0.597835
0.689626
0.440478
0.458956
0.545979
0.672936
0.578761
0.525713
0.539422
0.472665
0.510812
0.613928
0.642538
0.564456
0.620484
0.419617
0.592470
0.623465
0.427961
0.583529
0.669956
0.619888
0.541806
0.670552
0.724792
0.742674
0.794530
0.795722
0.691414
0.735521
0.745654
0.698566
0.700951
0.540614
0.765920
0.609756
0.783801
0.696778
0.727773
0.922680
0.964999
1.005530
1.005530
0.765920
0.918508
0.854731
0.911951
0.797510
0.907779
1.000762
0.957847
1.027584
1.041889
1.167655
1.396537
1.253486
1.341701
1.622438
1.542568
1.763701
1.781583
1.990795
1.930594
1.952648
2.069473
1.773834
1.906753
2.038479
2.008677
2.490878
2.763867
6.916523
26.745796
115.261674
253.987908
585.447550
948.913693
1015.681624
1015.681624
1015.681624
1015.681624
1015.681624
1015.681624
1015.681624
723.297596
362.271667
##END
