##TITLE=FQP00652
##FORMAT=SPECTACLE-ASCII V-1.2
##DATA TYPE=ULTRAVIOLET SPECTRUM
##SECOND TYPE=ULTRAVIOLET SPECTRUM
##DATE=04/30/18
##TIME=14:26:27
##SPECTROMETER/DATA SYSTEM=SPECTACLE
##XUNITS=NM EM
##YUNITS=ENERGY
##YFACTOR=1
##FIRSTX=220
##LASTX=410
##NPOINTS=96
##3DDATA=Equidistant
##ZUNITS=NM EX
##FIRSTZ=210
##LASTZ=400
##ZPOINTS=39
##XYDATA=(Y..Y)
##ZVALUE=210
3.111959
2.849698
2.626777
3.258586
2.945662
2.663732
3.247857
3.247857
3.600717
3.164411
3.126860
3.278852
3.492832
3.107786
3.164411
3.435612
3.841519
3.842711
3.952980
4.412532
3.885627
4.209876
3.964901
4.901886
4.907846
4.835725
5.530715
5.538464
6.388426
7.379651
7.092953
7.681847
7.433891
7.253885
8.256435
7.705688
8.999705
7.443428
8.011460
7.812977
7.693768
7.680655
8.466840
7.784963
8.132458
7.993579
7.301569
7.268786
7.873774
7.922649
8.295774
7.328987
7.423759
7.676482
8.802414
8.106828
8.186698
7.654428
6.725788
8.212924
7.109642
7.105470
8.253455
7.389784
8.254647
7.831454
7.866621
9.400845
10.379553
12.008548
12.845993
15.624762
18.973947
20.367503
21.236539
23.412704
24.640560
24.476647
24.157763
22.269487
20.858645
20.377636
16.043782
15.667677
12.450814
11.796951
8.285642
8.878708
7.310510
8.124709
6.948709
6.818771
7.788539
8.465648
7.992983
7.063746
##ZVALUE=215
8.481741
8.456707
7.870793
6.737709
6.090999
5.861521
4.818439
5.932450
5.393624
5.340576
5.119443
5.824566
4.806519
3.938675
3.862977
3.505945
4.097819
3.140569
3.701448
3.761649
4.373789
4.310608
4.688501
4.867911
4.625916
6.165504
5.969405
6.977916
7.902980
8.825660
9.004474
9.503961
10.666847
11.097789
10.265708
10.849833
10.734797
10.081530
9.990931
10.169744
10.365844
8.946657
9.589791
9.374619
8.977652
9.248853
9.096861
7.962584
8.244514
7.783771
7.862449
7.737875
8.293986
7.820725
8.683801
7.314682
7.992983
7.498860
6.968975
7.939935
8.452535
7.876754
7.224679
7.447600
7.528663
8.045435
8.098483
9.166598
9.351969
11.728406
10.756850
14.117956
14.786720
16.746521
18.822551
20.477772
19.344687
19.120574
19.913912
18.332601
17.218590
13.474822
14.254451
14.004707
10.742545
8.582473
7.952452
7.566810
8.243918
6.734729
6.527901
6.874800
6.295443
6.283522
7.553697
6.931424
##ZVALUE=220
29.731989
30.061603
31.841993
30.825734
26.000738
22.146702
17.348528
12.634993
10.969639
11.320710
10.835528
11.288524
13.663769
11.139512
9.378791
8.086562
6.459951
5.332828
4.310608
4.486442
4.394650
4.814863
4.656911
5.047917
5.699992
7.178783
6.473660
9.459853
9.687543
11.205673
12.928843
14.313459
14.365911
13.856888
13.763905
13.932586
14.690757
13.775826
14.398694
14.309883
12.885928
12.687445
12.400746
12.301803
11.880994
11.509657
11.349916
11.792779
9.990931
9.140968
9.795427
9.563565
9.654760
9.115934
9.019971
9.051561
7.754564
8.886456
8.078814
7.717609
7.298589
8.198619
9.080768
7.226467
8.117557
7.457733
8.022785
7.917881
9.877682
9.844899
11.691451
12.358427
15.265942
16.088486
17.495751
17.654896
15.961528
18.179417
19.653440
16.335845
15.981793
13.639927
12.283921
12.167692
10.403991
8.465648
7.961988
7.015467
7.364750
6.554723
7.358789
6.571412
6.036758
6.626844
5.719662
6.337762
##ZVALUE=225
47.578812
53.557754
66.314936
81.678629
88.193417
81.558824
78.389645
57.228804
42.771697
33.452511
24.722815
23.793578
23.857951
24.989843
24.279952
25.303960
21.095872
17.388463
13.008714
9.420514
7.172823
5.411506
5.259514
6.011724
6.545782
7.122755
9.079576
9.556413
12.165904
13.040900
14.478564
15.985966
16.749501
18.387437
18.489957
18.858910
18.516779
18.273592
18.598437
17.935634
16.109943
15.361905
14.050603
15.923977
14.679432
13.394952
12.878776
12.964606
12.668967
11.320710
10.541677
11.250973
11.213422
9.981990
9.512901
10.281801
9.291768
9.240508
9.036660
10.451674
9.571910
9.093881
8.935928
9.730458
9.076595
8.400679
9.962916
9.146929
9.880662
11.736751
12.408495
13.713837
14.944673
15.849471
14.672875
15.631914
17.405748
15.645623
14.585853
15.077591
13.513565
12.515783
12.663603
11.376739
10.713935
10.151863
9.593964
9.557605
8.093715
8.040667
8.311868
8.990765
8.340478
7.943511
7.361770
8.976460
##ZVALUE=230
43.001771
45.558810
79.389811
114.037991
156.212449
182.548761
203.459859
197.241902
168.062449
129.844546
89.245439
62.223673
49.174428
40.786862
41.162968
48.907995
52.719712
49.725771
43.455958
36.071539
28.365850
19.326806
12.551546
8.819699
7.308722
7.746816
7.525682
8.809566
10.438561
11.355877
12.568831
15.416741
16.147494
16.868711
16.859770
18.190742
18.789768
18.300414
17.857552
16.910434
17.517805
15.480518
15.685558
15.727878
14.754534
14.650822
13.483763
12.527704
12.001991
12.459755
11.669993
11.200905
10.563731
11.479855
11.172891
11.187792
11.665821
10.491610
11.657476
11.257529
11.064410
10.437965
10.700822
10.891557
10.516644
12.405515
11.640787
13.098717
12.135506
12.929440
13.108850
14.716983
15.142560
17.667413
17.899871
16.502738
17.337799
18.779635
17.642975
17.657876
16.038418
13.934970
14.077425
14.142990
13.195872
12.600422
12.607574
11.114478
11.746883
12.125969
10.809898
12.192726
10.602474
10.320544
10.339618
10.231733
##ZVALUE=235
15.630722
16.525984
33.017993
78.028440
132.107735
204.576850
268.436670
347.857475
369.258523
366.776586
307.508707
237.136483
175.578594
106.743574
87.720752
70.446730
71.280599
73.663592
79.570413
82.693696
74.197650
64.128637
48.428774
36.311746
22.141933
15.559793
12.954473
9.624958
8.281469
10.253787
10.472536
12.187958
12.986660
12.665987
13.451576
14.230609
14.816523
14.484525
14.708638
14.296770
13.769865
14.408827
14.171600
13.899803
13.763905
13.794899
13.940930
12.887716
13.401508
12.932420
13.558865
11.282563
11.944771
12.686849
12.250543
11.352897
12.770891
12.152791
13.215542
12.471676
13.566613
12.026429
12.056828
13.948679
13.196468
14.372468
13.436675
14.281869
15.641451
15.932918
17.407537
17.756820
18.360615
20.051599
19.996762
20.604730
20.896792
19.839406
19.748807
18.632412
18.487573
16.258955
17.199516
17.010570
15.813708
15.575886
15.082955
16.288757
15.754700
16.217828
15.292764
14.422536
15.440583
14.222860
13.733506
15.772581
##ZVALUE=240
2.238750
2.856851
7.395744
17.967820
56.866407
97.938776
190.621614
292.520523
425.381660
501.104593
547.919869
534.934998
486.729741
385.650992
288.106799
184.370875
129.924417
98.712444
91.134906
97.598433
109.968781
111.170411
110.522509
103.074908
84.986687
68.034530
46.260953
34.499764
19.348860
15.819669
12.658834
10.859966
10.583997
11.667609
11.719465
12.950897
13.450980
12.768507
14.217496
14.524460
14.083982
15.740991
14.777780
15.237927
14.502406
14.883876
14.724731
16.344786
14.235973
14.390945
14.465451
13.094544
14.463663
13.438463
13.607740
14.106631
12.856722
12.724996
13.372898
14.636517
13.084412
13.226867
13.384819
15.742779
13.870597
14.717579
14.590621
15.455484
16.135573
17.662644
18.156767
20.264983
21.127462
21.969676
22.347569
23.651719
21.936893
23.423433
23.984909
23.013949
23.138523
21.225810
21.194816
19.373894
19.293427
20.216703
20.140409
18.374920
18.228889
19.505620
17.974973
18.375516
18.716455
18.780828
17.553568
18.352866
##ZVALUE=245
1.729727
1.849532
2.398491
2.625585
4.333854
12.337565
41.086674
81.127882
180.153847
274.646878
414.722562
509.153008
576.221943
598.033667
570.959449
478.806496
390.550494
268.942714
189.651847
124.075413
101.717710
99.907517
113.361478
126.470923
130.779743
123.626590
112.539530
99.317431
73.686838
55.985451
39.957762
25.287867
19.355416
14.942884
13.584495
13.247728
13.929605
14.684796
14.474988
16.600490
15.311837
15.817881
16.152859
16.527772
15.870929
15.930533
13.818741
15.486479
14.966726
14.957786
14.429688
13.214946
13.966560
12.624860
14.050603
12.808442
12.677908
12.653470
11.552572
12.432933
11.587739
11.199713
12.039542
12.861490
13.103485
12.823939
14.104843
14.183521
15.498996
15.851855
16.305447
17.924905
19.018650
20.079613
21.329522
21.115541
20.502806
20.689964
19.501448
21.277666
20.381808
20.571947
20.079613
20.916462
20.201802
19.560456
19.820929
18.347502
19.861460
18.561482
19.869804
18.031597
18.429756
19.350648
18.261671
18.527508
##ZVALUE=250
1.432896
1.793504
1.847744
1.934767
1.760721
2.015829
2.740622
10.252595
25.477409
59.420466
145.254731
247.470737
405.873656
528.287888
637.931824
694.198608
703.071952
643.963814
557.344556
408.820510
291.100740
181.454420
130.455494
106.848478
107.262731
122.745633
134.099722
142.770410
138.670802
125.087500
106.157660
80.293417
63.965917
41.536689
30.145645
22.981763
18.804669
16.816854
16.615987
16.883612
16.864538
17.764568
18.985868
17.315745
17.147660
17.080903
15.635490
15.844703
16.608834
15.398860
14.581680
13.313890
15.242696
13.087988
12.493730
11.929870
11.767745
11.634827
11.850595
11.263490
11.321902
10.716915
11.303425
11.436939
11.366606
11.336803
13.004541
12.251735
13.628602
14.035702
14.936924
16.450882
17.850995
18.553734
19.118786
19.248724
18.771887
18.964410
19.024611
18.880963
19.307733
17.964840
18.419623
18.686652
18.042922
18.306971
18.742681
18.387437
18.735528
17.539859
18.252730
18.371940
17.879605
17.999411
17.710924
17.813444
##ZVALUE=255
1.607537
1.528859
1.704693
1.598597
1.574755
1.504421
1.835823
1.980662
2.134442
3.616810
19.647479
47.901869
101.145506
225.280523
344.318748
534.234643
651.969910
767.747760
806.645751
744.314790
637.051463
502.603650
310.271978
203.440785
116.242766
91.303587
88.440776
106.820464
128.799677
145.568848
153.839588
149.456859
139.043927
116.847754
96.163750
68.485737
52.022934
35.631657
27.110577
22.639632
21.495819
20.752549
20.609498
18.949509
20.395517
19.540787
17.734766
18.506646
17.230511
15.699863
15.508533
15.136600
14.962554
12.753606
13.242960
13.805628
12.354851
12.307763
11.316538
11.452436
11.041760
11.827946
11.240840
9.494424
11.152625
12.485981
11.878610
11.956692
11.214614
13.364553
13.084412
13.735890
14.878511
14.892817
15.433431
16.572475
15.753508
15.621781
16.977787
16.876459
17.098784
17.904639
17.683506
17.332435
17.153621
16.882420
17.520785
16.882420
16.516447
16.808510
15.660524
17.494559
17.088652
16.473532
17.114878
16.492605
##ZVALUE=260
1.433492
1.225471
1.185536
1.355410
1.513958
1.211762
1.311898
1.513958
1.476407
1.963973
1.985431
2.425909
10.342002
28.218627
83.397627
165.681839
326.486826
481.274724
628.252625
818.960667
898.972750
891.175866
787.827969
600.645542
435.128808
261.121988
172.463655
102.956891
85.274577
91.507435
113.210678
143.409967
160.121918
171.173811
168.675780
151.656866
129.473805
99.375844
77.020526
53.739548
40.566921
31.508803
25.879741
22.849441
22.127628
20.821691
18.786788
18.269420
17.691851
17.846823
15.919805
16.094446
14.136434
13.710856
12.973547
13.214946
12.420416
11.660457
11.710525
11.413693
11.836886
11.026859
10.742545
10.260940
9.479523
10.306835
10.268688
10.410547
11.447668
12.001991
12.486577
12.367964
13.951659
14.449954
14.863610
13.952851
14.403462
15.275478
14.517903
15.167594
14.416575
15.920997
15.653968
15.979409
15.243888
15.361905
15.353560
15.152693
15.867949
15.562773
16.222596
15.837550
16.031861
15.020967
16.427636
15.917420
##ZVALUE=265
1.114607
1.140833
1.036525
1.057982
1.230836
1.202822
1.380444
1.278520
1.583695
1.615882
1.703501
1.632571
1.934767
2.066493
4.617572
23.129582
55.401921
142.222643
248.365998
471.379757
657.765865
827.175975
988.777876
1008.799672
906.386971
767.698884
561.683774
396.202803
221.343637
145.427585
93.089938
85.271001
97.526908
131.291747
151.077509
174.379945
176.871419
171.866417
158.856511
128.997564
106.685758
77.079535
56.942701
39.214492
30.387640
24.409890
22.002459
20.134449
19.277930
18.891692
17.104745
15.928745
15.471578
14.576912
13.970733
13.391972
13.406873
12.171865
11.650920
11.671782
11.110902
10.622740
10.474920
10.900497
10.316968
10.293722
9.843707
10.347962
10.996461
11.632442
11.572838
13.023615
12.326837
13.514757
13.103485
13.590455
13.437867
13.835430
13.982654
14.587641
13.480783
13.653636
14.291406
14.307499
14.414787
15.017986
13.570786
14.307499
14.429688
14.262795
15.035868
15.390515
14.455914
14.149547
14.616847
14.817715
##ZVALUE=270
1.119971
1.256466
0.966787
0.921488
1.075864
1.026988
1.215935
1.246929
1.330972
1.419783
1.333952
1.482964
1.335740
1.676679
1.644492
1.802444
2.288818
10.278821
29.394627
97.422004
190.121531
328.444839
567.082763
756.253600
951.720476
1016.031504
990.162492
889.136791
683.524013
519.061685
383.859873
200.803876
126.307607
80.754757
80.858469
104.653835
127.996802
157.513618
169.799924
177.333951
174.373984
154.177547
132.582784
99.304914
76.957941
52.085519
38.402677
27.844906
21.891594
19.105673
18.047690
15.878677
14.936924
14.807582
14.016628
12.828708
13.119578
12.605786
11.180639
11.454821
11.332631
11.053681
10.841489
11.103749
10.610819
10.700822
10.477901
10.735989
10.515451
11.208653
11.788607
11.634827
12.852550
12.381673
12.583733
13.744831
13.470650
13.153553
13.527870
14.108419
13.470650
12.716651
13.652444
13.395548
13.176799
13.463497
14.001727
13.817549
13.285875
13.480783
13.089776
13.955832
13.588667
13.446808
13.652444
13.304949
##ZVALUE=275
1.030564
0.851750
0.937581
0.955462
0.867844
0.915527
1.170635
1.079440
1.087785
1.174808
0.981688
1.327991
1.372695
1.161695
1.372695
1.536608
1.498461
1.751781
1.708865
4.764795
17.512441
49.040914
142.701864
266.252756
493.413806
669.354796
871.481895
995.759964
1016.031504
976.923704
858.546495
634.154677
446.316004
242.557526
142.929554
78.170896
63.923001
74.748993
92.936754
124.442577
145.430565
165.239573
172.321796
164.128542
149.931908
120.385885
98.119974
70.482492
50.972700
33.620596
24.003983
18.078685
14.545918
12.939572
13.033748
12.465715
11.908412
11.313558
12.136698
11.435747
11.493564
10.431409
11.007786
10.956526
11.003613
10.515451
10.990500
10.911822
11.125803
11.603832
11.969805
11.651516
11.595488
12.112856
12.799501
12.777448
12.843609
12.841821
13.410449
13.104677
13.040900
13.085604
12.572408
12.533665
12.670755
12.926459
12.832880
12.766719
13.351440
13.510585
12.968779
13.319850
12.970567
12.541413
12.903810
13.172626
##ZVALUE=280
0.709891
0.765920
0.907779
0.858903
0.722408
0.794530
0.713468
0.923872
0.926852
0.761747
0.874996
0.728965
0.835657
0.897646
1.095533
1.031756
1.181960
1.328588
1.425743
1.526475
1.711845
2.084970
10.068417
35.838485
110.670924
205.269456
385.630727
565.234423
812.366605
955.173969
1015.887856
1015.887856
946.230888
714.780688
526.028872
298.302770
179.642439
85.644722
53.673983
48.501492
61.741471
88.029504
112.470984
139.109492
153.057575
157.622695
154.332519
136.139989
116.856694
87.889433
67.027807
42.277575
30.450821
18.476844
14.485717
10.556579
10.707974
9.834766
10.301471
10.459423
9.655952
9.784698
10.119677
10.143518
9.971857
10.298491
10.984540
10.195971
10.719895
11.559725
11.152625
11.512637
11.524558
12.249947
12.318492
12.045503
12.591481
12.096763
12.453794
12.115836
12.368560
12.862682
12.518764
12.456775
11.570454
12.469888
12.448430
12.628436
12.357831
12.363791
12.461543
11.886954
12.045503
11.880994
11.833906
12.101531
##ZVALUE=285
0.871420
0.837445
0.803471
0.876784
0.738502
0.825524
0.729561
0.954866
0.847578
0.650883
0.941753
1.046658
1.116991
0.881553
1.140833
1.031756
1.139641
1.185536
1.148582
1.289845
1.311898
1.674891
1.745820
1.940727
5.265474
18.975735
62.471628
128.520727
271.899700
429.391861
601.763725
842.159986
982.540846
1016.031504
1002.985835
821.092725
645.712018
401.863456
251.211524
118.559003
62.078834
34.777522
36.602616
55.739880
74.877739
105.613470
126.918554
145.007968
149.455667
149.224997
135.802627
111.651421
90.840459
62.776804
44.778585
26.643872
17.798543
13.120770
10.106564
9.552836
9.259582
9.159446
9.534955
9.155869
9.678602
9.683967
10.104775
10.008812
10.487437
10.541677
11.063814
11.499524
11.572838
11.691451
11.937618
12.032986
12.635589
12.454987
12.006760
11.933446
12.920499
12.682676
12.301803
12.445450
12.642741
12.378693
11.801720
12.010932
12.702942
12.085438
12.166500
12.273788
11.694431
11.592507
12.005568
12.023449
##ZVALUE=290
0.765920
0.710487
0.623465
0.795722
0.823736
0.702739
0.728965
0.917912
0.793934
0.710487
0.614524
0.842810
0.935793
0.831485
0.873804
1.054406
1.040697
1.214743
0.976920
0.916719
1.176000
1.125932
1.112819
1.319647
1.338720
1.758933
2.360940
7.070899
32.358766
79.328418
155.559778
326.646566
498.714447
759.606957
924.586654
1016.031504
1016.031504
935.697556
775.466561
525.507927
348.043442
171.863437
89.660883
38.294792
26.344657
36.429763
50.680637
74.314475
94.128847
120.826960
137.125850
146.710873
145.060420
131.328702
113.124847
83.394647
62.341690
40.865541
28.484464
17.520785
13.133883
9.769797
10.010600
9.504557
9.385943
9.319782
9.817481
10.223985
10.325909
10.793805
10.771751
12.056828
11.845827
12.009740
12.079477
11.951923
12.448430
12.451410
12.228489
12.239814
12.381673
11.864901
12.442470
12.594461
12.836456
12.207627
12.703538
12.997985
12.780428
12.021661
12.358427
12.004972
12.070537
12.367964
12.163520
12.546778
##ZVALUE=295
0.626445
0.729561
0.676513
0.658631
0.705719
0.660419
0.699759
0.652671
0.619888
0.666976
0.699759
0.546575
0.759959
0.888705
0.770688
0.885725
0.854731
0.783801
1.009703
0.983477
1.055598
1.115799
1.334548
1.388788
1.349449
1.336932
1.455545
1.546741
1.697540
3.458858
11.303425
48.905611
107.769966
259.265900
416.921973
663.674474
839.167833
1008.988023
1016.031504
1001.401544
874.636769
641.931891
453.055501
244.355798
135.038495
49.716830
25.938749
22.447705
29.742718
47.669411
66.335797
92.801452
112.282634
131.488442
140.562654
138.992667
126.062632
104.027987
84.935427
59.213638
43.831468
26.893616
19.129515
13.117790
11.097789
10.269880
9.833574
10.033846
10.170937
10.799766
10.793805
11.264682
11.545420
11.796951
12.015700
12.268424
12.109876
12.378693
12.482405
12.477636
12.166500
13.168454
12.348890
12.194514
12.310743
12.571812
12.902617
12.567639
12.809634
12.286901
12.584925
12.098551
12.265444
11.926889
11.555552
12.362599
##ZVALUE=300
0.595450
0.526905
0.498891
0.659823
0.669956
0.671744
0.455976
0.609756
0.737906
0.697970
0.743866
0.679493
0.657439
0.796914
0.635982
0.454783
0.840425
0.843406
0.787973
0.873804
1.031756
0.847578
1.032948
0.993609
1.182556
1.202822
1.243949
1.390576
1.361966
1.266599
1.859665
1.845956
4.852414
28.276443
70.865750
180.763006
309.999585
536.767840
721.150637
922.829509
1010.781527
1016.031504
940.139890
737.023950
556.026697
320.521593
195.870996
86.737871
41.168928
18.722415
17.990470
27.905703
39.849877
62.540770
82.390904
107.438564
123.211741
130.649805
131.714940
118.856430
104.778409
79.884529
62.007904
41.767955
29.201508
18.145442
14.045835
11.377931
10.470748
10.633469
10.252595
10.754466
11.214614
11.747479
11.509657
12.163520
11.897683
11.602640
12.013912
12.244582
12.281537
12.441874
12.492537
12.494922
12.699962
12.882948
12.617707
12.956858
12.144446
12.488961
12.261868
12.360811
11.831522
11.607409
11.704564
11.758804
##ZVALUE=305
0.569820
0.448823
0.589490
0.578761
0.506639
0.644922
0.392795
0.672936
0.638962
0.649691
0.586510
0.682473
0.765920
0.493526
0.687838
0.793934
0.796914
0.623465
0.632405
0.656843
0.731945
0.712872
0.851750
0.935793
0.698566
0.954866
0.997782
1.014471
1.118779
1.178980
1.218915
1.374483
1.468658
1.594424
2.964735
16.458631
46.072602
130.061507
236.176848
434.025526
608.734488
825.227499
937.682986
979.830623
917.270780
740.841031
586.224794
380.435586
241.907835
112.144947
56.441426
20.498633
13.929605
17.276406
24.670959
41.172504
58.082938
81.757903
99.920630
118.261576
125.899911
124.865770
114.802718
97.634792
81.405640
56.042671
41.647553
27.489662
19.871593
13.862848
12.034774
10.945797
10.885596
10.947585
11.097789
11.533499
11.405945
11.431575
11.906624
12.158751
11.859536
12.322664
12.157559
12.802482
12.515783
12.196898
12.313724
12.358427
12.104511
12.108684
11.865497
11.753440
11.593699
11.730790
11.637807
11.522770
##ZVALUE=310
0.565648
0.613928
0.584722
0.626445
0.594854
0.629425
0.808835
0.757575
0.717640
0.737906
0.656843
0.741482
0.694990
0.656843
0.606775
0.624657
0.578761
0.611544
0.800490
0.762939
0.759959
0.771880
0.884533
0.665784
0.829697
0.954866
0.861883
1.027584
1.176596
1.012683
1.128912
1.331568
1.367927
1.384616
1.595616
1.674891
1.883507
7.447600
23.701787
77.299476
155.127645
318.421721
483.287573
714.690685
863.623023
970.806479
956.534743
835.461020
695.625544
474.702716
321.970582
166.547894
90.570450
33.108592
15.685558
11.280775
14.692545
23.837686
34.647584
53.577423
70.308447
93.096495
107.766986
118.174553
119.406581
110.515952
97.961426
76.819658
59.341788
40.382743
29.904842
19.874573
15.469790
12.448430
11.699796
11.154413
11.566877
11.579990
11.752844
11.503696
11.585951
11.952519
12.490749
12.214780
12.118816
12.689829
12.745857
12.500882
12.552738
12.234449
11.771917
11.910796
11.870861
11.612773
11.454821
11.692643
##ZVALUE=315
0.320673
0.275970
0.278950
0.299811
0.140667
0.374913
0.372529
0.339746
0.399947
0.196695
0.391603
0.395775
0.318885
0.492930
0.529885
0.453591
0.503659
0.503659
0.459552
0.430942
0.356436
0.410676
0.593662
0.494719
0.598431
0.534654
0.526905
0.759959
0.644922
0.681877
0.913739
0.730753
0.832677
1.017451
0.930429
0.931621
1.099706
1.146793
1.268983
3.250837
11.378527
48.846602
110.115409
252.423882
399.819016
633.221865
785.752535
927.226543
965.866446
888.326764
762.429833
545.795560
386.071801
204.336643
112.960935
42.615533
18.723607
9.949803
10.113716
14.688969
20.219684
33.229589
46.110749
67.955852
83.991885
102.982521
112.220645
112.574697
106.586814
91.116428
74.031949
53.968430
40.863752
26.903749
20.176768
15.340447
12.596846
11.724830
11.292696
11.064410
11.299849
11.730790
12.002587
11.528730
11.677742
11.660457
11.702776
11.806488
11.552572
11.893511
11.757612
11.600852
11.365414
11.383891
11.197925
11.556745
##ZVALUE=320
0.460744
0.460744
0.388622
0.484586
0.395775
0.464916
0.612736
0.456572
0.506639
0.477433
0.529885
0.536442
0.674725
0.513792
0.592470
0.610948
0.678897
0.569820
0.541806
0.688434
0.657439
0.622869
0.581741
0.620484
0.700951
0.688434
0.735521
0.819564
0.589490
0.911951
0.914931
0.899434
0.857711
0.862479
1.000762
0.890493
1.063943
1.055598
1.225471
1.435876
1.522899
1.766682
6.947517
23.099780
79.883933
159.266591
320.199728
472.523570
694.796443
844.280720
950.402021
945.341587
819.259882
671.046972
452.021956
293.370485
137.401819
72.295666
27.149916
13.201833
9.026527
9.590983
13.338923
18.368959
29.747486
42.463541
61.966777
77.966452
97.305775
104.766488
107.203722
102.431774
88.342428
73.687434
53.718686
41.302443
27.693510
20.433664
14.784932
12.820959
11.646748
11.395812
11.196733
12.010932
11.878610
11.621714
11.478662
11.553764
11.735559
11.572838
11.486411
11.200905
11.551976
11.654496
11.058450
11.353493
##ZVALUE=325
0.432730
0.408888
0.506639
0.305772
0.377893
0.447631
0.599623
0.518560
0.435710
0.452995
0.554919
0.503659
0.478625
0.496507
0.456572
0.536442
0.402927
0.479817
0.553727
0.439882
0.563860
0.531673
0.558496
0.703931
0.685453
0.619888
0.666976
0.628829
0.689626
0.555515
0.698566
0.665784
0.674725
0.794530
0.825524
0.869632
0.828505
1.066923
1.136661
1.054406
1.060963
1.191497
1.448989
1.645684
3.021955
17.956495
47.477484
124.391913
224.078894
417.560935
582.176447
790.860653
897.533894
939.009786
879.560709
695.831776
525.881648
320.017934
193.315744
86.291432
42.022467
14.787912
9.416938
8.676648
9.318590
13.077855
18.355846
29.033422
42.109489
61.764717
76.195002
90.457797
98.538995
100.758672
94.352961
80.554485
67.666769
50.920844
38.455725
25.379658
19.307733
14.614463
12.907982
11.796951
11.352897
11.180639
11.457801
11.168718
11.360645
11.386871
11.280775
11.137724
10.933876
11.487603
11.058450
11.014938
##ZVALUE=330
0.351667
0.370741
0.341535
0.404716
0.357628
0.348687
0.407696
0.400543
0.483990
0.417829
0.392795
0.393987
0.323653
0.465512
0.484586
0.523925
0.551939
0.645518
0.557899
0.481606
0.435710
0.384450
0.595450
0.725985
0.496507
0.612736
0.694990
0.609756
0.635982
0.623465
0.539422
0.796914
0.607967
0.619888
0.804663
0.556707
0.819564
0.710487
0.915527
0.975728
0.964999
1.027584
0.938773
1.176596
1.145601
1.380444
1.893640
7.792711
24.995804
83.006620
158.932805
318.246484
471.680760
685.362816
824.385881
913.085938
893.024802
760.267973
607.555509
392.980576
252.753496
119.750500
60.978532
22.918582
11.168718
8.228421
8.288622
9.587407
12.481809
19.325614
27.291775
41.735768
54.799914
73.980689
85.372925
94.374418
95.942616
88.943839
77.784657
62.213540
49.177408
34.447908
26.928782
19.474626
15.495420
12.879968
12.064576
11.209846
11.198521
11.024475
10.657907
10.919571
10.584593
10.653734
10.740757
10.651946
##ZVALUE=335
0.502467
0.307560
0.341535
0.428557
0.459552
0.339746
0.258684
0.379682
0.352859
0.446439
0.377893
0.360608
0.408888
0.589490
0.402927
0.443459
0.416636
0.330806
0.509620
0.545979
0.462532
0.465512
0.375509
0.548959
0.501871
0.363588
0.371933
0.616908
0.401735
0.589490
0.725985
0.627637
0.688434
0.604987
0.669956
0.724792
0.691414
0.840425
0.918508
0.911951
0.792742
0.911951
0.732541
0.922680
1.133680
1.171827
1.154542
1.357794
1.769662
3.872514
12.996793
51.497817
108.595490
242.136717
385.406017
607.067943
768.269897
903.973579
937.006474
856.483579
721.442699
493.641496
330.832005
171.183944
87.918639
30.894876
14.183521
8.556843
8.251667
8.581877
9.644628
13.059974
17.427802
27.571917
38.371682
55.412650
67.492723
81.332922
88.206530
88.721514
84.238648
72.912574
61.406493
46.318769
36.489964
25.815964
19.919872
14.771819
12.966990
11.265874
10.810494
10.272861
10.422468
10.488629
10.352731
10.283589
##ZVALUE=340
0.411868
0.256896
0.370741
0.317693
0.522733
0.368953
0.426769
0.350475
0.360608
0.524521
0.416636
0.411868
0.457764
0.476837
0.514984
0.420809
0.407696
0.447631
0.517964
0.253916
0.413656
0.329614
0.537634
0.499487
0.389814
0.510812
0.486970
0.663996
0.522733
0.620484
0.563860
0.644922
0.713468
0.651479
0.523925
0.869632
0.671744
0.799894
0.739694
0.702739
0.937581
0.907779
0.688434
0.906587
0.833869
0.906587
0.859499
0.982881
1.088977
1.168847
1.351833
2.028942
6.498694
31.172633
74.640512
186.949968
317.999721
541.912913
726.982951
960.875750
1016.041636
1016.041636
1000.886559
765.751600
540.115833
272.282958
142.440796
52.242875
20.979643
9.184480
8.528829
8.379817
8.503795
10.049939
12.435913
18.273592
25.490522
37.633777
50.300956
66.674948
75.949430
84.208846
84.138513
78.875422
71.067810
58.294535
47.448874
34.124851
26.723742
19.194484
15.010834
12.114644
10.671616
10.390878
10.210872
10.052919
##ZVALUE=345
0.373721
0.282526
0.426769
0.360608
0.417829
0.500679
0.486970
0.311732
0.513792
0.467896
0.470877
0.475645
0.512600
0.320673
0.327826
0.343919
0.398755
0.425577
0.342727
0.389814
0.430942
0.492930
0.491738
0.476837
0.512600
0.636578
0.492930
0.586510
0.526905
0.531673
0.453591
0.399947
0.576973
0.603795
0.562668
0.630617
0.613928
0.594854
0.702739
0.769496
0.757575
0.684857
0.791550
0.754595
0.762939
0.864863
0.890493
0.937581
0.996590
0.989437
1.036525
1.237988
1.313686
1.339912
3.004670
17.366409
47.558546
123.896599
224.240422
408.968925
587.841868
855.195522
1011.627913
1016.049981
1016.049981
950.737596
725.352764
423.720479
232.402682
82.848668
34.239888
12.191534
8.556843
8.093715
8.089542
8.593798
9.437799
11.862516
16.118884
24.930835
34.007430
48.931837
58.671832
70.021749
75.552464
77.466965
75.501800
66.655874
57.953596
45.294762
35.874844
24.575591
18.902421
14.459491
12.104511
10.378957
##ZVALUE=350
0.317693
0.404716
0.442863
0.431538
0.400543
0.194907
0.330806
0.350475
0.415444
0.438690
0.475645
0.398755
0.351667
0.347495
0.339746
0.392795
0.293851
0.528693
0.391603
0.472665
0.523925
0.308752
0.490546
0.460744
0.503659
0.661612
0.509620
0.481606
0.479817
0.456572
0.487566
0.384450
0.450611
0.561476
0.560880
0.730753
0.590682
0.623465
0.653863
0.625849
0.522733
0.730753
0.673532
0.657439
0.689626
0.594854
0.752807
0.783801
0.835657
0.827909
0.980496
0.926852
0.928640
1.216531
1.247525
1.310706
1.896620
8.695722
26.617646
82.691908
161.384940
326.031446
472.377539
683.429837
842.089653
997.107029
1016.031504
924.600959
758.574605
488.641858
299.018025
128.633976
55.254698
15.117526
9.060502
7.602572
7.712841
7.598996
8.051991
8.901954
10.718703
16.155839
21.725893
31.552911
40.763617
53.985715
61.313510
68.996549
71.309805
69.485903
62.740445
51.862597
44.082999
33.149719
25.725961
18.811822
##ZVALUE=355
0.393987
0.381470
0.399947
0.392795
0.528693
0.410676
0.357628
0.391603
0.291467
0.337958
0.421405
0.261664
0.124574
0.236630
0.341535
0.409484
0.403523
0.549555
0.431538
0.327826
0.389814
0.407696
0.353456
0.449419
0.430942
0.395775
0.483990
0.424981
0.565648
0.462532
0.532866
0.535846
0.505447
0.345707
0.646710
0.378489
0.405908
0.453591
0.317693
0.825524
0.659823
0.517964
0.488758
0.594854
0.571609
0.713468
0.737906
0.693798
0.638962
0.712872
0.823736
0.854731
0.845790
0.899434
0.923872
1.009703
1.198649
1.420975
1.344681
4.124641
14.412403
55.069923
112.944841
238.470435
372.232795
576.947927
713.146925
841.628909
881.981850
830.951929
723.215938
531.725883
360.552669
173.442960
85.136890
24.660826
9.999871
7.490516
6.971955
7.311702
7.289648
7.583499
8.408427
10.221601
13.191700
19.570589
25.960803
36.757588
44.714808
54.835677
61.289668
64.057708
63.870549
57.612658
50.742626
40.238500
##ZVALUE=360
0.327826
0.268817
0.395775
0.378489
0.312924
0.324845
0.348687
0.281930
0.141859
0.331998
0.303984
0.469685
0.496507
0.518560
0.471473
0.567436
0.505447
0.284910
0.572801
0.342727
0.475645
0.398755
0.513792
0.464916
0.349879
0.382662
0.392795
0.499487
0.498891
0.465512
0.495911
0.449419
0.500679
0.509620
0.537634
0.458956
0.445843
0.523925
0.440478
0.496507
0.433922
0.508428
0.492930
0.653863
0.643730
0.547767
0.755787
0.697970
0.745654
0.723600
0.707507
0.607967
0.834465
0.611544
0.893474
0.934601
1.028776
0.924468
1.107454
1.326799
1.191497
2.162457
6.664991
29.120445
69.098473
168.002844
284.933448
473.601818
612.551570
741.856694
787.730813
749.781728
660.215616
488.094687
352.544785
192.791820
109.023452
43.058991
17.242432
7.516742
6.903410
6.823540
6.572604
6.933808
6.927848
7.587671
8.728504
11.209846
15.202761
21.665692
29.040575
39.476752
47.376752
54.124594
57.194829
58.384538
##ZVALUE=365
0.342727
0.139475
0.250936
0.318885
0.356436
0.303984
0.320673
0.336766
0.393987
0.361800
0.284910
0.218749
0.311732
0.294447
0.370741
0.382662
0.383854
0.489950
0.370741
0.494719
0.383854
0.320673
0.457764
0.224710
0.400543
0.346899
0.483990
0.477433
0.461936
0.372529
0.568628
0.485778
0.338554
0.380874
0.493526
0.391603
0.369549
0.385642
0.513792
0.448823
0.573993
0.616908
0.550747
0.342727
0.536442
0.440478
0.549555
0.542998
0.640750
0.575781
0.656843
0.514984
0.679493
0.640750
0.684857
0.727773
0.593662
0.830889
0.873804
0.937581
1.064539
1.039505
1.172423
1.589656
2.782941
16.191006
43.493509
114.349723
210.118890
383.067727
519.196987
672.941804
735.339522
713.945627
632.477999
479.889512
344.869494
188.812613
107.146502
42.374730
18.907785
7.960796
6.541610
6.152987
6.190538
6.089807
6.006956
6.080866
6.318688
7.433891
9.161830
13.178587
17.773509
25.703907
32.575727
41.843653
##ZVALUE=370
0.396967
0.278950
0.326633
0.336766
0.341535
0.320673
0.310540
0.200868
0.247955
0.318885
0.343919
0.282526
0.361800
0.408888
0.343919
0.404716
0.402927
0.253916
0.401735
0.526905
0.406504
0.373721
0.384450
0.467896
0.336766
0.498891
0.239611
0.277758
0.325441
0.191927
0.431538
0.340939
0.377893
0.502467
0.427961
0.354648
0.441670
0.469685
0.501871
0.513792
0.401735
0.363588
0.319481
0.511408
0.554919
0.445843
0.509620
0.483990
0.518560
0.592470
0.762939
0.675917
0.543594
0.494719
0.663996
0.505447
0.651479
0.790954
0.673532
0.594854
0.816584
0.858903
0.968575
1.017451
1.099706
1.176596
1.602769
8.676648
28.367639
88.432431
163.853765
305.774808
443.689823
612.936616
698.046684
719.028711
659.670830
519.434810
383.078456
215.066671
122.178793
49.715638
23.487806
9.525418
6.498694
5.651712
5.561709
5.391836
5.777478
5.426407
5.676746
6.056428
6.365776
8.550882
11.148453
16.436577
##ZVALUE=375
0.298619
0.229478
0.251532
0.409484
0.453591
0.321865
0.380874
0.362992
0.211596
0.202656
0.228882
0.259876
0.491738
0.291467
0.264645
0.139475
0.291467
0.206828
0.328422
0.295639
0.521541
0.483990
0.297427
0.440478
0.325441
0.438690
0.372529
0.407696
0.293851
0.281930
0.192523
0.349879
0.362992
0.382662
0.419617
0.449419
0.346899
0.511408
0.414848
0.430942
0.338554
0.408888
0.328422
0.379682
0.633597
0.385642
0.464916
0.475645
0.398755
0.366569
0.442863
0.394583
0.519753
0.621676
0.562668
0.443459
0.596642
0.521541
0.546575
0.400543
0.561476
0.635982
0.752807
0.786781
0.910759
0.945926
0.918508
1.081824
1.320839
4.306436
14.682412
53.497553
112.659931
245.667696
376.255512
547.082424
650.035739
709.189773
689.442754
573.664904
447.285771
276.990533
171.618462
79.967976
40.261745
14.406443
7.534623
5.368590
5.334616
5.246997
5.064607
4.917979
5.042553
5.086660
5.054474
5.741715
##ZVALUE=380
0.304580
0.371933
0.320673
0.218749
0.300407
0.226498
0.304580
0.279546
0.272989
0.233650
0.221729
0.307560
0.299811
0.290871
0.263453
0.313520
0.452995
0.424981
0.183582
0.289679
0.343919
0.198483
0.382662
0.368953
0.433922
0.325441
0.408888
0.341535
0.361800
0.358820
0.330806
0.433922
0.365973
0.271797
0.291467
0.437498
0.251532
0.497699
0.365973
0.355840
0.433922
0.291467
0.385642
0.507832
0.220537
0.443459
0.239611
0.450611
0.388622
0.402927
0.390410
0.490546
0.449419
0.466704
0.392795
0.556707
0.481606
0.593662
0.481606
0.551939
0.643730
0.519753
0.602603
0.711679
0.621676
0.688434
0.689626
0.538826
0.869632
1.146793
1.200438
2.172589
7.789731
36.968589
85.093975
196.735859
312.562585
483.392477
607.208014
704.437494
706.962943
610.269904
501.716733
348.764658
232.266784
113.815665
59.043765
21.784902
9.942651
5.182624
4.868507
5.027652
4.655719
4.703999
4.980564
4.669428
##ZVALUE=385
0.244975
0.137687
0.240803
0.213981
0.263453
0.338554
0.247955
0.277758
0.152588
0.334978
0.432730
0.251532
0.213981
0.272989
0.355840
0.311732
0.218749
0.436902
0.180602
0.258684
0.314713
0.299811
0.325441
0.273585
0.251532
0.298619
0.264645
0.465512
0.471473
0.455976
0.199676
0.434518
0.426769
0.311732
0.539422
0.384450
0.326633
0.430942
0.295639
0.345707
0.160933
0.492930
0.402927
0.245571
0.332594
0.381470
0.492930
0.335574
0.414848
0.623465
0.359416
0.371933
0.388622
0.340939
0.412464
0.358820
0.477433
0.428557
0.336766
0.468493
0.465512
0.450611
0.482798
0.520945
0.532866
0.617504
0.614524
0.778437
0.828505
0.917912
0.993609
1.093745
0.879765
1.336932
3.503561
21.065474
54.224730
138.245821
237.794518
406.400561
535.047650
660.578012
695.083737
653.292537
567.922592
418.071747
295.094848
161.656737
91.631413
38.393736
16.375780
5.796552
4.627705
4.410744
4.508495
4.064441
##ZVALUE=390
0.244975
0.316501
0.157952
0.227690
0.292659
0.313520
0.266433
0.324845
0.294447
0.233650
0.457764
0.266433
0.282526
0.228882
0.325441
0.144839
0.257492
0.149608
0.336766
0.283718
0.158548
0.218749
0.310540
0.351667
0.335574
0.338554
0.261664
0.357628
0.362992
0.392795
0.323653
0.395775
0.347495
0.390410
0.452995
0.418425
0.334978
0.457764
0.504851
0.262856
0.499487
0.368953
0.082850
0.314713
0.319481
0.365973
0.483990
0.454783
0.396967
0.452995
0.293851
0.321865
0.437498
0.282526
0.402927
0.470877
0.350475
0.531673
0.540614
0.533462
0.483990
0.602603
0.505447
0.567436
0.364780
0.632405
0.701547
0.539422
0.725985
0.812411
0.901818
0.828505
1.089573
0.862479
0.863671
1.164675
2.022982
11.069775
34.657717
104.867816
194.764733
355.881453
475.913882
610.804558
679.661036
686.199665
627.626777
493.859649
375.324488
227.252841
132.279992
54.307580
25.319457
8.142591
4.780889
4.114509
##ZVALUE=395
0.247955
0.276566
0.327826
0.267625
0.215769
0.223517
0.289679
0.264645
0.232458
0.333786
0.308752
0.361800
0.366569
0.349879
0.438690
0.252724
0.190735
0.275970
0.247955
0.333786
0.182986
0.253916
0.301600
0.141859
0.295639
0.257492
0.345707
0.341535
0.222921
0.289679
0.316501
0.382662
0.456572
0.374913
0.355840
0.315905
0.389814
0.324845
0.295639
0.443459
0.396967
0.331998
0.333786
0.435710
0.403523
0.400543
0.421405
0.327826
0.344515
0.546575
0.357628
0.499487
0.348687
0.433922
0.420809
0.342727
0.213981
0.458956
0.255704
0.387430
0.512600
0.386834
0.450611
0.466704
0.610948
0.493526
0.495911
0.689626
0.741482
0.708699
0.744462
0.872612
0.917912
0.762939
0.932813
0.896454
0.955462
0.973940
1.350641
6.092787
21.661520
74.108839
142.603517
276.702642
400.101542
560.814738
656.583905
708.102584
682.377815
574.950576
444.054604
275.954604
174.221992
82.291961
40.156841
13.505816
##ZVALUE=400
0.169873
0.259876
0.294447
0.195503
0.389814
0.329614
0.319481
0.205636
0.249743
0.105500
0.169873
0.222921
0.322461
0.302792
0.317693
0.225902
0.349879
0.298619
0.181794
0.282526
0.301600
0.311732
0.344515
0.410676
0.233650
0.344515
0.340939
0.376701
0.244975
0.329614
0.136495
0.469685
0.400543
0.494719
0.445843
0.366569
0.326633
0.472665
0.401735
0.335574
0.436902
0.392795
0.402927
0.375509
0.390410
0.408888
0.237823
0.488758
0.325441
0.435710
0.345707
0.341535
0.362992
0.426769
0.279546
0.357628
0.387430
0.433922
0.570416
0.327826
0.431538
0.423789
0.405908
0.434518
0.504851
0.388622
0.596642
0.626445
0.740886
0.859499
0.792742
0.868440
0.819564
0.751615
0.690818
0.769496
0.804663
0.875592
0.792742
0.948906
1.155734
3.585815
12.689829
45.596957
96.857548
210.286975
327.994823
496.506691
601.082444
685.119629
687.977672
596.221685
489.071608
323.516726
212.709904
107.409954
##END
