##TITLE=QP00602
##FORMAT=SPECTACLE-ASCII V-1.2
##DATA TYPE=ULTRAVIOLET SPECTRUM
##SECOND TYPE=ULTRAVIOLET SPECTRUM
##DATE=04/30/18
##TIME=14:35:43
##SPECTROMETER/DATA SYSTEM=SPECTACLE
##XUNITS=NM EM
##YUNITS=ENERGY
##YFACTOR=1
##FIRSTX=220
##LASTX=410
##NPOINTS=96
##3DDATA=Equidistant
##ZUNITS=NM EX
##FIRSTZ=210
##LASTZ=400
##ZPOINTS=39
##XYDATA=(Y..Y)
##ZVALUE=210
3.387928
3.597736
3.657937
3.777742
3.201962
4.090667
4.561543
3.888607
4.090667
3.643632
4.349947
4.838705
4.794598
4.930496
5.359650
5.558729
5.905628
6.474853
6.107688
6.456971
7.141829
7.460713
7.639527
8.966923
9.695888
8.368492
8.492470
9.673834
10.808706
9.703636
11.238456
10.773540
11.920929
13.135672
12.461543
12.388825
12.810826
13.246536
14.262795
14.497638
14.237761
13.891459
15.942454
14.802814
16.953945
16.032457
17.456412
17.370582
18.004775
18.622875
17.410517
17.431974
19.527674
18.792748
19.680858
19.486547
20.641685
20.072460
21.604896
22.459626
22.730827
21.115541
21.068454
21.009445
23.883581
23.504496
26.095510
26.116967
33.290982
38.001537
47.643781
56.277514
65.979958
75.810552
88.473558
94.175935
100.222826
103.022456
101.206899
103.583932
91.703534
86.391568
72.163939
61.511993
50.701499
40.048957
30.807853
27.189851
25.496483
23.844838
22.215843
21.545887
22.166967
22.368431
22.770762
24.297833
##ZVALUE=215
15.308857
14.409423
13.009906
10.892749
8.959770
6.970763
5.699992
7.598996
6.291866
7.744431
7.170439
7.160902
6.635785
6.586909
6.382465
6.494522
7.231832
7.952452
7.203817
7.486939
7.746816
9.529591
9.270906
11.589527
12.132525
10.848641
11.110902
12.171865
12.376904
13.163686
13.877749
13.908744
12.863874
14.301538
14.905930
15.571713
14.880896
17.217994
16.164780
17.401576
18.384457
17.180443
17.069578
17.527938
18.996596
18.820763
19.715428
18.932819
19.264817
20.588636
20.944476
21.915436
21.685958
21.624565
21.326542
21.878481
22.841692
25.003552
24.497509
24.534464
23.382902
24.566650
24.696589
26.142001
25.021434
29.367805
28.541684
31.860471
37.172437
41.782856
52.933693
59.960485
72.222948
78.266859
89.106560
92.966557
100.744963
100.979805
99.815726
99.921823
98.369718
86.999536
74.661970
65.916777
53.724647
42.805672
35.513639
30.902624
28.699636
24.164915
23.534894
21.643639
22.713542
22.649765
23.422837
22.837520
##ZVALUE=220
58.861971
59.892535
64.513683
67.965984
64.545870
53.364635
39.692521
23.904443
17.803907
15.495420
14.061928
13.413429
14.652610
13.895631
12.029409
11.258721
9.900928
8.940697
8.305907
8.194447
9.842515
10.756850
9.796619
11.106730
11.153817
12.628436
12.232661
12.011528
12.676716
14.086962
14.644861
14.947653
13.113618
15.816689
15.668869
15.340447
15.534759
17.356873
18.553734
17.449856
17.216802
17.872453
17.417669
20.971894
18.810630
19.937754
20.829439
20.580888
19.988418
21.802783
21.833777
21.055937
22.641420
21.966696
23.452640
22.904873
24.457574
22.788644
23.228526
22.229552
27.110577
26.899576
24.905801
22.782683
27.290583
26.841760
29.981732
31.809807
37.984848
42.648911
48.662424
57.505965
65.451860
74.749589
81.466436
85.129738
90.332627
91.161728
90.418458
93.239546
89.885592
83.424449
76.342821
63.380599
53.775907
43.039918
34.053922
29.788613
27.365685
24.714470
25.048852
23.339987
23.439527
22.509694
22.095442
22.204518
##ZVALUE=225
99.021792
101.653934
133.104920
174.269676
179.261565
181.785822
160.241723
122.063756
88.568926
62.054992
37.883520
27.065873
25.702715
27.721524
27.292967
29.183626
24.080873
20.573735
17.457604
12.785792
10.325909
10.891557
10.074973
10.011792
10.140538
11.482835
11.840463
11.891723
11.576414
12.089610
11.395812
13.648868
12.844801
15.822649
14.433861
15.098453
15.122890
15.427470
15.256405
16.334653
14.857650
16.531944
16.640425
16.477704
18.654466
18.301606
17.916560
17.689466
17.427802
18.098950
18.229485
19.125938
19.296408
20.205975
18.787980
18.903613
19.963980
18.622875
20.671487
19.650459
21.495819
22.080541
20.894408
21.632910
21.336675
19.963980
24.884939
24.383664
27.661920
31.390786
36.079884
40.369630
45.250654
47.212839
52.471757
54.647923
54.137707
52.432418
54.266453
50.797462
46.104789
45.546889
41.492581
35.618544
30.727983
29.158592
23.871660
23.614764
22.446513
21.736622
21.930933
20.988584
20.897985
19.507408
20.941496
21.415949
##ZVALUE=230
71.999431
75.499415
124.433637
210.142732
272.631645
338.414907
357.695818
346.734524
308.901668
247.875452
156.656504
103.536844
64.954758
49.740672
45.251846
50.538778
50.623417
49.039721
45.031905
37.993789
29.811859
22.869706
16.061664
12.269616
10.306835
11.055470
9.315610
10.347962
11.593699
10.580420
11.190772
11.199713
11.620522
11.852980
12.388825
14.002919
12.994409
13.059974
13.653636
13.512969
12.552738
14.024973
13.476610
15.087724
13.776422
15.618801
15.066862
15.994906
16.569495
15.780926
17.327666
17.816424
18.785596
18.304586
19.183755
17.423630
19.737482
19.940734
19.828677
19.982457
19.701719
21.606684
20.471811
21.588802
22.066832
24.429560
23.599863
26.140809
26.240945
27.620792
34.192801
39.015412
40.289760
47.403574
48.988461
51.072836
50.584674
51.157475
48.159957
44.287443
43.910742
39.636493
37.911534
33.734441
31.311512
30.693412
28.554797
27.812719
27.592778
26.374459
27.376413
25.212765
26.006699
25.908947
26.491880
25.416613
##ZVALUE=235
23.106933
28.722882
59.717894
140.835643
236.330628
374.236703
492.695570
643.191934
689.439774
684.925914
566.948652
451.201797
290.977955
203.016996
126.405954
91.427565
75.528622
76.765418
83.382726
82.296729
83.769560
63.573718
52.755475
38.793683
27.690530
18.621683
14.779568
12.651682
11.751652
11.343956
12.768507
12.515783
11.920929
12.546778
12.585521
13.209581
14.360547
12.238622
14.317632
14.453530
13.674498
15.169978
15.277863
14.850497
15.054941
14.949441
14.999509
16.389489
16.400814
16.137958
16.040802
17.208457
17.152429
18.288493
19.114614
19.390583
19.474626
20.028949
20.063519
22.362471
20.670891
22.762418
21.409988
24.496913
24.659634
25.234818
26.828647
28.947592
32.275915
33.620000
37.971735
40.164590
45.543909
52.114725
52.487850
53.769946
56.112409
54.517984
52.714944
51.674843
47.924519
47.376752
41.677952
40.845871
37.364960
37.038922
33.907890
33.571720
33.012629
33.834577
32.201409
30.637980
32.202601
31.300783
32.276511
34.529567
##ZVALUE=240
3.147721
3.970861
13.330579
49.917698
112.422705
247.871876
399.908423
663.517714
858.737826
1016.031504
1016.031504
1016.031504
850.755572
683.256984
460.899472
311.222672
180.427432
132.051706
102.500916
102.747679
115.805864
124.538541
119.213462
106.870532
91.052651
68.611503
51.975846
34.920573
24.883747
17.709732
14.087558
12.593865
13.726950
12.012720
11.242628
12.761950
13.503432
13.829470
14.010668
13.711452
13.747811
14.539957
13.604760
14.123917
14.993548
14.460683
14.637709
15.699863
16.065836
17.271638
16.717911
18.325448
18.017888
18.194914
19.210577
19.687414
18.914938
20.233989
21.085739
20.692945
20.462871
22.055507
23.796558
24.524927
24.308562
27.473569
27.592778
31.872988
31.504631
38.096905
40.174723
47.396421
51.527619
56.403875
58.363676
61.402917
62.740445
61.687827
59.704781
57.007670
59.904456
50.455928
50.157905
48.375726
45.547485
41.753650
39.864779
40.632486
42.202473
40.227771
41.423440
40.687919
39.313436
40.766001
37.953854
39.656758
##ZVALUE=245
2.788901
2.869964
3.230572
3.039837
11.995435
44.164658
140.450597
274.683833
545.510650
795.957446
1016.052961
1016.052961
1016.052961
1016.052961
1016.052961
1016.052961
833.649635
536.795855
357.249975
188.461542
130.263567
111.505985
120.364428
129.116774
134.625435
133.456588
116.009712
100.849867
74.971914
59.484839
43.177605
27.667880
20.842552
14.997721
14.642477
13.148785
12.665987
14.362931
13.568997
13.046861
14.313459
14.543533
13.983846
14.083982
13.718605
14.517903
14.901757
14.169812
15.200973
15.956759
15.269518
16.674995
16.079545
16.455650
18.789768
17.827749
17.992854
19.169450
19.484758
19.771457
20.067692
20.145774
20.383000
22.808909
23.293495
25.146604
26.286840
28.257966
30.384660
35.253763
37.618876
44.772625
47.027469
50.848722
52.055717
56.693554
55.684447
55.493712
55.334568
53.536892
50.846934
48.816800
42.735934
43.956637
40.578842
40.658712
40.407777
40.030479
40.063858
38.732886
39.776564
37.648678
40.287971
39.220452
39.610863
37.329793
##ZVALUE=250
2.052784
1.974702
2.397895
2.329946
2.608895
2.739429
5.795956
28.180480
118.461847
238.996744
502.934456
770.452023
1003.876925
1016.031504
1016.031504
1016.031504
1016.031504
1016.031504
985.918641
658.578873
429.417491
266.152620
145.875812
108.779669
111.090541
121.709704
138.063431
145.384669
140.659809
126.478672
106.632710
84.382892
63.221455
38.766861
27.645826
17.106533
13.762712
11.716485
11.653900
11.346936
11.855960
12.435913
12.191534
12.491941
12.042522
12.281537
12.395978
12.209415
12.990832
12.479424
12.029409
13.117790
13.518929
14.028549
13.301969
14.817715
15.246868
15.299916
16.217828
16.534925
16.511679
16.890764
17.782450
17.078519
18.829703
21.052957
21.719933
23.359656
25.686622
27.773976
31.630993
32.439828
36.569834
41.264892
41.105747
41.945577
43.300986
42.440891
42.160749
40.730834
40.481687
40.368438
39.849877
36.983490
35.985708
35.858750
35.609603
35.736561
35.873652
36.703944
34.840703
33.607483
35.240650
35.034418
36.152601
35.212636
##ZVALUE=255
2.029538
1.423955
1.706481
2.159476
2.047420
2.063513
2.594590
2.634525
2.413988
6.506443
42.518973
115.246773
281.962752
450.380445
734.651685
957.946777
1016.031504
1016.031504
1016.031504
1016.031504
1016.031504
807.377100
578.637719
324.057937
196.620822
111.635923
95.361471
108.482838
127.218962
141.702890
149.727464
145.459771
132.568479
107.001662
87.171793
56.704879
40.483475
24.479628
17.131567
12.098551
10.896921
9.972453
9.776950
9.588599
10.223985
10.775924
10.146499
12.319684
11.091828
11.645555
11.512637
12.324452
11.764765
12.153983
12.009740
12.299418
12.470484
13.272762
13.110638
14.495850
14.282465
14.189482
14.723539
15.538931
16.900897
17.537475
17.253757
19.864440
20.687580
23.588538
24.089813
27.421713
29.905438
31.855702
34.263730
34.967661
35.685897
35.468936
35.933852
34.451485
34.531951
33.522844
33.979416
34.430623
31.201839
31.638741
32.254457
33.469796
31.385422
32.967925
33.013821
31.881928
32.116771
32.424927
31.538606
33.878684
##ZVALUE=260
1.594424
1.771450
1.772642
1.791716
1.718998
1.752973
1.859665
2.060533
2.135634
2.167821
2.580881
3.766418
21.856427
62.204003
167.821646
316.594839
607.738495
857.216716
1016.031504
1016.031504
1016.031504
1016.031504
1016.031504
1016.032100
916.837454
523.943901
330.794454
163.245797
108.355880
90.770721
105.822682
134.961009
146.866441
160.144567
150.957704
134.282708
117.006898
85.649490
63.170791
40.100813
28.105974
17.475486
13.013482
10.978580
10.520816
10.467768
10.121465
10.624528
10.696650
11.240840
11.256933
11.634827
11.734962
11.801720
12.392998
11.325479
11.597872
12.217760
11.982918
12.292862
13.047457
13.010502
14.182925
14.321804
15.398860
16.020536
16.656518
18.141866
19.643903
20.975471
22.830963
24.134517
26.774406
28.871894
30.958652
30.943751
31.736493
31.695962
30.228496
30.102730
29.621720
29.605627
30.952692
28.693676
28.745532
28.989911
30.258894
29.189587
29.338598
29.379725
29.025674
30.012727
30.701756
30.508637
31.242967
30.792952
##ZVALUE=265
1.271963
1.457930
1.547933
1.481771
1.352429
1.599789
1.748800
1.980662
1.628995
2.388954
2.094507
2.166629
2.713799
3.134608
9.004474
34.602880
126.332641
251.317620
526.700616
806.564689
1016.031504
1016.031504
1016.031504
1016.031504
1016.031504
1016.031504
1016.032100
697.509050
458.050966
241.468549
141.907930
84.172487
84.728599
115.380883
134.557486
157.252550
162.125826
151.947737
140.050650
109.779835
88.995695
58.193803
41.583776
26.434660
18.242598
13.069510
11.201501
11.353493
11.259913
10.509491
10.315776
11.630654
11.874437
12.017488
12.068748
12.141466
11.890531
12.282729
12.392998
12.381673
12.913942
13.705492
13.720989
14.118552
15.098453
15.433431
15.773773
16.647577
19.113421
20.560622
21.051764
22.568703
24.548769
26.340485
27.620792
27.942657
28.760433
28.804541
28.247833
28.196573
26.935935
26.961565
27.226806
26.208758
27.433634
27.204752
27.321577
27.735829
27.385950
27.316809
27.130842
29.646754
27.684569
29.169917
28.153658
28.425455
##ZVALUE=270
1.229644
1.225471
1.520514
1.339912
1.387596
1.487732
1.665950
1.682639
1.762509
1.679659
1.644492
1.678467
2.166629
2.081990
2.205968
2.952814
3.851652
19.446611
56.583881
181.708932
362.024903
626.135468
1016.031504
1016.031504
1016.031504
1016.031504
1016.031504
1016.031504
1016.031504
1016.031504
774.493814
409.089923
225.566626
95.881820
71.471930
91.079473
111.592412
141.360760
157.346725
164.116621
158.701539
139.101744
118.669868
88.529587
65.822601
41.181445
28.886795
19.789934
14.976859
11.986494
11.605620
11.685491
12.072921
11.822581
12.059808
12.359619
12.535453
12.935996
12.270808
13.262630
13.474822
13.895631
13.733506
14.254451
15.264750
15.322566
16.287565
17.460585
17.453432
20.133853
21.728873
23.669600
24.520755
26.602745
27.071834
27.641654
26.589632
27.689934
27.940869
26.045442
26.271939
25.804639
25.577545
25.245547
25.547743
25.433898
25.338531
25.844574
25.870800
25.601983
26.200414
26.393533
26.934743
26.675463
26.766658
28.019547
##ZVALUE=275
1.332760
1.420975
1.399517
1.363754
1.386404
1.308918
1.233816
1.474619
1.432896
1.830459
1.870990
1.619458
1.862645
2.136827
2.358556
2.539754
2.508759
2.773404
3.247857
9.080768
31.227469
88.145733
272.553563
541.635752
1011.722684
1016.035676
1016.035676
1016.035676
1016.035676
1016.035676
1016.035676
1016.035676
1016.035676
607.180595
334.362984
134.343505
74.236989
68.043470
84.403753
115.609765
137.361884
154.903531
160.756707
154.769421
141.066909
114.001632
91.430545
64.585805
47.129989
30.135512
20.820498
15.148520
14.007688
12.505651
12.920499
12.342930
13.131499
12.916923
13.557673
13.562441
13.614893
14.450550
14.819503
14.383793
15.096664
15.667677
16.758442
17.507672
18.705726
20.664930
21.711588
23.431778
25.301576
26.305914
27.353764
28.160810
28.059483
28.003454
27.345419
26.842952
26.828647
25.912523
26.123524
25.049448
25.138855
25.913715
25.287867
24.626851
25.017858
25.456548
25.261641
25.597811
24.457574
25.528669
24.921894
26.031733
##ZVALUE=280
0.914931
0.850558
1.224875
1.002550
1.092553
1.341701
1.077652
1.392961
1.191497
1.262426
1.187921
1.525879
1.506805
1.369715
1.748800
1.602769
2.203584
2.146959
2.383590
2.876520
3.181696
3.739595
19.825697
66.692829
241.093636
505.292416
996.024013
1015.776992
1015.776992
1015.776992
1015.776992
1015.776992
1015.776992
1015.776992
1015.776992
731.896758
417.967439
173.600912
83.403587
51.921606
60.718656
88.382959
111.202598
137.313604
152.745843
160.001516
154.655576
136.824846
116.271973
86.908937
67.455769
44.220686
32.346845
20.727515
15.975833
13.752580
13.322830
12.927651
13.116598
13.380647
14.298558
14.379621
14.392734
14.970899
15.248656
15.615821
17.184615
17.066598
18.103719
20.029545
20.821691
23.050904
24.532676
25.302768
25.858879
26.112795
26.580691
25.953650
25.399923
25.167465
24.897456
24.453998
23.910999
24.404526
23.446679
24.259686
23.966432
23.831725
24.386644
24.601817
24.275780
23.830533
24.040937
23.982525
23.779869
23.953915
##ZVALUE=285
1.345873
1.133680
1.048446
1.209974
1.238585
1.110435
1.191497
1.420975
1.474619
1.309514
1.348853
1.435876
1.477599
1.585484
1.347661
1.828671
1.949668
2.035499
2.185702
2.280474
2.481937
2.852678
2.973676
4.275441
8.551478
46.918988
121.738911
375.595093
726.744533
1016.031504
1016.031504
1016.031504
1016.031504
1016.031504
1016.031504
1016.031504
1016.031504
861.967802
522.304773
233.424902
113.816857
48.927665
41.424632
58.653951
80.951452
108.045936
130.589604
148.227811
154.214501
151.408911
137.593746
114.300847
94.991922
64.894557
47.561526
30.374527
21.836758
16.383529
14.129877
13.331771
13.383627
13.548732
14.051795
14.757514
14.830828
15.242696
15.857816
17.025471
18.230677
19.652843
20.630956
21.075606
22.787452
23.468733
23.452640
23.798943
23.856759
23.076534
24.291873
23.891926
23.437738
22.946596
22.745728
23.388863
23.180842
23.062825
23.609996
23.195744
23.708940
23.406744
23.447871
23.504496
24.288893
23.078918
23.116469
23.406744
##ZVALUE=290
0.820756
0.796914
0.898838
0.968575
1.044869
0.976920
0.956655
1.062751
0.977516
0.893474
1.088977
1.299977
1.234412
1.195669
1.356602
1.360774
1.723766
1.408458
1.493692
1.659989
1.690984
1.992583
2.265573
2.383590
2.973676
3.090501
4.695654
14.383793
68.601966
182.706714
402.407646
899.750590
1015.957594
1015.957594
1015.957594
1015.957594
1015.957594
1015.957594
1015.957594
1004.463434
686.186552
335.076451
167.735815
61.536431
34.552813
39.383769
52.882433
76.091886
98.456740
123.902559
139.425993
149.097443
147.395730
131.571889
114.957690
85.509419
65.916777
44.479966
31.876564
21.972656
16.862750
14.756918
13.789535
13.894439
14.266968
14.635921
15.633702
16.484857
16.898513
18.672943
19.041896
20.966530
21.601915
21.886826
22.234917
22.336841
23.166537
22.517443
22.859573
22.219419
23.229718
22.688508
22.311807
22.242665
23.175478
22.512674
22.690892
23.411512
23.016930
23.269653
22.791624
22.856593
22.762418
22.821426
22.325516
22.169948
##ZVALUE=295
0.915527
1.035929
0.929832
0.818968
0.793934
0.961423
1.029968
1.098514
1.051426
1.324415
1.035929
1.229644
1.169443
1.245737
1.136661
1.149774
1.279712
1.363754
1.597404
1.547933
1.553893
1.868606
1.805425
2.202988
2.259612
2.482533
2.975464
3.201962
3.764629
6.605983
24.553537
120.415688
310.093760
799.317956
1016.033888
1016.033888
1016.033888
1016.033888
1016.033888
1016.033888
1016.033888
1016.033888
938.974023
495.859981
265.307426
94.355941
44.228435
27.238727
32.842755
51.305890
69.958568
96.057653
114.535689
134.446621
142.323971
140.990615
129.216909
108.168721
88.486671
62.548518
47.955513
31.379461
23.602843
17.955899
15.964508
15.179515
15.640855
16.486645
17.294884
18.940568
19.994974
21.119714
21.360517
22.523999
22.285581
22.593737
23.444891
23.446679
23.048520
22.911429
22.885799
23.168921
23.044944
23.433566
23.726821
22.777915
23.161769
22.837520
23.383498
23.273826
22.940636
22.967458
23.184419
22.756457
22.428632
22.569895
##ZVALUE=300
0.958443
1.082420
0.898838
0.847578
0.832677
0.739694
1.027584
0.955462
0.981688
1.118779
1.051426
0.982881
1.052618
1.277924
1.116991
1.439452
1.285672
1.306534
1.319647
1.530647
1.330972
1.518726
1.797676
1.578927
1.882911
2.149940
2.317429
2.685785
2.860427
3.531575
3.630519
4.548430
11.769533
72.160959
211.097598
614.102483
1010.268927
1016.032696
1016.032696
1016.032696
1016.032696
1016.032696
1016.032696
1016.032696
1016.032696
678.071976
396.873951
171.803832
75.419545
27.567744
22.874475
32.349825
43.670535
65.915585
86.043477
112.036467
126.779675
137.087703
136.809945
124.529004
109.367967
85.618496
67.265630
46.942830
35.505891
24.504662
20.459890
17.980933
18.468499
19.142628
20.283461
21.430850
21.984577
22.457838
23.119450
23.012757
22.878647
22.842884
23.314953
24.146438
23.394823
23.688674
23.668408
23.379922
23.679733
23.724437
23.058653
23.097992
23.250580
23.759604
23.756623
22.745728
23.431778
22.843480
22.804737
22.279620
##ZVALUE=305
0.739694
0.834465
0.725985
0.823736
0.701547
0.913739
0.967979
1.082420
0.947714
1.102686
0.811815
0.978708
1.034737
1.097918
0.928640
1.130700
1.140833
1.401901
1.344681
1.355410
1.479983
1.540780
1.240969
1.817942
1.837611
1.773834
2.024770
2.093911
2.220869
2.419949
2.803802
2.970695
3.487468
4.127622
7.258654
45.453906
149.219632
494.296551
924.979448
1016.020775
1016.020775
1016.020775
1016.020775
1016.020775
1016.020775
1016.020775
1016.020775
973.952413
626.516938
286.687613
137.395859
41.552782
21.128654
21.982789
29.632449
45.445561
62.360764
86.130500
102.896690
122.489929
129.549503
129.530430
120.841861
102.827549
85.312724
63.156486
48.106909
34.537911
27.185678
22.689700
21.553636
21.316409
21.358728
22.039413
22.282600
22.336841
22.700429
23.176670
23.051500
23.532510
23.667812
23.423433
23.830533
24.178624
23.649931
23.835897
24.100542
24.054646
24.403930
24.088621
23.972988
23.307800
23.309588
23.827553
23.882985
22.868514
##ZVALUE=310
0.904799
0.697970
0.665784
0.870824
0.832677
1.080632
0.831485
0.818968
0.867844
0.927448
0.774860
0.900626
1.002550
0.877976
1.094937
1.021624
1.145601
1.183748
1.108646
1.306534
1.093745
1.173615
1.268983
1.505613
1.551509
1.901984
1.923442
1.790524
1.957417
2.013445
2.215505
2.533793
2.697706
3.122687
3.398657
3.962517
4.635453
19.323826
73.815584
305.674672
651.353002
1016.031504
1016.031504
1016.031504
1016.031504
1016.031504
1016.031504
1016.031504
1016.031504
1016.031504
881.384015
438.787937
227.324963
75.000525
28.317571
17.168522
19.753575
28.445721
38.405657
57.961941
74.101686
98.932981
112.234950
123.278499
126.128793
116.706491
103.759766
83.417892
68.199635
50.102472
39.113760
30.984879
26.305914
23.771524
23.149848
22.929907
22.789836
22.458434
23.239851
23.303628
23.184419
23.869872
24.168491
24.903417
24.612546
24.280548
24.673939
24.723411
24.389625
24.239421
24.794936
23.689866
23.879409
22.823811
23.399591
23.675561
##ZVALUE=315
0.805855
0.748634
0.856519
0.782609
0.701547
0.904799
0.898838
0.955462
0.886917
0.789762
0.916719
0.669956
0.801682
1.029968
0.914931
0.885725
0.986457
1.253486
1.158714
1.185536
1.332760
1.559854
1.360774
1.481771
1.433492
1.337528
1.443624
1.352429
1.720786
1.659989
1.886487
1.947880
2.155900
2.427697
2.825856
2.919436
3.414750
3.707409
4.348755
9.490848
37.711859
201.667547
492.571592
1016.051769
1016.051769
1016.051769
1016.051769
1016.051769
1016.051769
1016.051769
1016.051769
1016.051769
1016.051769
577.039719
306.279659
107.120872
41.202903
16.677976
16.160607
19.684434
26.051998
39.502978
51.646829
73.519945
90.923905
109.589696
118.442774
120.507479
114.323497
98.087788
83.958507
66.821575
53.040981
38.800836
31.834841
26.376843
24.505854
23.487806
23.419857
23.507476
23.677945
23.961663
24.553537
24.434924
24.737716
24.864674
25.103688
24.852753
24.810433
24.881959
24.698973
24.493933
24.481416
23.536682
24.205446
23.507476
##ZVALUE=320
0.794530
0.682473
0.721812
0.645518
0.556707
0.745654
0.646710
0.758767
0.840425
0.918508
0.849962
0.824928
0.978708
0.795722
0.868440
0.863671
0.665784
1.045465
0.937581
0.959635
1.076460
1.084805
1.248717
1.144409
1.348853
1.180768
1.302958
1.613498
1.476407
1.669526
1.587868
1.692772
1.849532
1.863837
1.857877
2.282858
2.417564
2.773404
2.969503
3.584623
4.123449
5.629659
15.810728
110.138655
329.269767
912.466645
1016.031504
1016.031504
1016.031504
1016.031504
1016.031504
1016.031504
1016.031504
1016.031504
1016.032100
721.208453
402.782559
162.909627
69.325566
21.882653
14.849901
15.718937
18.510818
25.756955
34.439564
52.578449
67.346692
87.522864
103.429556
114.443898
116.295815
111.170411
101.081729
82.348585
66.698790
49.159527
39.688945
31.003952
27.550459
24.312735
23.624897
24.165511
24.524927
24.116635
25.088787
24.503469
25.034547
24.477839
24.413466
24.767518
24.498701
24.581552
24.929643
23.980737
23.190975
24.236441
##ZVALUE=325
0.761747
0.771880
0.794530
0.554919
0.758767
0.548959
0.685453
0.668764
0.842810
0.614524
0.691414
0.825524
0.714660
0.801682
0.674725
0.971556
0.928640
1.016855
1.127720
1.073480
1.099706
1.199841
1.091957
1.385808
1.167655
1.223683
1.170635
1.322627
1.345873
1.402497
1.552701
1.551509
1.692772
1.750588
1.827478
2.216697
1.989603
2.100468
2.358556
2.664924
3.079772
3.575683
4.123449
4.793406
9.271502
70.748925
227.380991
681.934953
1016.032696
1016.032696
1016.032696
1016.032696
1016.032696
1016.032696
1016.032696
1016.032696
1016.032696
900.752544
538.669825
236.095786
108.249784
32.298565
16.876459
14.782548
15.836954
19.951463
24.574995
36.480427
49.548745
70.543885
85.584521
102.495551
110.265613
112.384558
106.498003
92.352629
79.042912
61.986446
50.125718
37.379861
31.193495
26.993752
25.556684
24.481416
24.480820
24.282932
24.617910
24.509430
24.578571
24.178624
24.368763
24.479628
24.178624
24.424791
23.924708
24.047494
##ZVALUE=330
0.795722
0.725985
0.661612
0.681877
0.666976
0.844598
0.756979
0.744462
0.596642
0.689626
0.687838
0.977516
0.874996
0.751615
0.805855
0.978708
0.725985
0.757575
0.776649
0.949502
0.780821
1.032948
1.227856
1.172423
1.116991
1.092553
1.158714
1.286864
1.334548
1.285672
1.478791
1.437664
1.646876
1.666546
1.721978
1.730919
1.948476
1.892447
2.086759
2.172589
2.525449
2.608895
2.722740
3.388524
3.446937
4.448891
5.900860
27.942657
118.101835
459.487438
909.217596
1016.031504
1016.031504
1016.031504
1016.031504
1016.031504
1016.031504
1016.031504
1016.031504
1016.031504
765.087605
347.269773
172.621608
56.840777
23.478866
14.891624
14.812946
16.819835
19.685626
27.021766
35.301447
50.844550
65.447688
84.521770
95.167756
104.998946
106.152892
99.598765
89.873672
74.454546
60.783625
46.070814
39.193630
31.614900
27.954578
25.519729
24.775863
23.936629
23.969412
24.033785
23.568869
23.830533
23.576617
23.687482
23.139715
23.687482
##ZVALUE=335
0.668764
0.652671
0.736713
0.657439
0.650883
0.616908
0.774860
0.793934
0.721812
0.598431
0.760555
0.813603
0.757575
0.777841
0.809431
0.826716
0.794530
0.650883
0.808835
0.824928
0.897646
0.838637
1.052618
0.823736
0.822544
1.087785
1.165867
1.021624
1.280904
1.183748
1.155734
1.163483
1.310706
1.232624
1.587868
1.657605
1.451969
1.666546
1.814961
2.058744
2.008677
2.110600
2.387762
2.595782
2.822876
3.212690
3.617406
4.222989
4.844666
13.237596
60.919523
303.522944
663.285851
1016.031504
1016.031504
1016.031504
1016.031504
1016.031504
1016.031504
1016.031504
1016.031504
1016.031504
956.655741
486.957431
254.201889
88.191628
34.369826
15.969872
15.370846
16.521811
17.375946
21.073818
26.277900
36.506653
46.569705
64.021945
76.983571
91.141462
97.926855
100.047588
95.131993
82.587600
73.108673
58.118701
48.636794
38.106441
32.219887
27.044415
24.867654
23.662448
23.166537
23.104548
23.148656
23.008585
22.895932
22.707582
##ZVALUE=340
0.579953
0.529885
0.788569
0.747442
0.544786
0.513792
0.587702
0.655651
0.728965
0.596642
0.670552
0.709891
0.631809
0.756979
0.858903
0.763535
0.765920
0.720620
0.737906
0.804663
0.682473
0.950694
0.940561
1.074672
0.936985
0.963807
0.913739
0.969768
0.975728
1.043677
1.160502
1.055598
1.266599
1.155734
1.174808
1.437664
1.514554
1.408458
1.443624
1.646876
1.854897
1.851916
1.908541
2.014637
2.389550
2.587438
2.614856
2.942681
3.551841
3.830791
4.478693
5.877614
37.193894
151.343942
533.980727
982.588530
1016.032696
1016.032696
1016.032696
1016.032696
1016.032696
1016.032696
1016.032696
1016.032696
1012.730598
666.562915
295.505524
135.838985
38.846731
19.145608
16.491413
16.348958
16.947985
17.738938
20.873547
25.114417
34.617782
45.539737
60.664415
73.333979
86.564422
91.894865
95.045567
90.260506
80.500841
71.371794
56.249499
46.889782
36.399961
30.570626
26.469827
24.540424
22.552609
22.624731
21.846890
22.096634
##ZVALUE=345
0.684857
0.545979
0.800490
0.622869
0.658631
0.623465
0.881553
0.465512
0.502467
0.570416
0.659823
0.829697
0.662804
0.618696
0.811815
0.722408
0.685453
0.894666
0.848770
0.577569
0.747442
0.907779
0.853539
0.852942
0.761747
0.859499
0.980496
0.848770
0.970960
1.070499
0.896454
1.197457
1.106858
1.163483
1.108646
1.294613
1.329780
1.366735
1.359582
1.463890
1.551509
1.512766
1.628995
1.662970
1.822710
2.160668
2.189875
2.603531
2.452731
2.929568
3.217459
3.439784
3.938675
4.849434
11.218786
103.481412
326.634645
881.066918
1016.031504
1016.031504
1016.031504
1016.031504
1016.031504
1016.031504
1016.031504
1016.031504
1016.031504
797.118545
440.815687
174.077749
75.555444
25.533438
17.026663
16.482472
16.062856
16.200542
16.998649
19.502640
23.730993
32.783747
41.831732
57.182908
67.684650
79.555511
86.141825
87.987781
84.758997
77.746511
68.469644
55.585504
46.111941
35.816431
30.267835
25.763512
23.592710
21.760464
##ZVALUE=350
0.654459
0.702739
0.722408
0.841618
0.641942
0.759959
0.711679
0.806451
0.651479
0.685453
0.487566
0.761747
0.859499
0.776649
0.680685
0.731945
0.796914
0.681877
0.842810
0.790954
0.825524
0.877976
0.782609
0.796914
0.805855
0.892878
0.758767
0.920892
0.896454
1.009703
1.028776
0.998974
0.944734
1.120567
1.169443
1.173615
1.122952
1.307726
1.228452
1.427531
1.297593
1.383424
1.392961
1.568794
1.764894
1.681447
1.971722
2.042651
2.056956
2.191663
2.485514
2.751946
3.021955
3.499985
3.756881
4.554987
6.842613
51.566958
195.116997
619.146824
1016.031504
1016.031504
1016.031504
1016.031504
1016.031504
1016.031504
1016.031504
1016.031504
1016.031504
980.418921
599.865913
250.669718
109.137893
31.249523
17.716885
14.955997
15.140772
14.583468
15.160441
16.393661
18.425584
23.738742
29.507875
39.274693
48.246980
61.816573
70.368648
78.521967
81.049800
79.037547
72.899461
62.832832
53.347945
42.777658
35.631657
28.841496
##ZVALUE=355
0.690818
0.769496
0.631809
0.604987
0.656843
0.526905
0.693798
0.854731
0.977516
0.658631
0.822544
0.823736
0.843406
0.625849
0.914931
0.816584
0.770688
0.830889
0.788569
0.830889
0.808835
0.818968
1.075864
0.941753
1.077652
0.962615
1.109838
0.978708
1.151562
1.014471
1.168847
1.087785
1.144409
1.194477
1.181960
1.199841
1.170635
1.266599
1.250505
1.320839
1.456738
1.510978
1.538992
1.448989
1.427531
1.781583
1.840591
1.985431
1.968741
2.101660
2.160668
2.529621
2.665520
2.871752
3.051758
3.297925
3.739595
4.510880
5.101562
20.774603
99.245906
435.339808
872.851014
1016.031504
1016.031504
1016.031504
1016.031504
1016.031504
1016.031504
1016.031504
1016.031504
1016.031504
808.791518
346.579552
159.563422
46.848655
21.076798
14.568567
14.327765
13.883710
14.098883
14.390945
15.786886
17.899871
20.874739
27.463436
33.822656
44.221878
53.138733
63.239932
69.945455
73.484778
73.464513
67.818761
61.278939
51.623583
##ZVALUE=360
0.737906
0.733733
0.689626
0.786781
0.775456
0.704527
0.716448
0.664592
0.885725
0.665784
0.856519
0.814795
0.861883
0.900626
1.028776
0.906587
1.101494
0.753999
0.919700
0.961423
0.964999
0.812411
1.052618
1.033545
1.196861
1.170635
0.996590
1.220703
1.276731
1.060963
1.034737
0.985861
1.063943
1.080632
1.140833
1.198649
1.131892
1.250505
1.309514
1.335740
1.526475
1.425743
1.607537
1.748800
1.577735
1.629591
1.670718
1.755953
1.938939
2.055764
1.963973
2.413988
2.348423
2.710819
2.651811
2.848506
3.224611
3.434420
3.731847
4.515648
5.306602
8.589625
36.817789
226.565003
567.231774
1016.031504
1016.031504
1016.031504
1016.031504
1016.031504
1016.031504
1016.031504
1016.031504
1016.032100
986.386538
485.576987
243.153572
84.036589
32.736659
14.752746
13.892651
13.611913
13.528466
13.860464
13.923645
14.368892
15.679598
18.356442
21.975636
29.471517
36.546588
48.196912
55.391788
63.231587
66.602826
67.744851
##ZVALUE=365
0.646710
0.837445
0.858903
0.656843
0.845790
0.828505
0.720620
0.760555
0.757575
0.766516
0.640750
0.896454
0.803471
0.837445
0.867844
0.841618
0.750422
0.955462
0.921488
1.026988
1.097918
0.986457
0.815988
0.927448
0.855923
0.952482
1.026988
0.928640
1.144409
1.085997
1.041889
1.142621
1.184940
1.156926
1.249909
1.152754
1.182556
1.418591
1.174808
1.216531
1.153946
1.310706
1.392961
1.652837
1.592636
1.543760
1.554489
1.735687
1.813769
1.767874
1.824498
2.075434
2.087951
2.181530
2.264977
2.391934
2.546906
2.740622
2.794862
3.430843
3.647804
4.219413
4.905462
6.013513
13.585687
121.225715
359.447598
916.918516
1016.031504
1016.031504
1016.031504
1016.031504
1016.031504
1016.031504
1016.031504
1016.031504
1016.031504
686.600804
359.781981
123.428702
47.316551
16.087890
12.511611
12.609959
12.428761
12.368560
12.114644
12.624860
12.614727
14.078617
15.768409
19.609928
24.604797
32.281876
39.717555
48.799515
##ZVALUE=370
0.724792
0.651479
0.690818
0.798702
0.665784
0.768900
0.723600
0.586510
0.623465
0.709891
0.729561
0.753999
0.938773
0.668764
0.751615
0.788569
0.829697
0.772476
0.819564
0.797510
0.801682
0.889897
0.884533
1.136661
1.019835
0.969768
0.862479
0.870824
0.942945
0.929832
0.877976
1.029968
0.924468
1.209974
1.040697
1.031756
1.211762
1.088977
0.904799
1.004934
1.116991
1.314878
1.110435
1.234412
1.312494
1.359582
1.485944
1.464486
1.438856
1.502633
1.683831
1.575947
1.597404
1.631975
1.814961
1.973510
1.929998
2.328753
2.467632
2.579689
2.884865
3.031492
3.400445
3.627539
4.224777
4.998446
7.938743
61.925650
239.822865
736.364722
1016.031504
1016.031504
1016.031504
1016.031504
1016.031504
1016.031504
1016.031504
1016.031504
1016.032100
833.810568
461.563468
176.033974
75.865984
22.481680
13.174415
11.564493
11.226535
11.094809
11.185408
11.031628
11.523962
11.754632
12.517571
14.216900
16.967654
22.724867
##ZVALUE=375
0.697970
0.741482
0.540614
0.625849
0.709891
0.736713
0.593662
0.626445
0.532866
0.520945
0.709891
0.637770
0.714660
0.653863
0.780821
0.647902
0.685453
0.650883
0.569820
0.742674
0.795722
0.709891
0.641942
0.644922
0.741482
0.524521
0.815988
0.688434
0.747442
0.711679
0.837445
0.856519
0.811815
0.930429
0.915527
0.870824
0.944734
0.924468
0.987649
0.970960
1.056790
1.169443
0.991821
0.979900
1.140833
1.007915
1.263618
1.103878
1.131892
1.206994
1.239777
1.217723
1.388788
1.324415
1.668930
1.693964
1.635551
1.778603
1.996756
2.148747
2.268553
2.393723
2.466440
2.563596
3.036857
3.488660
3.779531
4.861951
5.907416
25.230646
120.080709
478.713512
949.345827
1016.040444
1016.040444
1016.040444
1016.040444
1016.040444
1016.040444
1016.040444
1016.040444
996.933579
644.924641
301.125646
147.266984
43.003559
16.999841
11.221766
10.762811
10.468960
10.469556
10.248423
10.348558
10.502934
10.997653
11.714697
##ZVALUE=380
0.348687
0.395775
0.420809
0.409484
0.360608
0.367761
0.483990
0.431538
0.462532
0.473857
0.551939
0.389814
0.437498
0.483990
0.477433
0.477433
0.466704
0.517964
0.526905
0.600815
0.470877
0.398755
0.624657
0.494719
0.587702
0.496507
0.565648
0.567436
0.469685
0.466704
0.563860
0.653863
0.496507
0.576973
0.663996
0.677705
0.610948
0.586510
0.598431
0.838637
0.733733
0.740886
0.651479
0.914931
0.728965
0.834465
0.787973
0.811815
0.835657
1.055598
0.948906
1.144409
1.207590
1.297593
1.269579
1.353621
1.207590
1.345873
1.500845
1.538992
1.510978
1.643896
1.778603
1.931787
2.062917
2.422929
2.806783
3.352761
3.881454
4.640818
5.521774
10.366440
57.953596
348.408818
785.591602
1015.872955
1015.872955
1015.872955
1015.872955
1015.872955
1015.872955
1015.872955
1015.872955
1015.872955
905.416608
420.270562
206.589699
67.858696
25.827885
11.300445
9.967685
9.625554
9.450912
9.399652
9.597540
9.553432
##ZVALUE=385
0.380874
0.560880
0.399947
0.456572
0.573993
0.454783
0.488758
0.616908
0.636578
0.534654
0.399947
0.492930
0.550747
0.463724
0.414848
0.542998
0.507832
0.514984
0.512600
0.540614
0.646710
0.537634
0.622869
0.655651
0.709891
0.691414
0.620484
0.741482
0.578761
0.643730
0.814795
0.709891
0.785589
0.708699
0.741482
0.853539
0.674725
0.778437
0.686646
0.882745
0.810623
0.793934
0.803471
0.744462
0.786781
0.868440
0.811815
0.942945
0.959635
0.983477
0.913739
1.096725
0.954866
0.981688
1.342893
1.461506
1.273751
1.285672
1.395941
1.442432
1.533628
1.539588
1.692772
1.701713
2.047420
2.278686
2.523661
2.789497
3.046989
3.584623
4.011989
4.800558
4.806519
6.314516
24.184585
192.722082
517.267585
1016.031504
1016.031504
1016.031504
1016.031504
1016.031504
1016.031504
1016.031504
1016.031504
1016.031504
1016.032100
645.260811
352.819562
135.705471
51.856637
14.282465
9.954572
9.075999
9.011626
9.289980
##ZVALUE=390
0.406504
0.490546
0.371933
0.529885
0.415444
0.531673
0.535846
0.521541
0.452995
0.461936
0.546575
0.488758
0.595450
0.442863
0.569820
0.454783
0.552535
0.540614
0.542998
0.594854
0.538826
0.585914
0.799894
0.605583
0.747442
0.647902
0.405908
0.682473
0.641942
0.525713
0.708699
0.712872
0.568628
0.519753
0.696778
0.812411
0.685453
0.697970
0.641942
0.757575
0.691414
0.656843
0.812411
0.881553
0.673532
0.725985
0.901818
1.023412
0.970960
0.898838
1.075864
1.164675
0.983477
0.960827
1.201630
1.120567
1.105666
1.250505
1.315475
1.488924
1.393557
1.369715
1.424551
1.594424
1.822710
2.013445
2.348423
2.695918
2.888441
3.315806
3.463626
3.810525
3.843904
4.190803
4.345775
5.088449
10.655522
103.642941
364.869833
976.838470
1016.031504
1016.031504
1016.031504
1016.031504
1016.031504
1016.031504
1016.031504
1016.031504
1016.031504
915.826559
502.001643
192.801952
86.430907
24.798512
11.302829
8.940697
##ZVALUE=395
0.505447
0.530481
0.599623
0.413656
0.374913
0.570416
0.510812
0.386834
0.484586
0.395775
0.331998
0.385642
0.512600
0.604987
0.539422
0.529885
0.594854
0.480413
0.613928
0.424981
0.512600
0.559688
0.464916
0.559688
0.581741
0.662804
0.706911
0.644922
0.678897
0.654459
0.538826
0.509620
0.795722
0.413656
0.649691
0.603795
0.703931
0.708699
0.879765
0.771880
0.966787
0.747442
0.772476
0.753999
0.800490
0.873804
0.913739
0.971556
0.842810
0.937581
1.057982
0.914931
1.001954
1.007915
1.242757
1.035929
1.143813
1.118779
1.220703
1.299977
1.367927
1.479983
1.457930
1.688600
1.598597
1.730919
2.059937
2.347827
2.512932
2.886653
2.946854
3.335476
3.054738
3.253818
3.467798
3.934503
4.058480
4.604459
5.789995
43.193698
206.394792
743.528008
1016.040444
1016.040444
1016.040444
1016.040444
1016.040444
1016.040444
1016.040444
1016.040444
1016.040444
1016.040444
688.856840
305.229425
138.798952
41.764975
##ZVALUE=400
0.387430
0.314713
0.497699
0.253916
0.358820
0.404716
0.423789
0.689626
0.431538
0.501871
0.484586
0.377893
0.407696
0.344515
0.472665
0.455976
0.437498
0.631809
0.494719
0.357628
0.435710
0.453591
0.578761
0.515580
0.467896
0.590682
0.584722
0.521541
0.708699
0.606775
0.635982
0.591874
0.670552
0.581741
0.576973
0.653863
0.642538
0.576973
0.656843
0.703931
0.873804
0.861883
0.856519
0.885725
0.737906
0.802875
0.819564
0.648499
0.896454
0.907779
0.879765
0.948906
1.055598
0.862479
0.991821
0.914931
1.096725
1.129508
1.227856
1.256466
1.401901
1.410842
1.303554
1.460910
1.536608
1.737475
1.908541
2.145767
2.494454
2.620816
2.608895
2.680421
2.682805
2.728701
2.938509
2.994537
3.171563
3.467798
3.680587
4.338622
5.251765
19.044876
98.558664
439.385772
924.715996
1016.021967
1016.021967
1016.021967
1016.021967
1016.021967
1016.021967
1016.021967
1016.021967
1016.021967
862.785578
413.003564
##END
