##TITLE=QP00652
##FORMAT=SPECTACLE-ASCII V-1.2
##DATA TYPE=ULTRAVIOLET SPECTRUM
##SECOND TYPE=ULTRAVIOLET SPECTRUM
##DATE=04/30/18
##TIME=14:18:30
##SPECTROMETER/DATA SYSTEM=SPECTACLE
##XUNITS=NM EM
##YUNITS=ENERGY
##YFACTOR=1
##FIRSTX=220
##LASTX=410
##NPOINTS=96
##3DDATA=Equidistant
##ZUNITS=NM EX
##FIRSTZ=210
##LASTZ=400
##ZPOINTS=39
##XYDATA=(Y..Y)
##ZVALUE=210
3.418922
3.741980
3.897548
3.238916
2.812743
3.567934
4.013777
4.415512
3.906488
4.351735
4.487634
4.676580
4.640818
4.845858
4.383922
4.983544
6.595850
6.505847
7.316470
6.252527
6.594658
7.740855
7.487535
8.303523
8.604527
9.020567
10.059476
9.606481
10.501742
10.415912
11.053681
11.908412
12.597442
12.442470
12.833476
14.046431
13.646483
13.610721
13.329983
13.948679
15.882850
14.974475
14.448762
15.501976
16.704798
15.277863
16.839504
17.991662
16.734600
16.252995
17.219782
17.388463
18.678904
18.727779
19.276738
18.870831
18.810630
18.687844
19.481778
20.397902
18.811822
19.460917
20.677447
19.337535
20.971894
20.721555
22.275448
26.016831
29.208660
33.423901
43.572783
45.362711
54.101944
62.822700
66.164732
70.535541
74.561834
76.347589
74.590445
71.984529
66.128969
62.150955
54.730773
48.929453
38.212538
33.639669
28.399825
24.567842
21.028519
20.918846
19.314885
18.855929
18.809438
20.090938
19.637942
19.062757
##ZVALUE=215
11.385679
13.250709
12.767911
10.923743
8.706450
7.604957
7.420778
6.888509
7.959604
7.180572
7.686615
6.003976
6.234646
6.403923
6.620884
4.702806
6.144643
6.420612
6.582737
7.632971
7.635951
8.414984
7.794499
8.305907
9.813905
8.949637
9.023547
10.896921
10.167956
11.721849
11.220574
10.725856
11.746883
12.078881
11.930466
13.238788
11.772513
11.561513
10.984540
12.736917
13.182759
14.496446
12.836456
13.323426
15.287995
14.681816
14.239550
15.318990
14.512539
15.212893
14.611483
15.942454
15.444756
15.747547
15.712976
16.537905
16.568899
16.857982
17.804503
17.770529
16.969442
16.343594
17.751455
18.572807
16.344786
17.509460
19.644499
20.094514
22.730827
25.880933
30.059814
36.291480
39.252639
49.606562
53.470731
56.659579
58.247447
55.499673
51.086545
46.483874
43.710470
36.687851
35.281777
29.572845
23.722649
22.310615
18.549562
16.901493
16.574860
16.690493
14.454722
15.345812
15.164614
16.275644
16.793609
14.421940
##ZVALUE=220
37.410855
38.314462
43.515563
40.432811
38.899779
28.800964
23.292899
15.901923
14.269948
12.079477
14.310479
15.210509
12.943745
12.592673
11.632442
10.773540
8.159876
7.485747
7.093549
5.733967
6.252527
7.349849
7.061958
7.554889
7.579923
8.016825
8.108616
8.225441
8.233786
9.433627
9.991527
9.027719
9.596944
9.569526
10.055900
11.346936
10.776520
10.473728
10.638833
10.584593
10.877848
11.768937
10.821819
11.686683
11.397600
12.125969
12.932420
12.689829
12.324452
12.924671
13.347864
13.519526
13.688803
15.226603
13.412833
14.286637
13.660789
13.824701
14.113784
15.238523
14.942884
13.626814
14.503598
14.857650
15.396476
15.171766
16.722679
17.082691
18.204451
24.967790
26.877522
32.673478
36.535859
43.741465
47.414899
51.415563
50.251484
51.265955
47.955513
47.568679
44.357777
40.571690
36.203861
25.246739
24.532676
20.137429
18.497705
16.762614
14.808774
13.702512
14.705658
13.710856
14.168620
14.588833
13.414621
13.207793
##ZVALUE=225
73.421597
76.077580
101.890564
132.606626
144.841671
140.548944
128.765702
91.097951
64.520836
46.840906
30.588508
26.511550
25.903583
28.700829
27.645826
26.129484
24.273992
18.800497
17.509460
11.506677
9.666681
8.904934
8.374453
8.919835
8.843541
8.636713
9.585619
9.398460
10.488629
11.198521
10.855794
10.472536
10.713935
11.065602
12.102723
11.583567
12.796521
13.197660
12.367964
13.264418
13.421774
12.536645
13.870597
13.541579
12.131929
13.481975
14.258623
13.513565
13.947487
15.233755
14.977455
15.179515
16.136765
15.702844
15.489459
15.644431
17.346740
17.074943
15.730858
16.222596
17.008781
15.877485
15.722513
16.804934
18.531680
17.198920
18.997788
20.555854
24.820566
26.893616
30.788779
33.597946
36.778450
39.971471
41.918755
42.924881
44.876933
44.894814
40.080547
40.788651
39.650798
35.678744
31.922460
29.467940
24.304986
22.542477
20.559430
18.307567
19.408464
16.743541
17.033815
15.718937
15.737414
16.816854
15.192628
15.175939
##ZVALUE=230
63.817501
68.412423
114.447474
187.611580
242.267847
314.577818
354.194641
342.124701
313.514471
265.115499
170.945525
117.848516
67.570806
51.633716
46.035647
46.535730
51.807761
49.088001
45.260787
38.111806
30.076504
21.051764
16.490817
11.249781
8.877516
10.267496
10.471940
9.929538
10.314584
10.043979
10.708570
9.992719
11.044741
11.631846
11.418462
11.957884
11.834502
12.725592
11.906624
12.507439
12.047887
12.732744
11.676550
11.894703
13.736486
13.454556
13.063550
13.294816
14.266968
14.241934
13.650656
13.117790
13.912916
14.719963
15.162826
14.810562
15.792847
16.216636
16.536713
16.968846
16.412735
16.423464
16.528964
15.906692
17.074943
17.859936
20.711422
21.084547
22.143722
24.972558
27.906895
32.478571
34.587979
40.324926
41.889548
44.049621
43.183565
43.025613
42.519569
40.789843
38.533807
34.187436
32.006502
30.124784
27.421713
24.036765
21.712780
20.625591
19.216537
17.415881
18.084645
18.267632
16.988516
17.127991
17.467737
17.780662
##ZVALUE=235
19.937754
26.110411
56.260824
140.282512
237.894654
387.767553
507.438779
656.393766
717.763901
724.363923
645.121932
529.853702
357.611775
251.578689
151.178837
99.870563
78.455806
80.516934
84.530711
84.762573
80.849528
66.655874
58.164597
38.841963
31.657815
20.142794
15.869737
12.543797
11.489987
11.980534
11.011958
12.030602
14.700890
13.781786
12.590885
12.800694
14.028549
12.954473
14.371872
13.451576
15.696883
14.074445
14.852881
16.488433
13.690591
14.876723
15.235543
16.142726
16.509891
15.597939
17.479658
17.164946
17.390847
17.521977
18.108487
18.171668
17.859936
18.825531
18.472672
18.864870
18.456578
17.600656
20.086765
21.658540
21.728873
23.009777
22.558570
23.928881
26.164651
27.497411
31.281710
35.970807
39.001703
42.940974
45.578480
48.773885
47.940612
48.875809
45.225620
42.589903
42.615533
37.775636
36.561489
32.655597
28.874874
25.028586
26.070476
23.466945
22.811890
21.191835
21.822453
22.178888
20.469427
21.255612
20.597577
21.460652
##ZVALUE=240
3.125668
4.127622
12.828708
35.433769
108.352900
204.917789
406.700969
612.944961
902.685523
1016.044021
1016.044021
1016.044021
1016.044021
833.386779
615.713000
373.131633
239.614844
141.367912
111.800432
106.929541
115.575790
120.232701
120.683908
104.302764
90.680718
70.664883
49.945712
37.087798
23.687482
18.865466
15.272498
14.693737
14.436841
13.837814
12.475848
12.802482
13.571978
12.935996
14.512539
13.244748
12.303591
13.477802
14.166832
15.252829
13.654828
14.552474
14.923811
15.250444
15.059710
14.504790
14.717579
16.577840
15.868545
15.122890
16.724467
16.763806
16.780496
18.182993
18.123984
19.306540
18.578768
18.971562
18.275976
19.592643
19.695759
21.979809
23.117661
24.743676
24.649501
31.566620
35.505891
37.429929
41.931868
47.228932
47.799945
51.343441
51.627755
49.791932
47.935843
44.636726
43.565631
38.940907
38.510561
33.213496
30.478835
27.587414
28.193593
25.502443
25.672913
26.349425
26.601553
25.527477
25.296807
24.277568
24.990439
24.133921
##ZVALUE=245
2.702475
2.647638
2.740622
3.331900
7.135868
24.896860
60.055852
170.738697
326.278806
536.103845
899.357796
1016.031504
1016.031504
1016.031504
1016.031504
1016.031504
886.824727
640.585423
444.578528
225.751996
141.063929
109.086633
117.874742
131.924748
135.013461
129.479766
117.509961
95.751882
80.454946
56.600571
42.052865
27.127862
19.699931
14.813542
13.957620
12.374520
12.739897
13.312697
12.677908
13.607740
12.820959
13.786554
13.675690
13.361573
13.787746
12.943745
12.952685
13.189912
15.058517
15.247464
14.184713
15.380979
15.226603
15.914440
14.884472
14.749765
16.423464
15.699863
15.716553
17.216802
17.294884
18.184781
17.803907
19.839406
18.918514
21.188855
19.751787
21.304488
22.964478
25.857687
28.987527
32.028556
35.488605
37.499666
39.845705
38.489699
38.807988
38.687587
36.576986
33.569932
33.553839
31.614900
30.032992
27.101636
27.612448
24.870634
24.846792
25.540590
22.891760
23.521781
24.320483
23.198724
22.409558
22.947788
21.671653
22.344589
##ZVALUE=250
2.051592
2.526641
2.477765
3.159642
3.098845
3.095865
4.096627
20.470619
55.748820
156.104565
299.450755
589.069724
850.538611
1016.031504
1016.031504
1016.031504
1016.031504
1016.031504
1003.913879
680.284500
445.743799
289.705992
153.365731
113.265514
110.009909
125.542879
138.421655
141.250491
136.896968
122.496486
102.250576
80.664754
59.167743
37.928820
26.337504
16.304851
12.609959
10.765791
10.298491
10.243654
10.309815
10.134578
9.453893
10.348558
11.069775
11.144876
10.641813
11.180639
11.353493
10.610819
10.682940
11.718869
11.456609
12.099743
12.337565
12.290478
12.554526
13.215542
13.325810
12.803674
13.600588
13.461709
13.778806
14.463663
16.068816
15.856624
16.490817
17.384887
19.794703
21.692514
22.889972
25.290847
26.776791
30.696988
31.869411
31.661987
31.931996
29.361844
29.400587
27.518868
27.357936
24.611950
24.846792
23.202896
21.778941
21.187663
21.116734
21.665692
20.396709
22.572875
19.159913
20.418763
20.413995
22.039413
20.406842
20.216703
##ZVALUE=255
1.951456
2.163649
2.141595
2.285838
2.381802
2.107620
2.349615
2.418756
3.565550
9.491444
43.702722
104.534626
211.872458
450.415611
695.880651
1015.924811
1015.924811
1015.924811
1015.924811
1015.924811
1015.924811
1015.924811
664.061904
392.373800
188.925862
123.722553
98.865628
109.107494
131.299496
145.753622
148.838758
144.882798
135.716796
104.991794
86.181760
59.832931
41.256547
25.938749
17.374754
11.353493
10.073781
9.228587
9.753704
9.582639
9.110570
10.093451
9.746552
10.832548
9.954572
9.428859
10.005832
10.953546
9.744763
10.880828
10.928512
11.258721
11.410713
10.931492
11.363626
11.613965
12.151599
12.114644
11.902452
11.965632
12.963414
13.380647
13.463497
14.407635
15.924573
17.718673
19.070506
20.762682
21.994710
24.489760
25.001764
26.195645
25.547743
24.184585
24.501681
22.329688
22.153854
20.038486
20.327568
18.808842
18.761754
18.212795
18.283725
19.535422
19.150972
18.323660
19.584894
18.812418
19.369721
17.188787
17.897487
18.827915
##ZVALUE=260
1.785755
1.988411
1.653433
1.937747
2.006888
1.902580
2.171993
2.286434
2.220869
2.750754
2.985597
3.911853
15.814900
71.054697
159.448981
378.731489
616.590977
992.965698
1016.031504
1016.031504
1016.031504
1016.031504
1016.031504
1016.031504
803.061724
529.367924
285.838842
166.419744
98.097920
90.707541
102.299452
133.348703
146.846771
159.387589
151.942968
135.800838
116.675496
83.500743
63.598752
40.189624
26.732683
15.421510
11.623502
9.812713
9.680986
8.799434
9.123683
8.611679
9.551644
9.369850
9.054542
8.764863
9.373426
9.348989
9.087920
9.845495
9.351969
9.352565
9.629726
10.385513
9.851456
10.157824
10.529757
10.236502
11.034608
11.613965
12.416840
12.943745
12.759566
14.774799
15.188456
16.915798
17.772913
19.522905
21.199584
20.471811
20.889640
19.519925
20.390749
19.524693
18.919706
18.213987
17.373562
17.198920
16.631484
16.533732
17.314553
16.376972
16.851425
16.216636
16.974807
15.777946
16.681552
17.066598
16.325712
17.260909
##ZVALUE=265
1.583695
1.839995
1.770854
1.706481
1.628995
1.922846
1.829863
1.996756
2.119541
2.329946
2.171993
2.861619
2.830625
3.333688
8.032918
44.580698
117.918849
333.502889
568.929911
980.991721
1016.021967
1016.021967
1016.021967
1016.021967
1016.021967
1016.021967
915.827751
636.577010
357.971787
209.455490
122.228861
80.689788
84.774494
114.233494
133.128762
156.101584
158.453584
153.674483
137.209892
111.636519
87.924600
58.277845
41.671991
24.156570
16.096830
9.804964
8.926988
8.533597
8.075833
7.599592
8.728504
8.006692
7.602572
7.916689
8.750558
8.197427
8.725524
8.640885
8.742809
8.505583
9.094477
9.192824
9.686947
9.243488
10.519624
10.488629
10.425448
11.371970
12.035966
13.378859
13.790727
15.126467
15.932918
16.926527
17.848611
18.439889
18.190742
17.206669
16.754866
17.049909
15.758872
15.699863
15.778542
15.074611
14.554858
15.135407
15.652776
14.869571
14.565587
15.154481
15.293956
15.064478
15.540719
14.835596
14.509559
14.346838
##ZVALUE=270
1.285672
1.314878
1.497865
1.274943
1.581907
1.730919
1.496673
1.613498
1.656413
1.875758
2.031922
1.930594
2.105832
2.326965
2.479553
2.757907
4.291534
15.087724
64.815879
160.374045
326.121449
673.984885
967.370868
1016.031504
1016.031504
1016.031504
1016.031504
1016.031504
1016.031504
783.786774
533.541441
282.969475
158.967972
80.148578
68.415999
87.692738
110.120773
137.811899
154.433846
159.952641
153.021812
134.968758
115.637779
83.124638
61.693788
37.964582
24.627447
14.500618
10.329485
7.645488
7.521510
6.935596
7.392764
7.381439
7.174611
7.561445
7.015467
7.643700
7.654428
7.467866
7.933974
8.024573
8.177757
7.880926
8.358955
8.614659
9.264946
9.000897
9.463429
10.642409
11.703968
12.805462
13.053417
14.341474
14.174581
14.893413
14.433861
13.758540
14.387965
13.575554
12.421608
12.991428
12.807846
12.691617
12.736917
12.346506
12.760758
12.002587
12.690425
13.378859
13.144612
13.119578
12.941957
12.802482
13.065934
12.839437
##ZVALUE=275
1.268983
1.095533
1.159906
1.271963
1.342893
1.445413
1.570582
1.216531
1.336932
1.358986
1.607537
1.568794
1.687407
1.578927
1.896620
1.883507
2.315640
2.010465
2.585649
7.376671
25.103688
71.272850
211.223960
400.967598
756.636858
1001.493931
1016.031504
1016.031504
1016.031504
1016.031504
1016.031504
972.465873
689.432621
366.895795
212.669969
96.035600
60.507655
62.435865
81.386566
112.138987
132.609010
153.836608
157.628655
151.388645
137.667656
111.183524
88.368654
60.796738
43.297410
24.607778
17.059445
10.707974
8.078814
6.899834
7.386804
6.891489
7.149577
7.170439
7.760525
7.570982
7.878542
7.931590
8.089542
7.995963
8.232594
8.545518
8.537769
8.975863
9.722710
9.933710
10.811687
11.409521
12.617707
13.628602
13.347864
13.155937
14.175773
13.431907
13.372898
12.950897
12.808442
12.660623
12.444854
12.098551
11.856556
11.852980
12.459755
11.731982
11.772513
12.297630
11.692643
12.043715
12.267828
11.356473
11.811852
12.080669
##ZVALUE=280
1.275539
1.167655
1.089573
1.216531
1.136661
1.188517
1.067519
1.360774
1.445413
1.405478
1.361966
1.507998
1.568794
1.561642
1.349449
1.640916
1.842976
1.653433
2.023578
2.109408
2.498627
3.012419
17.364621
59.272647
183.305740
332.053900
622.757673
900.861025
1016.031504
1016.031504
1016.031504
1016.031504
1016.031504
1016.032100
800.805688
450.807810
264.183879
115.204453
61.209798
45.293570
56.037903
82.990527
106.963515
132.695436
148.196816
156.808496
148.720741
131.882429
112.402439
83.957911
61.822534
39.461851
26.049614
16.031861
10.285974
8.365512
7.260442
7.028580
7.723570
7.674694
7.287860
7.834435
7.785559
8.195639
8.268952
7.922649
8.422732
8.784533
9.486675
9.931922
10.803938
11.713505
11.950731
12.066960
12.463927
12.955666
12.660623
12.229681
12.076497
12.510419
12.191534
11.792779
11.272430
11.140704
11.180639
10.784864
11.906624
11.332631
11.386871
10.927916
11.279583
11.141896
11.209846
11.404753
11.351705
11.728406
##ZVALUE=285
1.032948
0.934601
1.100898
1.154542
1.083612
1.013875
1.108646
1.535416
1.027584
1.145601
1.455545
1.452565
1.430511
1.273751
1.197457
1.541972
1.589656
1.598597
1.873970
2.029538
2.020597
2.587438
2.118945
2.731681
8.730888
32.844543
116.804838
246.024728
511.979461
805.089474
1016.025543
1016.025543
1016.025543
1016.025543
1016.025543
1016.025543
1016.025543
660.696030
406.973958
187.044740
92.919469
42.044520
38.101673
56.143999
76.347589
105.666518
127.264857
145.479441
152.298808
147.774816
134.863853
110.029578
90.049505
60.391426
43.261647
25.638938
16.994476
10.980964
8.745790
7.249713
7.172823
7.709861
7.334948
7.898808
7.991791
8.115768
8.332729
8.810759
9.281635
9.950995
10.800958
11.621714
12.160540
12.211800
12.446642
12.589693
12.365580
11.854768
11.783838
11.983514
11.257529
11.252761
11.440516
11.051893
10.697842
11.469722
11.054873
11.074543
10.765791
10.667443
10.916591
10.805726
10.749698
10.916591
11.543632
10.914803
##ZVALUE=290
1.119971
1.167655
0.906587
0.965595
1.137853
0.880957
1.094937
0.990629
1.120567
1.056790
1.213551
1.083612
1.114607
1.176596
1.188517
1.318455
1.322627
1.269579
1.577735
1.695752
1.709461
1.925826
1.897812
2.270937
2.259612
2.632737
4.005432
12.477636
58.647990
148.065686
294.358730
623.495579
957.202911
1016.031504
1016.031504
1016.031504
1016.031504
1016.031504
1016.031504
905.512571
588.615537
283.095837
144.736767
53.411722
30.412674
36.254525
50.458908
75.862408
94.945431
121.502876
136.794448
149.438977
145.892501
131.101608
110.253692
81.661940
62.929988
39.728880
27.401447
16.533732
11.880994
8.584857
8.337498
7.845759
8.076429
8.004904
8.171797
8.672476
8.985996
9.835958
10.019541
10.968447
11.563897
11.757612
12.219548
11.835694
11.872649
11.663437
11.671782
11.228919
11.555552
11.054873
11.019707
11.027455
11.008978
10.679960
10.983944
10.710955
10.825992
11.183619
10.428429
10.580420
10.296702
10.557771
10.553598
10.759830
##ZVALUE=295
1.004934
0.882745
0.999570
0.999570
1.172423
1.043677
1.210570
0.938773
1.135468
1.148582
0.855923
1.171827
1.011491
1.098514
1.223683
1.004934
1.330972
1.513958
1.436472
1.448989
1.427531
1.420975
1.842976
1.783967
1.910925
1.859665
2.198815
2.296567
2.732873
5.187988
18.991828
83.771944
194.848776
466.249585
750.030875
1016.038656
1016.038656
1016.038656
1016.038656
1016.038656
1016.038656
1016.038656
783.227682
419.341922
221.994519
76.736808
35.498738
24.030805
30.986667
49.363971
67.943931
93.538761
112.472773
132.457614
140.420794
137.444735
127.568841
103.005767
84.330440
58.519840
42.402744
25.750995
17.939806
11.872649
9.961724
8.279681
8.246899
8.744597
8.941889
9.212494
9.950995
10.246634
10.925531
11.655688
11.324883
11.309981
11.479855
11.463761
11.370778
10.830760
11.149645
10.867715
10.589957
10.810494
10.778904
10.808706
10.674000
10.646582
10.843873
10.817647
10.612607
10.192990
10.552406
10.182858
9.776950
10.740757
##ZVALUE=300
0.855923
0.750422
0.943542
0.775456
0.837445
0.880957
0.830889
0.961423
1.004934
0.819564
1.137853
0.965595
0.959635
0.997782
0.964999
1.027584
1.112819
1.249909
1.099706
1.173615
1.186728
1.466870
1.215935
1.339912
1.612902
1.679659
1.771450
2.009869
2.184510
2.536774
2.609491
3.121495
12.282729
43.109655
148.312449
298.331976
621.322989
944.255590
1016.031504
1016.031504
1016.031504
1016.031504
1016.031504
1016.031504
917.372704
610.185862
306.007862
160.478950
55.712461
23.971796
20.036697
28.303862
44.942498
60.302615
85.889697
106.723905
125.657916
133.726001
131.224990
122.137666
103.377700
84.000826
59.057474
43.175817
27.079582
18.634796
12.455583
10.223985
8.911490
9.437799
10.084510
10.381937
10.554790
10.787845
10.432601
11.137724
11.031628
10.886788
10.627508
10.637641
10.757446
10.781884
10.762811
10.472536
10.851622
10.626912
10.636449
10.509491
10.117888
10.149479
10.028481
10.172725
9.876490
9.939671
10.313988
10.093451
##ZVALUE=305
0.639558
0.695586
0.635982
0.681877
0.638962
0.789762
0.707507
0.760555
0.849962
0.830889
0.747442
0.687838
0.684857
0.858903
0.679493
0.916719
0.940561
1.012683
0.953674
0.898838
0.933409
0.963807
1.005530
1.079440
1.214743
1.202822
1.371503
1.455545
1.641512
1.529455
1.672506
1.964569
2.144575
2.333522
4.768968
27.656555
80.940723
236.954689
435.775518
824.607015
1015.852690
1015.852690
1015.852690
1015.852690
1015.852690
1015.852690
1015.852690
707.151890
446.149707
202.810764
96.439719
30.816793
16.292930
18.899441
26.935935
42.044520
58.767796
82.988739
100.887418
118.768811
125.157833
124.070644
115.903616
98.276734
80.325603
55.545568
40.111542
25.379658
19.022822
12.671947
11.139512
10.351539
10.737777
10.472536
10.553598
10.320544
10.522604
10.233521
10.380745
10.248423
10.600686
10.323524
10.686517
10.344982
10.508895
10.280609
10.825992
9.888411
10.383725
10.175705
10.214448
10.364652
9.996891
9.862781
9.948611
9.921789
##ZVALUE=310
0.675917
0.752807
0.627637
0.653863
0.680685
0.769496
0.793934
1.058578
0.831485
0.865459
0.977516
0.829697
0.992417
0.797510
1.007915
0.861883
1.076460
0.905991
0.822544
1.050830
0.892878
1.141429
1.107454
1.184940
1.202822
1.329780
1.318455
1.361966
1.385808
1.461506
1.292825
1.464486
1.752973
1.955628
2.216697
2.394915
3.050566
12.650490
42.642951
148.363709
302.636623
654.630661
983.092785
1015.998721
1015.998721
1015.998721
1015.998721
1015.998721
1015.998721
963.088870
649.581552
334.602594
178.651810
60.202479
22.444725
13.372898
16.573668
25.180578
35.561919
54.965615
72.812438
94.963908
107.336640
120.422840
120.539665
110.976696
98.328590
77.036619
59.739947
39.839745
28.902888
20.470619
15.773773
11.828542
11.604428
10.823607
10.796785
10.532737
10.691881
10.595918
10.491610
10.371804
10.256767
10.593534
10.405779
10.288954
10.384917
10.187626
10.873675
10.379553
10.559559
10.533929
10.366440
9.992719
10.415912
9.778738
##ZVALUE=315
0.595450
0.636578
0.807643
0.794530
0.755787
0.836849
0.806451
0.822544
0.762939
0.733733
0.763535
0.886917
0.734925
0.653863
0.871420
0.822544
0.831485
0.715852
0.858903
0.915527
0.767708
1.080632
1.079440
0.995994
1.074672
1.142621
1.055598
1.126528
1.292825
1.423955
1.353621
1.416802
1.422763
1.578927
1.660585
1.696944
2.204776
2.456903
2.514720
6.027818
22.970438
97.526908
212.197900
492.150784
805.268884
1016.031504
1016.031504
1016.031504
1016.031504
1016.031504
1016.031504
1016.031504
749.153495
393.925905
214.074850
78.381896
31.422973
12.709498
11.821985
15.843511
21.936893
34.945607
48.574805
68.887472
85.195899
103.547573
111.266971
113.677979
108.194947
89.834929
75.957775
57.303905
42.346716
27.664900
20.159483
14.181733
11.993647
10.935664
10.178685
10.104775
10.468960
10.510683
10.233521
10.558963
10.582805
10.270476
10.488629
10.778904
10.580420
10.487437
10.600686
10.134578
10.222793
9.761453
9.736419
9.770989
##ZVALUE=320
0.635982
0.645518
0.586510
0.628829
0.403523
0.527501
0.823736
0.664592
0.670552
0.803471
0.720620
0.836849
0.701547
0.677705
0.650883
0.825524
0.854731
0.720620
0.769496
0.764728
0.874996
0.807643
0.948906
0.950694
1.027584
1.112819
1.117587
1.317859
1.212955
1.007915
1.283884
1.231432
1.332760
1.543760
1.607537
1.615882
1.779795
1.796484
1.887679
2.228618
2.474785
3.180504
10.303855
55.387616
140.761733
367.756486
614.976883
990.067720
1016.031504
1016.031504
1016.031504
1016.031504
1016.031504
1016.032100
912.070870
497.799516
274.899006
108.890533
46.134591
15.167594
10.682940
10.862947
13.739467
20.518899
29.486418
45.650601
60.707927
80.982447
95.929503
107.069612
107.427835
102.675557
91.129541
71.460605
55.540800
38.486719
28.243661
19.538999
14.752746
12.099743
10.766983
10.574460
10.279417
10.544658
9.852648
10.486841
10.479689
10.278821
10.364652
10.232925
10.786653
10.074973
9.864569
10.090470
10.043979
10.032654
##ZVALUE=325
0.544786
0.554919
0.503659
0.644922
0.518560
0.723600
0.500679
0.678897
0.493526
0.531673
0.489950
0.595450
0.714660
0.616908
0.562668
0.709891
0.598431
0.656843
0.776649
0.811815
0.920892
0.664592
0.963807
1.028776
0.867844
0.850558
0.984669
0.939965
1.135468
0.978708
0.816584
0.995994
1.166463
1.266599
1.131892
1.095533
1.260638
1.509786
1.624823
1.707673
1.853704
2.017617
2.378821
2.821684
5.671978
37.271976
98.352432
259.853601
473.879576
884.436965
1015.954018
1015.954018
1015.954018
1015.954018
1015.954018
1015.954018
1015.954018
684.836507
412.655473
179.849863
85.304976
25.633574
12.045503
9.869933
11.185408
14.634728
19.755960
30.909777
42.825937
63.280463
77.258945
93.596578
101.071596
102.412701
96.116662
81.852674
68.516731
50.568581
37.551522
24.993420
18.882751
13.541579
12.168884
10.562539
10.023713
10.566711
10.055900
10.307431
10.200739
10.035634
10.021925
10.154843
9.737611
9.877682
9.494424
9.752512
##ZVALUE=330
0.608563
0.530481
0.672936
0.602603
0.468493
0.622869
0.757575
0.549555
0.614524
0.773668
0.802875
0.565648
0.781417
0.764728
0.706911
0.620484
0.757575
0.881553
0.745654
0.640750
0.894666
0.987649
0.952482
0.786781
0.816584
0.879765
0.981688
0.862479
0.952482
0.909567
1.011491
1.092553
1.205802
1.219511
1.265407
1.176596
1.501441
1.429915
1.392961
1.719594
1.651645
1.790524
2.136827
2.137423
2.294779
2.821684
3.976822
12.698770
70.660710
184.205770
459.762812
776.616931
1015.995741
1015.995741
1015.995741
1015.995741
1015.995741
1015.995741
1015.995741
906.822681
494.264960
281.679630
113.357902
49.212575
14.944673
10.278821
9.961724
10.701418
14.245510
20.238757
31.841993
42.431951
59.764981
73.425770
88.597536
95.265508
96.957684
90.129972
77.333450
64.228773
47.578812
36.432743
25.505424
19.509792
13.908744
12.506843
10.896921
10.463595
10.013580
9.811521
9.873509
10.112524
9.878874
9.842515
9.885430
9.547472
##ZVALUE=335
0.693798
0.590682
0.707507
0.643730
0.711679
0.631809
0.626445
0.505447
0.628829
0.576973
0.657439
0.690818
0.642538
0.724792
0.767708
0.724792
0.756979
0.675917
0.640750
0.821948
0.825524
0.582933
0.941753
0.891685
0.977516
0.953674
0.947714
0.867844
1.031756
1.122952
1.020432
0.975728
0.983477
0.974536
1.218915
1.210570
1.158714
1.361966
1.470447
1.539588
1.571774
1.565814
1.726747
1.691580
1.972914
2.103448
2.471805
2.612472
3.196597
6.540418
40.594935
114.650726
332.018733
611.106753
1016.032696
1016.032696
1016.032696
1016.032696
1016.032696
1016.032696
1016.032696
1016.032696
646.357536
373.829603
153.336525
67.921877
21.026731
11.820793
10.224581
10.307431
12.449622
14.461875
20.377636
28.192997
41.090846
54.126978
69.733858
80.827475
89.680552
90.341568
83.843470
75.070858
60.317516
48.009753
35.477877
26.867986
18.416643
15.209913
12.311935
10.730624
10.246634
9.946823
10.121465
9.654760
9.890795
9.504557
##ZVALUE=340
0.654459
0.670552
0.562668
0.629425
0.608563
0.517964
0.596642
0.582933
0.799894
0.766516
0.793934
0.654459
0.796914
0.612736
0.658631
0.833869
0.779629
0.652671
0.739694
0.802875
0.651479
0.679493
0.896454
0.851750
0.648499
0.815988
0.899434
1.030564
0.847578
0.937581
0.989437
0.941753
1.014471
1.089573
0.845790
1.242757
1.174808
1.125932
1.213551
1.221895
1.371503
1.409650
1.563430
1.690984
1.782775
1.925826
2.117753
2.387762
2.431870
2.640486
3.048778
4.104972
20.538568
71.508884
245.018601
508.672595
1002.712846
1016.031504
1016.031504
1016.031504
1016.031504
1016.031504
1016.031504
1016.032100
881.237984
516.564846
222.771764
102.667809
29.601455
13.737679
11.076927
11.049509
10.713935
12.168884
14.567971
18.484592
27.886629
37.760735
53.402781
64.510703
78.223944
83.179474
84.398985
79.963803
69.984794
60.156584
45.575500
36.130548
25.424957
19.621849
14.116764
12.311935
10.617971
9.987950
9.322762
9.372830
##ZVALUE=345
0.632405
0.583529
0.757575
0.721812
0.635982
0.603795
0.686646
0.741482
0.728965
0.856519
0.730753
0.696778
0.777841
0.939965
0.776649
0.692606
0.804663
0.766516
0.793934
0.777841
0.686646
0.913739
0.963807
0.846982
0.775456
0.796914
0.941753
0.844598
0.894666
0.758767
0.887513
1.013875
0.947714
0.933409
1.148582
1.210570
1.176596
1.216531
1.264811
1.316667
1.328588
1.120567
1.330972
1.510978
1.557469
1.646876
1.769662
2.038479
2.104640
2.212524
2.502799
2.808571
2.935529
3.373623
7.542968
44.291615
132.051706
386.400819
721.541643
1016.095877
1016.095877
1016.095877
1016.095877
1016.095877
1016.095877
1016.095877
1016.095877
759.675503
392.134786
146.664977
63.919425
20.503998
12.824535
11.367798
11.551976
11.201501
11.482835
13.564825
17.480850
25.955439
34.903884
48.957467
59.516430
69.765449
75.953603
78.325868
75.677633
67.274570
58.369637
45.362711
35.766959
25.179982
19.153953
14.050603
11.826754
10.387897
##ZVALUE=350
0.584722
0.619888
0.621676
0.588894
0.885725
0.702739
0.741482
0.588894
0.649691
0.782609
0.700951
0.679493
0.770688
0.662804
0.851750
0.662804
0.681877
0.764728
0.605583
0.806451
0.895858
0.702739
0.811815
0.840425
0.681877
0.723600
0.836849
0.762939
0.976920
0.848770
0.976920
0.951886
1.034737
0.857711
1.061559
1.170635
1.158714
0.953674
1.258850
1.156926
1.231432
1.204610
1.195669
1.392961
1.320839
1.472831
1.592636
1.723766
1.724958
2.083778
2.057552
2.019405
2.297759
2.569556
2.817512
3.305674
4.635453
23.416877
72.494745
239.176750
484.333038
983.595848
1016.032696
1016.032696
1016.032696
1016.032696
1016.032696
1016.032696
1016.032696
973.740816
556.365848
200.346708
81.255436
23.010969
13.022423
11.150837
10.077953
9.834766
9.902716
10.304451
12.038946
17.239451
22.424459
32.227635
41.013956
54.087639
62.167645
70.185661
72.470903
69.864988
63.552856
52.850842
43.239594
32.603741
24.818778
18.154979
##ZVALUE=355
0.685453
0.662804
0.574589
0.689626
0.613928
0.785589
0.655651
0.589490
0.792742
0.674725
0.656843
0.784993
0.617504
0.693798
0.797510
0.563860
0.650883
0.745654
0.612736
0.707507
0.711679
0.766516
0.754595
0.853539
0.876784
0.824928
0.820756
0.825524
0.906587
0.729561
0.925660
0.747442
0.933409
0.913739
0.946522
1.003742
0.994802
1.063943
0.984669
0.968575
1.224875
0.996590
1.247525
1.307726
1.100898
1.335740
1.125932
1.487732
1.687407
1.657605
1.678467
1.988411
1.974702
2.041459
2.133846
2.397895
2.592802
3.096461
3.371835
10.458827
40.083528
162.572861
342.126489
747.937560
1016.017795
1016.017795
1016.017795
1016.017795
1016.017795
1016.017795
1016.017795
1016.017795
724.500418
300.678611
133.009553
35.604835
14.990568
10.322928
9.666681
8.873940
8.893609
9.133816
9.550452
11.562705
14.202595
20.233989
26.635528
37.317872
45.968890
56.235790
62.171817
65.855980
64.775944
58.156848
50.415993
40.589571
##ZVALUE=360
0.601411
0.595450
0.626445
0.595450
0.668764
0.565648
0.478625
0.677705
0.667572
0.744462
0.804663
0.628829
0.713468
0.703931
0.651479
0.763535
0.662804
0.652671
0.661612
0.710487
0.779629
0.703931
0.760555
0.792742
0.780821
0.848770
1.009703
0.853539
0.936985
0.849962
0.918508
0.897646
0.886917
0.880957
0.899434
0.855923
0.865459
0.936985
1.020432
1.136661
1.092553
1.110435
1.194477
1.049638
1.211762
1.260638
1.207590
1.425743
1.491904
1.345873
1.456738
1.518726
1.687407
1.751781
1.687407
2.059937
2.157688
2.256632
2.365708
3.080964
3.147721
4.919767
16.120672
76.429844
187.218785
478.233695
839.578509
1016.031504
1016.031504
1016.031504
1016.031504
1016.031504
1016.031504
1016.031504
919.172764
445.052981
221.938491
69.103837
23.341775
10.345578
8.915663
8.849502
8.285642
7.915497
7.973909
8.347631
9.385943
12.046695
15.652776
22.492409
29.557943
40.312409
46.593547
54.348707
58.623552
58.841705
##ZVALUE=365
0.641942
0.479817
0.533462
0.546575
0.478625
0.598431
0.636578
0.721812
0.629425
0.601411
0.551939
0.754595
0.721812
0.687838
0.613928
0.645518
0.615716
0.710487
0.704527
0.750422
0.656843
0.814795
0.806451
0.679493
0.745654
0.869632
0.575781
0.790954
0.737906
0.832677
0.767708
0.792742
0.827909
0.775456
0.981688
0.856519
0.975728
0.996590
0.936985
0.945926
1.041889
0.995994
1.036525
0.995994
1.031756
1.145601
1.178980
1.067519
1.153946
1.286864
1.264811
1.227856
1.324415
1.422763
1.452565
1.549721
1.682639
1.962781
2.049804
2.229810
2.275705
2.547503
3.130436
3.280640
9.360909
36.965609
151.916742
324.302912
745.102763
1016.031504
1016.031504
1016.031504
1016.031504
1016.031504
1016.031504
1016.031504
871.554613
518.162847
224.623680
102.687478
28.416514
12.118816
8.563995
7.966757
7.396936
7.388592
7.055998
7.095933
7.313490
7.945895
9.996891
13.215542
19.592643
25.181770
34.290552
40.999651
##ZVALUE=370
0.609756
0.761747
0.577569
0.529885
0.626445
0.407696
0.510812
0.641942
0.552535
0.572801
0.542998
0.578761
0.513792
0.671744
0.492930
0.742674
0.651479
0.592470
0.574589
0.650883
0.642538
0.439882
0.632405
0.621676
0.697970
0.796914
0.744462
0.687838
0.721812
0.842810
0.756979
0.801682
0.634789
0.752807
0.803471
0.849962
0.661612
0.847578
0.755787
0.853539
0.853539
0.827909
0.879765
0.727773
0.955462
1.093745
0.892878
0.939965
1.068711
0.944734
1.159906
0.929832
1.222491
1.251698
1.157522
1.428723
1.339912
1.459718
1.377463
1.678467
1.832843
1.839995
2.068877
2.205968
2.371669
2.816916
3.959537
23.632646
74.706674
222.553015
418.863893
806.749463
1016.031504
1016.031504
1016.031504
1016.031504
1016.031504
1016.031504
1016.032100
602.558851
339.085460
129.007697
53.678751
14.513731
8.198619
7.290840
6.995797
6.672740
6.495714
6.254911
6.177425
6.366968
6.941557
8.575916
11.227727
16.056895
##ZVALUE=375
0.508428
0.590682
0.595450
0.581741
0.509620
0.447631
0.653863
0.496507
0.463724
0.550747
0.574589
0.597835
0.779629
0.677705
0.576973
0.467896
0.567436
0.437498
0.529885
0.641942
0.660419
0.643730
0.592470
0.541806
0.573993
0.627637
0.671744
0.538826
0.710487
0.795722
0.620484
0.738502
0.678897
0.777841
0.629425
0.670552
0.794530
0.764728
0.751615
0.799894
0.848770
0.849962
0.836849
0.899434
0.858903
0.907779
0.851750
0.801682
0.873804
0.911951
0.908971
0.894666
0.973940
1.126528
1.128912
1.073480
1.149774
1.201630
1.313686
1.295805
1.335740
1.570582
1.428723
1.829863
1.877546
2.054572
2.360940
2.723932
3.278852
11.632442
43.477416
158.086419
331.842899
717.592835
1016.031504
1016.031504
1016.031504
1016.031504
1016.031504
1016.031504
1016.031504
764.366388
458.655953
211.586952
99.584460
29.276609
11.610985
7.451773
6.695986
6.458759
6.163716
5.748868
5.742908
5.556941
5.932450
6.521940
##ZVALUE=380
0.605583
0.447631
0.445843
0.526905
0.476837
0.467896
0.526905
0.447631
0.354648
0.382662
0.557899
0.387430
0.627637
0.611544
0.716448
0.644922
0.703931
0.635982
0.697970
0.539422
0.505447
0.514984
0.683665
0.656843
0.553727
0.781417
0.668764
0.603795
0.636578
0.665784
0.656843
0.575781
0.852942
0.621676
0.752807
0.687838
0.736713
0.645518
0.671744
0.838637
0.799894
0.967979
0.745654
0.828505
0.833869
0.839829
0.906587
0.832677
0.785589
0.918508
0.919700
0.959635
0.864863
0.837445
1.031756
0.928640
1.105666
0.974536
1.178980
1.140833
1.299977
1.247525
1.406670
1.570582
1.435876
1.782775
1.739860
2.089739
2.382994
2.939701
3.280640
5.646944
20.742416
106.575489
261.655450
634.218454
989.975929
1016.031504
1016.031504
1016.031504
1016.031504
1016.031504
1016.031504
1016.031504
725.881457
334.987640
159.915686
48.136711
18.106699
7.833838
6.557703
5.961657
5.828738
5.451441
5.620718
5.453825
##ZVALUE=385
0.555515
0.552535
0.502467
0.483990
0.536442
0.491738
0.477433
0.459552
0.356436
0.435710
0.551939
0.508428
0.559688
0.659823
0.487566
0.488758
0.435710
0.783801
0.523925
0.306964
0.669956
0.350475
0.538826
0.549555
0.555515
0.446439
0.447631
0.484586
0.588894
0.504851
0.709891
0.578761
0.602603
0.684857
0.734925
0.748634
0.560880
0.734925
0.689626
0.606775
0.669956
0.605583
0.630617
0.667572
0.660419
0.778437
0.661612
0.739694
0.813603
0.795722
0.847578
0.898838
0.763535
0.827909
1.017451
0.855923
1.013875
0.973940
1.058578
1.091957
1.055598
1.052618
1.140833
1.285672
1.234412
1.420975
1.390576
1.741648
1.915693
2.473593
2.574921
2.895594
3.162622
3.950596
11.456609
63.362718
163.721442
421.720743
742.748976
1016.033888
1016.033888
1016.033888
1016.033888
1016.033888
1016.033888
1016.033888
907.009840
478.450656
264.222622
98.508596
34.899712
9.290576
6.365776
5.794764
5.477667
5.185604
##ZVALUE=390
0.623465
0.402927
0.338554
0.559688
0.462532
0.436902
0.284910
0.518560
0.473857
0.422597
0.440478
0.458956
0.480413
0.397563
0.472665
0.467896
0.621676
0.371933
0.557899
0.517964
0.771880
0.498891
0.484586
0.617504
0.454783
0.725985
0.627637
0.558496
0.651479
0.494719
0.567436
0.459552
0.557899
0.556707
0.362992
0.609756
0.531673
0.758767
0.706911
0.521541
0.704527
0.624657
0.720620
0.694990
0.695586
0.899434
0.703931
0.647902
0.694990
0.761747
0.747442
0.805855
0.846982
0.755787
0.911951
0.870824
0.855923
0.692606
0.931621
0.944734
1.128912
1.100898
1.109838
1.107454
1.267791
1.345873
1.437664
1.446605
1.828671
1.974702
2.284646
2.459884
2.288818
2.532601
2.694726
3.085732
5.587935
36.045909
114.950538
343.553424
639.266968
1016.032696
1016.032696
1016.032696
1016.032696
1016.032696
1016.032696
1016.032696
1016.032696
702.075958
395.903587
154.697895
66.150427
16.323924
7.265806
5.747676
##ZVALUE=395
0.375509
0.428557
0.431538
0.272989
0.479817
0.466704
0.443459
0.449419
0.442863
0.464916
0.475645
0.498891
0.362992
0.317693
0.432730
0.508428
0.581741
0.631809
0.457764
0.528693
0.565648
0.547767
0.502467
0.736713
0.470877
0.512600
0.384450
0.661612
0.416636
0.534654
0.392795
0.504851
0.524521
0.615716
0.517964
0.491738
0.478625
0.592470
0.647902
0.580549
0.627637
0.651479
0.475645
0.523925
0.733733
0.715852
0.770688
0.706911
0.674725
0.745654
0.746846
0.573993
0.888705
0.777841
0.630617
0.930429
0.855923
0.741482
0.728965
0.999570
1.023412
1.062751
1.044869
1.135468
1.126528
1.307726
1.436472
1.509786
1.739860
1.958609
1.980662
2.142787
2.249479
1.979470
2.231598
2.275705
2.417564
2.732873
3.599524
16.129613
63.416958
235.604644
471.360683
940.284729
1016.033888
1016.033888
1016.033888
1016.033888
1016.033888
1016.033888
1016.033888
899.579525
554.139018
249.787569
114.084482
32.821894
##ZVALUE=400
0.497699
0.516772
0.368953
0.397563
0.323653
0.558496
0.441670
0.562668
0.527501
0.501871
0.390410
0.340939
0.438690
0.423789
0.491738
0.457764
0.453591
0.486970
0.412464
0.513792
0.415444
0.456572
0.530481
0.416636
0.668764
0.515580
0.372529
0.629425
0.529885
0.516772
0.457764
0.585914
0.458956
0.538826
0.536442
0.361800
0.601411
0.636578
0.614524
0.645518
0.640750
0.772476
0.580549
0.749826
0.642538
0.755787
0.756979
0.852942
0.671744
0.879765
0.749826
0.720620
0.672936
0.584722
0.821948
0.656843
0.780821
0.748634
0.866652
0.720620
1.019835
0.859499
1.027584
0.935793
1.004934
1.082420
1.360774
1.494884
1.586676
1.649857
1.838803
1.851916
1.852512
1.976490
1.973510
1.864433
1.843572
2.253652
2.208948
2.524853
2.859831
9.214878
35.132766
128.755569
277.449489
634.589791
982.706547
1016.031504
1016.031504
1016.031504
1016.031504
1016.031504
1016.031504
1004.507542
684.593916
328.158736
##END
