##TITLE=QP00651
##FORMAT=SPECTACLE-ASCII V-1.2
##DATA TYPE=ULTRAVIOLET SPECTRUM
##SECOND TYPE=ULTRAVIOLET SPECTRUM
##DATE=04/30/18
##TIME=14:13:44
##SPECTROMETER/DATA SYSTEM=SPECTACLE
##XUNITS=NM EM
##YUNITS=ENERGY
##YFACTOR=1
##FIRSTX=220
##LASTX=410
##NPOINTS=96
##3DDATA=Equidistant
##ZUNITS=NM EX
##FIRSTZ=210
##LASTZ=400
##ZPOINTS=39
##XYDATA=(Y..Y)
##ZVALUE=210
3.447533
3.534555
3.633499
3.583431
3.001690
4.074574
4.327893
4.213452
3.600717
3.552437
2.990961
3.331900
3.581643
3.683567
2.890825
3.492832
4.300475
3.997684
4.032850
4.625916
4.721880
4.282594
4.692674
4.598498
5.238652
5.611777
5.111694
5.358458
5.037785
5.332828
5.920529
5.870461
6.129742
5.904436
6.429553
6.009936
5.804896
6.154776
6.227493
5.773902
5.933642
6.202459
6.228685
6.415844
7.046461
7.206798
6.655455
6.702542
6.714463
7.329583
6.802678
7.014871
6.938577
7.168651
7.403493
7.725954
6.889701
8.133650
7.889867
6.841421
7.014871
8.057952
7.602572
7.365942
7.539988
8.287430
8.930564
9.874701
10.043979
10.969639
13.751984
15.229583
16.673803
19.290447
21.557808
21.750927
22.362471
21.613836
20.680428
20.260811
17.581582
16.127825
14.683604
12.476444
10.714531
9.018779
8.334517
8.238554
7.447600
7.223487
6.460547
6.732941
9.526610
7.907748
7.122755
8.328557
##ZVALUE=215
9.173751
9.344816
9.280443
6.639957
6.210804
5.565882
6.594658
6.217957
5.774498
6.580949
6.192923
4.973412
4.978776
4.783869
4.153848
3.883839
4.401803
4.048944
4.430413
4.052520
4.831553
3.445745
4.339814
4.934669
5.134940
5.255938
6.193519
5.940795
5.671978
5.595684
5.993843
4.833937
5.788803
6.138682
6.122589
5.582571
6.145835
5.954504
6.180406
6.442666
6.759763
6.529689
6.208420
6.902814
6.733537
6.046891
6.842613
6.748438
6.613731
7.318854
7.240772
6.781816
7.051826
7.335544
6.792545
7.827878
7.258654
7.350445
7.562637
8.238554
6.957650
7.221699
7.494688
8.044839
7.959604
7.397532
8.069873
8.983612
9.210706
11.022687
13.141632
14.599562
17.282963
19.505620
19.157529
20.126700
20.557642
22.576451
20.677447
16.144514
15.065670
15.795827
12.690425
11.650920
10.063648
8.219481
9.062886
7.851720
7.511973
7.040501
7.141829
6.828904
7.339716
7.646680
8.226633
8.383989
##ZVALUE=220
31.796694
32.986999
34.627914
31.462908
25.534630
21.351576
16.713738
13.393760
10.548830
12.753606
11.920929
13.638735
13.065934
11.843443
10.527968
7.843971
6.672740
6.019473
5.438924
4.899502
4.991889
5.077720
5.151629
5.756617
5.564690
5.838871
5.428791
6.276965
5.640984
6.027818
6.928444
7.209778
6.849766
7.111430
7.132888
7.841587
7.160902
7.683635
6.432533
7.507801
6.790757
6.809831
6.907582
6.597638
7.057786
7.740855
8.227825
7.837415
7.213950
7.467866
7.434487
7.069707
8.480549
8.634925
8.620620
7.945895
8.782744
8.340478
8.642673
7.819533
8.700490
8.674860
8.776784
9.340644
9.758472
8.977652
9.570718
10.173917
10.824800
12.369752
14.688969
15.724897
17.683506
18.265843
19.682646
21.284819
21.213889
20.684600
21.768808
19.242764
18.674731
16.193986
15.167594
14.351606
11.659861
9.840727
10.547638
8.876920
8.956790
9.155869
8.458495
8.476973
8.017421
8.593798
8.167624
8.723736
##ZVALUE=225
61.008930
61.202645
77.537894
90.373755
93.572736
87.859631
78.813434
62.143803
50.125718
33.757687
26.963949
24.243593
24.538636
26.293993
27.435422
25.734901
21.836758
16.510487
14.066696
9.634495
7.378459
5.901456
5.129576
5.377531
5.404949
6.793737
6.708503
7.339716
6.876588
6.792545
7.007718
7.248521
7.955432
8.401871
6.861687
8.659959
7.601976
8.682609
7.890463
8.211732
8.177757
8.314848
8.939505
8.499622
9.652972
9.437799
8.596778
7.804632
8.798838
9.263754
9.684563
9.088516
9.676814
9.231567
10.296702
10.215640
9.638667
9.715557
10.375977
11.008978
10.974407
10.724664
10.452867
10.246634
10.798573
11.150837
12.152791
12.529492
13.200641
15.689731
14.875531
16.805530
20.290613
20.258427
19.745827
20.468831
22.293925
21.916628
20.258427
20.806789
19.403696
18.008947
15.698671
14.890432
12.932420
12.667775
11.851788
11.826754
10.669827
11.409521
11.399984
11.530519
11.260509
10.268688
9.987950
11.188984
##ZVALUE=230
50.772429
57.673454
91.073513
142.547488
175.841451
215.722919
227.838755
226.987004
199.048519
166.480541
111.175776
80.537796
54.786801
46.444535
46.452880
46.473742
50.581694
48.404932
44.396520
36.919713
29.124618
22.690892
15.083551
10.103583
8.059740
7.055998
6.500483
7.846951
7.423759
7.918477
8.421540
8.505583
8.017421
8.611679
9.463429
9.460449
9.387732
8.462667
9.387732
9.655952
9.572506
10.253787
9.851456
10.461807
10.646582
9.843707
10.320544
9.536743
10.613799
10.338426
10.536909
10.368824
10.521412
12.232661
13.311505
11.899471
12.706518
12.520552
11.745691
12.579560
13.192892
14.163852
13.627410
15.063882
14.040470
14.724731
15.213490
16.245842
16.835928
18.785000
19.676685
20.661950
22.083521
23.113489
25.180578
28.138757
27.914643
25.711656
25.007725
23.979545
24.230480
22.235513
21.014810
18.565655
17.588735
16.391873
16.892552
15.471578
15.957952
15.386939
15.753508
15.010834
14.612675
13.627410
14.464855
13.929605
##ZVALUE=235
18.845797
22.732615
43.906569
105.418563
168.224573
262.651443
335.803628
426.979661
441.813469
446.012616
390.145779
319.325924
212.934613
159.979463
104.738474
80.715418
74.164867
76.026917
81.419945
84.969997
78.873634
65.518618
55.604577
36.587715
24.019480
16.316772
12.270808
8.953810
8.079410
8.356571
8.108616
8.842945
10.173917
8.445978
9.265542
9.486675
9.251833
10.161996
10.049939
9.725690
9.542704
9.558797
11.684895
10.530949
11.860728
10.477901
11.782646
10.185838
11.128783
13.266802
11.439919
12.999773
12.106895
12.501478
13.420582
14.605522
13.737679
14.559627
14.780760
15.714765
15.871525
16.264915
16.464591
16.207695
17.895699
18.479824
19.559860
19.074678
20.944476
22.881627
23.353696
24.549961
29.263496
32.296777
31.705499
32.485723
29.992461
30.612946
30.460954
29.028654
28.276443
26.525855
24.510622
25.118589
23.478866
23.214817
22.110939
21.555424
20.290613
20.156503
20.179749
20.536780
20.513535
21.349788
19.733906
19.142628
##ZVALUE=240
3.665686
4.046559
9.144545
25.467873
71.266890
126.235485
257.343650
379.091501
552.820563
654.974580
752.946734
731.714964
667.192936
526.632667
399.627686
256.845951
181.117654
119.608641
104.174614
102.271438
107.444525
116.109848
112.927556
103.560686
82.242489
64.122677
49.196482
34.413934
20.826459
15.191436
13.017654
10.470748
10.312796
9.176731
10.697842
11.523962
10.276437
10.666847
9.635687
10.270476
9.904504
10.378957
10.728836
11.581779
11.423826
11.195540
12.082458
11.559725
12.207627
12.079477
12.375712
11.802912
15.070438
14.125705
14.199615
14.884472
16.052723
15.611649
14.951825
15.359521
17.842650
17.459989
19.399524
17.301440
17.672777
20.232797
19.696951
22.132993
22.354722
23.607612
26.219487
31.131506
31.444430
34.789443
33.322573
34.722686
35.896897
35.255551
33.942461
33.966899
29.258728
29.913783
30.117631
26.727915
25.265813
26.875734
26.533604
25.929809
23.779869
25.491714
24.067760
24.891496
24.226904
25.275946
22.422671
24.028420
##ZVALUE=245
2.404451
2.686977
2.630949
2.571940
4.459620
19.741654
50.218701
133.184791
230.360627
403.212905
572.643876
766.119957
865.846872
887.464881
839.456916
692.938566
553.662777
369.445682
258.790851
156.493783
112.289786
108.097792
114.164948
126.279593
133.167505
124.700665
111.415982
94.944835
74.417591
55.244565
34.233928
23.802519
14.543533
12.193918
10.198951
10.093451
10.438561
10.334849
9.380579
9.626746
9.398460
9.084940
10.087490
10.804534
10.320544
11.011958
10.540485
11.155605
11.490583
11.284947
11.660457
12.364984
12.005568
12.942553
12.275577
13.127923
14.121532
13.964772
14.688969
16.160607
15.744567
15.935898
17.609000
17.911792
18.738508
18.903613
19.555688
20.873547
22.972822
23.955703
26.576519
28.387904
28.975606
30.226707
33.595562
33.315420
31.676888
32.399893
32.520890
30.224919
31.451583
30.797720
30.055642
26.469827
27.624965
25.926828
25.302768
24.537444
24.613738
25.501847
23.733974
23.518801
24.513602
22.240877
24.605989
24.628639
##ZVALUE=250
2.080798
2.270937
1.999736
2.516508
2.396703
2.417564
3.217459
12.247562
32.830834
76.430440
197.875500
350.177884
588.632822
764.871836
958.454013
1016.031504
1016.031504
939.206481
805.289745
555.734038
373.890996
205.923915
137.024522
99.841952
102.739930
124.961734
136.871934
142.284632
136.662722
119.788647
103.065968
77.863932
57.142973
36.482811
25.373697
15.294552
11.985898
9.167790
8.590817
9.179711
8.974671
8.090734
9.142756
9.314418
9.938478
10.306835
9.589791
9.103417
10.426641
10.828972
10.238886
11.570454
10.347962
11.579990
11.168718
12.745857
12.943745
12.525916
14.336705
13.700724
13.898611
14.790893
14.678836
14.898777
16.219616
16.463995
16.458631
18.916726
18.510818
21.745563
22.684932
25.328994
26.089549
26.759505
30.509830
28.695464
28.965473
28.180480
28.124452
28.717518
27.061701
27.058721
26.325583
25.958419
24.519563
23.521781
23.500919
23.222566
22.607446
23.466945
22.483468
22.856593
23.623705
22.101998
22.232533
21.246672
##ZVALUE=255
1.397729
1.692772
2.016425
1.880527
1.867414
2.110600
2.355576
2.539754
2.599955
5.857944
29.139519
69.075823
138.868690
300.511718
475.307703
750.067830
944.426656
1015.844941
1015.844941
1015.844941
998.517871
813.060999
523.963571
344.929695
181.939602
120.329857
96.796751
105.880499
127.395988
143.114924
146.898627
143.843889
130.301714
106.416941
82.972646
55.017471
38.275719
22.284985
14.405847
9.746552
8.355975
7.804632
8.104444
8.313656
8.401871
8.144975
8.775592
8.713603
9.717941
8.509755
9.478927
9.182692
10.772943
9.853840
10.533929
10.249615
10.642409
10.819435
11.659861
12.590885
12.414455
11.845827
13.845563
13.275743
13.763905
15.173554
14.750957
16.190410
17.673969
17.378926
18.740892
21.882653
21.617413
22.608638
22.934675
23.636818
24.063587
24.317503
23.821592
23.964643
21.948814
21.714568
22.364855
20.107627
19.916892
20.630956
21.500587
21.763444
21.235943
21.137595
21.339655
22.174716
20.545721
20.679832
20.226836
20.776987
##ZVALUE=260
1.540780
1.685619
2.021790
1.650453
1.330972
1.642704
2.081990
2.081990
2.056956
2.041459
2.635717
3.533959
11.249781
46.671629
102.211833
251.811743
406.530499
667.238832
885.303020
1015.935540
1015.935540
1015.935540
1015.935540
884.884596
576.616526
394.076705
224.881768
136.035681
87.991953
88.184476
107.221603
127.581954
142.213702
152.837634
149.466991
132.169724
114.448667
82.795620
61.463714
37.501454
25.119781
14.159679
10.500550
8.478761
8.519888
7.745624
7.718801
7.817745
8.354783
8.377433
7.809997
9.409785
9.105802
9.060502
9.761453
9.607673
10.223985
10.112524
10.284781
10.928512
10.987520
11.515617
12.795925
12.182593
12.868643
13.183951
13.906956
14.202595
15.431643
15.976429
16.252995
17.211437
19.180775
20.515919
20.971894
21.987557
20.658970
21.425486
20.717978
20.620823
19.600987
20.029545
18.775463
18.759966
18.919706
20.003915
18.447638
19.157529
19.286871
18.562675
19.454956
18.893480
20.015836
19.084811
20.111799
18.970966
##ZVALUE=265
1.506805
1.572967
1.555681
1.639724
1.726747
1.774430
1.914501
1.931787
1.797676
2.290606
2.120733
2.373457
2.366900
2.586842
9.504557
30.239820
97.927451
186.067820
327.460766
607.433915
865.909457
1016.031504
1016.031504
1016.031504
1016.031504
978.667736
769.619942
482.261777
308.317542
159.022808
98.129511
75.075626
84.406734
113.494992
132.498741
150.811672
158.697963
149.524808
134.691000
108.865499
83.472729
57.554841
39.552450
23.067594
15.294552
10.443926
8.972883
7.896423
8.697510
9.086728
8.093715
8.663535
9.152889
9.765625
9.088516
9.577870
9.872913
9.965897
10.195971
10.658503
11.207461
11.098981
10.894537
11.547804
11.938810
12.776852
13.355613
13.912916
13.478994
14.772415
15.672445
16.850829
17.408729
19.002557
18.524528
19.682646
19.266605
19.203424
20.222664
18.251538
18.651485
17.704964
19.024611
18.123984
18.497705
17.814636
17.304420
18.745661
18.360615
17.794967
18.785000
18.650889
18.498898
17.972589
18.380880
18.487573
##ZVALUE=270
1.484752
1.518726
1.423955
1.333952
1.595616
1.423955
1.636744
1.621842
1.699924
1.629591
1.877546
1.995564
2.154708
2.047420
2.493858
2.482533
4.113913
22.542477
60.102940
167.487860
303.706527
512.882471
854.017735
1016.031504
1016.031504
1016.031504
1016.031504
1016.031504
975.126028
724.240541
422.578454
258.389711
123.313665
75.057745
68.610907
81.306696
114.874840
134.571791
153.988600
157.604814
153.413415
140.061975
113.014579
89.142919
59.105754
41.556954
24.736524
16.975999
12.507439
10.309815
9.088516
8.868575
9.268522
9.707808
9.801984
9.776950
10.080934
10.195971
10.327697
9.996891
10.823607
10.857582
11.500716
11.479855
11.412501
12.145638
12.561679
13.385415
13.378859
14.796853
14.867783
15.099645
16.809702
17.286539
17.945766
17.948747
18.075705
18.460751
17.559528
17.370582
16.842484
17.246604
16.562939
16.632676
17.271638
16.595721
16.351938
17.387867
16.745925
17.032623
16.917586
16.409755
16.204715
16.145706
17.079711
16.831756
##ZVALUE=275
1.396537
1.428723
1.412630
1.504421
1.340508
1.181960
1.384616
1.450777
1.541972
1.459718
1.741648
1.617670
1.865625
1.952648
1.898408
2.359748
2.260804
2.550483
2.732873
9.558797
36.765933
93.716979
247.842669
440.180898
782.437921
1015.280485
1016.031504
1016.031504
1016.031504
1016.031504
1016.031504
969.213843
679.481626
346.360803
192.637444
83.331466
53.906441
62.894821
83.489418
110.964775
133.101940
152.296424
156.621933
151.431561
137.287974
108.422637
87.642670
60.863495
43.579936
27.096868
18.001795
12.580752
10.180473
8.802414
9.680986
9.663701
10.045767
10.249615
10.204911
10.593534
11.090636
10.567904
10.875463
11.397600
11.172891
12.237430
12.137890
12.353659
12.718439
13.702512
14.699697
15.189648
15.912652
16.667843
16.897917
16.443729
17.581582
17.370582
16.972423
16.177893
16.439557
15.347600
15.765429
15.302896
15.747547
16.105771
15.443563
16.065836
15.595555
15.615821
15.098453
15.189648
15.686750
15.965700
15.682578
15.166998
##ZVALUE=280
1.412630
1.256466
1.394749
1.488924
1.323819
1.423955
1.235604
1.327991
1.488924
1.493692
1.501441
1.560450
1.563430
1.649857
1.681447
2.005696
2.075434
2.041459
2.175570
2.443790
2.663732
3.758669
25.372505
79.049468
216.513872
376.541615
661.920905
925.793648
1016.031504
1016.031504
1016.031504
1016.031504
1016.031504
1016.032100
862.244964
484.353900
284.663439
117.454529
60.441494
46.776533
58.514476
83.903670
107.904673
131.293535
148.923993
155.656934
149.519444
131.446719
112.915635
85.244775
63.799620
41.261911
29.782653
18.379688
13.653636
10.532737
9.885430
9.619594
10.031462
10.511875
10.524988
10.656714
11.352897
11.305809
11.369586
11.089444
11.763573
12.247562
12.363791
13.395548
13.488531
14.753938
14.897585
15.154481
15.881658
15.754700
15.175939
15.586615
15.589595
15.933514
15.335679
15.355945
15.325546
14.133453
14.495850
15.482903
14.408827
15.415549
15.188456
14.257431
14.707446
14.649630
14.168620
14.600754
14.732480
14.447570
##ZVALUE=285
1.163483
1.179576
1.065731
1.189709
1.033545
1.140833
1.053810
1.073480
1.326799
1.220703
1.349449
1.334548
1.218915
1.528859
1.428723
1.550913
1.763701
1.753569
1.601577
1.859665
1.965761
2.205968
2.499819
3.006458
12.001991
40.870905
131.192803
252.629519
512.630939
769.985914
1009.590030
1016.031504
1016.031504
1016.031504
1016.031504
1016.031504
928.774476
577.791929
360.354781
169.541836
86.650848
40.850639
37.933588
55.732727
77.498555
108.755827
128.127933
145.610571
151.265860
148.158669
136.569738
111.490488
89.462996
62.881708
45.088530
27.135611
19.187927
13.287663
10.915995
10.051727
10.433793
10.095835
9.986758
10.195971
10.902882
10.910630
11.543632
11.353493
12.614727
12.539625
13.382435
13.767481
13.819933
14.250875
14.813542
14.760494
14.661551
14.688969
14.968514
14.883876
14.130473
14.155507
13.965964
14.543533
14.770627
14.932752
14.348626
13.961792
14.162660
14.292598
14.126897
14.561415
13.852715
14.433861
14.487505
13.610721
##ZVALUE=290
1.057982
1.013875
1.252890
1.163483
0.969768
1.122952
1.265407
1.353621
1.349449
1.261830
1.237988
1.225471
1.454949
1.279712
1.384616
1.291633
1.353621
1.375675
1.241565
1.576543
2.029538
1.850724
2.026558
2.334714
2.483726
2.754927
5.214810
18.517971
77.822804
166.677833
318.825841
635.222793
942.842960
1016.029716
1016.029716
1016.029716
1016.029716
1016.029716
1016.029716
735.645890
480.388999
233.923793
121.350884
46.432614
29.087663
37.461519
51.758885
75.292587
97.443461
124.047995
138.476491
147.083998
145.461559
131.707788
112.429857
84.182620
64.311624
40.530562
28.610826
18.223524
14.458895
10.977983
10.389686
10.366440
9.823442
10.192990
10.343790
11.291504
11.484623
11.991858
12.686849
12.609959
13.599992
14.031529
13.605952
14.299750
13.721585
14.042854
13.809800
13.705492
13.668537
13.390779
13.733506
13.518929
13.561845
13.683438
14.187694
13.810992
13.850927
13.546944
13.925433
13.539791
13.141632
13.347864
13.688803
13.726950
##ZVALUE=295
1.108646
1.060963
1.030564
0.914931
0.864863
1.007915
1.157522
0.933409
0.946522
1.130700
1.123548
1.077652
0.988841
1.128912
1.090765
1.177788
1.344681
1.326799
1.438856
1.586676
1.556873
1.426935
1.982450
1.852512
1.973510
2.256632
2.456903
2.368689
3.087521
6.820560
28.133988
107.177496
221.489668
506.411791
805.518627
1016.031504
1016.031504
1016.031504
1016.031504
1016.031504
1016.031504
944.457650
638.364553
327.360630
175.839663
64.346790
32.614470
24.236441
31.929612
50.072670
67.390800
95.293522
114.597678
132.074952
140.254498
137.564540
125.927925
104.277730
84.553957
58.968663
43.326616
27.431846
18.976927
13.659596
11.213422
10.871887
10.326505
10.499954
11.183619
11.884570
11.736751
12.782812
12.766719
13.365746
13.798475
13.410449
13.902783
13.785958
13.489723
13.472438
13.479590
13.479590
13.436675
13.172626
13.703704
13.755560
13.496876
13.036728
13.479590
13.077855
13.460517
13.041496
13.735890
12.952685
12.961626
13.195872
##ZVALUE=300
0.939965
0.835657
0.897646
0.988841
1.134872
0.878572
1.013875
0.828505
1.131892
0.911951
1.154542
1.076460
1.020432
1.160502
1.225471
1.076460
1.082420
1.227856
1.203418
1.305938
1.483560
1.506805
1.578927
1.675487
1.746416
1.721978
1.753569
2.100468
2.486706
2.612472
2.728701
3.269911
17.661452
59.668422
178.975463
330.201983
649.358630
963.642001
1016.031504
1016.031504
1016.031504
1016.031504
1016.031504
1016.031504
809.679031
511.939526
247.951746
128.093958
47.481656
22.757649
20.742416
28.254986
43.631792
60.696006
85.402727
106.108785
126.688480
133.315921
133.805871
123.724937
103.429556
84.554553
60.641766
45.277476
29.080510
20.203590
14.023781
12.066960
11.434555
10.792613
12.146831
12.236834
12.693405
12.861490
13.088584
12.841821
12.822747
13.316870
13.239980
13.188720
13.040900
13.031960
13.784766
13.270974
13.680458
13.695955
13.261437
13.207793
13.090968
12.747645
12.331605
12.611747
12.177825
12.954473
13.145804
12.914538
##ZVALUE=305
0.800490
0.974536
0.972748
0.845790
0.853539
0.944734
0.983477
1.027584
0.963807
0.794530
1.033545
1.045465
1.113415
1.098514
1.258850
1.368523
1.274943
1.268983
1.485944
1.296997
1.122952
1.285672
1.375675
1.273751
1.632571
1.359582
1.715422
1.764894
1.919866
1.778603
1.843572
2.515912
2.471805
3.071427
6.516576
39.740801
103.029609
265.300870
459.992886
814.387798
1016.031504
1016.031504
1016.031504
1016.031504
1016.031504
1016.031504
1016.031504
703.720450
422.650576
177.175999
81.542730
27.781725
16.477704
19.396544
26.527643
43.156743
59.433579
81.517696
101.510882
118.955970
126.160979
125.102997
116.884708
98.758936
80.281496
55.880547
41.668415
28.119683
19.831657
14.541745
12.777448
12.293458
12.222528
12.380481
12.452602
12.325644
12.511611
12.247562
12.555718
12.872815
12.765527
13.047457
13.033748
13.209581
13.098717
13.219714
13.464689
13.514757
12.900829
13.242960
13.360977
12.883544
13.032556
12.796521
12.486577
12.182593
##ZVALUE=310
0.697970
0.753999
0.691414
0.868440
0.830889
0.933409
0.957847
0.883937
0.869632
0.849962
1.020432
0.887513
0.999570
0.895858
1.073480
1.045465
1.055598
1.088977
1.060963
1.189709
1.136661
1.219511
1.279712
1.325607
1.343489
1.265407
1.328588
1.398921
1.396537
1.583695
1.571774
1.933575
1.999736
2.138615
2.152920
2.601743
3.341436
16.302466
53.519607
166.791677
319.496989
638.060570
938.532948
1016.031504
1016.031504
1016.031504
1016.031504
1016.031504
1016.031504
839.299560
548.946857
265.165567
137.443542
46.349764
19.606948
13.536811
16.148686
24.956465
36.239624
54.309964
71.108937
94.541907
108.407736
119.086504
121.041536
110.002756
98.707676
77.248812
60.574412
40.612817
30.064583
20.790696
16.349554
13.519526
12.605786
12.282729
12.298822
11.932850
11.842847
12.527704
12.302995
12.449622
12.685657
12.871623
12.616515
13.002753
13.126731
12.865663
13.021827
13.033748
12.720823
12.810826
12.502670
13.223886
12.887716
12.855530
##ZVALUE=315
0.668764
0.821948
0.814795
0.756979
0.868440
1.051426
0.952482
0.798702
0.990629
0.854731
0.839829
0.907779
0.786781
0.889897
0.982881
0.944734
0.913739
1.035929
1.020432
0.914931
0.861883
1.121759
0.988841
1.093745
1.119971
1.227856
1.336932
1.251698
1.334548
1.404881
1.262426
1.506805
1.552701
1.624823
1.781583
1.902580
2.135634
2.672672
2.681613
6.974936
28.044581
109.598637
228.642821
498.726964
797.557831
1016.036868
1016.036868
1016.036868
1016.036868
1016.036868
1016.036868
958.308578
670.174956
350.208879
186.844468
67.096949
27.571917
12.522936
11.894703
16.231537
22.204518
35.157800
48.141479
68.956614
84.874630
103.527904
112.036467
114.164948
106.670856
91.037750
75.649619
56.420565
42.585731
27.915835
21.709800
15.733838
13.320446
12.563467
12.355447
12.399554
12.147427
12.409687
12.563467
12.564659
12.253523
12.538433
12.675524
12.561679
13.038516
12.773871
12.788773
12.398958
12.516975
12.226701
12.333989
12.414455
##ZVALUE=320
0.744462
0.743866
0.761747
0.786781
0.752807
0.852942
0.858903
0.824928
0.850558
0.675917
0.884533
0.968575
0.740886
0.823736
0.849962
0.746846
0.794530
0.967979
0.987649
1.092553
0.949502
1.077652
1.090765
1.022816
1.134872
1.168847
1.093745
1.088977
1.103878
1.195669
1.305938
1.374483
1.476407
1.542568
1.671910
1.692772
1.737475
1.772642
2.104640
2.292991
2.664924
3.704429
12.720823
66.432953
157.618523
381.983519
618.986487
981.814861
1016.034484
1016.034484
1016.034484
1016.034484
1016.034484
1016.034484
836.360455
454.403758
257.491469
105.413795
46.675801
15.306473
10.720491
11.616945
14.011860
20.704865
30.320883
47.028661
62.390566
81.628561
96.640587
107.140541
108.137727
100.963712
90.698004
70.772767
56.492686
39.398670
28.619766
20.432472
16.327500
13.628602
12.520552
11.978745
12.251735
12.400746
12.460947
12.014508
12.253523
12.483597
12.428761
12.219548
12.306571
11.974573
12.184978
12.209415
12.279749
12.310743
##ZVALUE=325
0.784993
0.681877
0.550747
0.603795
0.527501
0.600815
0.544786
0.689626
0.672936
0.625849
0.669956
0.790954
0.664592
0.917912
0.800490
0.871420
0.646710
0.664592
0.718832
0.764728
0.648499
0.802875
0.897646
0.857711
0.924468
0.972748
0.970960
0.986457
0.994802
1.146793
1.327991
1.160502
1.141429
1.263618
1.273751
1.340508
1.285672
1.615882
1.743436
1.769662
1.906753
1.919866
2.080798
2.563596
6.329417
46.318769
115.630031
284.622908
494.094491
888.468623
1015.948653
1015.948653
1015.948653
1015.948653
1015.948653
1015.948653
982.555747
601.082444
348.705649
148.375630
68.469644
21.843910
11.367798
9.855628
10.560751
14.531612
19.990802
30.621886
42.395592
63.199997
78.131557
94.403625
101.466775
102.498531
96.553564
82.132816
68.177581
50.607920
39.062500
26.824474
20.055771
15.461445
13.424754
12.606978
12.116432
12.166500
11.843443
11.957884
11.847615
11.953712
11.948943
11.502504
11.734962
11.872649
11.575818
11.767745
##ZVALUE=330
0.716448
0.561476
0.637770
0.631809
0.720620
0.762939
0.674725
0.880957
0.946522
0.788569
0.762939
0.940561
0.827909
0.723600
0.529885
0.650883
0.773668
0.777841
1.013875
0.730753
0.938773
1.113415
0.913739
0.922680
0.888705
1.014471
0.946522
1.009703
1.023412
0.993609
1.094937
1.166463
1.166463
1.140833
1.083612
1.369715
1.340508
1.386404
1.407862
1.594424
1.839995
1.749992
1.968741
2.023578
2.169609
2.594590
4.013777
22.428632
70.875883
214.192867
392.515063
742.231607
1005.547643
1016.031504
1016.031504
1016.031504
1016.031504
1016.031504
1016.032100
706.724524
444.310904
204.451680
102.294683
36.603808
15.450716
9.994507
9.655952
11.080503
13.559461
20.867586
28.848648
43.349862
56.461692
75.967908
86.884499
95.814466
96.405745
89.290738
79.665780
63.030720
50.487518
35.338998
26.728511
19.242764
16.200542
13.143420
12.595654
12.268424
11.624694
11.671782
11.643767
11.444688
11.618733
11.575818
11.475682
11.530519
##ZVALUE=335
0.749826
0.746846
0.621676
0.730753
0.580549
0.567436
0.685453
0.769496
0.703931
0.692606
0.738502
0.767708
0.747442
0.729561
0.755787
0.901818
0.949502
0.765920
0.817776
0.857711
0.795722
0.856519
0.839829
0.898838
0.950694
0.874996
1.058578
0.865459
0.916719
0.965595
1.131892
1.098514
0.955462
1.122952
1.037717
1.207590
1.236796
1.139641
1.179576
1.390576
1.340508
1.481771
1.495481
1.528859
1.727939
2.083778
2.113581
2.494454
2.614856
7.778406
32.600760
131.682754
273.894668
588.431954
908.847451
1016.031504
1016.031504
1016.031504
1016.031504
1016.031504
1016.031504
837.857723
555.107594
276.156664
144.057870
50.314665
20.528436
10.321736
9.834766
10.157824
10.869503
14.166832
18.690825
29.435754
39.365888
56.365728
68.756938
82.488656
89.172721
90.618730
85.717440
73.302984
62.377453
47.071576
37.140846
26.692748
20.689964
15.701652
13.839602
12.275577
11.377931
11.211634
10.980964
11.174679
11.272430
11.447668
##ZVALUE=340
0.685453
0.691414
0.716448
0.568628
0.727773
0.597835
0.770688
0.629425
0.725985
0.624657
0.711679
0.757575
0.610948
0.820756
0.663996
0.752807
0.722408
0.751615
0.683665
0.752807
0.729561
0.701547
0.845790
0.811815
0.698566
0.767708
0.921488
0.870824
0.911951
0.908971
1.005530
0.953674
0.887513
0.934601
1.108646
1.136661
0.954866
1.053810
1.001954
1.302958
1.174808
1.165867
1.356602
1.437664
1.425743
1.518726
1.585484
1.791716
1.947880
2.264977
2.420545
4.111528
15.211701
77.323914
187.589526
450.249910
744.255781
1016.031504
1016.031504
1016.031504
1016.031504
1016.031504
1016.031504
954.165459
659.305453
338.775516
182.703733
70.657730
28.856993
11.737943
10.027885
9.924769
10.052919
11.140704
13.891459
19.619465
26.168823
38.820505
50.426722
67.125559
77.312589
85.038543
85.613728
79.224706
72.000623
58.472753
47.461987
35.005808
27.572513
20.031929
15.779734
12.793541
11.441708
11.096597
10.833740
10.761619
##ZVALUE=345
0.632405
0.618696
0.509620
0.640750
0.605583
0.650883
0.606775
0.694990
0.717640
0.619888
0.698566
0.560880
0.730753
0.581741
0.719428
0.721812
0.772476
0.589490
0.560880
0.798702
0.686646
0.853539
0.785589
0.921488
0.795722
0.936985
0.915527
0.954866
0.700951
0.935793
0.686646
0.974536
0.868440
0.699759
0.908971
1.059771
0.976920
0.934601
0.928640
1.118779
1.113415
1.072884
1.071692
1.228452
1.191497
1.315475
1.530647
1.530647
1.639724
1.660585
1.770854
2.014637
2.259612
2.781749
6.711483
46.405792
122.667551
319.076777
556.944013
957.096815
1016.031504
1016.031504
1016.031504
1016.031504
1016.031504
1016.031504
800.529718
457.960963
252.708793
98.384619
43.527484
16.056895
10.611415
9.927750
9.672642
9.804964
10.221601
12.920499
16.640425
25.529861
34.052730
48.033595
59.017539
70.602894
76.507926
78.269839
75.414777
67.506433
57.868958
45.782924
35.757422
25.220513
20.081997
14.836788
12.662411
11.113882
##ZVALUE=350
0.607967
0.617504
0.702739
0.609756
0.556707
0.665784
0.707507
0.584722
0.609756
0.575781
0.663996
0.715852
0.639558
0.659823
0.746846
0.737906
0.549555
0.703931
0.723600
0.653863
0.635982
0.831485
0.699759
0.745654
0.640750
0.897646
0.941753
0.771880
0.846982
0.893474
0.937581
0.978708
0.814795
0.822544
0.835657
0.895858
0.953674
1.019835
0.937581
1.011491
0.991821
1.080632
0.982881
1.174808
1.141429
1.155734
1.278520
1.431704
1.410842
1.404881
1.651645
1.572967
1.916885
1.927614
2.176762
2.543926
4.342794
18.592477
88.722706
194.218755
456.282496
734.583735
1016.029716
1016.029716
1016.029716
1016.029716
1016.029716
1016.029716
887.731910
580.179691
283.069611
152.699947
57.317615
23.402572
10.497570
9.389520
8.768439
8.728504
8.820891
9.580851
12.429953
15.785694
23.027658
30.369759
42.988658
51.782727
63.658953
68.784952
72.181821
70.332885
63.091516
55.381656
42.650700
34.312606
25.145411
19.354820
##ZVALUE=355
0.783801
0.769496
0.627637
0.624657
0.699759
0.771880
0.643730
0.773668
0.681877
0.755787
0.789762
0.590682
0.691414
0.670552
0.635982
0.648499
0.524521
0.796914
0.813603
0.814795
0.539422
0.753999
0.782609
0.764728
0.945926
0.783801
0.684857
0.724792
0.804663
0.925660
0.829697
0.949502
0.887513
0.857711
1.010895
0.938773
0.915527
0.971556
0.925660
1.105666
0.961423
0.956655
1.111627
0.985861
1.004934
1.220703
1.021624
1.360774
1.289845
1.480579
1.493692
1.616478
1.606941
1.797676
1.863837
2.071857
1.894832
2.236962
2.814531
6.989837
47.873855
127.281547
326.856971
560.367703
971.942544
1016.031504
1016.031504
1016.031504
1016.031504
1016.031504
995.264649
733.681917
402.684808
218.763947
82.011819
34.043789
12.517571
9.215474
8.592606
8.651614
8.469820
8.698702
9.201765
10.905862
14.700890
19.459724
28.176904
36.205649
47.078729
55.532455
62.570572
65.244436
64.247847
59.111714
50.943494
42.793751
##ZVALUE=360
0.668764
0.767708
0.689626
0.861883
0.761747
0.530481
0.511408
0.657439
0.565648
0.756979
0.650883
0.786781
0.608563
0.708699
0.643730
0.689626
0.758767
0.671744
0.718832
0.749826
0.763535
0.684857
0.723600
0.712872
0.795722
0.673532
0.708699
0.912547
0.813603
1.035929
0.826716
0.921488
0.922680
1.073480
0.862479
0.955462
0.988841
0.942945
1.035929
0.979900
1.084805
1.068711
1.047850
1.070499
1.057982
1.140833
1.129508
1.241565
1.205802
1.227856
1.217723
1.299977
1.533628
1.411438
1.542568
1.585484
1.651645
1.827478
2.020597
2.500415
2.648830
4.419684
16.081929
78.995824
190.594792
452.087522
724.549890
1016.040444
1016.040444
1016.040444
1016.040444
1016.040444
1016.040444
845.714808
558.095574
265.331864
134.485960
48.148632
19.449592
8.998513
8.540750
7.855892
7.827878
7.790923
7.804632
8.366704
9.611845
12.345910
15.872717
22.743940
30.425787
40.841699
47.780871
56.365728
58.824420
58.833957
##ZVALUE=365
0.533462
0.728965
0.687838
0.646710
0.680685
0.619888
0.628829
0.618696
0.667572
0.570416
0.616908
0.742674
0.511408
0.851750
0.554919
0.511408
0.637770
0.685453
0.641942
0.655651
0.727773
0.746846
0.831485
0.695586
0.531673
0.594854
0.729561
0.689626
0.637770
0.772476
0.753999
0.764728
0.854731
0.922680
0.922680
1.051426
0.766516
0.867844
0.987649
0.854731
1.013875
1.049638
0.907779
0.884533
1.039505
0.959635
1.151562
1.017451
1.094937
1.054406
1.027584
1.152754
1.345873
1.310706
1.346469
1.438856
1.648664
1.489520
1.612902
1.828671
1.932979
2.234578
2.523661
3.003478
7.312894
45.189857
117.701888
303.508639
533.948541
930.883884
1016.011834
1016.011834
1016.011834
1016.011834
1016.011834
957.266688
671.955943
359.340906
190.415978
66.575408
26.205778
9.393692
7.848740
7.297993
7.546544
6.956458
7.057786
7.250905
7.382631
8.332729
10.052919
14.202595
18.581748
27.043819
34.076571
42.752624
##ZVALUE=370
0.630617
0.497699
0.564456
0.388622
0.593662
0.477433
0.580549
0.545979
0.653863
0.605583
0.581741
0.498891
0.695586
0.652671
0.645518
0.555515
0.664592
0.480413
0.618696
0.693798
0.617504
0.491738
0.697970
0.614524
0.656843
0.694990
0.827909
0.764728
0.542998
0.647902
0.628829
0.507832
0.595450
0.717640
0.654459
0.638962
0.832677
0.739694
0.737906
0.919700
0.749826
0.692606
0.884533
0.766516
0.887513
0.894666
1.004934
0.999570
1.178980
0.959635
1.026988
1.057982
0.992417
0.971556
1.107454
1.026988
1.194477
1.224875
1.352429
1.517534
1.453757
1.555681
1.766682
1.930594
2.199411
2.752542
4.052520
25.710464
83.813667
249.996781
439.546704
774.066448
1015.968919
1015.968919
1015.968919
1015.968919
1015.968919
1002.358794
745.359659
409.774780
230.660439
91.439486
41.643977
14.204979
8.184910
6.746650
6.748438
6.683469
6.383657
6.329417
6.395578
6.720424
7.589459
9.437799
11.871457
16.647577
##ZVALUE=375
0.522733
0.659823
0.547767
0.428557
0.428557
0.568628
0.605583
0.737906
0.686646
0.503659
0.679493
0.764728
0.550747
0.658631
0.542998
0.492930
0.624657
0.541806
0.701547
0.536442
0.534654
0.679493
0.649691
0.719428
0.623465
0.719428
0.705719
0.595450
0.759959
0.648499
0.568628
0.725985
0.757575
0.720620
0.655651
0.809431
0.807643
0.843406
0.787973
0.805855
0.798702
0.853539
0.792742
0.808835
0.827909
0.759959
1.004934
0.776649
0.878572
0.887513
1.018643
0.947714
1.007915
1.155734
1.060963
1.068711
1.084805
1.134872
1.199841
1.160502
1.362562
1.397729
1.363754
1.658797
1.654625
1.894832
2.016425
2.410412
2.925992
11.708736
47.245622
170.035958
347.576737
694.414973
979.989767
1016.025543
1016.025543
1016.025543
1016.025543
1016.025543
880.312920
530.431867
336.509943
162.706971
79.503655
25.181770
10.531545
6.870627
6.608963
6.049871
5.984902
6.034970
5.914569
6.227493
6.143451
6.861687
##ZVALUE=380
0.490546
0.595450
0.452995
0.485778
0.660419
0.467896
0.463724
0.498891
0.557899
0.552535
0.590682
0.728965
0.451803
0.543594
0.669956
0.585914
0.527501
0.644922
0.571609
0.688434
0.671744
0.617504
0.633597
0.706911
0.640750
0.590682
0.488758
0.621676
0.611544
0.793934
0.767708
0.757575
0.635982
0.601411
0.702739
0.848770
0.747442
0.943542
0.801682
0.815988
0.679493
0.808835
0.753999
0.788569
0.681877
0.668764
0.778437
0.779629
0.894666
0.784993
0.918508
0.924468
0.793934
1.044869
0.879765
1.155734
0.956655
0.969768
1.118779
1.069903
1.178980
1.133680
1.198649
1.192689
1.412630
1.570582
1.679659
2.026558
2.183914
2.692938
2.906919
5.485415
22.684932
113.329887
255.855918
567.286611
875.476599
1016.031504
1016.031504
1016.031504
1016.031504
1016.031504
1016.031504
728.506446
487.207770
242.848396
126.193762
43.805838
16.869903
7.389784
6.406903
6.184578
5.692840
5.881786
5.883574
5.701780
##ZVALUE=385
0.736713
0.610948
0.848770
0.582933
0.765920
0.791550
0.609756
0.838637
0.635982
0.760555
0.721812
0.731945
0.684857
0.732541
0.661612
0.764728
0.761747
0.829697
0.697970
0.730753
0.787973
0.682473
0.793934
0.696778
0.768900
0.807643
0.932813
0.866652
0.673532
0.815988
0.981688
0.979900
0.875592
0.736713
0.756979
0.846982
0.714660
1.025796
0.889897
0.881553
1.080632
0.896454
0.809431
0.856519
0.843406
0.845790
1.079440
0.910759
1.123548
1.033545
1.091957
1.106858
0.970960
1.130700
1.025796
1.061559
1.094937
1.170635
1.277924
1.320839
1.225471
1.319647
1.344681
1.440644
1.432896
1.606941
1.701713
1.824498
2.026558
2.093911
2.399683
2.747774
2.823472
3.670454
9.659529
59.655905
153.927803
384.476781
668.330789
1016.215682
1016.215682
1016.215682
1016.215682
1016.215682
1016.215682
1004.821658
740.824938
410.098433
235.770941
98.270774
39.256811
10.238886
6.282926
6.091595
5.640984
5.657673
##ZVALUE=390
0.663996
0.651479
0.644922
0.701547
0.686646
0.577569
0.593662
0.731945
0.792742
0.810623
0.637770
0.680685
0.716448
0.821948
0.716448
0.710487
0.756979
0.658631
0.683665
0.617504
0.734925
0.557899
0.810623
0.823736
0.794530
0.834465
0.600815
0.709891
0.752807
0.564456
0.657439
0.814795
0.764728
0.742674
0.870824
0.884533
0.900626
0.838637
0.758767
0.703931
0.939965
0.745654
0.813603
0.981688
0.934601
0.965595
1.056790
1.027584
1.125932
1.039505
1.017451
0.883937
0.973940
0.975728
0.986457
1.127720
1.101494
1.196861
1.212955
1.200438
1.105666
1.210570
1.202822
1.255870
1.355410
1.445413
1.556873
1.790524
1.942515
1.998544
2.172589
2.324581
2.472997
2.514720
2.580881
2.989769
4.833937
30.412674
96.937418
287.971497
532.084703
964.241624
1016.202569
1016.202569
1016.202569
1016.202569
1016.202569
1016.202569
983.636975
614.265800
365.710855
157.465935
74.042678
19.603968
7.778406
5.860925
##ZVALUE=395
0.660419
0.613928
0.581741
0.611544
0.579953
0.561476
0.552535
0.560880
0.652671
0.749826
0.695586
0.737906
0.780821
0.718832
0.718832
0.688434
0.684857
0.664592
0.668764
0.684857
0.593662
0.380874
0.632405
0.569820
0.683665
0.642538
0.762939
0.748634
0.674725
0.699759
0.727773
0.791550
0.623465
0.795722
0.716448
0.810623
0.751615
0.680685
0.731945
0.781417
0.781417
0.680685
0.699759
0.760555
0.817776
0.862479
0.990629
0.947714
0.977516
0.796914
0.896454
0.939965
0.932813
0.849962
0.872612
0.914931
0.985861
1.064539
0.964999
0.954866
1.100898
1.018643
1.150966
1.150966
1.253486
1.368523
1.388788
1.484752
1.672506
1.675487
1.952648
1.974702
2.030730
2.309680
2.192855
2.229810
2.279878
2.648830
3.339648
16.591549
61.905980
212.087631
398.379564
753.951669
1016.117930
1016.117930
1016.117930
1016.117930
1016.117930
1016.117930
1016.117930
736.303926
464.836955
210.088491
103.241801
34.064651
##ZVALUE=400
0.422597
0.488758
0.394583
0.505447
0.463724
0.559688
0.476837
0.406504
0.496507
0.807643
0.560880
0.514984
0.507832
0.451803
0.556707
0.364780
0.456572
0.471473
0.578761
0.631809
0.563860
0.425577
0.547767
0.567436
0.565648
0.624657
0.615716
0.661612
0.564456
0.638962
0.574589
0.656843
0.516772
0.697970
0.664592
0.655651
0.653863
0.519753
0.525713
0.694990
0.664592
0.725985
0.718832
0.658631
0.583529
0.795722
0.733733
0.715852
0.759959
0.562668
0.745654
0.709891
0.735521
0.695586
0.823736
0.708699
0.717640
0.986457
1.006722
0.936985
0.737906
0.981688
1.072884
1.044869
0.838637
1.234412
1.355410
1.403689
1.255870
1.586676
1.746416
1.718998
1.648664
1.692772
1.683831
1.802444
1.784563
1.897812
2.059937
2.183914
2.784729
8.103848
32.265782
127.469897
269.941688
576.530695
880.904794
1016.031504
1016.031504
1016.031504
1016.031504
1016.031504
1016.031504
827.878714
544.436574
273.810625
##END
