##TITLE=FQP00652
##FORMAT=SPECTACLE-ASCII V-1.2
##DATA TYPE=ULTRAVIOLET SPECTRUM
##SECOND TYPE=ULTRAVIOLET SPECTRUM
##DATE=02/01/18
##TIME=14:51:57
##SPECTROMETER/DATA SYSTEM=SPECTACLE
##XUNITS=NM EM
##YUNITS=ENERGY
##YFACTOR=1
##FIRSTX=220
##LASTX=410
##NPOINTS=96
##3DDATA=Equidistant
##ZUNITS=NM EX
##FIRSTZ=210
##LASTZ=400
##ZPOINTS=39
##XYDATA=(Y..Y)
##ZVALUE=210
1.780987
1.819730
1.417994
1.728535
1.384616
2.055764
2.349615
1.823902
1.886487
2.370477
2.399683
2.517700
2.512932
1.930594
2.102852
3.089905
2.778769
3.620982
4.000664
3.962517
3.783703
3.403425
4.470944
5.073547
4.888773
4.978776
7.023811
6.141663
6.380677
7.136464
7.625818
7.539988
8.237958
9.085536
8.865595
8.517504
9.554625
8.759499
8.778572
8.897781
9.081960
7.922649
8.847713
8.598566
9.030700
8.139610
8.338690
8.683801
7.902980
9.798408
8.533597
9.655952
9.466410
9.667873
8.932948
8.767843
9.399652
9.172559
8.746982
7.881522
9.719729
8.257627
9.097457
9.792447
10.495782
9.023547
10.726452
12.289882
13.537407
17.381907
19.369721
21.979809
25.834441
32.659769
32.489896
37.998557
39.841533
40.596724
42.573810
39.477944
36.826730
32.940507
28.075576
21.823645
17.494559
14.964938
11.868477
9.597540
9.479523
8.789897
9.545684
8.670688
9.456873
8.462667
8.644462
8.749962
##ZVALUE=215
7.129908
6.934404
6.027818
5.589724
4.910827
4.339814
5.284548
4.863739
4.893541
5.894899
5.263686
5.437732
4.858971
3.986955
3.902912
3.061891
3.973842
3.459454
3.624558
4.323721
4.779696
4.314780
5.212426
5.766749
6.022453
5.901456
6.583929
6.691813
8.276701
9.226799
8.631945
9.317994
10.200739
11.263490
11.330843
10.960698
10.782480
10.518432
10.875463
10.908842
10.988712
9.748936
9.182692
10.611415
10.030866
10.337830
9.539723
9.242892
9.183884
9.569526
9.923577
10.139942
8.574724
8.189678
8.543730
9.647608
10.122657
8.291602
9.294748
9.580851
8.728504
8.499622
8.914471
8.284450
8.353591
8.283854
10.674596
10.661483
10.739565
13.181567
15.887618
18.381476
21.701455
27.702451
27.892590
30.959845
31.311512
32.148957
32.849908
30.390620
27.894974
24.214983
21.139979
18.681884
13.584495
12.658834
10.599494
9.525418
9.536743
8.699894
8.369684
7.693768
7.475615
8.537769
9.335876
7.889867
##ZVALUE=220
21.793842
22.444725
25.590658
28.327703
26.801825
20.758510
18.943548
15.375614
11.143684
11.283755
11.773705
11.080503
11.902452
10.142922
8.294582
7.606745
5.482435
3.913641
3.876686
3.486872
3.700852
4.182458
4.281998
3.997684
5.097985
5.880594
6.094575
7.534623
8.409619
9.891987
11.659861
13.733506
13.240576
14.192462
15.110970
14.383793
15.999675
15.221834
14.766455
13.460517
14.456511
14.224648
13.545752
12.912750
12.755990
12.295842
11.836886
11.811852
10.210872
10.404587
11.131763
9.858608
10.322928
9.867549
10.062456
9.386539
10.693669
9.359717
9.017587
9.078979
10.166764
9.124875
9.686947
9.223819
9.404421
9.900928
10.955930
11.363626
11.996627
14.445782
17.185807
16.726851
20.559430
21.767616
24.915934
24.071932
27.837753
28.129816
27.751923
26.646852
23.860931
25.073886
21.225810
19.210577
16.076565
15.083551
10.195971
10.177493
8.154511
8.812547
8.263588
7.290840
7.348657
8.520484
8.145571
7.885695
##ZVALUE=225
43.916702
43.578744
58.092475
78.647733
81.016421
83.996654
78.442693
61.041713
44.414997
36.188960
25.493503
24.325848
22.744536
24.178624
24.515986
22.373796
21.852851
17.959476
12.986660
9.149909
7.037520
4.216433
4.058480
4.440546
4.738569
6.011724
6.840825
9.542704
10.682940
11.183619
12.376904
14.594793
14.821887
16.748905
16.624928
17.706752
17.351508
17.115474
17.418861
18.737912
16.462803
16.093850
14.204979
13.873577
12.848973
12.737513
13.462901
10.209680
11.223555
11.098981
10.799766
10.390878
10.326505
10.079741
9.651780
10.321736
10.138750
9.175539
8.514524
8.797646
8.219481
9.137988
8.891821
8.652806
9.363890
9.373426
9.204745
9.457469
9.354949
10.741949
12.302995
13.249516
15.245676
15.109777
16.551614
17.635822
17.836690
16.986728
17.002821
15.659928
15.125871
12.899637
14.065504
10.986924
10.193586
9.232759
8.145571
8.981824
8.351803
7.700920
7.245541
6.708503
6.990433
7.400513
6.840825
6.411672
##ZVALUE=230
36.312938
41.556954
68.385601
112.087727
140.256882
173.123479
188.731551
184.172988
160.092711
128.734708
93.746781
62.448978
47.193766
41.522980
43.585896
46.876669
50.756931
49.766898
43.565631
36.347508
26.625991
19.712448
12.285709
7.725954
5.949736
6.756783
6.787777
8.218884
9.144545
10.119677
12.289882
13.497472
13.022423
15.326738
16.765594
16.229749
16.594529
16.229749
14.786720
14.752746
14.402866
13.497472
14.210939
12.842417
12.748837
11.946559
10.723472
10.767579
10.995865
9.515882
9.976625
9.384751
10.413527
8.985996
10.655522
9.929538
7.730722
9.478927
9.316802
9.195805
9.121895
7.980466
8.963943
7.737875
8.656979
9.520650
9.920597
9.614825
9.662509
11.463761
12.003779
13.361573
13.680458
14.208555
16.677976
17.296672
17.893910
16.323924
16.330481
16.089678
13.389587
14.021993
12.948513
12.265444
10.753870
10.527968
10.424852
10.126829
10.406971
9.912848
9.803772
9.668469
10.120869
10.139942
9.624958
9.959936
##ZVALUE=235
10.519624
10.165572
28.939843
58.931708
113.920569
165.665746
246.953964
317.463875
365.098715
364.406705
318.102837
263.749957
206.494927
137.711763
102.440715
76.791644
74.633956
79.071522
86.749792
86.774826
78.097582
69.646835
52.936673
37.118793
24.066567
16.399622
10.496974
9.922981
9.821653
8.893609
9.918809
10.872483
10.931492
11.656880
14.748573
10.582805
12.775660
12.429953
12.096763
13.193488
12.822747
12.181997
13.092756
11.061430
11.507869
12.465715
12.636781
10.504723
10.245442
10.665655
10.876656
9.763837
9.756684
9.552836
10.179877
10.536909
9.994507
10.523796
10.101795
10.532737
10.723472
9.327531
9.770989
10.419488
10.902882
12.882948
11.414886
13.416409
12.537837
14.054775
15.949607
17.427802
18.006563
20.377636
19.064546
20.092726
20.985603
19.933581
20.323992
19.931793
18.853545
17.685890
17.356873
15.838742
15.277863
15.323758
15.294552
14.333725
14.722943
15.008450
13.204813
14.654994
14.263988
13.893843
13.574958
12.671947
##ZVALUE=240
1.140833
1.808405
3.962517
12.349486
37.439466
79.312921
161.355734
254.722834
404.238701
508.278012
601.423979
600.054860
562.591553
448.028445
349.328518
224.898458
163.824558
110.676885
95.055699
99.501610
106.862783
112.458467
105.652809
99.591613
80.163479
66.890717
46.302676
34.105778
21.814704
16.894937
15.772581
10.890961
12.696981
12.260675
12.478828
13.089776
13.502836
13.080835
11.577606
11.509657
12.382865
12.208819
12.614727
12.773871
11.870861
11.730790
11.250973
11.783838
10.205507
11.098981
11.513829
10.424852
10.857582
11.215806
10.491610
10.736585
10.490417
9.912848
10.079741
10.563731
10.924935
11.569858
11.293888
11.298656
13.338923
11.815429
12.878776
13.733506
14.520884
15.362501
16.936660
18.598437
19.101501
20.261407
21.973848
22.856593
21.128654
23.257732
21.589994
20.784736
21.360517
19.668937
19.726753
20.712614
18.266439
17.546415
18.497705
16.995668
16.730428
16.507506
16.878843
17.147660
15.649796
15.652776
16.050935
15.978813
##ZVALUE=245
1.106858
1.031756
1.350641
1.162887
3.568530
10.695457
35.324693
78.536868
187.824965
308.780670
495.639443
632.358789
732.645988
782.076716
750.292540
612.700582
487.897992
325.323939
217.327476
132.167935
100.356936
97.302794
111.415982
124.075413
129.766464
124.056935
111.208558
94.199777
74.009895
56.264997
41.668415
29.347539
21.436810
15.646815
15.973449
14.917850
13.805628
14.327765
14.703870
13.554692
13.960600
14.113784
13.954639
13.215542
13.007522
12.968779
12.361407
11.916757
12.004972
11.279583
11.262894
10.384917
9.888411
10.121465
10.751486
9.412766
9.457469
9.519458
10.768771
9.309649
9.387732
9.781718
9.140968
9.767413
11.087656
11.234879
11.601448
11.433959
12.005568
13.848543
14.728904
14.520884
16.310811
18.938780
17.878413
19.384623
19.122958
19.118786
18.892884
18.681884
19.336939
17.415881
17.392635
17.765760
16.714931
17.636418
17.936826
17.690659
16.689897
16.290545
18.034577
15.803576
15.792847
15.593767
14.818907
15.339851
##ZVALUE=250
1.061559
0.898838
0.869632
0.867844
1.040697
1.343489
1.762509
6.502867
27.266741
63.424706
162.642002
274.742842
411.465764
598.204732
704.932809
783.392787
771.294832
666.939020
564.665794
373.957753
251.760483
165.331960
104.413629
91.235638
104.073882
120.643973
133.232474
137.620568
135.769844
124.153495
106.899738
83.317757
63.447952
44.983625
32.076836
23.170710
19.970536
18.442869
17.575622
16.478896
16.502738
16.113520
16.596913
14.784932
14.405847
15.278459
13.898611
14.112592
13.014674
13.155937
12.405515
11.872649
10.257959
10.569692
10.803938
10.281801
9.611845
9.691715
9.160638
9.777546
9.612441
9.232759
10.082722
9.175539
9.747744
9.285808
10.323524
11.157990
10.532737
12.379885
13.405681
13.898611
14.388561
15.163422
16.147494
17.185807
18.064976
17.622709
16.271472
16.641617
16.184449
16.532540
16.427636
16.409755
15.748739
15.838742
14.938712
15.669465
15.887618
15.324950
15.638471
14.992952
16.222000
14.793873
15.834570
15.235543
##ZVALUE=255
0.784993
0.844598
0.478625
1.121759
0.697970
1.261830
0.772476
1.426935
1.411438
3.916621
12.886524
49.576759
106.751919
235.448480
367.533565
581.689477
744.358897
931.821465
1007.926464
982.136726
881.029963
730.561614
478.327870
312.813520
163.567662
108.649731
90.404749
103.115439
128.145814
141.594410
147.967935
146.217942
134.273767
110.798478
91.499686
66.369772
49.780607
34.251809
26.616454
21.609664
18.960834
18.011928
17.382503
16.625524
16.871691
14.988780
15.179515
14.372468
14.324784
13.659596
12.651682
12.067556
11.569858
12.165904
11.114478
10.331869
9.229779
9.855628
9.182692
8.517504
8.760691
8.970499
8.548498
9.047985
9.017587
8.600950
9.579659
9.910464
10.138750
11.396408
11.053681
12.642741
13.097525
15.192628
15.129447
15.722513
15.751719
15.569925
15.074611
15.133619
15.656948
15.275478
14.828444
14.285445
14.398694
14.543533
13.923645
14.493465
14.742613
14.346838
14.009476
14.863610
14.617443
13.581514
14.218688
14.303923
##ZVALUE=260
0.987649
0.866652
0.932813
0.906587
1.301765
1.025796
1.229644
1.055598
1.439452
1.229644
1.849532
2.429485
6.822944
34.996867
93.005896
231.768489
390.110016
653.748512
882.412791
1015.920639
1015.920639
1015.920639
1015.920639
876.706839
569.936633
380.027890
211.140513
126.317739
86.002946
89.597702
110.489726
134.098530
149.039626
163.342953
157.147646
141.154528
123.010874
91.568828
75.294971
51.741600
39.328933
27.976632
24.013519
20.843744
20.478964
18.321872
18.293858
17.246604
16.081929
14.360547
14.562607
14.401674
12.498498
13.086796
12.355447
10.980964
10.426641
10.622740
10.527968
9.649992
9.861588
9.970665
9.175539
9.174943
9.557605
9.664893
9.834766
9.736419
9.780526
10.547638
11.164546
11.798739
13.061762
13.246536
14.838576
14.161468
14.316440
14.770627
14.047623
14.345646
14.657974
14.156699
13.150573
13.745427
13.662577
13.790727
14.475584
13.755560
13.050437
13.211966
13.858676
13.518929
13.425946
13.270974
13.475418
13.303757
##ZVALUE=265
0.812411
0.681877
0.684857
0.688434
0.945926
0.770688
1.000762
0.940561
1.067519
1.177788
1.419783
1.338720
1.577735
2.020597
4.826784
21.373630
102.154613
197.546482
331.367850
611.193776
834.749937
1015.785933
1015.785933
1015.785933
1015.785933
808.506012
624.985695
384.299755
247.716904
135.176778
90.202689
81.594586
94.412565
124.813914
141.859651
159.888864
163.658857
154.796839
144.574642
119.295716
98.958611
71.188807
53.230524
36.404729
28.594732
21.577477
19.769669
17.840862
16.428828
15.413761
15.385747
13.306737
13.590455
12.681484
11.086464
11.569858
10.314584
10.302663
9.407997
9.917617
9.184480
9.051561
9.118915
8.226633
8.749962
8.101463
8.735657
9.002686
9.480715
9.985566
10.505915
10.656714
12.300611
11.797547
11.802912
11.635423
12.431741
12.462735
12.462735
13.026595
12.632608
11.915565
12.243986
12.419820
12.494922
11.900663
12.138486
12.532473
12.547970
12.716651
11.739731
12.466908
12.041926
12.429953
12.351871
12.411475
##ZVALUE=270
0.665784
0.435710
0.541806
0.630617
0.785589
0.645518
0.698566
0.867844
0.739694
0.714660
0.739694
0.982881
1.103878
1.162887
1.227856
1.510978
1.776814
8.501410
27.788877
93.639493
185.381770
320.183635
557.778478
735.653639
914.754868
964.517593
917.908549
813.349485
624.990463
466.595888
321.844816
175.653696
111.533999
72.875619
73.603988
97.121596
119.041800
142.466426
156.101584
162.252784
158.681870
139.880776
120.142698
91.112852
69.914460
46.686530
33.204556
23.753643
18.620491
15.612841
13.912916
13.039708
12.388825
11.841655
11.057854
10.331869
10.243654
9.853840
9.311438
9.582639
8.941889
8.982420
9.341836
8.764863
8.652806
8.519888
8.539557
8.196831
8.958578
9.136796
9.055734
9.539723
9.458661
10.084510
10.056496
10.421872
10.562539
11.135936
10.638833
10.480881
10.942817
10.883808
11.211634
11.076927
11.200905
10.622740
11.368990
11.429787
10.816455
10.889769
11.203885
11.036992
11.262894
11.272430
11.514425
11.205673
##ZVALUE=275
0.572801
0.549555
0.724792
0.841618
0.766516
0.451803
0.675917
0.814795
0.615716
0.808835
0.702739
0.866652
0.690818
0.809431
0.868440
0.956655
1.193881
1.346469
1.382828
3.492832
11.956692
37.710667
110.468864
224.111676
442.025661
621.323586
838.540792
961.173773
1002.434492
940.369964
808.336735
588.592887
410.898924
224.512815
133.399963
72.179437
57.792664
67.202449
84.072948
111.714602
129.909515
147.245526
152.462721
149.618983
133.537650
107.175708
87.974668
63.190460
45.791864
29.255748
20.695925
14.566779
12.792945
10.813475
10.477901
9.808540
10.118484
9.509921
9.604692
9.051561
9.359717
9.133816
9.542704
9.026527
9.396672
9.005666
9.499788
9.201765
9.379983
9.727478
10.132790
10.288954
10.512471
11.020899
11.201501
11.046529
11.058450
11.073947
11.071563
10.838509
10.854602
10.653734
10.915995
11.144876
10.920763
10.650754
10.758638
10.266900
10.308623
10.795593
10.030866
10.326505
10.727644
10.266900
10.315776
10.879636
##ZVALUE=280
0.576973
0.437498
0.621676
0.448823
0.513792
0.529885
0.701547
0.728965
0.655651
0.693798
0.650883
0.813603
0.755787
0.840425
0.749826
0.696778
1.027584
0.923872
0.936985
1.403689
1.055598
1.726747
7.845759
25.436878
88.375807
174.845457
360.388756
541.383624
799.788833
969.848633
1015.789509
1015.789509
913.113952
680.740476
495.413542
278.148651
165.476799
78.637600
48.481822
43.477416
56.101680
78.688860
100.206733
124.334693
139.206648
143.626928
138.391852
120.990872
104.871988
77.435970
58.635473
37.984848
26.450753
16.548634
12.222528
9.961724
9.436607
9.146929
9.440780
8.981824
9.132624
9.370446
9.038448
9.382963
9.545684
9.901524
10.188818
9.819865
10.327697
10.561943
10.959506
11.087656
11.153817
10.889769
11.523962
11.625886
11.461973
10.907650
11.647940
11.315942
11.047721
11.441708
11.070967
10.898709
10.467768
10.594726
10.385513
10.779500
11.350513
10.453463
10.335445
10.815859
10.433793
9.849668
10.272861
9.911656
##ZVALUE=285
0.540614
0.624657
0.551939
0.463724
0.472665
0.425577
0.566840
0.591874
0.682473
0.609756
0.610948
0.539422
0.751615
0.783801
0.837445
0.832677
0.773668
1.030564
0.962615
0.918508
1.207590
1.112819
1.404881
1.603961
3.913641
12.732744
46.404600
103.391409
249.732733
411.725640
595.656633
858.277678
1005.674005
1015.785933
1004.993916
817.361474
624.051690
378.711820
234.162807
108.837485
56.204796
31.270981
33.250451
51.230788
68.432689
94.699860
114.662647
130.481720
136.920810
133.385658
121.922493
100.899935
80.467463
56.200624
41.047931
24.957657
17.826557
12.262464
10.858774
9.927750
9.845495
9.897947
10.045767
10.553598
10.683537
11.100769
11.096597
11.174679
11.512637
11.266470
12.528896
12.454987
12.530684
12.717843
12.283921
12.193918
12.429953
12.124777
12.264848
12.042522
11.838675
11.826754
11.940598
11.348724
11.355877
11.636615
11.065602
11.263490
11.182427
10.593534
10.667443
10.395646
10.290742
10.211468
10.636449
10.500550
##ZVALUE=290
0.522733
0.403523
0.553727
0.569820
0.426769
0.665784
0.699759
0.569820
0.853539
0.522733
0.516772
0.690818
0.756979
0.858903
0.665784
0.780821
0.698566
0.811815
0.836849
0.812411
1.018643
1.103878
1.094937
1.255870
1.510978
1.551509
2.118945
5.624890
25.836825
61.964989
154.969692
275.451541
491.978526
678.426623
892.937779
990.822911
981.864929
884.909034
679.494739
501.029491
291.081667
169.993639
72.830915
36.497712
23.809671
29.117465
46.258569
63.197613
87.831616
106.879473
125.234723
132.010579
130.065680
119.389892
98.103881
78.852773
55.161715
40.240884
26.150942
19.587874
14.359951
12.347698
11.801720
11.737943
11.819601
12.040734
12.674928
12.203455
12.953877
12.726784
13.207793
13.321638
13.126731
13.194680
13.175607
13.187528
12.757778
13.368726
12.984872
12.641549
12.477636
12.044907
12.562871
12.191534
12.094975
11.787415
11.084676
11.521578
10.983944
10.862947
10.380745
10.746717
10.675788
10.249615
10.712743
9.799600
##ZVALUE=295
0.418425
0.494719
0.460744
0.421405
0.456572
0.440478
0.531673
0.650883
0.599623
0.409484
0.506639
0.580549
0.656843
0.575781
0.628829
0.536442
0.547767
0.660419
0.617504
0.894666
0.726581
0.842810
0.695586
0.845790
1.029968
0.807643
1.150966
1.064539
1.398921
2.445579
11.824965
34.731627
99.643469
186.803937
358.243585
508.868694
702.009797
818.794966
874.933004
846.585035
710.679889
565.810800
354.570746
222.766995
99.542737
48.775673
21.929741
19.415617
27.466416
40.643811
61.667562
80.784559
103.891492
117.459893
127.461553
126.044750
112.750530
98.392963
77.321529
60.906410
41.494966
30.253530
20.975471
16.044974
13.667941
13.120770
12.748837
13.462901
13.221502
13.547540
13.135672
13.364553
13.321638
13.971925
13.708472
13.934970
13.920665
13.924837
13.271570
13.258457
13.208985
12.786984
12.903810
12.556911
11.866689
12.043715
12.077689
11.955500
11.500716
10.996461
10.907650
10.795593
10.283589
10.060668
9.737611
10.199547
##ZVALUE=300
0.385642
0.406504
0.419617
0.617504
0.356436
0.424981
0.472665
0.388622
0.637770
0.479817
0.434518
0.665784
0.459552
0.566840
0.381470
0.519753
0.559688
0.571609
0.636578
0.712872
0.607967
0.693798
0.656843
0.736713
0.933409
0.901818
0.869632
1.053810
1.002550
1.035929
1.450777
1.491904
3.804564
21.836758
55.155754
142.140985
244.724751
432.786942
580.652952
750.414729
829.920769
825.492740
747.427940
570.840836
424.567461
242.399573
146.616697
65.435767
32.794476
16.396642
16.783476
26.088953
37.044883
57.105422
75.116754
99.473596
112.503767
121.644735
122.965574
111.069679
97.446442
75.984597
60.362816
42.247772
30.735731
21.072626
16.865730
14.904737
13.357997
13.492703
13.738871
13.892651
13.858676
13.586879
14.014840
13.997555
13.456941
13.779998
13.925433
13.313890
13.508797
13.055801
12.861490
12.613535
12.258887
12.479424
12.182593
11.255741
11.564493
11.317730
10.789633
11.024475
10.732412
10.170937
10.503531
10.212660
##ZVALUE=305
0.534654
0.405908
0.553727
0.531673
0.273585
0.255704
0.364780
0.453591
0.407696
0.370741
0.393987
0.394583
0.427961
0.375509
0.445843
0.624657
0.627637
0.578761
0.713468
0.562668
0.581741
0.542998
0.716448
0.755787
0.740886
0.688434
0.949502
0.661612
0.933409
1.026988
1.082420
0.937581
1.227856
1.388788
2.365708
12.431741
35.692453
103.648901
188.587904
355.609655
500.766635
684.946775
786.672831
832.147002
781.931877
627.554655
492.810011
316.833854
200.001001
92.822909
47.182441
19.033551
13.473630
16.682744
23.699403
38.990974
53.781867
76.150894
91.979504
109.178424
117.237568
115.952492
108.497739
91.991425
75.424910
55.323839
41.731000
27.609468
21.412969
16.470551
14.225841
13.226867
13.608932
12.601614
12.902617
13.029575
12.809634
12.873411
12.998581
12.507439
12.275577
12.445450
12.664795
12.379885
12.360811
12.112856
12.029409
11.870861
11.300445
11.072755
11.260509
10.814667
10.629892
10.353923
10.293722
10.049939
##ZVALUE=310
0.350475
0.376701
0.351667
0.436902
0.343919
0.288486
0.433922
0.317693
0.269413
0.470877
0.337958
0.392795
0.412464
0.403523
0.284910
0.398755
0.496507
0.383854
0.499487
0.334978
0.421405
0.577569
0.525713
0.576973
0.599623
0.619888
0.733733
0.578761
0.742674
0.807643
0.790954
0.676513
0.847578
0.808835
1.071692
1.157522
1.353621
5.118847
17.592907
60.952902
121.927857
254.901648
397.724509
594.868660
720.454454
820.285678
815.847516
717.599988
596.749783
404.601693
273.670554
139.901638
77.092648
29.765964
14.851689
11.842847
14.911890
23.427606
32.638907
49.435496
64.606667
85.016489
97.534657
107.709765
109.192729
101.922750
90.333819
72.493553
57.220459
38.588643
29.037595
20.187497
16.233921
12.935996
12.391806
11.993647
12.005568
11.507869
12.126565
12.011528
11.755824
12.043715
12.126565
11.982918
11.360645
11.973977
11.624694
11.424422
11.043549
10.824800
10.795593
10.736585
10.728836
10.169744
10.352731
9.965897
##ZVALUE=315
0.417829
0.460744
0.467896
0.513792
0.488758
0.512600
0.563860
0.475645
0.548959
0.435710
0.329614
0.563860
0.478625
0.401735
0.405908
0.461936
0.390410
0.453591
0.422597
0.624657
0.599623
0.611544
0.613928
0.549555
0.395775
0.677705
0.598431
0.706911
0.703931
0.625849
0.759959
0.781417
0.709891
0.765920
0.954866
0.801682
1.072884
1.308918
1.200438
2.603531
9.063482
37.819743
84.162951
193.935633
319.943428
516.587496
648.409724
776.468515
818.004608
762.220621
661.236644
483.386517
343.424678
186.311007
102.684498
40.650964
19.445419
10.840893
10.612607
14.388561
19.543767
31.384826
43.955445
61.482787
76.958537
94.460845
102.010965
104.246736
96.886754
82.530975
70.184469
52.442551
40.276647
26.181936
19.832850
14.742613
12.725592
11.551976
11.331439
11.224747
10.855794
11.042953
11.020899
11.155605
10.760427
11.081696
10.534525
10.819435
10.918975
10.388494
10.528564
10.448694
9.981990
10.011792
10.181665
9.752512
##ZVALUE=320
0.313520
0.293851
0.324845
0.330806
0.407696
0.283718
0.382662
0.385642
0.245571
0.332594
0.436902
0.482798
0.378489
0.417829
0.280738
0.305772
0.525713
0.397563
0.403523
0.216961
0.169873
0.340939
0.416636
0.427961
0.592470
0.387430
0.539422
0.608563
0.563860
0.742674
0.601411
0.647902
0.804663
0.636578
0.615716
0.722408
0.854731
0.675917
0.936985
0.972748
1.134872
1.305938
3.887415
20.890832
54.808855
145.497918
243.848562
408.569574
548.598766
718.219876
793.199539
794.050694
718.740821
557.969809
415.033698
236.068964
136.801004
59.317946
28.148890
11.377931
8.997917
9.290576
11.789799
17.817616
25.117993
40.782690
54.091811
72.372556
84.965825
94.758868
97.602606
91.424584
81.010461
64.302683
50.714612
34.665465
25.643706
18.235445
13.726950
11.285543
10.532737
10.493994
10.328889
9.995699
10.180473
10.459423
10.157824
10.211468
9.980798
10.003448
9.916425
9.975433
10.108948
9.807944
9.318590
9.609461
##ZVALUE=325
0.314713
0.269413
0.321865
0.349879
0.282526
0.301600
0.400543
0.397563
0.262856
0.378489
0.243783
0.300407
0.222921
0.429749
0.455976
0.475645
0.408888
0.524521
0.522733
0.511408
0.554919
0.448823
0.473857
0.464916
0.460744
0.448823
0.607967
0.468493
0.383854
0.468493
0.535846
0.566840
0.712872
0.643730
0.753999
0.652671
0.646710
0.871420
0.906587
0.852942
0.961423
1.008511
1.028776
1.330972
2.270937
13.442636
36.047697
99.117756
178.392529
333.962440
470.728874
647.636652
745.361447
787.990689
739.390850
598.518848
460.214615
282.803774
174.606442
77.456832
38.301945
13.977885
8.500814
7.645488
8.763671
11.421442
15.776753
25.489926
36.670566
54.448843
67.700744
81.604719
88.966489
90.290904
85.245967
72.788596
60.962439
45.188665
34.230947
23.044944
17.054677
12.705922
11.338592
10.504723
9.749532
9.728670
9.601712
9.664893
9.461641
9.933710
9.337664
9.772778
9.796619
9.811521
9.538531
9.396672
##ZVALUE=330
0.522733
0.600815
0.578761
0.639558
0.496507
0.422597
0.375509
0.374913
0.407696
0.509620
0.474453
0.350475
0.254512
0.549555
0.373721
0.508428
0.460744
0.654459
0.531673
0.576973
0.562668
0.613928
0.535846
0.689626
0.684857
0.757575
0.569820
0.638962
0.650883
0.750422
0.617504
0.598431
0.743866
0.748634
0.695586
0.813603
0.855923
0.946522
0.838637
1.047850
0.945926
0.994802
1.042485
1.066923
1.274943
1.128912
1.695752
6.426573
19.941926
66.132545
127.498507
257.994533
381.586552
564.113855
680.104494
763.025880
750.104785
644.138455
520.345569
341.388583
220.931768
107.291937
54.888725
21.008849
10.351539
7.265806
7.433891
8.391738
10.689497
16.558766
23.472905
36.002994
47.289729
66.113472
75.935721
84.644556
85.866451
79.695582
71.541667
56.042671
44.072866
30.725598
23.177862
17.008781
14.153719
11.223555
10.546446
10.052919
9.666681
9.562969
9.210706
9.298921
9.736419
9.257793
8.977652
9.219646
##ZVALUE=335
0.455976
0.359416
0.404716
0.429749
0.360608
0.345707
0.472665
0.504851
0.530481
0.514984
0.375509
0.510812
0.615716
0.427961
0.442863
0.460744
0.323653
0.468493
0.424981
0.371933
0.353456
0.521541
0.491738
0.492930
0.600815
0.504851
0.617504
0.607967
0.546575
0.660419
0.554919
0.531673
0.573993
0.756979
0.695586
0.553727
0.841618
0.679493
0.647902
0.677705
0.849962
0.595450
0.799894
1.015663
0.793934
0.966787
1.084805
1.178980
1.340508
3.061891
10.975599
42.063594
89.072585
193.367600
312.620997
495.705009
619.876981
727.514029
747.638941
677.905679
573.507547
401.545763
276.258588
145.120621
77.207685
28.114915
13.258457
7.721782
7.122755
7.548928
8.504987
10.653734
14.978647
24.495721
33.714771
48.582554
60.784817
72.641969
78.803897
80.567002
75.643659
64.869523
54.945946
43.034554
33.095479
23.238659
18.123984
13.311505
11.455417
9.942651
9.370446
8.974671
9.140968
9.231567
9.211898
8.968711
##ZVALUE=340
0.372529
0.288486
0.318885
0.456572
0.376701
0.440478
0.367761
0.434518
0.325441
0.225902
0.336766
0.419617
0.367761
0.480413
0.319481
0.252724
0.254512
0.253916
0.677705
0.460744
0.378489
0.359416
0.333786
0.459552
0.484586
0.459552
0.379682
0.418425
0.596642
0.434518
0.430942
0.393987
0.403523
0.445843
0.507832
0.474453
0.643730
0.483990
0.607967
0.657439
0.696778
0.746846
0.851750
0.890493
0.675917
0.846982
0.908971
0.780821
0.951886
1.071692
1.098514
1.598597
4.983544
26.552677
64.067841
154.568553
256.721973
419.284701
545.523763
675.839782
720.039010
691.741705
608.800650
454.847813
321.604609
171.513557
96.494555
40.691495
18.180609
8.208752
7.315874
7.247925
7.384419
8.579493
10.592937
15.899539
22.173524
33.095479
44.073462
58.962703
67.942739
74.398518
74.901581
71.124434
63.975453
52.495599
42.811632
30.204654
23.603439
16.899705
13.093948
10.115504
9.492636
8.932948
8.672476
8.592606
##ZVALUE=345
0.332594
0.477433
0.210404
0.346899
0.503659
0.429749
0.318885
0.441670
0.456572
0.417829
0.258684
0.382662
0.289679
0.457764
0.321865
0.437498
0.541806
0.439882
0.360608
0.374913
0.355840
0.274777
0.443459
0.424981
0.429749
0.340939
0.433922
0.425577
0.442863
0.476837
0.351667
0.369549
0.413656
0.276566
0.309944
0.463724
0.537634
0.445843
0.393987
0.583529
0.373721
0.656843
0.613928
0.674725
0.527501
0.831485
0.848770
0.709891
0.732541
0.786781
0.794530
1.012683
1.012683
1.161695
2.274513
13.937950
39.212704
105.214715
185.879469
337.125659
459.882617
611.115694
684.763789
700.645447
648.467541
508.375764
379.313827
218.439698
127.840638
56.103468
25.914907
10.061860
7.302761
7.200837
6.993413
7.280707
7.838607
10.102987
13.938546
21.339655
29.656887
41.980743
51.805973
62.735677
68.141818
69.839954
66.625476
59.344769
51.818490
40.219426
31.619668
22.032857
16.943812
12.698770
10.451674
9.142756
##ZVALUE=350
0.213981
0.252724
0.231862
0.331998
0.375509
0.345707
0.273585
0.378489
0.356436
0.394583
0.388622
0.210404
0.456572
0.324845
0.429749
0.326633
0.423789
0.321865
0.398755
0.205636
0.293851
0.217557
0.594854
0.389814
0.367761
0.424981
0.486970
0.533462
0.364780
0.528693
0.520945
0.523925
0.481606
0.516772
0.418425
0.314713
0.547767
0.504851
0.427961
0.689626
0.343919
0.445843
0.606775
0.648499
0.594854
0.662804
0.657439
0.832677
0.698566
0.705719
0.921488
0.627637
0.851750
0.971556
0.909567
1.133680
1.378655
6.935000
21.904707
69.400668
131.991506
261.604786
379.570723
532.412529
626.230836
684.174895
659.271479
550.278425
426.324010
259.729624
158.900619
71.221590
33.535957
11.848807
7.571578
6.671548
6.546974
6.434917
7.033944
7.670522
9.345412
14.262795
18.674731
26.817918
34.857988
46.341419
54.454803
61.956644
63.771605
62.210560
57.304502
46.993494
38.946867
28.363466
22.362471
15.671849
##ZVALUE=355
0.246763
0.313520
0.372529
0.306964
0.319481
0.214577
0.250936
0.426769
0.373721
0.319481
0.314713
0.368953
0.280738
0.442863
0.378489
0.401735
0.344515
0.389814
0.523925
0.521541
0.359416
0.468493
0.432730
0.308752
0.317693
0.298619
0.279546
0.362992
0.411868
0.415444
0.360608
0.327826
0.355840
0.293851
0.441670
0.471473
0.507832
0.474453
0.428557
0.371933
0.478625
0.552535
0.511408
0.548959
0.628829
0.538826
0.583529
0.449419
0.568628
0.731945
0.579953
0.746846
0.566840
0.792742
0.912547
0.975728
0.825524
0.976920
1.133680
3.241897
11.489987
44.648647
92.396736
194.665790
307.469964
469.532609
575.147867
657.199621
660.591722
567.971468
464.391708
313.637853
201.428533
91.415644
45.296550
15.716553
8.209944
6.162524
6.071925
6.127954
6.301999
6.522536
7.199645
8.648634
11.305809
16.793609
22.455454
32.188892
39.951801
48.931837
55.093765
58.103800
57.565570
51.052570
45.333505
36.478639
##ZVALUE=360
0.322461
0.409484
0.407696
0.340939
0.413656
0.417829
0.285506
0.365973
0.349879
0.400543
0.263453
0.191927
0.335574
0.264645
0.299811
0.308752
0.405908
0.207424
0.371933
0.296831
0.401735
0.503659
0.453591
0.287890
0.330806
0.397563
0.373721
0.351667
0.288486
0.360608
0.382662
0.525713
0.406504
0.502467
0.417829
0.377893
0.461936
0.322461
0.426769
0.498891
0.476837
0.492930
0.436902
0.560880
0.456572
0.453591
0.488758
0.660419
0.551939
0.541806
0.585914
0.580549
0.566840
0.669956
0.630617
0.678897
0.755787
0.753999
0.898838
0.951886
0.949502
1.719594
4.842877
21.983981
54.689646
135.285854
225.054622
369.948745
489.092469
607.295632
639.770031
601.570606
514.089465
355.515480
240.391493
120.382905
64.271688
25.153756
11.136532
6.279945
5.893707
5.809665
6.054640
6.012917
5.849600
6.250739
7.011890
9.776950
13.007522
19.061565
25.571585
34.786463
41.327477
49.196482
52.040815
52.299500
##ZVALUE=365
0.382662
0.456572
0.374913
0.191927
0.326633
0.219941
0.403523
0.304580
0.420809
0.285506
0.146627
0.240803
0.344515
0.373721
0.359416
0.281930
0.333786
0.314713
0.383854
0.404716
0.383854
0.456572
0.375509
0.362992
0.416636
0.290871
0.396967
0.327826
0.425577
0.523925
0.421405
0.335574
0.409484
0.477433
0.433922
0.521541
0.422597
0.459552
0.450611
0.495911
0.483990
0.466704
0.432730
0.484586
0.499487
0.428557
0.452995
0.554919
0.602603
0.556707
0.634789
0.647902
0.588894
0.567436
0.689626
0.621676
0.660419
0.665784
0.746846
0.748634
0.874996
0.977516
1.084805
1.137853
2.222657
12.238622
33.305883
88.553429
163.819790
305.094719
419.359803
547.253489
609.107614
605.961680
539.670587
400.683880
288.669467
164.135695
91.512799
35.895705
15.970469
6.707907
5.578995
5.406737
5.288720
5.331635
5.228519
5.358458
5.448461
6.339550
7.885695
11.460781
15.434623
22.595525
28.400421
36.725998
##ZVALUE=370
0.391603
0.417829
0.281930
0.317693
0.306964
0.345707
0.155568
0.295639
0.328422
0.263453
0.295639
0.306964
0.414848
0.367761
0.321865
0.281930
0.313520
0.352859
0.172853
0.350475
0.374913
0.423789
0.402927
0.421405
0.428557
0.286698
0.299811
0.325441
0.500679
0.268817
0.312924
0.301600
0.357628
0.364780
0.319481
0.242591
0.234842
0.356436
0.282526
0.329614
0.294447
0.369549
0.517964
0.278950
0.524521
0.422597
0.549555
0.490546
0.518560
0.502467
0.376701
0.483990
0.451803
0.514984
0.586510
0.666976
0.619888
0.684857
0.745654
0.566840
0.606775
0.693798
0.803471
0.837445
1.018643
1.038909
1.436472
4.839897
25.287867
60.163736
142.907500
229.713917
371.689796
481.311679
581.637621
607.684851
555.331707
464.544892
314.900875
207.438469
99.931955
52.698851
21.308661
9.853840
5.559921
5.050898
4.805923
4.856586
5.071759
4.615784
4.617572
4.858971
5.403757
7.064939
9.759665
13.158917
##ZVALUE=375
0.234842
0.326633
0.375509
0.349879
0.337958
0.237823
0.316501
0.413656
0.393987
0.405908
0.459552
0.313520
0.397563
0.243783
0.259876
0.311732
0.353456
0.205636
0.323653
0.331998
0.283718
0.260472
0.457764
0.386834
0.301600
0.449419
0.333786
0.420809
0.478625
0.437498
0.456572
0.439882
0.464916
0.571609
0.454783
0.376701
0.471473
0.430942
0.341535
0.559688
0.387430
0.373721
0.526905
0.515580
0.584722
0.481606
0.375509
0.547767
0.588894
0.544786
0.352859
0.571609
0.484586
0.445843
0.519753
0.565648
0.556707
0.406504
0.576973
0.591874
0.692606
0.686646
0.550747
0.735521
0.841618
0.853539
0.863671
0.901818
1.123548
2.967715
10.421872
37.651658
82.433820
185.260773
291.016698
440.683961
533.636808
601.677895
590.331554
497.677922
388.736725
242.365003
155.738592
78.484416
40.535927
14.022589
6.808639
4.753470
4.671812
4.541874
4.544854
4.372597
4.204512
4.578829
4.558563
5.042553
##ZVALUE=380
0.226498
0.319481
0.254512
0.424981
0.409484
0.326633
0.249743
0.431538
0.293851
0.307560
0.146627
0.242591
0.388622
0.245571
0.201464
0.445843
0.282526
0.259876
0.387430
0.280738
0.281930
0.406504
0.146627
0.370741
0.226498
0.301600
0.200868
0.417829
0.272989
0.409484
0.370741
0.287890
0.424981
0.312924
0.463724
0.393987
0.339746
0.370741
0.226498
0.415444
0.508428
0.348687
0.556707
0.458956
0.392795
0.415444
0.267625
0.448823
0.321865
0.420809
0.491738
0.389814
0.499487
0.244975
0.243783
0.481606
0.555515
0.638962
0.607967
0.474453
0.625849
0.585914
0.616908
0.640750
0.524521
0.604987
0.744462
0.757575
0.888705
0.812411
1.062751
1.743436
5.562901
26.898980
62.927604
147.708654
240.942836
382.468700
488.042831
581.387877
590.703487
520.741940
435.620546
308.189988
209.259987
106.611848
56.442618
20.794868
9.602904
4.921556
4.201531
3.972650
4.232526
4.114509
4.003644
4.004836
##ZVALUE=385
0.382662
0.322461
0.357628
0.297427
0.406504
0.225902
0.399947
0.395775
0.359416
0.306964
0.431538
0.450611
0.371933
0.329614
0.474453
0.349879
0.450611
0.534654
0.420809
0.477433
0.336766
0.597835
0.391603
0.345707
0.448823
0.417829
0.355840
0.447631
0.530481
0.557899
0.497699
0.529885
0.400543
0.460744
0.407696
0.470877
0.335574
0.485778
0.314713
0.307560
0.414848
0.366569
0.393987
0.383854
0.498891
0.394583
0.382662
0.465512
0.545979
0.512600
0.375509
0.524521
0.613928
0.498891
0.649691
0.476837
0.748634
0.728965
0.490546
0.477433
0.437498
0.576973
0.538826
0.623465
0.570416
0.657439
0.672936
0.745654
0.738502
0.966787
0.890493
1.083612
0.991821
1.287460
2.830625
15.457869
39.707422
99.988580
177.823901
318.465829
427.584648
540.141463
575.747490
559.736490
497.800708
370.457768
267.237425
147.634745
86.419582
35.790801
15.683770
5.664825
4.095435
4.152656
3.906488
3.934503
##ZVALUE=390
0.094771
0.108480
-0.068545
0.018477
-0.015497
-0.057817
0.189543
-0.017881
0.099540
0.153780
0.135899
0.104904
0.137687
0.120997
0.166893
0.063777
0.096560
0.238419
0.139475
0.166893
0.064969
-0.005960
0.031590
0.180602
-0.026822
0.062585
0.115633
0.151992
0.120997
0.138879
0.145435
0.195503
0.253916
0.249743
0.075698
0.274777
0.246763
0.133514
0.210404
0.183582
0.187755
0.251532
0.131726
0.175834
0.219941
0.275970
0.174642
0.108480
0.284910
0.189543
0.176430
0.295639
0.284910
0.340939
0.153780
0.326633
0.222921
0.215769
0.320673
0.209808
0.396967
0.201464
0.275970
0.213981
0.214577
0.475645
0.478625
0.530481
0.474453
0.591874
0.523925
0.661612
0.649691
0.651479
0.883937
0.938773
1.403689
7.552505
24.216771
75.525641
142.407417
269.491673
371.762514
485.937595
552.612543
578.298569
540.048480
433.663726
333.348513
206.988454
122.286677
51.404834
24.286509
8.509755
4.586577
3.477931
##ZVALUE=395
0.015497
0.233650
0.249743
0.079870
0.010729
0.153780
0.052452
0.165701
0.185966
0.129938
0.100732
0.304580
0.329614
0.224710
0.209808
0.140667
0.226498
0.268817
0.295639
0.313520
0.155568
0.176430
0.145435
0.167489
0.102520
0.220537
0.247955
0.223517
0.193715
0.200868
0.107884
0.315905
0.384450
0.276566
0.350475
0.225902
0.191927
0.405908
0.359416
0.385642
0.316501
0.268817
0.170469
0.326633
0.125766
0.249743
0.193715
0.304580
0.126958
0.199676
0.189543
0.478625
0.241995
0.364780
0.324845
0.429749
0.306964
0.203848
0.331998
0.324845
0.329614
0.361800
0.351667
0.429749
0.598431
0.546575
0.547767
0.451803
0.586510
0.619888
0.547767
0.845790
0.583529
0.545979
0.594854
0.497699
0.764728
0.723600
1.092553
4.158616
15.402436
54.398775
103.601813
198.334455
296.979547
439.204574
528.234839
585.845709
577.885509
495.743752
392.413735
248.951912
157.342553
70.702434
34.734607
12.211800
##ZVALUE=400
0.085831
0.219941
0.049472
0.144839
-0.001788
0.103712
-0.007749
0.096560
-0.060797
0.024438
0.150800
0.066757
0.195503
0.225902
0.112653
0.153780
0.084639
0.021458
0.129938
0.084639
0.113845
0.072718
-0.030994
0.088811
0.095963
0.062585
0.101924
0.058413
0.165701
0.185966
0.181794
0.184774
0.264645
0.245571
0.156760
0.242591
0.086427
0.061989
0.134706
0.078678
0.174642
0.158548
0.190735
0.126958
0.245571
0.227690
0.158548
0.308752
0.188947
0.185966
0.119805
0.153780
0.198483
0.120997
0.215769
0.103712
0.127554
0.190735
0.328422
0.176430
0.255704
0.267625
0.273585
0.180602
0.315905
0.149608
0.374913
0.494719
0.463724
0.570416
0.545979
0.582933
0.581741
0.441670
0.487566
0.550747
0.580549
0.417829
0.757575
0.906587
0.988841
2.238750
7.941723
30.159950
65.829754
149.500966
239.527822
377.926826
472.012758
552.841425
570.487976
508.013964
421.769619
284.514427
188.958645
97.739697
##END
