##TITLE=FQP00601
##FORMAT=SPECTACLE-ASCII V-1.2
##DATA TYPE=ULTRAVIOLET SPECTRUM
##SECOND TYPE=ULTRAVIOLET SPECTRUM
##DATE=02/01/18
##TIME=15:06:15
##SPECTROMETER/DATA SYSTEM=SPECTACLE
##XUNITS=NM EM
##YUNITS=ENERGY
##YFACTOR=1
##FIRSTX=220
##LASTX=410
##NPOINTS=96
##3DDATA=Equidistant
##ZUNITS=NM EX
##FIRSTZ=210
##LASTZ=400
##ZPOINTS=39
##XYDATA=(Y..Y)
##ZVALUE=210
1.217723
1.047850
1.550913
1.320839
1.525879
1.702905
1.600981
1.666546
1.436472
1.793504
1.641512
1.874566
1.378655
1.034737
1.559854
1.893640
1.971722
2.078414
2.078414
1.986623
2.217889
1.840591
2.210736
2.725720
2.268553
2.143979
2.893806
2.462864
3.630519
3.520846
2.824664
3.329515
3.886819
3.932714
3.587604
3.750920
3.429651
4.055500
3.997684
3.680587
3.314614
4.297495
3.987551
3.535748
3.910661
3.934503
3.505945
3.423691
2.870560
3.739595
3.098845
3.264546
4.765987
3.880858
3.409982
3.594756
3.412962
3.673434
3.797412
3.653765
3.702641
3.728867
3.893971
4.060864
3.709793
4.100800
4.027486
4.940629
5.118847
6.392598
6.931424
7.546544
8.412600
8.509755
9.410977
9.950995
10.304451
10.355711
9.392500
10.340810
7.335544
7.290840
6.373525
6.068945
5.125999
4.688501
4.349947
3.641844
4.224777
4.227757
3.640652
4.370809
3.890991
4.034638
4.439950
4.811883
##ZVALUE=215
4.528761
4.538894
4.813671
3.906488
3.674626
3.565550
3.887415
4.019737
3.927946
4.603863
3.670454
3.664494
2.612472
2.875924
1.861453
2.057552
1.740456
1.717806
2.004504
2.427697
2.441406
2.390742
2.452731
2.352595
2.583861
2.744794
2.750754
3.464818
3.927946
3.409982
3.572702
5.128980
3.939867
4.701614
4.725456
4.789829
4.769564
5.027652
4.637837
4.429817
5.329847
4.378557
3.730655
4.408956
4.399419
3.798604
3.925562
4.914999
4.329681
4.213452
4.075766
4.703999
3.978610
4.298687
4.428625
4.689693
3.978610
4.503727
4.438758
4.341602
4.122853
4.305840
4.501939
4.631877
4.977584
5.174875
3.960729
5.144477
4.861951
5.783439
7.123947
7.288456
9.044409
8.369684
9.550452
10.224581
10.569692
10.072589
9.459853
9.264946
8.420944
8.580685
7.253885
5.601645
5.383492
4.515648
4.485846
4.545450
4.711747
3.859997
4.702806
3.988743
3.927946
4.064441
4.024506
4.463792
##ZVALUE=220
17.925501
17.326474
17.952919
19.724965
16.885996
13.496876
11.032820
9.181499
9.063482
9.326935
9.313822
9.698868
9.715557
9.608865
7.785559
6.142855
5.022883
3.604889
2.883673
2.715588
2.410412
2.158880
3.083944
2.532601
3.038645
3.686547
3.343821
4.430413
4.647970
5.152822
5.317926
6.245971
5.932450
7.543564
5.618930
6.347895
6.656647
6.500483
6.235838
6.722808
5.903840
5.718470
6.509423
5.870461
5.435944
6.420612
5.457997
5.699992
5.449653
5.486608
5.051494
5.454421
5.168915
4.999638
5.809665
5.406737
5.733967
4.468560
5.064607
5.990863
5.899668
6.001592
4.925728
4.632473
4.874468
4.944801
4.871488
6.457567
6.734729
6.975532
8.018613
9.012818
9.695888
9.112954
10.421872
10.153651
10.589957
10.344982
10.776520
9.911656
9.139776
9.330511
9.026527
7.133484
7.480979
6.313920
7.163882
6.302595
6.021857
5.679727
6.162524
5.445480
5.844831
5.882978
5.978942
5.710721
##ZVALUE=225
28.799772
28.738976
41.456819
54.654479
57.164431
56.472421
52.534938
43.394566
33.844709
25.330782
22.620559
21.499991
23.258924
25.138855
23.916960
23.463964
18.157959
15.592575
9.935498
7.547736
5.727410
3.456473
3.179908
3.093481
4.266500
4.208684
4.720688
4.673600
5.432963
6.078482
6.590486
7.893443
8.418560
8.729696
8.867979
8.782744
9.801984
8.247495
8.844733
8.497834
8.334517
8.783937
8.270741
7.329583
6.900430
7.022619
6.291866
7.382631
7.109642
7.414818
6.529689
6.020665
6.976724
7.309914
7.154942
6.237626
6.663799
6.849766
7.184744
7.391572
6.940961
6.773472
7.138848
6.716847
8.645654
6.228685
7.131696
7.942915
9.793639
9.621978
10.662675
11.411905
11.742711
11.535883
12.735724
12.580752
12.742877
12.751818
13.102889
12.321472
12.233853
12.357831
10.741949
10.083914
10.786653
9.891987
10.453463
9.766817
8.600950
9.439588
9.960532
9.413958
9.128451
8.485913
8.350611
9.051561
##ZVALUE=230
26.423931
27.204752
51.119924
74.012876
104.759932
128.434896
147.970915
143.397450
128.531456
106.913447
76.516867
59.491992
47.033429
41.932464
43.057799
45.853853
48.910975
48.466921
41.365623
32.175779
27.737617
19.190907
11.645555
7.918477
4.949570
5.041957
4.561543
4.506707
5.852580
6.141663
6.787777
8.272529
9.445548
11.004806
8.896589
10.023713
9.351969
9.858608
9.598732
9.095669
9.993911
8.836985
8.554459
8.789897
8.586645
7.770658
7.951856
8.215904
7.650852
8.152723
8.946657
8.831620
8.628964
8.444786
8.360744
8.342862
9.368658
10.110736
9.443760
11.735559
9.701848
10.786653
10.180473
10.920763
11.097789
10.759830
12.615919
12.037754
13.407469
13.647676
14.408827
16.130805
17.173886
18.281937
17.301440
18.456578
18.728971
19.208789
19.213557
18.355846
17.098784
18.308759
18.378496
18.147826
17.452836
15.724897
15.659928
15.738606
15.120506
15.581846
15.444756
15.770793
14.155507
15.961528
14.621615
14.690757
##ZVALUE=235
11.402965
9.931922
31.495690
56.404471
108.961463
161.940455
229.232907
279.532671
306.805968
310.463905
262.224674
214.614868
162.205696
103.239417
81.972480
68.041682
67.472458
74.397922
81.950426
79.988837
75.973868
65.603852
49.897432
36.576986
23.753643
16.425848
10.926723
8.710623
6.852746
8.264780
8.344650
8.241534
8.658767
9.645820
9.836555
8.898973
8.817911
8.954406
8.433461
8.530617
10.607839
7.978678
8.849502
9.375811
9.976625
9.340644
8.482933
9.489655
8.765459
10.379553
8.955598
9.154677
9.313822
9.515882
10.301471
10.946989
11.311769
11.389852
11.238456
11.989474
12.735724
14.552474
14.123917
15.410781
14.585853
16.344786
16.523600
16.144514
18.025637
18.585920
21.735430
20.322800
22.588968
22.488832
23.907423
24.646521
27.145743
26.684999
28.049946
27.638674
26.733875
27.130842
25.297999
25.706887
25.384426
25.517941
25.410652
24.968982
23.922920
24.339557
24.256706
23.476481
20.793676
23.099780
23.579597
22.682548
##ZVALUE=240
1.313686
1.662970
4.896522
20.298958
45.916438
96.445680
159.830451
263.671875
348.300934
414.898992
467.585921
468.789935
405.609012
336.863995
250.463486
177.549720
113.622546
96.978545
91.818571
95.582604
103.154778
115.128756
109.926462
99.734664
83.409548
61.933994
45.195818
31.187534
20.639896
13.443828
11.439919
8.736849
8.944869
9.202957
8.741617
9.519458
9.537935
8.548498
8.383989
9.213686
8.607507
8.550882
8.435845
8.321404
8.427501
8.778572
8.013844
9.500980
8.666515
9.438992
8.868575
9.629726
10.228753
10.197759
10.473728
11.049509
11.434555
10.883808
13.289452
13.605952
14.160872
14.816523
14.581680
15.116930
15.297532
17.187595
18.678904
19.150972
20.164847
20.935535
21.837950
24.419427
24.199486
27.735829
27.670860
27.160645
29.451847
30.852556
28.445721
29.474497
30.668974
31.093955
29.966831
29.879808
31.141639
29.018521
29.114485
30.039549
29.957891
28.566718
30.125976
29.001832
29.804707
29.205680
28.445721
28.657913
##ZVALUE=245
1.231432
1.129508
1.131892
1.243949
4.322529
13.443828
45.366883
89.370608
177.177787
271.657705
395.555496
473.110676
520.255566
539.698601
506.652594
423.501730
341.855884
232.479572
169.164538
109.117627
93.992949
94.399452
110.007524
121.880770
130.118728
124.635696
111.324787
94.949603
71.860552
52.933693
39.853454
25.992990
18.108487
13.720989
11.320710
10.790825
9.635687
9.361506
9.506941
9.311438
9.386539
7.821918
9.172559
8.983612
7.988811
8.905530
8.038878
8.045435
8.519888
9.473562
9.753704
9.505749
9.449720
9.773970
10.389686
9.329915
10.370612
11.526942
11.877418
12.062788
12.608767
14.265776
13.751984
12.765527
15.133619
15.928745
15.990734
18.115640
17.898679
19.660592
22.353530
22.454858
24.486780
23.781657
23.946762
26.709437
26.220679
28.399825
28.474927
28.891563
28.969646
28.644800
29.148459
28.138757
28.495789
30.971766
31.162500
30.697584
29.544830
30.167699
29.042959
29.112697
30.915737
28.588772
28.977990
30.288696
##ZVALUE=250
0.941753
1.124740
1.229644
0.930429
0.962615
1.160502
1.885891
7.606745
32.906532
67.802668
151.938796
240.716934
341.974497
470.199585
545.221567
599.355698
596.602559
526.137948
445.465446
306.008458
214.431882
147.427917
95.183849
88.914633
103.685856
123.222470
132.851601
137.442946
137.781501
121.366978
106.576681
83.229542
59.381723
38.421750
27.560592
16.612411
13.870597
11.052489
10.142922
9.765625
9.201765
9.207726
9.218454
9.106994
8.914471
9.200573
8.206964
8.187890
8.373857
7.473826
8.777976
9.194613
9.060502
9.755492
10.039806
9.598732
10.229945
10.522604
10.479689
11.633635
11.360645
12.028813
11.860728
12.671947
12.475848
13.689995
14.137626
14.551878
15.674829
17.078519
17.855763
18.675923
19.632578
20.995736
21.455884
22.419691
24.586916
24.509430
25.373697
24.764538
25.513768
25.709867
27.527809
27.581453
26.783943
27.097464
27.369857
29.135942
27.593970
28.631687
27.873516
29.064417
26.899576
27.670860
28.092861
28.955936
##ZVALUE=255
0.969768
0.897646
1.240969
0.857711
1.124740
0.944734
1.010895
1.439452
1.666546
4.268885
24.348497
56.457520
110.999942
218.139887
323.544741
472.635627
568.773746
651.971698
673.574805
630.328655
543.232560
438.967943
275.768638
182.963610
108.201504
86.067915
88.156462
103.473663
126.635432
140.939951
146.075487
140.961409
128.145814
102.417469
82.901716
55.926442
40.704608
23.766756
17.372966
13.042688
10.705590
9.972453
9.676814
10.112524
9.602904
9.532571
8.844733
9.779930
8.290410
8.978844
10.009408
9.282827
9.029508
9.232759
9.350777
9.756684
9.289980
9.648800
9.410977
10.242462
10.274649
10.288954
10.995865
11.300445
11.821985
11.553764
12.742877
13.268590
13.519526
14.711618
15.461445
17.211437
18.062592
18.697977
19.542575
21.078587
21.487474
20.815730
22.654533
22.446513
22.673607
24.599433
23.725629
23.446679
24.195910
25.362968
25.191903
24.766922
25.579929
25.096536
26.274920
26.709437
25.848746
27.269721
25.662780
25.730729
##ZVALUE=260
0.880957
0.751615
0.913739
0.951886
0.877976
0.903606
1.206994
1.021624
0.817776
1.156926
1.405478
2.215505
9.757876
42.032599
88.049769
184.498429
283.426642
434.452891
547.003746
673.980713
731.281638
722.394586
636.926889
521.875620
353.641510
246.418715
148.365498
98.871589
76.044798
82.385540
97.238421
122.586489
139.635801
146.477818
145.152807
127.518773
109.444857
82.824826
62.476993
40.698647
28.368831
19.041896
14.641881
11.607409
11.095405
10.104775
10.378957
9.681582
10.483861
10.182858
9.838939
9.960532
9.181499
9.380579
9.324551
8.977652
9.711981
10.077953
9.944439
9.792447
9.563565
9.940863
10.897517
10.432601
11.539459
11.138916
12.011528
12.534857
13.207793
13.712645
14.638901
15.170574
15.987754
18.020868
18.006563
18.505454
19.490719
20.434856
20.468831
20.778775
21.477938
21.644831
22.717714
22.343993
22.176504
22.223592
24.098754
24.242997
24.775863
23.724437
23.432970
24.434924
24.160743
24.621487
25.189519
25.318861
##ZVALUE=265
0.826716
0.504851
0.801682
0.636578
0.941753
0.935793
0.829697
0.916719
0.832677
1.087785
1.270771
1.106858
1.213551
1.831651
5.057454
27.488470
61.734915
139.650702
230.520964
386.915803
525.991917
647.966862
774.572492
787.276626
713.751912
615.131855
452.641845
329.139829
187.030435
118.501782
79.098940
68.133473
80.319643
109.102726
128.234625
146.774650
152.292848
148.061514
133.505464
107.864738
86.516738
59.105754
43.333769
26.231408
19.274950
13.760924
11.719465
11.488795
11.096597
11.158586
10.969639
10.811687
10.634661
10.258555
10.145903
10.236502
10.366440
10.009408
10.181665
10.445714
9.682775
10.491610
10.507703
10.503531
10.301471
10.987520
11.413693
12.454987
12.808442
14.036894
13.650656
14.515519
16.359687
16.746521
16.930699
17.943978
17.252564
18.578768
19.309521
20.243526
19.373894
20.603538
20.882487
21.250844
21.205544
22.237897
23.377538
22.257566
22.322536
23.157597
24.088621
24.437904
23.406744
23.684502
23.615956
24.749637
##ZVALUE=270
0.630617
0.767708
0.626445
0.667572
0.660419
0.658631
0.887513
0.826716
0.868440
0.965595
0.816584
0.841618
1.009703
0.872612
1.148582
1.579523
1.706481
9.453893
28.252602
82.818866
157.829523
270.380974
452.916622
596.817732
750.560760
807.834864
791.546702
716.442466
556.106567
425.112844
261.204839
161.243677
97.824931
60.046911
61.405897
84.596872
106.312633
133.479834
145.666599
151.095986
150.473714
131.420493
113.387704
82.248449
62.787533
40.038824
29.048920
18.657446
14.108419
11.703968
11.040568
11.242628
11.536479
11.174679
10.741949
10.914803
10.498762
10.853410
11.345744
10.728836
11.026859
11.257529
11.575818
11.676550
11.659861
12.484789
12.329817
13.036728
13.855696
14.094710
14.065504
15.338659
14.894605
16.359687
16.894937
17.367601
17.856956
18.159747
18.097758
19.100904
19.184947
19.200444
18.940568
20.847917
20.690560
21.447539
21.357536
21.512508
21.669865
22.941828
22.220612
22.878647
21.381974
22.158623
22.710562
22.900701
##ZVALUE=275
0.706911
0.569820
0.612736
0.634789
0.601411
0.556707
0.727773
0.687838
0.738502
0.766516
0.779629
0.915527
0.841618
0.911951
1.159906
1.092553
1.143813
1.260638
1.395941
3.310442
12.349486
45.463443
101.505518
195.947886
373.580456
512.346625
681.860447
788.841844
833.839774
794.644952
663.368702
530.324578
340.242982
212.490559
106.907487
65.834522
48.910975
57.563782
82.325935
102.655888
130.319595
145.045519
151.206851
146.395564
129.083991
107.578635
81.884861
62.343478
41.081905
29.249787
18.946528
15.105605
11.841655
11.332631
10.937452
10.595918
11.162758
10.888577
10.992885
11.615753
12.207627
12.472868
11.842847
12.765527
12.878776
12.553930
12.922883
13.335943
13.164878
14.256835
14.976859
15.818477
15.926957
16.599894
16.518831
17.470717
17.560720
17.832518
18.685460
18.911958
19.400716
19.879937
19.854903
19.723773
19.884706
20.542741
20.213723
20.203590
21.106601
20.767450
21.052957
21.844506
21.074414
20.574927
20.892620
21.845698
##ZVALUE=280
0.537634
0.599623
0.773668
0.549555
0.620484
0.499487
0.607967
0.482798
0.562668
0.768900
0.816584
0.767708
0.724792
0.816584
0.791550
0.748634
0.953674
0.953674
1.150966
1.227856
1.264811
1.676679
8.090734
26.482940
81.950426
153.048635
290.477872
432.111621
621.243715
745.170712
826.532841
829.833746
756.185651
581.265688
430.449843
251.355767
153.138638
73.676705
45.664907
40.890574
54.650903
80.732703
101.397634
125.916004
141.353607
145.680904
140.092969
123.339891
106.861591
79.244971
59.741735
39.582849
28.644800
18.620491
14.564991
11.900663
11.481643
11.435747
11.839867
11.920929
13.398528
12.832880
12.755990
13.472438
13.456941
13.268590
14.214516
14.635921
14.744997
14.640689
15.872717
15.964508
16.934872
17.017722
17.436743
17.505884
18.066764
18.631816
18.328428
18.277764
20.014644
19.526482
19.569993
19.184947
20.149946
20.065904
19.761920
20.334721
20.082593
20.417571
21.040440
20.354986
20.697713
20.426512
19.990802
20.826459
##ZVALUE=285
0.675917
0.444651
0.379682
0.522733
0.428557
0.545979
0.557899
0.498891
0.594854
0.735521
0.526905
0.603795
0.758767
0.702739
0.727773
0.665784
0.847578
0.975728
0.922680
1.169443
0.903606
1.067519
1.200438
1.260638
3.922582
13.157725
45.195818
96.986890
211.527944
333.209634
519.672632
664.845705
779.001713
845.990777
805.204511
669.322014
529.049635
330.588818
209.066868
99.661946
55.312514
31.563640
34.971833
53.676963
71.482658
98.699927
115.475655
134.739876
141.117573
136.560798
126.299858
103.727579
85.339546
58.175921
43.931603
28.184652
20.827651
15.174747
13.535619
12.625456
13.374686
12.951493
13.551712
13.629794
14.056563
14.835000
14.827847
15.394688
15.676618
16.397834
16.798973
17.261505
17.938614
18.380880
17.743707
18.575788
19.022822
18.751621
18.738508
19.892454
19.882917
19.497871
20.076632
20.082593
20.698905
20.558834
20.397902
20.318627
20.762682
20.086765
20.125508
19.918680
19.805431
19.858479
20.257831
19.944906
##ZVALUE=290
0.554919
0.547767
0.688434
0.433922
0.688434
0.723600
0.631809
0.583529
0.792742
0.535846
0.747442
0.591874
0.731945
0.680685
0.837445
0.665784
0.721812
0.803471
1.004934
1.025796
0.894666
0.901818
0.973940
0.973940
1.362562
1.269579
2.006888
5.337596
26.246905
59.705973
115.329623
250.486732
392.341614
605.731010
732.841492
841.713548
838.400722
736.596584
604.500771
409.630537
273.474455
138.627887
74.092746
31.845570
24.347901
32.898784
46.125650
69.902539
88.448524
113.154650
128.375888
136.281848
136.252642
121.173859
105.975866
79.008937
60.832500
42.046905
30.789971
21.382570
17.922521
14.957786
14.704466
15.583634
15.244484
15.256405
15.651584
16.254783
17.303824
16.818643
17.800927
18.216968
18.636584
19.162893
18.994808
19.724965
19.838810
19.332767
19.761920
20.622611
20.055771
20.972490
20.912886
21.221638
21.135807
21.292567
20.888448
20.612478
20.459890
20.638704
21.015406
20.439625
19.967556
20.117760
20.060539
20.392537
##ZVALUE=295
0.713468
0.711679
0.713468
0.727773
0.633597
0.824928
0.681877
0.594854
0.838637
0.724792
0.721812
0.839829
0.704527
0.875592
0.816584
0.827909
0.884533
0.951886
1.135468
0.951886
0.878572
1.051426
1.098514
1.044869
1.157522
1.336932
1.287460
1.463890
1.627803
2.693534
12.001991
36.034584
82.996488
197.656751
324.277878
524.693727
669.468641
804.448724
843.461752
785.393715
678.651929
489.669442
338.557959
178.469419
99.971890
40.135980
23.060441
20.857453
28.627515
45.960546
62.534809
87.530613
105.946660
124.404430
131.338835
129.866600
120.500922
99.026561
82.783699
61.060786
45.919418
31.506419
23.994446
19.086599
17.209649
16.660690
16.582608
17.127991
17.877817
18.028617
18.408895
18.560886
19.147992
19.430518
19.670725
20.042658
20.250678
20.488501
20.861626
20.923615
21.666884
21.412969
21.648407
21.166801
22.001863
21.780729
21.375418
21.106601
21.120906
20.752549
20.358562
21.256804
20.592809
20.606518
20.753741
20.215511
##ZVALUE=300
0.561476
0.620484
0.478625
0.428557
0.416636
0.617504
0.452995
0.559688
0.658631
0.514984
0.580549
0.567436
0.772476
0.613928
0.601411
0.664592
0.665784
0.627637
0.847578
0.661612
0.740886
0.761747
0.735521
0.835657
0.613928
0.971556
0.821948
0.962615
1.103878
1.306534
1.279712
1.474619
4.660487
17.766953
62.520504
124.294758
260.225534
399.984717
597.657561
724.824667
822.470784
825.524926
725.175738
599.911809
401.839018
263.718963
133.945942
72.863698
28.769970
18.120408
19.207597
26.186705
42.130947
57.288408
82.397461
99.489689
119.066834
127.350688
126.914978
119.008422
101.553798
84.957480
61.709881
47.655702
32.941699
25.896430
20.548701
18.906593
17.744899
18.507838
18.942952
19.018650
19.185543
20.069480
20.300746
20.408630
20.384789
20.787716
21.348000
21.693707
21.922588
21.778941
22.032857
22.026896
22.234917
22.334456
21.982789
22.156835
21.494627
21.520853
21.428466
20.897985
20.907521
20.782948
20.570755
20.313859
##ZVALUE=305
0.706911
0.377893
0.363588
0.652671
0.504851
0.489950
0.654459
0.634789
0.649691
0.713468
0.609756
0.631809
0.580549
0.690818
0.440478
0.539422
0.604987
0.512600
0.626445
0.461936
0.731945
0.743866
0.779629
0.825524
0.901818
0.996590
0.753999
0.906587
1.096725
0.991821
1.133680
1.314878
1.471639
1.457930
2.404451
12.023449
35.152435
103.762746
186.979771
348.978639
496.811867
679.228902
783.448815
822.411776
774.937868
624.993443
483.774543
301.531553
191.798806
92.944503
48.470497
20.541549
15.201569
18.812418
26.313663
41.675568
56.965947
79.095960
95.550418
113.441944
121.885538
120.432973
114.089847
96.353889
81.646442
60.196519
47.504902
32.171607
26.790500
21.624565
20.067692
19.024611
19.236803
19.941926
19.830465
20.057559
21.196604
21.154881
21.261573
21.863580
21.767616
22.171736
22.231936
22.394657
22.273660
22.776723
22.879839
22.193789
21.894574
21.989942
21.874905
21.548867
21.140575
20.970702
21.021962
20.446777
##ZVALUE=310
0.471473
0.372529
0.525713
0.500679
0.469685
0.302792
0.454783
0.514984
0.521541
0.548959
0.399947
0.405908
0.464916
0.465512
0.590682
0.507832
0.478625
0.472665
0.479817
0.618696
0.716448
0.715852
0.735521
0.663996
0.620484
0.692606
0.839829
0.698566
0.859499
0.808835
0.884533
0.793934
1.039505
1.025796
1.131892
1.350641
1.689792
13.850927
18.953681
58.535933
204.218626
233.612657
534.044504
565.433502
724.453926
804.186463
803.247690
729.158521
566.743016
422.434807
249.648690
149.859786
66.846609
33.750534
15.988946
13.586879
18.182993
24.320483
37.581921
49.676895
71.125627
88.012815
105.832815
114.583969
116.449594
110.954642
94.685555
80.248713
60.121417
45.426488
32.778978
27.192831
22.374988
20.975471
19.849539
20.726919
20.727515
20.500422
21.189451
21.552444
21.891594
22.188425
22.285581
22.570491
22.977591
22.795796
22.554994
22.189617
22.489429
22.366643
22.136569
21.734834
22.113919
21.143556
21.332502
20.851493
##ZVALUE=315
0.447631
0.359416
0.321865
0.438690
0.393987
0.451803
0.440478
0.593662
0.505447
0.433922
0.347495
0.491738
0.484586
0.580549
0.498891
0.444651
0.547767
0.543594
0.696778
0.599623
0.539422
0.605583
0.640750
0.686646
0.748634
0.739694
0.694990
0.748634
0.863671
0.808835
0.715852
0.848770
0.829697
0.924468
0.990629
0.996590
1.066923
1.171827
1.204610
2.640486
9.142756
38.243532
85.454583
196.754932
316.963792
512.765646
647.462010
774.966478
810.022950
757.218003
656.998754
481.298566
342.520475
182.410479
102.095604
40.350556
19.784570
12.765527
13.403893
17.816424
23.312569
35.683513
48.540831
66.896677
82.536936
100.489855
108.464956
110.404491
105.324984
90.358853
75.761676
59.315562
47.006607
33.541918
27.350783
22.957921
21.573901
20.685792
21.082759
21.315813
21.618605
21.795630
22.220612
22.636652
22.544861
23.231506
22.852421
23.151636
22.732615
22.875667
22.579432
22.459626
22.392869
22.279620
21.803975
21.559596
##ZVALUE=320
0.429749
0.416636
0.427961
0.617504
0.459552
0.554919
0.651479
0.559688
0.412464
0.520945
0.527501
0.491738
0.487566
0.379682
0.519753
0.502467
0.600815
0.598431
0.666976
0.606775
0.558496
0.702739
0.368953
0.484586
0.686646
0.580549
0.697970
0.760555
0.682473
0.807643
0.757575
0.704527
0.705719
0.854731
0.872612
0.730753
0.830889
0.863671
1.107454
1.116991
1.237988
1.690984
4.201531
22.189617
55.105686
141.241550
237.610936
409.060717
547.512770
707.498789
779.269934
775.372982
706.292987
546.534657
405.751467
231.677890
135.333538
59.742928
29.618740
13.153553
10.846853
12.161732
14.698505
21.545887
29.777884
45.785904
59.605837
77.638626
91.647506
103.172660
104.648471
99.567771
89.453459
72.733760
59.578419
44.315457
34.731627
28.107762
23.978949
22.229552
21.386743
21.837950
21.884441
22.446513
22.466779
23.003817
22.746921
22.469759
22.411942
22.243857
23.061633
22.369623
22.258759
21.721721
21.747947
21.555424
##ZVALUE=325
0.430942
0.424981
0.478625
0.456572
0.454783
0.440478
0.329614
0.474453
0.494719
0.328422
0.474453
0.576973
0.452995
0.549555
0.480413
0.431538
0.361800
0.490546
0.582933
0.495911
0.492930
0.552535
0.460744
0.544786
0.509620
0.498891
0.579953
0.505447
0.647902
0.562668
0.630617
0.635982
0.766516
0.593662
0.727773
0.762939
0.816584
0.810623
0.892878
0.874996
0.869632
1.143813
1.225471
1.317859
2.336502
13.254881
36.290884
95.186830
175.270438
333.567858
470.469594
641.133785
734.815001
776.138902
728.879571
585.174561
449.696779
279.501677
172.661543
78.080893
39.192438
15.397668
10.482669
10.057688
11.058450
14.950633
19.886494
30.891895
42.194724
60.765743
74.999928
89.278817
96.987486
99.559426
94.101429
81.609488
69.958568
54.572821
44.363737
33.713579
27.954578
23.728609
22.930503
22.119880
22.171736
22.203922
22.324920
22.265911
22.007823
22.544861
21.798611
22.285581
22.081733
21.289587
21.469593
21.390915
##ZVALUE=330
0.297427
0.340939
0.314713
0.319481
0.296831
0.458956
0.320673
0.412464
0.541806
0.285506
0.432730
0.452995
0.393987
0.552535
0.481606
0.513792
0.484586
0.530481
0.485778
0.577569
0.516772
0.521541
0.600815
0.492930
0.595450
0.482798
0.503659
0.618696
0.554919
0.596642
0.616908
0.432730
0.711679
0.668764
0.774860
0.737906
0.762939
0.721812
0.718832
0.847578
0.825524
0.919700
0.884533
1.007915
1.136661
1.136661
1.525879
5.832911
19.103885
63.644648
123.145580
251.938701
377.941728
560.269952
673.173666
753.427744
738.348961
626.213551
508.361459
337.740779
221.036673
105.022788
55.709481
21.995902
11.898875
9.265542
9.616613
11.689663
14.433861
21.257997
28.947592
41.770935
54.711699
73.064566
84.060431
93.365908
94.619989
89.476705
80.208778
65.808892
54.785609
41.579604
34.104586
28.459430
25.054812
22.946596
22.115707
22.199750
21.634698
21.226406
21.583438
21.459460
21.464825
21.493435
21.451712
21.205544
##ZVALUE=335
0.433922
0.268817
0.363588
0.340939
0.435710
0.296831
0.418425
0.304580
0.423789
0.468493
0.222921
0.463724
0.318885
0.577569
0.529885
0.556707
0.383854
0.399947
0.482798
0.498891
0.363588
0.411868
0.493526
0.480413
0.462532
0.498891
0.584722
0.638962
0.604987
0.445843
0.582933
0.605583
0.577569
0.626445
0.661612
0.682473
0.752807
0.716448
0.710487
0.759959
0.662804
0.799894
0.833869
0.732541
0.916719
0.865459
1.041889
1.102686
1.125932
2.800822
9.616613
37.826896
82.241893
186.959505
303.294659
483.780503
605.508685
712.587833
732.806921
663.313866
561.428666
390.005708
268.696547
140.838623
76.962709
30.851960
15.624762
9.869933
9.835958
10.595918
12.249947
15.084743
19.614697
29.915571
40.198565
56.156516
67.807436
81.071854
88.438988
90.003610
85.961819
76.496601
64.975619
52.684546
43.636560
33.990741
29.020905
24.840832
23.138523
21.499991
21.221638
20.886660
20.320415
20.305514
20.395517
21.120906
##ZVALUE=340
0.378489
0.477433
0.433922
0.364780
0.464916
0.296831
0.264645
0.375509
0.413656
0.482798
0.411868
0.501871
0.478625
0.402927
0.547767
0.375509
0.487566
0.327826
0.451803
0.435710
0.422597
0.565648
0.478625
0.458956
0.545979
0.572801
0.420809
0.532866
0.522733
0.464916
0.563860
0.481606
0.550747
0.594854
0.581741
0.610948
0.597835
0.687838
0.830889
0.557899
0.723600
0.655651
0.675917
0.740886
0.734925
0.869632
0.866652
0.962615
0.969768
1.077652
1.178980
1.850724
4.883409
23.487806
58.208704
144.143701
245.029926
408.134460
531.010628
664.464831
713.443756
681.456923
598.249435
449.500680
320.837498
174.136758
96.425414
38.604736
19.005537
10.689497
10.090470
10.556579
11.287928
12.778640
15.865564
22.139549
28.669834
40.287971
51.815510
66.908002
76.730847
84.131956
85.313916
80.532432
74.346662
62.575936
53.071976
42.170882
35.191774
27.724504
24.322867
21.699667
20.374656
20.227432
19.996762
19.504428
##ZVALUE=345
0.427961
0.372529
0.419617
0.368953
0.426769
0.456572
0.174642
0.348687
0.386834
0.520945
0.349879
0.291467
0.405908
0.408888
0.421405
0.452995
0.482798
0.394583
0.353456
0.428557
0.539422
0.528693
0.520945
0.411868
0.471473
0.472665
0.421405
0.403523
0.405908
0.428557
0.508428
0.577569
0.539422
0.480413
0.624657
0.413656
0.678897
0.501871
0.471473
0.588894
0.635982
0.638962
0.716448
0.609756
0.673532
0.717640
0.612736
0.829697
0.865459
0.822544
0.878572
0.963807
0.979900
1.177788
2.287626
12.886524
35.271645
96.379519
173.924565
317.891836
440.803766
593.475699
671.155453
686.815977
633.917451
491.605997
368.584991
221.946836
127.739906
53.098798
26.656985
12.491941
10.288954
10.403991
10.814667
11.515617
12.651682
15.399456
19.606948
28.214455
37.289858
50.909519
60.249567
71.160793
77.266693
80.197453
77.929497
70.961714
62.151551
51.029921
42.028427
31.854510
26.905537
22.222996
20.723939
19.461513
##ZVALUE=350
0.326633
0.372529
0.198483
0.194907
0.400543
0.384450
0.277758
0.441670
0.323653
0.410676
0.330806
0.409484
0.663996
0.163913
0.510812
0.358820
0.299811
0.463724
0.426769
0.476837
0.433922
0.520945
0.491738
0.439882
0.434518
0.393987
0.473857
0.317693
0.381470
0.397563
0.331998
0.365973
0.411868
0.585914
0.506639
0.478625
0.617504
0.493526
0.504851
0.554919
0.569820
0.497699
0.564456
0.618696
0.649691
0.600815
0.658631
0.745654
0.650883
0.641942
0.909567
0.736713
0.907779
1.035929
1.055598
1.076460
1.208782
6.521940
20.535588
64.945817
123.983622
248.760581
366.231799
519.952774
615.350604
671.599507
646.601915
533.990860
413.720012
259.286761
159.348845
74.467659
37.832856
14.437437
10.501742
10.050535
9.818673
11.138916
11.139512
12.658834
14.847517
19.735694
25.233626
35.281777
43.777823
55.850744
63.116550
70.141554
72.860718
71.531534
66.442490
56.748986
48.823953
38.987994
32.147765
25.995970
##ZVALUE=355
0.441670
0.390410
0.355840
0.360608
0.295639
0.451803
0.395775
0.399947
0.413656
0.422597
0.424981
0.354648
0.456572
0.421405
0.492930
0.446439
0.358820
0.466704
0.403523
0.414848
0.321865
0.314713
0.444651
0.512600
0.404716
0.342727
0.391603
0.533462
0.493526
0.548959
0.464916
0.504851
0.465512
0.523925
0.560880
0.575781
0.511408
0.613928
0.582933
0.524521
0.515580
0.708699
0.480413
0.559688
0.477433
0.631809
0.638962
0.504851
0.539422
0.792742
0.712872
0.814795
0.787973
0.803471
0.955462
0.950694
1.029968
1.056790
1.036525
2.319813
12.911558
34.595728
93.579888
168.099999
311.430693
431.556702
570.713878
638.183951
640.478730
568.668842
425.477624
314.330459
180.790424
102.147460
41.374564
20.747781
10.517836
9.083748
9.722710
10.007620
10.547638
10.674596
12.517571
14.054775
17.924905
22.476912
30.681491
37.406683
49.466491
56.526661
63.662529
66.554546
65.832734
60.762763
53.040981
45.996904
##ZVALUE=360
0.323653
0.460744
0.386834
0.376701
0.256896
0.349879
0.318885
0.381470
0.286698
0.460744
0.407696
0.316501
0.470877
0.409484
0.331998
0.230670
0.467896
0.286698
0.360608
0.438690
0.627637
0.381470
0.411868
0.321865
0.552535
0.524521
0.451803
0.374913
0.420809
0.492930
0.472665
0.371933
0.390410
0.583529
0.464916
0.530481
0.560880
0.453591
0.521541
0.445843
0.549555
0.574589
0.581741
0.494719
0.651479
0.444651
0.623465
0.568628
0.685453
0.671744
0.671744
0.624657
0.667572
0.670552
0.795722
0.831485
0.706911
0.989437
1.002550
1.089573
1.200438
1.763701
4.918575
21.931529
53.149462
133.512616
222.134590
364.106894
481.778979
601.893663
633.282661
591.117740
505.090952
350.773931
235.469937
117.865801
63.180923
25.830865
13.037920
8.765459
8.781552
9.330511
9.611845
10.066628
10.292530
10.894537
12.226701
15.239716
19.042492
25.177598
32.621622
41.839480
49.419999
56.673884
60.274601
60.338974
##ZVALUE=365
0.535846
0.357628
0.448823
0.427961
0.452995
0.357628
0.330806
0.356436
0.521541
0.371933
0.441670
0.420809
0.395775
0.395775
0.291467
0.251532
0.367761
0.418425
0.339746
0.329614
0.453591
0.319481
0.448823
0.330806
0.515580
0.459552
0.458956
0.456572
0.423789
0.383854
0.347495
0.522733
0.432730
0.440478
0.572801
0.504851
0.459552
0.577569
0.485778
0.535846
0.512600
0.532866
0.642538
0.606775
0.812411
0.556707
0.499487
0.559688
0.641942
0.656843
0.676513
0.637770
0.589490
0.778437
0.631809
0.699759
0.830889
0.819564
0.915527
0.888705
0.892878
1.011491
1.042485
1.131892
2.668500
9.084940
35.777688
78.640580
180.996656
288.016796
441.933870
533.321500
604.598522
603.088737
519.480705
420.987010
273.969769
172.186494
78.236461
39.151907
14.932752
9.257793
8.189678
8.239746
8.312464
8.526444
9.236932
9.428859
9.870529
10.883808
13.065934
16.041994
21.870732
27.565956
36.699772
42.798519
##ZVALUE=370
0.382662
0.462532
0.356436
0.352859
0.284910
0.188947
0.391603
0.404716
0.375509
0.320673
0.344515
0.271797
0.492930
0.269413
0.403523
0.418425
0.347495
0.322461
0.301600
0.452995
0.442863
0.379682
0.521541
0.349879
0.502467
0.457764
0.376701
0.396967
0.399947
0.335574
0.444651
0.527501
0.483990
0.469685
0.512600
0.423789
0.476837
0.431538
0.381470
0.474453
0.521541
0.469685
0.366569
0.564456
0.612736
0.611544
0.384450
0.389814
0.637770
0.667572
0.460744
0.622869
0.625849
0.620484
0.738502
0.630617
0.608563
0.746846
0.693798
0.800490
0.810623
0.770688
0.898838
1.024604
1.046658
1.227856
1.670718
5.030632
25.373697
61.049461
143.860579
230.487585
369.315743
478.531718
579.990745
600.450635
546.607971
456.220508
307.928920
204.007626
97.859502
52.792430
22.141933
11.706948
7.793903
7.794499
7.708669
7.897615
8.107424
8.189678
8.634925
9.017587
10.232925
11.618733
15.140772
18.652678
##ZVALUE=375
0.386834
0.218749
0.391603
0.503659
0.321865
0.533462
0.367761
0.392795
0.456572
0.609756
0.303984
0.381470
0.346899
0.342727
0.268817
0.355840
0.362992
0.308752
0.479817
0.342727
0.215769
0.291467
0.283718
0.311732
0.271797
0.294447
0.443459
0.423789
0.400543
0.423789
0.420809
0.560880
0.475645
0.405908
0.386834
0.489950
0.366569
0.371933
0.446439
0.517964
0.409484
0.386834
0.501871
0.335574
0.583529
0.482798
0.514984
0.454783
0.487566
0.491738
0.387430
0.481606
0.572801
0.551939
0.568628
0.446439
0.606775
0.618696
0.742674
0.676513
0.583529
0.646710
0.614524
0.632405
0.709891
0.871420
0.998974
1.012683
1.255870
3.313422
10.798573
38.491488
82.782507
184.716582
288.870931
436.437726
527.184606
588.734746
578.938723
484.664440
378.654003
235.772729
151.540637
76.740980
40.368438
15.387535
8.631945
7.037520
6.691813
7.010698
7.405877
7.561445
7.858872
7.973909
8.444786
9.027719
##ZVALUE=380
0.367761
0.327826
0.269413
0.501871
0.392795
0.307560
0.289679
0.216961
0.316501
0.532866
0.427961
0.352859
0.361800
0.405908
0.292659
0.303984
0.281930
0.432730
0.248551
0.344515
0.349879
0.192523
0.299811
0.279546
0.373721
0.299811
0.287890
0.377893
0.398755
0.272989
0.407696
0.548959
0.282526
0.438690
0.370741
0.541806
0.327826
0.530481
0.343919
0.404716
0.508428
0.309944
0.355840
0.377893
0.546575
0.504851
0.203848
0.410676
0.481606
0.423789
0.484586
0.525713
0.612736
0.566840
0.469685
0.507832
0.674725
0.548959
0.633597
0.621676
0.684857
0.656843
0.691414
0.657439
0.758767
0.580549
0.633597
0.729561
0.878572
0.998974
1.162887
1.800656
5.795956
27.294755
62.625408
148.894787
240.457654
376.712680
482.386947
575.387478
581.927896
511.574745
425.134897
300.243497
203.686953
102.327466
53.936839
21.160841
10.595918
6.736517
6.549954
6.408691
6.731749
6.772876
7.074475
7.066727
##ZVALUE=385
0.375509
0.343919
0.352859
0.225902
0.290871
0.531673
0.356436
0.182986
0.382662
0.378489
0.482798
0.272989
0.360608
0.412464
0.429749
0.392795
0.470877
0.425577
0.547767
0.435710
0.379682
0.525713
0.320673
0.369549
0.342727
0.488758
0.432730
0.409484
0.418425
0.339746
0.389814
0.513792
0.480413
0.325441
0.511408
0.542998
0.539422
0.413656
0.458956
0.569820
0.592470
0.508428
0.469685
0.557899
0.456572
0.324845
0.259876
0.340939
0.335574
0.421405
0.361800
0.535846
0.416636
0.581741
0.486970
0.601411
0.438690
0.409484
0.664592
0.507832
0.645518
0.633597
0.706911
0.494719
0.552535
0.718832
0.776649
0.629425
0.853539
0.801682
0.949502
0.998974
1.152754
1.107454
3.428459
11.442900
41.458011
89.156628
192.549825
295.962691
438.952446
521.107912
567.378998
553.169847
469.408631
377.465487
242.067575
155.833960
73.379874
37.944913
15.011430
7.837415
5.881786
5.908608
5.891919
6.370544
##ZVALUE=390
0.300407
0.348687
0.345707
0.327826
0.346899
0.436902
0.398755
0.361800
0.301600
0.314713
0.394583
0.286698
0.395775
0.344515
0.366569
0.234842
0.332594
0.443459
0.327826
0.329614
0.265837
0.269413
0.330806
0.383854
0.385642
0.470877
0.281930
0.387430
0.356436
0.393987
0.397563
0.493526
0.510812
0.358820
0.421405
0.410676
0.320673
0.456572
0.435710
0.470877
0.429749
0.325441
0.499487
0.474453
0.463724
0.417829
0.292659
0.295639
0.392795
0.343919
0.318885
0.431538
0.400543
0.411868
0.385642
0.454783
0.376701
0.462532
0.489950
0.543594
0.550747
0.664592
0.522733
0.555515
0.649691
0.582933
0.612736
0.711679
0.719428
0.787973
0.785589
0.885725
0.873804
0.997782
1.108646
1.161695
1.561642
8.228421
24.626851
74.496865
140.289664
265.200734
364.379883
478.788018
543.343425
570.219755
529.931784
424.523950
324.823856
199.834704
119.017959
50.473809
24.367571
9.141564
5.876422
5.572438
##ZVALUE=395
0.441670
0.315905
0.391603
0.387430
0.323653
0.429749
0.362992
0.502467
0.451803
0.374913
0.313520
0.260472
0.327826
0.521541
0.329614
0.314713
0.557899
0.377893
0.364780
0.219941
0.218749
0.488758
0.379682
0.172853
0.354648
0.390410
0.630617
0.353456
0.437498
0.564456
0.491738
0.496507
0.512600
0.562668
0.410676
0.529885
0.495911
0.611544
0.265837
0.725985
0.441670
0.355840
0.495911
0.387430
0.533462
0.296831
0.321865
0.540614
0.467896
0.489950
0.459552
0.463724
0.523925
0.537634
0.362992
0.500679
0.504851
0.585914
0.698566
0.552535
0.526905
0.607967
0.496507
0.451803
0.557899
0.539422
0.619888
0.627637
0.674725
0.830889
0.599623
1.038909
0.825524
0.878572
0.853539
0.921488
1.031756
0.987649
1.096725
4.457831
15.976429
53.809881
103.458762
196.604729
292.916894
430.923700
518.657565
576.823950
566.104650
485.106707
382.806659
240.498781
154.263973
74.285865
37.430525
13.896823
##ZVALUE=400
0.372529
0.424981
0.575781
0.500679
0.549555
0.516772
0.382662
0.458956
0.359416
0.428557
0.549555
0.365973
0.404716
0.475645
0.359416
0.464916
0.439882
0.446439
0.460744
0.268817
0.362992
0.343919
0.515580
0.595450
0.275970
0.375509
0.372529
0.224710
0.465512
0.522733
0.521541
0.558496
0.372529
0.340939
0.579953
0.424981
0.570416
0.441670
0.483990
0.457764
0.496507
0.381470
0.370741
0.437498
0.427961
0.454783
0.595450
0.441670
0.541806
0.616908
0.346899
0.590682
0.437498
0.546575
0.416636
0.446439
0.584722
0.487566
0.494719
0.562668
0.506639
0.445843
0.496507
0.587702
0.503659
0.659823
0.641942
0.656843
0.804663
0.743866
0.749826
0.858903
0.764728
0.886917
0.781417
0.792742
0.870824
0.740886
0.940561
0.940561
1.297593
2.086759
9.204745
25.713444
73.255897
134.138465
252.590775
355.068445
481.701493
545.405746
558.421016
514.176488
400.248766
296.061635
173.220634
105.272532
##END
