##TITLE=FQP00651
##FORMAT=SPECTACLE-ASCII V-1.2
##DATA TYPE=ULTRAVIOLET SPECTRUM
##SECOND TYPE=ULTRAVIOLET SPECTRUM
##DATE=02/01/18
##TIME=14:48:44
##SPECTROMETER/DATA SYSTEM=SPECTACLE
##XUNITS=NM EM
##YUNITS=ENERGY
##YFACTOR=1
##FIRSTX=220
##LASTX=410
##NPOINTS=96
##3DDATA=Equidistant
##ZUNITS=NM EX
##FIRSTZ=210
##LASTZ=400
##ZPOINTS=39
##XYDATA=(Y..Y)
##ZVALUE=210
1.384616
1.356602
1.490712
1.269579
1.401901
1.601577
1.706481
1.656413
2.005696
1.752973
1.899600
1.371503
1.561642
2.307892
2.119541
1.750588
2.120733
2.348423
2.424717
2.629757
2.480745
2.668500
3.337860
2.849698
4.085898
4.115701
3.397465
3.686547
3.826618
4.821420
4.207492
4.503727
5.085468
4.900694
5.323887
5.735755
4.740953
4.630685
4.716516
4.485846
5.792975
5.008578
4.914999
4.944801
4.853606
4.823804
5.191565
5.699992
5.195737
4.642606
4.217625
4.769564
4.469752
5.278587
4.673600
5.607605
4.800558
5.661845
4.639626
5.835891
5.017519
5.196929
4.995465
5.478859
5.638599
6.207824
6.167889
7.080436
7.781982
8.739829
10.304451
11.824965
12.511611
16.665459
16.529560
17.881989
18.704534
18.075705
17.264485
16.011000
15.782714
14.398694
13.180971
12.422800
9.931922
7.999539
6.608963
6.185770
5.869865
4.781485
6.123781
5.680919
4.882812
5.510449
5.559921
6.759763
##ZVALUE=215
6.967783
6.352663
5.737543
4.230738
4.283786
4.094839
4.157424
3.516674
4.293919
4.335642
3.946424
4.182458
3.615618
2.988577
2.634525
2.896786
2.652407
2.444983
2.514720
2.580881
3.606677
4.175901
3.967881
3.825426
3.415942
3.776550
5.503893
5.146861
5.426407
5.816817
5.603433
6.770492
5.867481
6.363988
6.537437
6.457567
6.807446
6.141663
6.670952
6.796718
7.366538
6.866455
6.977916
6.753802
6.680489
6.142855
7.050633
6.533861
7.234812
6.066561
5.579591
6.705523
7.761717
7.004738
6.711483
6.090999
6.689429
6.539822
6.798506
6.769896
6.081462
6.985664
7.192492
6.997585
6.617904
6.631613
6.727576
8.047819
9.261966
10.876656
11.600852
14.494658
15.227795
18.530488
20.079613
22.771955
23.334622
22.185445
20.881891
21.011829
18.663406
16.237497
12.875795
12.420416
10.681748
9.914637
8.919835
7.854700
7.557869
6.507635
6.333590
6.967783
7.123947
7.291436
6.799698
7.999539
##ZVALUE=220
32.649636
32.598972
34.169555
35.510659
33.586621
27.145743
21.713972
15.760660
12.188554
10.976791
11.935830
12.513995
11.816621
10.660887
8.460879
7.492900
6.106496
5.183816
4.117489
4.500747
4.053712
3.740788
4.872680
5.743504
5.687475
6.184578
5.747676
7.701516
7.088780
8.728504
9.937882
9.896755
10.998845
10.381937
9.847879
11.345744
11.331439
11.216998
11.112690
10.676980
10.318756
10.401607
9.542704
9.151697
9.200573
9.451509
10.506511
9.270906
9.574890
9.829998
8.694530
10.282993
10.035634
9.451509
8.989573
9.250641
8.643866
10.300875
10.078549
9.103417
8.880496
10.129809
10.588765
9.952784
10.121465
10.182858
11.926889
11.630654
13.763905
15.911460
18.540621
20.303726
23.785830
28.797984
29.536486
31.730533
33.407807
32.965541
34.761429
34.403801
31.431913
29.012561
26.666522
22.892952
19.880533
16.832948
14.071465
10.159612
10.142922
10.887980
9.234548
9.077787
9.896755
9.270906
8.464456
9.356737
##ZVALUE=225
51.575899
55.104494
75.798631
93.172789
101.895928
100.923777
90.912580
68.873763
53.062439
38.420558
27.177930
22.288561
22.323728
25.385618
24.292469
24.974942
20.481944
18.352866
13.696551
9.995699
7.237792
6.438494
5.439520
5.959868
6.788969
6.878972
7.684827
8.912683
8.774996
11.206865
11.795759
11.637807
13.264418
12.478828
12.351871
13.184547
12.950897
13.702512
12.252927
14.306903
13.555884
11.673570
11.336803
11.248589
11.235476
10.559559
10.851622
10.060668
11.252761
10.004640
10.533929
10.571480
11.477470
9.894967
10.102987
10.257959
9.307861
9.431839
9.768605
10.930896
10.827780
10.480881
10.842681
11.035800
10.150671
10.173917
11.395812
11.920929
13.411641
14.840961
16.418695
17.142892
19.702911
22.306442
24.926662
26.367903
27.772784
27.645826
29.442906
27.719736
26.017427
24.799705
23.406744
19.560456
16.215444
14.797449
12.812614
11.655688
9.771585
9.445548
11.355877
9.602904
8.816719
8.774996
8.919835
8.619428
##ZVALUE=230
33.164620
35.216808
65.451860
100.277662
141.758919
163.673759
188.884735
193.761587
174.914002
146.984458
98.460913
75.769424
58.192611
44.920444
45.712590
48.972964
52.103996
49.026608
46.521425
34.433603
28.026700
18.800497
13.264418
8.266568
6.045699
5.873442
6.271601
7.001758
7.229447
8.729696
9.492636
10.588765
11.411905
10.522604
12.028813
12.824535
11.781454
10.641813
10.897517
11.172891
11.341572
9.935498
10.384917
9.601712
9.907484
8.587837
9.388924
10.249615
9.077787
9.185672
9.649992
9.565949
8.105636
8.474588
9.563565
10.010600
9.937882
8.499622
9.860992
10.580420
9.655952
10.069609
9.265542
10.432601
10.266900
10.425448
10.922551
10.407567
12.235641
13.794899
15.211701
16.648769
19.035935
20.913482
23.356676
24.071932
24.524927
24.662614
24.596453
23.194551
22.182465
21.229982
17.603636
16.968846
16.494989
15.239716
13.534427
12.862682
12.315512
11.667609
12.262464
11.369586
10.667443
10.487437
10.529757
10.183454
##ZVALUE=235
13.767481
15.283823
36.988854
90.167522
152.820945
240.468979
318.707824
401.529670
425.536633
420.770645
370.869637
297.407508
199.298859
141.846538
94.406605
77.308416
74.958801
81.281662
83.949566
87.130666
80.174804
69.574714
53.780675
37.312508
27.091503
17.867684
12.627840
10.318756
8.824468
10.302663
10.781884
11.243820
11.846423
12.070537
12.867451
13.094544
10.541677
11.543632
11.963844
11.889935
12.252927
10.973811
11.161566
9.958744
10.668635
11.216998
10.517836
10.839701
10.194778
9.885430
10.892749
11.443496
11.166930
11.011958
10.432601
12.065768
11.148453
10.797977
12.063980
10.995865
11.877418
10.180473
10.723472
12.354851
11.700988
13.870001
12.407899
13.994575
15.109777
15.230775
17.689466
21.467805
21.594763
24.766922
24.587512
28.174520
28.444529
27.435422
27.226806
28.443933
28.245449
23.970604
22.279620
21.599531
18.954873
19.047856
16.611814
16.591549
16.374588
16.988516
14.897585
15.513897
14.946461
15.875697
14.384985
15.804768
##ZVALUE=240
1.196861
1.710653
7.683635
29.391646
69.734454
159.286857
263.020992
427.970886
553.169847
691.975951
738.050938
705.671906
626.333952
466.418862
354.266763
221.988559
151.938796
105.280876
96.248984
97.750425
105.503798
112.069845
111.697912
99.107623
82.940459
66.375732
46.949983
33.923984
22.982955
16.855597
12.643933
12.769699
11.578798
11.972785
11.916757
12.214780
11.160970
11.853576
12.040734
10.958910
10.343790
10.873675
10.321736
10.878444
10.565519
10.091662
10.331869
10.770559
10.030866
10.305643
9.665489
9.609461
9.005666
10.946989
10.462999
11.292696
10.675788
10.484457
11.704564
11.151433
12.246966
11.656880
13.551712
11.898875
12.130737
13.509989
14.487505
15.572906
17.227530
17.616749
20.330548
21.577477
22.708774
23.831725
28.397441
28.000474
29.167533
30.048490
29.231906
28.783679
27.626753
25.519729
24.347901
23.161769
19.706488
19.588470
20.354986
18.640757
19.658804
19.461513
18.053651
17.654896
18.880963
16.687512
17.243624
18.491745
##ZVALUE=245
1.060963
1.121759
1.310706
1.410842
5.830526
25.270581
86.981654
166.537762
328.233838
481.805801
709.134936
874.990821
1002.272964
1015.564799
1015.564799
919.900537
760.560036
517.342687
349.807739
198.247433
131.651759
106.964707
115.610957
122.972727
128.230453
125.005841
112.720728
95.655918
72.236657
56.747794
41.371584
29.153824
20.922422
15.882850
13.705492
13.792515
12.759566
13.285875
12.840629
11.817813
11.474490
11.904836
12.527704
12.509823
12.011528
10.627508
11.143684
10.208488
10.808706
10.839701
10.125637
11.270642
11.207461
11.028647
9.374619
10.305643
11.350513
10.727644
10.741949
10.287762
10.790825
11.363626
11.502504
10.182858
12.078881
11.257529
13.607740
13.972521
15.100837
15.341640
16.691685
19.931793
21.214485
22.846460
23.967624
24.817586
25.975704
23.828745
25.535822
23.186803
22.863746
20.879507
21.020770
18.428564
18.552542
18.055439
18.408895
17.764568
16.925931
17.991662
17.399788
17.141700
18.885732
16.825795
17.272830
16.705990
##ZVALUE=250
1.262426
1.047850
0.809431
1.020432
1.030564
1.286864
3.022552
11.306405
46.719909
94.758868
205.347538
320.173502
455.931425
622.887611
717.696548
783.492923
768.473744
663.660765
551.454425
366.821885
246.846676
159.947872
103.025436
90.787411
104.264617
116.606951
132.457614
138.078928
133.985877
121.032596
99.068880
80.411434
59.922934
38.876534
28.500557
19.260645
15.116930
12.109876
12.176633
11.112690
10.658503
10.380745
9.826422
9.812713
9.601712
9.257793
9.485483
8.843541
9.135604
8.937716
7.991791
8.019805
8.638501
6.926656
7.556677
7.608533
6.818771
7.662773
7.784963
7.645488
7.386804
7.809997
7.705688
7.882714
8.750558
8.364916
8.518696
8.970499
10.338426
10.442734
12.226701
13.145804
13.511777
13.836622
13.732910
15.487671
15.989542
16.466975
16.531944
15.369654
15.737414
14.330745
15.801787
14.943480
15.378594
14.467835
14.038682
14.299750
15.896559
15.086532
14.696717
15.204549
14.237761
14.549494
14.495850
14.876723
##ZVALUE=255
0.890493
0.556707
0.907779
0.703931
0.897646
0.886917
0.955462
1.184940
1.426935
3.073812
15.832782
40.565729
84.619522
198.651552
324.938893
519.291759
660.773516
798.325539
842.496753
787.346959
671.446919
531.693697
323.287845
202.297568
114.160776
88.810921
89.893937
103.457570
124.701858
135.551691
141.805410
138.394833
125.966668
104.939938
81.981421
57.302713
40.096641
26.126504
18.651485
13.219714
12.302995
11.393428
10.415912
9.900928
10.063648
8.970499
9.229779
9.929538
8.708835
8.416772
8.214712
8.159876
7.820725
7.507801
6.695986
7.177591
6.490946
6.863475
6.566644
6.394982
6.238818
6.980896
6.062984
7.294416
7.344484
7.247925
7.461905
7.453561
8.304715
9.009838
10.094643
10.743737
11.305809
12.183785
11.770725
13.258457
13.036728
13.508797
13.339520
13.188720
13.428926
12.806654
13.464689
13.734698
13.303757
13.391972
13.133883
13.018847
13.631582
13.834834
12.652874
12.859702
13.997555
14.124513
13.979673
14.320612
##ZVALUE=260
0.705719
0.837445
0.695586
0.749826
0.957847
0.983477
1.010895
0.948906
1.008511
1.113415
1.215935
1.942515
5.914569
24.733543
56.381822
152.238011
270.233750
469.924808
638.339520
855.713487
929.763913
941.954851
811.598897
640.228987
416.553617
274.664760
155.905485
101.359487
75.901747
83.489418
98.758936
123.328567
137.798786
146.959424
142.054558
126.756430
109.134912
81.175566
62.911510
40.326715
26.558638
17.966628
13.830662
11.350513
11.225939
10.038614
10.098815
9.316802
9.365678
8.502603
8.052588
8.294582
7.750988
7.275939
7.418990
6.859899
6.630421
6.696582
6.167889
6.366968
6.376505
6.811619
6.447434
6.300807
6.737709
6.327629
6.955862
7.070899
7.310510
9.097457
8.591413
8.977652
9.679794
10.918975
10.645986
10.686517
11.063814
11.620522
10.880828
11.625886
11.920929
11.707544
11.399984
11.869669
11.939406
11.659861
11.599660
11.758804
11.987686
12.779832
13.133883
12.886524
12.123585
12.230873
12.462735
12.964606
##ZVALUE=265
0.730753
0.849962
0.817776
0.774860
0.863671
0.901818
0.867844
0.950694
0.958443
1.248717
1.107454
1.139641
1.595616
1.432896
3.201962
16.265512
40.829778
110.535622
203.177929
397.430658
574.864745
735.552907
895.004869
924.324989
824.362636
700.539947
507.280827
354.421735
195.095539
121.440887
78.497529
68.956614
77.522993
107.217431
129.126906
146.164894
152.030587
143.370628
129.858851
102.930665
83.135962
57.622790
41.879416
25.738478
17.394423
12.786984
10.341406
9.743571
9.196997
8.855462
8.882880
8.139610
8.173585
7.606745
7.365942
6.894469
6.578565
7.038713
6.453991
6.277561
5.936623
6.561875
6.375909
6.826520
5.770922
6.653666
6.439686
7.114410
7.219911
8.126497
8.162856
8.779764
8.419752
8.903742
9.774566
10.093451
10.296702
9.556413
9.576678
10.069609
10.023713
10.042787
10.787845
10.770559
11.187792
10.562539
11.237860
11.572838
11.634827
11.467934
11.703968
11.141896
11.547804
11.163950
11.928678
11.676550
##ZVALUE=270
0.648499
0.665784
0.575781
0.712872
0.859499
0.852942
0.829697
0.592470
0.774860
1.024604
0.856519
0.916719
0.635982
1.122952
1.187921
1.256466
2.080798
5.979538
19.208789
64.407587
132.809877
294.995904
454.768538
682.849884
834.062696
931.457877
906.201005
788.536668
647.163987
436.012745
298.466682
155.421495
97.899437
61.530471
61.993599
83.701611
102.591515
129.449964
142.737627
149.305463
144.801736
125.945807
107.134581
79.723001
58.807731
37.827492
26.355982
15.889406
11.803508
9.055734
7.999539
7.531643
7.718801
6.915927
7.469654
6.380677
5.988479
6.479621
6.490946
6.589890
5.955696
6.403923
6.282926
6.170869
6.310940
5.903840
6.619692
7.032752
6.785989
7.103682
7.293820
8.395910
8.190870
8.938909
9.015799
9.188652
8.879900
9.610653
9.392500
9.636879
9.813905
9.344816
9.413958
9.852648
9.831786
10.338426
10.238886
9.763837
10.746717
10.063648
10.355711
10.952950
10.779500
11.174679
10.401607
10.527968
##ZVALUE=275
0.594854
0.597835
0.775456
0.626445
0.473857
0.691414
0.466704
0.711679
0.605583
0.560880
0.833869
0.734925
0.810623
0.980496
0.959635
0.980496
0.953674
1.286864
1.270771
3.958941
13.351440
35.146475
106.293559
204.749703
406.141877
562.829971
759.149790
873.165727
928.719640
872.268677
721.886754
563.227534
397.177935
212.738514
124.127865
63.549876
47.780871
57.248473
74.956417
101.700425
121.444464
140.008926
145.187974
138.658881
124.403834
100.739598
80.615878
55.486560
39.464831
24.069548
16.668439
9.863973
8.575916
7.362962
7.012486
6.749630
6.668568
6.172657
6.591678
6.508827
6.306767
6.252527
6.307960
6.276965
6.786585
6.792545
6.606579
6.518960
7.292628
7.862449
7.841587
8.402467
8.414984
8.463860
8.793473
9.216666
9.469986
9.267926
8.896589
9.267926
9.494424
9.503961
9.483695
9.010434
9.206533
9.244680
9.651780
9.966493
9.644628
9.523630
10.266900
9.934902
10.008812
10.083914
9.965897
9.659529
##ZVALUE=280
0.565648
0.594854
0.558496
0.599623
0.505447
0.568628
0.606775
0.563860
0.523925
0.604987
0.650883
0.753999
0.793934
0.926852
0.799894
0.896454
0.796914
0.845790
0.853539
1.268983
1.192689
1.599789
7.738471
25.745630
83.382726
156.613588
296.029449
450.325608
672.159791
801.885724
887.209773
904.522538
823.720694
625.416636
464.316607
264.858007
155.651569
73.425770
43.871999
39.298534
51.093698
74.198842
94.792843
119.962692
134.173632
138.525963
135.459900
117.826462
102.527738
73.677897
55.181980
35.024881
23.937821
13.749599
9.766817
7.018447
6.238818
6.763935
6.112456
6.549954
6.419420
6.718636
6.335974
6.872416
6.745458
7.096529
7.024407
7.373691
7.506609
7.580519
8.136630
8.228421
9.014606
8.875728
8.874536
9.051561
8.845925
9.214878
9.405613
9.583831
9.175539
9.398460
9.537935
9.115934
9.558797
9.494424
9.752512
9.669662
8.819699
9.394884
9.556413
9.611845
9.449720
9.527802
9.159446
9.524822
##ZVALUE=285
0.590682
0.496507
0.585914
0.637770
0.446439
0.712872
0.521541
0.582933
0.600815
0.710487
0.574589
0.624657
0.611544
0.679493
0.685453
0.757575
0.812411
0.717640
0.877976
1.027584
1.067519
1.219511
1.396537
1.700521
3.806949
12.478828
44.186711
98.011494
219.899416
355.378985
586.297512
776.418447
939.007998
1015.785933
990.488529
806.996822
623.883605
379.800797
231.521726
107.602477
54.880977
30.219555
32.045841
48.594475
66.642761
92.877746
110.036731
129.311681
134.570599
130.101442
120.600462
99.054575
79.360604
53.886771
38.160682
22.597909
14.603734
9.438992
7.760525
6.976724
6.560683
6.859899
7.165670
6.981492
7.380843
7.251501
6.942749
7.370710
7.924438
8.046627
8.486509
9.073615
9.136796
8.944869
9.309649
9.879470
9.814501
9.672642
9.387732
9.445548
9.743571
9.382963
9.473562
9.518862
8.870959
9.567738
9.783506
9.622574
9.571910
9.755492
9.196997
9.425879
8.962750
9.080768
9.270906
9.367466
##ZVALUE=290
0.620484
0.637770
0.472665
0.446439
0.524521
0.489950
0.584722
0.500679
0.533462
0.606775
0.469685
0.504851
0.500679
0.652671
0.643730
0.731945
0.646710
0.729561
0.724792
0.694990
1.025796
1.003742
1.012683
1.146793
1.274943
1.260638
1.630783
5.251765
25.849938
61.345696
82.033873
269.474983
450.832844
744.834542
939.397812
1015.785933
1015.785933
938.218832
752.128959
484.147668
311.817527
149.329901
76.760650
30.695796
22.842884
30.392408
43.241978
64.582825
83.666444
106.832981
120.970607
129.499435
129.327774
115.645528
99.302530
73.978901
55.329800
36.322474
24.566650
15.193820
11.390448
8.175969
7.667542
7.710457
7.393956
7.647872
7.779598
8.211732
8.887649
8.749962
8.827448
9.173751
9.565949
9.910464
9.893775
9.761453
9.513497
9.880662
9.454489
9.912848
9.535551
10.100603
9.922981
9.596944
9.672642
9.753704
9.651780
10.029674
9.638667
9.621978
9.787679
9.062886
9.166598
9.024739
9.249449
9.128451
##ZVALUE=295
0.492930
0.509620
0.555515
0.561476
0.454783
0.574589
0.501871
0.533462
0.550747
0.509620
0.504851
0.471473
0.678897
0.594854
0.556707
0.603795
0.658631
1.027584
0.809431
0.730753
0.810623
0.618696
0.902414
0.879765
0.886917
1.208782
1.240969
1.250505
1.530647
2.470613
8.323789
36.923885
86.620450
216.301680
381.800532
678.585768
898.798704
1015.784740
1015.784740
1015.784740
873.287916
592.196584
393.756628
202.120543
106.595755
40.754676
22.451878
19.131899
25.964975
42.303801
57.561994
81.930757
99.927783
117.745996
122.918487
121.704936
111.475587
92.967749
73.920488
51.847696
38.812757
23.819804
16.854405
11.314750
9.368658
8.540750
8.256435
8.355975
8.822680
9.253621
9.522438
9.321570
10.008812
9.978414
9.883642
10.484457
10.013580
9.976625
10.118484
9.794831
9.750724
9.709597
10.037422
9.512901
10.109544
9.590983
10.062456
9.796619
9.539723
9.500980
9.503961
9.838939
9.570718
9.292960
9.310842
8.607507
##ZVALUE=300
0.425577
0.417829
0.474453
0.536442
0.336766
0.374913
0.478625
0.541806
0.575781
0.500679
0.498891
0.495911
0.471473
0.554919
0.530481
0.463724
0.709891
0.408888
0.665784
0.676513
0.588894
0.844598
0.754595
0.782609
0.897646
0.959635
0.956655
1.086593
1.132488
1.277924
1.402497
1.770854
5.481839
18.901825
65.980554
138.708949
319.422483
521.518588
811.555982
991.349816
1015.785933
1015.785933
917.828679
725.841522
456.425548
287.981629
142.202973
74.698925
27.904510
16.076565
16.729832
23.355484
37.455559
51.977634
74.861646
93.537569
111.232996
118.053555
117.400885
109.276772
90.993643
75.153708
53.707957
39.461851
25.129914
17.610788
12.344718
10.302663
9.624958
9.388924
9.950995
9.886622
9.751916
9.866953
10.063648
10.202527
10.195971
10.231733
10.436773
9.867549
10.308623
10.197759
10.321736
9.737611
10.453463
9.835958
9.782910
9.540915
9.804964
9.326935
9.328723
9.648800
9.531975
9.413958
9.179711
9.365678
##ZVALUE=305
0.485778
0.687838
0.518560
0.507832
0.508428
0.401735
0.495911
0.385642
0.380874
0.475645
0.416636
0.454783
0.375509
0.582933
0.563860
0.562668
0.468493
0.497699
0.583529
0.744462
0.746846
0.609756
0.677705
0.712872
0.712872
0.730753
0.809431
0.980496
0.941753
1.058578
0.963807
1.320839
1.140833
1.747608
2.493858
12.455583
36.405921
112.094879
211.777687
413.828492
592.799783
824.278593
941.621661
973.870754
895.280838
690.851808
531.543493
332.254767
205.252767
94.811916
46.738982
18.275976
12.478828
15.343428
22.513866
36.584735
51.720738
72.916746
88.252425
104.978681
111.986995
110.767484
104.275942
87.489486
71.465969
50.072670
36.934614
24.414659
17.446876
11.909604
10.282993
9.864569
9.543896
9.702444
9.414554
9.659529
9.608865
9.722710
9.976625
10.045767
9.910464
9.803772
10.144711
10.043979
10.368824
9.979606
10.203719
10.156631
9.717941
9.476542
9.484887
9.228587
9.475946
9.474754
8.973479
8.994937
##ZVALUE=310
0.496507
0.456572
0.430942
0.487566
0.370741
0.449419
0.468493
0.373721
0.453591
0.492930
0.477433
0.456572
0.320673
0.481606
0.416636
0.527501
0.553727
0.400543
0.422597
0.657439
0.537634
0.548959
0.477433
0.536442
0.483990
0.651479
0.597835
0.564456
0.716448
0.777841
0.840425
0.970960
1.048446
1.062751
1.204610
1.146793
1.266599
5.188584
17.804503
60.814619
123.731494
261.170864
406.946540
615.049601
756.802559
865.370631
862.594843
759.702921
628.131032
416.799784
278.334618
137.731433
75.004697
28.199553
13.724566
10.414720
12.882948
21.001697
29.722452
46.882629
61.392784
82.716942
96.051693
105.821490
107.704997
98.746419
86.615682
69.730878
53.577423
35.826564
26.367903
17.078519
13.707876
10.645986
9.872913
9.392500
9.271502
9.501576
9.196997
9.532571
9.720922
9.627938
10.081530
9.665489
9.795427
9.776950
9.950995
9.738803
9.575486
9.799600
9.583831
9.321570
9.168983
9.449720
8.956790
9.064674
##ZVALUE=315
0.423789
0.450611
0.446439
0.431538
0.352859
0.480413
0.428557
0.344515
0.442863
0.284910
0.459552
0.422597
0.496507
0.482798
0.304580
0.450611
0.362992
0.343919
0.509620
0.327826
0.417829
0.513792
0.483990
0.404716
0.605583
0.645518
0.626445
0.725985
0.610948
0.699759
0.584722
0.701547
0.778437
0.883937
0.892878
0.882745
1.040697
1.046658
1.370907
2.045631
11.216998
32.580495
96.887946
180.336833
353.670716
512.627959
705.872774
813.803673
871.068835
824.662447
670.396686
527.467728
327.542424
204.590559
94.781518
45.881867
15.691519
9.860992
9.690523
12.360811
19.608736
27.368665
43.049455
56.986809
76.772571
89.816451
98.691583
100.748539
93.642473
81.961751
63.397884
51.043630
35.583973
26.102662
17.022491
13.016462
10.833740
9.692907
9.445548
9.245872
9.278655
9.249449
9.789467
9.473562
9.755492
9.574890
9.699464
9.887815
9.645820
9.936690
9.172559
9.581447
9.072423
9.122491
9.238720
9.003878
##ZVALUE=320
0.418425
0.418425
0.418425
0.229478
0.455976
0.492930
0.372529
0.395775
0.375509
0.373721
0.518560
0.501871
0.455976
0.583529
0.527501
0.659823
0.537634
0.494719
0.567436
0.436902
0.462532
0.496507
0.669956
0.415444
0.524521
0.451803
0.704527
0.686646
0.702739
0.740886
0.683665
0.663996
0.827909
0.660419
0.886917
0.751615
0.888705
1.019835
0.948906
1.168847
1.249909
1.601577
3.946424
21.465421
55.127740
146.319866
249.368548
429.211855
587.923527
779.125690
862.603784
865.698457
782.582760
599.317551
438.082814
244.189501
140.165687
60.038567
27.726889
10.465980
8.213520
9.028912
11.144876
17.235875
24.887919
39.661527
53.093433
70.659518
82.962513
94.445944
95.810890
90.863705
80.746412
62.866807
49.291849
34.163594
24.692416
17.208457
13.400912
10.809898
9.674430
9.800792
9.389520
9.932518
9.632707
9.879470
9.519458
9.663701
9.427667
9.641647
9.200573
9.587407
9.282827
9.102821
9.287000
8.994937
##ZVALUE=325
0.467896
0.474453
0.384450
0.406504
0.447631
0.454783
0.332594
0.402927
0.535846
0.314713
0.337958
0.319481
0.453591
0.429749
0.497699
0.492930
0.568628
0.455976
0.289679
0.504851
0.441670
0.430942
0.534654
0.584722
0.573993
0.477433
0.641942
0.599623
0.493526
0.533462
0.522733
0.547767
0.711679
0.820756
0.819564
0.729561
0.839829
0.595450
0.860691
0.809431
0.967979
1.001954
1.134872
1.453757
2.543926
13.452768
36.311746
99.206567
182.972550
355.363488
510.518551
711.171627
822.745562
868.690610
813.318491
642.582774
487.059951
295.305848
176.894665
77.843666
38.542747
13.808608
8.138418
7.614493
8.375645
11.199713
15.912652
25.404692
36.651492
53.876638
66.387653
81.064701
87.678432
89.447498
84.622502
72.680712
59.927702
45.056939
32.956600
22.300482
16.623735
12.080669
10.493994
9.824634
9.889603
9.416938
9.355545
9.265542
9.224415
9.140968
9.237528
8.961558
8.986592
8.875728
8.987784
8.936524
##ZVALUE=330
0.246763
0.281930
0.302792
0.308752
0.396967
0.442863
0.349879
0.466704
0.355840
0.362992
0.296831
0.439882
0.253916
0.477433
0.362992
0.414848
0.586510
0.365973
0.392795
0.550747
0.520945
0.460744
0.463724
0.435710
0.526905
0.549555
0.463724
0.410676
0.487566
0.448823
0.451803
0.608563
0.723600
0.634789
0.580549
0.588894
0.684857
0.578761
0.798702
0.551939
0.797510
0.922680
0.951886
0.954866
1.008511
1.056790
1.438856
5.796552
18.994808
64.525604
129.290819
269.227028
411.901474
618.969798
755.866766
846.185684
821.951032
690.187812
547.816753
356.251597
227.131844
107.615590
55.347681
20.700693
10.130405
7.080436
7.397532
8.216500
9.969473
16.092658
23.361444
35.788417
48.030615
64.263940
75.056553
84.158778
84.753633
79.499483
70.367455
54.603815
43.080449
30.508637
22.922754
16.567707
13.317466
10.942817
9.971857
9.193420
9.247661
8.807778
8.631945
9.013414
8.669496
8.752942
8.914471
8.559823
##ZVALUE=335
0.367761
0.376701
0.554919
0.376701
0.416636
0.381470
0.344515
0.281930
0.431538
0.431538
0.429749
0.446439
0.439882
0.339746
0.369549
0.368953
0.422597
0.224710
0.352859
0.442863
0.266433
0.519753
0.373721
0.415444
0.395775
0.568628
0.372529
0.426769
0.465512
0.401735
0.513792
0.460744
0.599623
0.578761
0.603795
0.685453
0.605583
0.698566
0.653863
0.593662
0.748634
0.692606
0.751615
0.824928
0.865459
0.921488
1.085997
1.243949
1.303554
2.804995
9.547472
39.214492
84.482431
194.567442
322.050452
523.751974
665.747523
784.288645
808.534026
725.235939
608.275533
414.929986
281.553864
146.156549
77.058673
28.145909
13.471842
7.701516
7.176995
7.387996
8.014441
10.640621
14.667511
23.706555
33.541918
48.877001
59.530735
71.462989
77.680945
79.243779
74.159503
63.251853
54.522753
41.854978
33.040643
23.105741
17.234683
13.208985
10.979772
9.415746
9.075999
8.871555
8.754730
8.646846
8.495450
8.411407
##ZVALUE=340
0.273585
0.374913
0.433922
0.365973
0.335574
0.282526
0.402927
0.330806
0.483990
0.341535
0.278950
0.535846
0.433922
0.360608
0.413656
0.384450
0.286698
0.338554
0.525713
0.244975
0.217557
0.438690
0.313520
0.476837
0.439882
0.434518
0.442863
0.518560
0.481606
0.466704
0.441670
0.340939
0.382662
0.395775
0.497699
0.554919
0.434518
0.652671
0.593662
0.734925
0.737906
0.616908
0.484586
0.840425
0.720620
0.714660
0.768900
0.806451
0.915527
1.023412
1.174808
1.617670
4.728436
23.463964
59.271455
148.651600
258.953571
438.001752
570.036769
708.051920
757.503510
722.730756
631.594658
467.993617
330.435634
175.288916
98.066926
40.997863
17.798543
8.049607
6.859899
7.080436
7.324815
8.570552
10.421872
15.596747
21.392703
33.500791
43.785572
57.763457
67.101717
73.674917
75.097680
70.858002
64.159632
51.238537
41.983724
30.119419
23.343563
16.204715
13.040900
10.143518
9.119511
8.568764
8.467436
8.100867
##ZVALUE=345
0.253916
0.282526
0.368953
0.404716
0.286698
0.298619
0.502467
0.419617
0.480413
0.351667
0.340939
0.211596
0.284910
0.350475
0.173450
0.410676
0.188947
0.369549
0.424981
0.546575
0.393987
0.456572
0.471473
0.529885
0.417829
0.369549
0.494719
0.525713
0.324845
0.332594
0.503659
0.459552
0.481606
0.441670
0.463724
0.561476
0.604987
0.660419
0.603795
0.524521
0.740886
0.653863
0.709891
0.638962
0.749826
0.589490
0.630617
0.739694
0.591874
0.775456
0.877976
1.003742
1.134872
1.164675
2.519488
10.270476
43.095946
88.976622
192.550421
303.382874
478.387475
602.472425
706.883669
722.501874
649.070740
537.369847
369.780660
244.373679
115.073919
57.604909
20.679832
10.627508
7.003546
6.814599
6.842613
7.002950
7.898808
9.627938
14.352798
20.102859
31.140447
40.137768
51.512718
60.317516
67.156553
68.898797
66.283941
60.526729
49.596429
40.374994
30.028820
22.643805
16.188622
12.565851
9.649992
8.595586
##ZVALUE=350
0.348687
0.287890
0.384450
0.350475
0.376701
0.362992
0.306964
0.286698
0.236630
0.311732
0.368953
0.336766
0.187755
0.350475
0.419617
0.450611
0.386834
0.360608
0.382662
0.331998
0.249743
0.361800
0.326633
0.349879
0.420809
0.342727
0.500679
0.446439
0.502467
0.412464
0.496507
0.396967
0.426769
0.498891
0.358820
0.439882
0.481606
0.539422
0.581741
0.553727
0.514984
0.518560
0.503659
0.546575
0.496507
0.467896
0.492930
0.600815
0.685453
0.772476
0.803471
0.729561
0.711679
0.791550
0.891685
1.004934
1.451969
6.458759
20.784736
66.450834
128.083825
256.393552
376.829505
537.009835
638.844967
700.019598
676.766634
558.174849
431.223512
268.412828
162.340999
74.102879
35.818815
12.414455
7.454753
6.697774
6.417632
6.350875
6.513000
7.385612
8.863807
13.200641
18.156767
27.019978
35.195947
46.303868
53.643584
60.851574
63.501000
61.972737
56.725740
46.787858
38.504601
28.849840
21.877885
15.945435
##ZVALUE=355
0.171661
0.402927
0.309944
0.261664
0.382662
0.297427
0.270605
0.346899
0.324845
0.359416
0.283718
0.256896
0.363588
0.282526
0.306964
0.171661
0.159740
0.459552
0.407696
0.418425
0.381470
0.483990
0.432730
0.189543
0.563860
0.461936
0.335574
0.296831
0.345707
0.119805
0.340939
0.365973
0.445843
0.484586
0.352859
0.430942
0.495911
0.549555
0.458956
0.525713
0.565648
0.540614
0.544786
0.506639
0.482798
0.499487
0.539422
0.539422
0.497699
0.553727
0.582933
0.616908
0.788569
0.586510
0.694990
0.917912
0.875592
1.050830
1.181960
3.135800
10.862947
42.544603
89.339614
188.487768
300.927758
468.488932
581.226945
666.980743
671.885014
581.895709
474.152565
318.942666
203.369856
91.641545
45.325756
15.822649
8.421540
6.401539
5.895495
6.237626
6.096959
6.283522
7.034540
8.367896
10.919571
16.402602
22.199750
31.630993
39.324760
48.985481
53.876638
57.209730
56.868792
50.845742
44.323802
35.623908
##ZVALUE=360
0.452995
0.443459
0.287890
0.184774
0.297427
0.129938
0.275970
0.202656
0.389814
0.320673
0.330806
0.372529
0.369549
0.309944
0.255704
0.237823
0.183582
0.326633
0.342727
0.321865
0.338554
0.319481
0.407696
0.478625
0.358820
0.544786
0.285506
0.380874
0.442863
0.384450
0.315905
0.427961
0.352859
0.560880
0.495911
0.277758
0.441670
0.547767
0.483990
0.464916
0.473857
0.537634
0.387430
0.509620
0.388622
0.410676
0.550747
0.458956
0.554919
0.705719
0.611544
0.560880
0.518560
0.679493
0.700951
0.683665
0.726581
0.945926
0.874996
0.930429
1.038909
1.589656
4.687905
21.821856
53.976774
135.092735
227.430463
374.038815
499.622822
622.506738
655.565858
613.922477
522.978902
362.184644
244.101882
121.225715
64.578652
25.226474
11.429787
6.188750
5.944967
5.796552
5.750656
5.781651
5.704761
6.131530
7.207990
9.318590
12.666583
18.794537
25.159717
34.881830
41.695833
47.663450
51.442981
52.215457
##ZVALUE=365
0.272989
0.267625
0.331998
0.297427
0.398755
0.289679
0.421405
0.276566
0.248551
0.183582
0.237823
0.352859
0.317693
0.285506
0.368953
0.513792
0.501871
0.486970
0.450611
0.294447
0.414848
0.358820
0.394583
0.343919
0.248551
0.404716
0.328422
0.360608
0.455976
0.442863
0.445843
0.296831
0.472665
0.385642
0.442863
0.565648
0.429749
0.405908
0.489950
0.469685
0.469685
0.332594
0.458956
0.471473
0.488758
0.477433
0.484586
0.454783
0.506639
0.525713
0.605583
0.801682
0.635982
0.684857
0.717640
0.800490
0.643730
0.645518
0.710487
0.743866
0.796914
0.927448
1.003742
1.173615
2.398491
12.071729
32.427907
88.727474
165.576935
311.550498
426.762700
552.884936
621.089935
620.360970
552.303791
408.430696
293.586850
163.366795
90.869665
34.751892
15.084743
6.592870
5.563498
5.345941
5.304813
5.055666
5.164742
5.093813
5.466938
6.428957
7.637739
11.127591
15.109777
22.595525
28.700829
36.969781
##ZVALUE=370
0.327826
0.220537
0.364780
0.294447
0.240803
0.275970
0.347495
0.308752
0.368953
0.276566
0.386834
0.298619
0.307560
0.316501
0.360608
0.323653
0.417829
0.261664
0.483990
0.329614
0.354648
0.290871
0.280738
0.324845
0.351667
0.260472
0.278950
0.385642
0.307560
0.278950
0.374913
0.317693
0.425577
0.421405
0.362992
0.410676
0.363588
0.448823
0.421405
0.231862
0.332594
0.324845
0.501871
0.659823
0.497699
0.491738
0.550747
0.563860
0.486970
0.500679
0.507832
0.556707
0.496507
0.412464
0.609756
0.520945
0.545979
0.624657
0.814795
0.672936
0.874996
0.813603
0.900626
0.875592
1.045465
1.061559
1.495481
6.106496
20.233989
67.383647
127.021670
242.339969
358.361602
511.386991
590.751767
620.226860
572.678447
455.529690
339.994431
192.960501
110.241771
44.927597
21.393895
8.884668
5.686879
4.736781
4.754663
4.641414
4.688501
4.580617
4.569888
4.984736
5.583763
6.880760
9.330511
13.703704
##ZVALUE=375
0.403523
0.214577
0.254512
0.276566
0.195503
0.238419
0.403523
0.313520
0.352859
0.465512
0.336766
0.482798
0.420809
0.290871
0.386834
0.163913
0.256896
0.314713
0.514984
0.527501
0.331998
0.371933
0.412464
0.636578
0.272989
0.301600
0.215769
0.385642
0.312924
0.328422
0.386834
0.348687
0.433922
0.513792
0.397563
0.430942
0.567436
0.289679
0.410676
0.402927
0.441670
0.428557
0.278950
0.432730
0.273585
0.404716
0.387430
0.383854
0.532866
0.329614
0.412464
0.452995
0.567436
0.625849
0.606775
0.620484
0.479817
0.441670
0.401735
0.612736
0.702739
0.760555
0.765920
0.820756
0.938773
0.742674
0.846982
0.877976
1.124740
2.991557
10.962486
39.043427
84.924698
191.161633
299.353600
454.144478
549.881458
614.868999
600.761771
504.104495
392.155647
244.271755
156.230927
78.177452
39.789677
13.993979
6.975532
4.602671
4.553795
4.544854
4.259944
4.271865
4.122853
4.248619
4.288554
4.936457
##ZVALUE=380
0.123978
0.249743
0.208616
0.181794
0.144839
0.248551
0.204444
0.283718
0.242591
0.295639
0.250936
0.296831
0.264645
0.317693
0.288486
0.345707
0.250936
0.371933
0.446439
0.371933
0.275970
0.204444
0.247955
0.351667
0.459552
0.321865
0.184774
0.328422
0.205636
0.313520
0.405908
0.261664
0.446439
0.344515
0.384450
0.427961
0.450611
0.325441
0.332594
0.336766
0.348687
0.359416
0.443459
0.387430
0.360608
0.304580
0.508428
0.359416
0.489950
0.417829
0.512600
0.342727
0.403523
0.452995
0.561476
0.359416
0.467896
0.525713
0.494719
0.420809
0.576973
0.508428
0.472665
0.671744
0.537634
0.614524
0.737906
0.699759
0.840425
1.146793
1.127720
1.802444
5.726814
26.542544
63.575506
150.481462
245.086551
390.095711
499.560833
598.871708
607.761741
533.689857
442.816615
310.842991
211.716890
104.603767
54.752827
20.231605
9.404421
4.962683
4.033446
3.986955
3.954768
4.077554
4.048944
3.963709
##ZVALUE=385
0.281930
0.349879
0.259876
0.300407
0.310540
0.397563
0.300407
0.119805
0.244975
0.260472
0.425577
0.262856
0.154972
0.277758
0.290871
0.414848
0.459552
0.373721
0.215769
0.296831
0.277758
0.249743
0.318885
0.306964
0.379682
0.372529
0.183582
0.310540
0.263453
0.361800
0.389814
0.312924
0.385642
0.321865
0.364780
0.325441
0.353456
0.344515
0.409484
0.330806
0.262856
0.359416
0.465512
0.392795
0.198483
0.374913
0.263453
0.396967
0.422597
0.372529
0.286698
0.466704
0.407696
0.442863
0.483990
0.451803
0.546575
0.390410
0.517964
0.455976
0.512600
0.573993
0.472665
0.542998
0.548959
0.627637
0.541806
0.603795
0.653863
0.916719
0.886917
0.971556
1.043677
1.243949
2.818704
15.345812
39.559007
102.080703
181.870461
325.000882
440.130830
554.483533
591.948628
571.159720
503.392816
374.177694
267.408490
147.984624
84.508657
35.613775
15.303493
5.450845
4.072785
3.797412
3.709793
3.763437
##ZVALUE=390
0.286698
0.277758
0.276566
0.356436
0.274777
0.170469
0.152588
0.290871
0.380874
0.273585
0.288486
0.244975
0.234842
0.333786
0.321865
0.183582
0.394583
0.329614
0.407696
0.304580
0.377893
0.464916
0.184774
0.298619
0.223517
0.365973
0.371933
0.337958
0.402927
0.414848
0.368953
0.206828
0.204444
0.386834
0.432730
0.497699
0.299811
0.284910
0.457764
0.400543
0.219941
0.137687
0.363588
0.320673
0.406504
0.378489
0.423789
0.335574
0.455976
0.444651
0.136495
0.471473
0.261664
0.391603
0.292659
0.421405
0.420809
0.485778
0.608563
0.419617
0.474453
0.527501
0.548959
0.694990
0.558496
0.633597
0.621676
0.728965
0.655651
0.761747
0.890493
0.738502
0.911951
0.930429
1.014471
1.054406
1.564622
7.949471
24.807453
76.204538
143.565536
272.554755
378.548503
498.707891
566.834807
592.414737
551.532507
440.201759
336.838961
206.682682
120.575428
50.722957
23.539662
7.487535
4.242659
3.581643
##ZVALUE=395
0.113845
0.240803
0.151992
0.231862
0.165701
0.105500
0.210404
0.184774
0.152588
0.158548
0.182986
0.177622
0.123978
0.200868
0.088811
0.321865
0.265837
0.179410
0.219941
0.242591
0.227690
0.101924
0.221729
0.162721
0.212789
0.226498
0.216961
0.351667
0.275970
0.281930
0.307560
0.323653
0.231862
0.351667
0.235438
0.244975
0.280738
0.124574
0.330806
0.213981
0.362992
0.210404
0.307560
0.253916
0.381470
0.299811
0.296831
0.379682
0.231862
0.277758
0.339746
0.166893
0.188947
0.338554
0.305772
0.375509
0.189543
0.139475
0.369549
0.343919
0.382662
0.397563
0.172853
0.350475
0.568628
0.336766
0.467896
0.564456
0.555515
0.649691
0.552535
0.684857
0.717640
0.714660
0.724792
0.708699
0.778437
0.768900
0.881553
4.075766
15.132427
54.171681
103.839636
200.486779
301.222801
446.043015
538.598895
602.252483
591.128469
507.798791
401.505828
250.261426
157.188773
69.835782
33.623576
11.883974
##ZVALUE=400
0.103712
0.131726
0.178814
0.094771
0.075698
0.026822
0.069737
0.118613
0.104904
0.195503
0.175834
0.084639
0.146627
0.247955
0.084639
0.108480
0.351667
0.326633
0.266433
0.321865
0.213981
-0.035763
0.195503
0.123978
0.154972
0.203848
0.151992
0.098944
0.306964
0.225902
0.168681
0.008941
0.090599
0.345707
0.173450
0.184774
0.244975
0.289679
0.217557
0.168681
0.164509
0.266433
0.289679
0.376701
0.186563
0.380874
0.257492
0.264645
0.309944
0.240803
0.159740
0.249743
0.294447
0.196695
0.151992
0.338554
0.333786
0.390410
0.347495
0.390410
0.323653
0.464916
0.431538
0.379682
0.403523
0.405908
0.390410
0.345707
0.506639
0.512600
0.693798
0.523925
0.561476
0.502467
0.566840
0.589490
0.552535
0.682473
0.596642
0.875592
0.853539
2.346635
8.092523
29.919744
65.918565
150.630474
242.598653
383.618474
482.096672
568.136573
585.875511
523.411632
431.332588
288.988948
191.191435
97.356439
##END
