##TITLE=FQP00351
##FORMAT=SPECTACLE-ASCII V-1.2
##DATA TYPE=ULTRAVIOLET SPECTRUM
##SECOND TYPE=ULTRAVIOLET SPECTRUM
##DATE=02/01/18
##TIME=15:22:57
##SPECTROMETER/DATA SYSTEM=SPECTACLE
##XUNITS=NM EM
##YUNITS=ENERGY
##YFACTOR=1
##FIRSTX=220
##LASTX=410
##NPOINTS=96
##3DDATA=Equidistant
##ZUNITS=NM EX
##FIRSTZ=210
##LASTZ=400
##ZPOINTS=39
##XYDATA=(Y..Y)
##ZVALUE=210
1.548529
1.734495
2.215505
1.738667
1.934767
2.051592
2.377629
2.025962
2.073646
2.022982
2.938509
2.161860
2.373457
2.177954
2.224445
2.634525
2.655983
2.856851
2.617836
3.278852
2.795458
3.160834
3.515482
3.705621
4.097819
3.744960
4.091859
4.368424
3.775954
4.787445
5.164742
4.325509
4.841685
5.170703
4.328489
4.866719
4.963875
5.240440
5.069971
4.828572
4.873872
5.836487
5.065799
5.499721
5.756617
5.653501
5.925894
5.141497
6.236434
5.901456
6.699562
6.209612
6.051660
6.104708
5.862713
5.772710
6.334782
6.853938
6.226897
5.939603
6.180406
6.557703
6.636977
6.326437
7.209778
6.327629
6.929636
8.200407
9.887815
10.982752
12.044907
14.057755
16.118884
17.936826
18.943548
21.260977
22.129416
21.514893
22.896528
21.515489
21.527410
20.049810
16.033649
13.890862
12.530684
9.992719
7.659793
6.311536
6.310940
5.629659
5.748868
5.346537
5.738735
6.146431
6.255507
6.314516
##ZVALUE=215
6.399751
5.722642
5.000830
4.876852
4.430413
4.227757
4.221797
4.725456
4.415512
4.640818
4.729629
4.362464
4.415512
3.471971
3.499985
2.753735
2.644658
3.112555
2.879500
3.268719
4.446507
3.822446
3.509521
3.930926
4.361868
4.087687
4.793406
4.641414
5.450845
5.204678
5.083680
5.678535
5.853772
6.257892
6.629825
6.414652
6.709695
6.859899
6.860495
7.094741
5.566478
5.945563
6.557703
6.037951
6.362796
5.784631
5.930662
5.296469
6.250739
6.633997
6.901622
7.270575
6.774664
6.022453
6.412864
6.904602
6.308556
6.641746
6.885529
6.820560
6.310940
6.677508
7.347465
6.687641
7.847548
6.822944
7.593632
8.651614
9.174943
10.458827
10.856986
13.550520
15.501976
17.182827
19.433498
19.937754
21.294951
21.620989
20.354986
19.032955
17.775893
15.753508
15.001893
12.285709
10.225773
8.841753
7.362962
6.669760
6.330609
5.725622
6.126761
5.968809
5.293489
5.244613
5.900860
5.762577
##ZVALUE=220
20.634532
19.446611
21.802783
19.606948
18.913746
15.365481
13.699532
10.990500
9.648800
9.746552
10.677576
11.189580
10.905862
10.224581
7.821918
5.770922
4.980564
3.818870
3.911853
3.121495
3.378987
3.609657
3.754497
4.078746
4.018545
3.893971
4.478693
4.934669
4.560947
5.891919
6.563663
7.157922
6.991625
7.163882
7.302761
7.821918
7.480979
6.605983
6.428957
7.006526
7.444620
7.384419
7.472634
6.217957
5.610585
6.730556
5.885959
5.142689
5.823970
6.056428
6.189942
6.404519
6.619692
6.196499
7.411838
7.074475
6.345510
6.371737
6.344914
6.308556
6.797910
6.539822
6.840825
7.113814
6.853938
6.667972
6.973743
7.019639
7.529855
9.947419
10.492802
12.495518
13.396740
16.023517
15.575886
17.374754
17.221570
19.322634
17.012954
18.609762
16.590953
14.619827
13.072491
10.923743
10.214448
9.778738
8.388758
6.973743
6.389618
6.931424
5.692840
5.745888
6.437898
6.351471
6.580949
6.271601
##ZVALUE=225
37.949681
42.793751
52.301884
70.647001
73.790550
71.050525
66.587925
52.184463
38.346648
31.514764
25.469661
19.597411
23.504496
23.619533
25.374889
23.589730
19.112825
15.597939
13.684630
9.045601
6.118417
4.590750
4.564524
4.096627
4.285574
5.234480
6.324649
6.691813
7.166862
7.712841
8.360744
9.852648
8.503795
9.545684
9.912848
8.732677
9.957552
9.638667
9.335876
9.686947
8.608699
8.501410
9.174943
8.821487
8.095503
8.310676
8.371472
9.041429
9.688735
8.655787
8.308887
9.616613
8.954406
9.057522
8.462667
9.729862
9.889603
9.143949
10.709763
10.554790
11.566877
10.347962
10.033846
10.913610
10.787845
10.715723
12.383461
12.756586
12.675524
13.676882
15.247464
16.560555
18.863678
19.675493
19.121766
19.665956
21.381974
20.230412
16.894937
18.075705
16.165972
14.799833
13.009906
12.604594
12.217760
10.726452
11.430979
9.964705
9.198785
10.478497
9.809732
9.146929
8.826852
9.805560
9.781718
9.152889
##ZVALUE=230
45.732856
48.817992
84.012747
146.355629
193.727612
241.772532
261.693597
269.788504
241.191983
200.134516
137.342811
95.635653
62.444806
46.843886
43.974519
49.850941
51.191449
50.615668
46.249628
35.536885
29.173493
19.155741
14.076829
9.057522
7.547736
7.190704
7.416606
7.403493
9.125471
10.007620
10.320544
10.898709
10.396838
11.350513
10.883808
11.113882
11.748672
11.396408
11.070967
11.434555
11.354685
11.126995
11.307597
10.445714
10.093451
10.717511
10.035634
10.130405
10.716915
11.124611
10.997653
12.552738
13.047457
12.244582
12.336969
12.808442
13.660789
12.322664
14.244914
14.792681
14.800429
15.031695
16.095638
14.754534
13.410449
13.827682
14.974475
15.292764
15.222430
16.982555
19.279718
17.779469
20.226836
22.216439
23.430586
22.589564
21.568537
24.231672
22.871494
19.020438
18.690825
17.183423
15.671849
14.390945
15.187860
13.811588
13.073683
13.525486
12.935996
12.210608
12.513995
12.091994
13.470650
12.906790
12.181997
11.499524
##ZVALUE=235
13.598800
14.619827
38.548708
69.116950
128.486753
180.535913
272.408724
342.598557
397.758484
401.686430
359.705687
292.684436
226.500630
146.303773
105.144978
75.813532
72.839856
79.359412
79.120994
81.879497
77.132583
67.340732
51.185489
39.043427
24.894476
16.421676
10.174513
9.381771
8.311868
7.754564
8.964539
8.563995
8.815527
9.117723
8.615851
9.283423
8.656979
8.901954
9.457469
9.298921
7.709861
9.148717
9.457469
9.526610
9.120703
9.311438
8.214712
9.450912
10.622740
11.016726
12.612939
12.768507
12.558699
13.548732
13.438463
15.418530
14.506578
16.015768
16.073585
16.520619
16.995668
17.180443
17.127991
17.419457
19.197464
18.250942
19.561648
19.610524
19.934773
20.757914
22.440553
23.275614
22.246838
24.798512
26.015639
25.898814
23.784637
23.113489
22.824407
21.704435
22.678971
19.043684
21.290779
19.276738
18.486977
16.934872
16.841888
15.156865
17.231703
16.715527
15.909672
15.454888
17.366409
15.931726
16.286969
15.776753
##ZVALUE=240
1.666546
2.058744
4.523993
16.124845
35.843849
83.996654
142.835975
245.500803
342.275500
419.764519
489.196777
502.871871
453.788638
386.830568
283.224583
198.697448
129.850507
101.393461
91.605783
99.638700
106.464624
113.360882
109.626651
100.036860
85.003972
61.950684
47.122836
32.108426
22.919774
13.782978
12.091994
9.815693
9.125471
9.163618
8.864999
8.585453
9.583831
9.237528
9.612441
8.315444
8.866787
8.388758
9.449720
9.251833
10.149479
9.149909
9.448528
8.790493
10.378957
10.996461
12.183785
11.953712
13.246536
13.751984
15.230775
16.408563
14.610887
17.312765
18.057823
18.051863
18.113852
18.748641
19.293427
19.506812
19.537807
21.180511
20.304918
20.212531
21.561980
22.343993
22.608638
23.801923
24.846792
26.164651
26.240945
25.796890
24.752617
26.289821
25.619864
23.711920
24.560690
23.133755
23.270845
21.615624
21.770597
20.862818
20.824671
21.349788
21.007657
19.612908
19.592643
20.313859
19.562840
18.595457
17.409921
18.660426
##ZVALUE=245
1.098514
1.159906
1.310706
1.387596
3.374815
10.462403
31.303763
68.007708
167.965889
263.161659
417.316556
529.494882
607.324839
639.839768
607.163906
505.615473
401.278734
271.814466
189.132690
118.036866
98.850727
95.730424
111.407638
125.336647
130.856633
123.611689
111.505985
96.248984
69.725513
55.851936
39.283633
25.156736
18.387437
13.627410
11.199713
11.693835
11.252761
10.734797
9.735823
9.198785
9.004474
9.101629
8.910894
9.615421
8.705854
9.845495
9.236932
9.490848
10.708570
11.581779
12.474656
12.435913
13.322830
14.143586
13.817549
14.639497
15.818477
16.205907
16.967654
18.403530
17.667413
18.161535
18.123984
18.764734
18.108487
20.023584
20.646453
18.989444
20.007491
22.045970
22.605658
23.425817
24.449825
25.141835
24.946928
25.270581
25.824904
24.321675
23.224950
24.540424
22.973418
23.600459
23.326874
20.957589
22.531748
21.271706
21.088719
20.555854
19.089580
18.499494
19.834638
19.207597
18.815994
19.665956
18.389821
20.468831
##ZVALUE=250
1.237988
1.272559
1.187921
1.396537
1.522899
1.366735
2.062917
6.759763
20.908713
64.528584
134.502649
294.260979
423.684716
617.544651
734.374523
818.239450
801.572800
690.966845
579.885840
384.538770
268.000960
149.096847
109.632611
98.088980
104.905963
124.749541
134.352446
138.905644
137.718916
118.756890
106.610656
79.371929
60.999990
39.933920
27.067661
18.255711
13.913512
12.250543
10.966659
10.407567
10.679960
10.690689
9.927750
10.746717
9.773970
10.602474
9.814501
9.966493
9.165406
10.970831
11.564493
12.200475
11.643767
13.377666
13.292432
13.536811
14.473796
14.319420
14.246702
14.870763
15.537739
15.042424
15.470982
16.025901
16.552806
16.219616
17.146468
17.211437
17.438531
18.998981
18.873811
18.862486
20.499825
21.259785
21.704435
22.666454
22.504926
21.242499
21.640658
20.609498
20.707846
20.389557
20.312667
21.539927
19.485950
20.188689
20.771623
19.509792
20.412803
18.746853
20.649433
19.183755
18.772483
18.372536
18.078685
18.829703
##ZVALUE=255
1.201630
1.156926
1.104474
0.986457
1.350641
1.160502
1.502633
1.134872
1.461506
4.477501
15.124679
54.306984
112.355947
251.203775
387.428999
539.079905
756.762624
861.451626
899.857879
843.125582
693.194866
532.802939
315.749645
206.805468
189.236999
93.928576
89.007616
105.451941
121.455789
143.457651
145.313740
140.758753
129.937530
103.617907
83.274841
57.337880
41.503906
24.621487
18.662810
12.662411
11.375546
10.142922
9.188652
10.276437
9.067655
9.165406
9.841919
9.716749
9.435415
9.854436
9.211898
10.864735
10.799766
9.983778
10.501742
10.948777
11.396408
11.471510
11.541843
12.076497
12.128949
12.659431
12.987852
12.760758
13.546944
11.980534
12.885928
14.655590
13.511777
14.828444
15.444756
16.421676
17.160773
17.832518
18.928647
19.067526
18.769503
18.342733
18.969774
18.523932
18.516779
17.373562
17.869473
18.063784
18.665791
17.373562
17.782450
17.611980
17.409921
17.935634
17.790794
17.156601
17.731786
17.140508
18.644929
18.115640
##ZVALUE=260
0.890493
0.921488
0.765920
1.242757
1.115799
0.981688
1.199841
1.242757
1.469851
1.204610
1.549721
2.074838
7.168651
29.789805
69.711804
181.537867
309.505463
521.028638
699.877739
918.594599
1006.599665
1005.273461
869.247913
700.252652
465.203524
315.349698
185.236931
120.700598
86.934566
88.379979
101.158619
129.586458
143.727660
151.304603
148.277879
130.771995
111.355782
82.757473
60.216784
39.379001
27.255416
17.165542
13.523698
10.237694
10.096431
9.846687
9.126663
10.517836
10.499954
10.177493
10.993481
10.720491
10.898709
10.843873
11.597872
11.449456
11.262894
11.232495
12.014508
12.176633
12.215972
12.354851
12.719631
13.158917
12.159944
13.076663
13.030767
12.884736
13.591647
14.347434
15.728474
15.030503
15.682578
16.215444
16.555786
16.731620
18.034577
17.409921
17.995834
16.727448
17.009974
16.301870
16.925931
16.885996
16.893744
16.562939
16.476512
16.182661
15.669465
16.435981
16.469955
16.672611
17.770529
16.030669
16.487837
16.528964
##ZVALUE=265
0.877976
0.813603
0.841618
1.041889
0.912547
1.105666
1.209974
1.392961
1.125932
1.449585
1.416802
1.339912
1.564622
1.744628
3.748536
19.214749
47.447681
126.972795
234.310627
464.132428
701.201558
950.436592
1015.785933
1015.785933
1015.785933
979.190469
704.069734
484.223962
255.130529
148.099661
89.043975
70.809722
80.775619
111.457705
131.177902
147.897601
154.758692
146.903992
133.894682
105.261803
85.570812
59.421659
40.565729
25.380850
17.023683
11.875629
10.485649
10.904670
10.417700
10.572672
10.351539
10.099411
10.902882
12.298822
12.149811
11.572838
12.311935
12.492537
12.666583
12.874603
13.350844
13.135672
12.902617
12.735724
13.211966
12.971759
13.373494
13.923645
13.968945
13.760924
14.302731
14.696717
14.957786
16.713738
15.579462
16.514659
17.769933
16.685724
16.415715
16.393661
16.476512
16.565919
15.134811
15.086532
15.610456
15.912652
15.780926
15.717745
15.369654
16.044974
15.256405
15.116930
14.765859
15.475750
15.046597
15.858412
##ZVALUE=270
0.931621
1.192689
1.081824
0.979900
0.818968
1.053810
0.984669
1.046658
1.166463
1.050830
1.198649
1.324415
1.183748
1.548529
1.337528
1.834631
2.272725
9.177923
27.436614
88.572502
182.608962
321.674943
604.035854
861.123800
1015.785933
1015.785933
1015.785933
1015.785933
1004.339457
811.519623
513.746738
320.701003
183.299780
84.402561
66.101551
84.518790
106.965899
133.064985
147.951841
155.889988
147.865415
131.710768
111.074448
79.699755
61.026812
38.181543
26.563406
16.930699
13.120770
10.936856
11.033416
11.383891
11.660457
11.908412
11.922717
13.049841
12.524724
12.722611
13.571978
14.105439
14.326572
14.276505
13.657808
14.043450
14.060736
13.815761
14.426708
15.177727
14.563799
14.991760
15.696883
15.542507
15.432835
15.692711
16.027689
16.237497
15.996695
15.921593
15.441775
15.357733
14.393926
14.948845
14.438629
14.636517
14.404655
14.478564
14.892817
14.108419
14.219880
14.002919
14.932752
14.444590
14.255643
14.354587
14.411807
14.483929
##ZVALUE=275
0.953674
0.834465
0.776649
0.856519
0.764728
0.772476
0.843406
1.042485
1.005530
0.975728
0.976920
1.251698
1.291633
1.400709
1.372695
1.324415
1.376867
1.456738
1.906753
4.526973
15.106797
43.121576
134.153962
259.266496
491.319895
671.823621
895.233750
1015.836000
1015.836000
1015.836000
1015.836000
930.876732
709.694028
401.374698
241.090655
105.853677
61.432719
60.155988
78.242421
105.910897
126.144886
144.059658
149.465799
144.097805
130.487680
102.305412
82.854629
58.023930
42.481422
26.462674
19.438863
14.111996
12.888908
12.494922
12.734532
12.779832
12.863874
14.012456
14.190674
14.606714
15.034676
14.775991
15.082955
14.947653
15.016794
14.771819
15.062690
14.855862
15.191436
15.953779
16.582608
15.460849
15.932918
15.807748
16.688704
16.813874
16.197562
15.874505
15.519857
15.082955
14.579892
14.457703
14.723539
13.505816
14.335513
14.048815
13.830662
13.389587
13.829470
14.074445
13.722777
13.738871
13.624430
13.453960
13.663769
13.862848
##ZVALUE=280
0.762939
0.858903
0.661612
0.851750
0.696778
0.734925
0.614524
0.664592
0.816584
0.692606
0.931621
0.968575
0.968575
1.080632
1.051426
0.960827
0.993609
1.277924
1.192689
1.266599
1.609921
2.275705
8.062720
36.874413
91.705918
222.205520
359.409451
584.383011
760.661960
937.709808
1008.445024
978.316665
872.446895
654.614568
483.724475
278.776884
163.498521
73.822737
44.485927
40.556788
52.351952
78.735948
99.736452
123.958588
138.936639
143.840909
140.104890
124.486685
105.443001
80.713630
60.772896
41.072965
29.217601
20.320415
16.007423
13.711452
13.859868
14.922619
15.996695
15.584826
16.024709
16.159415
16.885996
16.680956
16.701818
16.262531
16.863942
16.633868
16.474724
17.028451
16.683936
16.955733
16.347766
16.197562
16.431808
16.336441
15.783906
16.165972
15.377998
15.646815
14.919639
14.364719
14.377832
14.591813
14.013648
13.859868
13.890862
14.374852
13.269782
13.461709
13.433695
12.812614
13.074875
13.063550
13.014674
12.591481
##ZVALUE=285
0.698566
0.727773
0.716448
0.631809
0.616908
0.678897
0.670552
0.747442
0.683665
0.993609
0.847578
0.711679
0.821948
0.901818
0.890493
0.859499
0.911951
1.207590
0.984669
1.174808
1.237988
1.394749
1.598597
1.791716
4.532933
15.159845
54.955482
119.016767
261.823535
418.161750
589.408875
818.858743
941.427946
991.522670
927.039981
756.003857
588.664412
362.019539
225.457549
106.985569
57.627559
31.646490
32.699704
50.583482
69.722533
98.816752
117.349625
132.329464
142.078996
138.023496
129.117966
108.600855
89.836717
64.004660
47.614574
31.558871
25.241971
20.134449
19.271970
18.476844
18.825531
19.001961
18.704534
18.804669
19.145608
18.646717
19.125938
18.972754
18.953681
18.741488
18.561482
18.417835
18.276572
18.014908
17.977953
16.892552
16.918778
17.001629
16.333461
16.186833
15.663505
15.442967
15.863776
15.323758
14.943480
14.527440
14.317632
13.820529
13.925433
13.159513
13.262630
13.017654
12.804866
12.396574
12.637973
12.757778
##ZVALUE=290
0.618696
0.690818
0.734925
0.632405
0.762939
0.564456
0.727773
0.617504
0.591874
0.733733
0.731945
0.793934
0.634789
0.746846
0.669956
0.907779
0.818968
0.789762
1.002550
1.007915
1.000762
1.065731
1.220703
1.100898
1.446605
1.549721
2.144575
6.499887
31.247735
71.838498
141.380429
300.335884
465.933681
706.055760
851.770639
959.380865
954.107642
822.871923
679.503679
452.056527
301.423669
149.444938
78.550577
33.539534
24.377704
32.664537
46.312809
68.865418
92.233419
116.954446
132.976770
143.850446
141.280890
128.001571
113.715529
87.834001
68.401694
50.385594
38.375854
29.374957
25.958419
22.402406
22.474527
21.412969
20.946860
21.647811
22.232533
21.527410
21.021962
21.116734
20.547509
20.307899
19.922853
19.725561
19.212961
18.630624
18.520951
18.029809
17.944574
17.461777
16.454458
16.661882
16.388893
15.748739
15.711784
14.648438
14.561415
15.135407
14.423728
13.657808
13.947487
13.381839
12.783408
13.175607
12.740493
12.819767
##ZVALUE=295
0.512600
0.513792
0.686646
0.714660
0.512600
0.761747
0.832677
0.529885
0.571609
0.666976
0.599623
0.572801
0.745654
0.802875
0.762939
0.777841
0.801682
0.885725
0.677705
0.820756
0.878572
0.838637
0.824928
1.000762
1.101494
1.210570
1.329780
1.258850
1.702905
2.799630
14.437437
42.243600
97.963810
230.426788
377.306938
606.942773
766.446590
909.811854
950.051546
870.923996
747.945905
536.545515
370.039940
193.992853
108.215809
42.825937
24.142861
21.806955
30.674934
49.636960
67.557693
93.439817
112.933517
133.419633
140.319467
137.456656
128.003955
109.036565
92.917681
69.370866
54.521561
40.386915
32.894611
26.906729
24.740696
23.538470
23.608804
23.391843
23.177862
22.557974
22.419691
21.522641
21.151900
21.168590
20.831823
19.970536
19.500852
19.221902
19.049644
17.837882
18.030405
17.961860
16.372800
16.266704
16.494989
15.989542
15.693903
14.904737
14.734864
13.767481
13.747811
13.569593
13.188720
12.866855
12.621880
12.107491
##ZVALUE=300
0.535846
0.665784
0.659823
0.571609
0.560880
0.549555
0.468493
0.545979
0.686646
0.579953
0.760555
0.561476
0.697970
0.685453
0.686646
0.706911
0.704527
0.785589
0.897646
0.693798
0.720620
0.927448
0.806451
1.004934
1.055598
0.999570
1.118779
1.123548
1.415610
1.509786
1.633763
1.781583
6.409883
22.212863
77.811480
152.156949
317.858458
484.229922
707.851648
841.635466
943.029523
937.221646
809.919834
659.726858
439.646840
285.937786
146.141648
80.579519
33.292770
21.354556
23.803711
31.935573
48.471689
64.882636
88.877678
109.104514
130.616426
135.920644
136.740804
128.889680
111.657977
93.834996
71.552992
57.241917
41.313767
33.823848
27.810931
25.612712
23.984909
23.842454
22.843480
21.960735
22.270679
21.502972
21.242499
20.239949
19.423962
19.726753
19.164681
18.876791
17.973781
17.510653
17.288923
17.010570
16.544461
16.028881
15.327930
14.972687
14.180541
14.400482
14.103651
13.617873
13.315678
13.524890
13.097525
12.433529
##ZVALUE=305
0.563860
0.487566
0.386834
0.524521
0.500679
0.623465
0.638962
0.638962
0.592470
0.527501
0.584722
0.639558
0.726581
0.566840
0.685453
0.680685
0.716448
0.747442
0.665784
0.769496
0.661612
0.790954
0.683665
0.893474
0.937581
0.949502
0.893474
1.125932
1.203418
1.114607
1.294613
1.290441
1.522899
1.534820
3.167987
11.862516
51.963925
115.241408
262.696743
409.245491
631.187558
783.537626
927.300453
950.703621
861.796737
730.880499
524.500012
368.599892
193.798542
111.147761
49.439669
27.905703
20.736456
24.557710
34.943819
46.761632
69.000721
87.283850
107.995868
122.867823
131.716728
131.466985
120.864511
107.154846
86.696744
70.248842
51.058531
40.092468
30.763745
25.860667
22.855997
21.361709
20.357966
20.148754
19.975901
19.339919
19.231439
18.519759
18.034577
17.884970
17.522573
16.901493
16.947985
16.668439
16.149879
15.359521
15.375614
14.490485
14.312863
14.055967
13.775826
13.338923
13.042688
12.844801
12.404919
12.226701
##ZVALUE=310
0.508428
0.520945
0.437498
0.583529
0.504851
0.543594
0.672936
0.572801
0.421405
0.549555
0.597835
0.595450
0.611544
0.608563
0.617504
0.752807
0.659823
0.564456
0.574589
0.755787
0.753999
0.624657
0.675917
0.874996
0.701547
0.687838
0.827909
0.926852
1.227856
1.217723
1.171827
1.113415
1.242757
1.277924
1.309514
1.346469
1.742840
5.222559
29.654503
73.597431
180.781484
304.429531
517.274737
681.844950
865.564942
933.178663
910.521746
817.834735
624.186993
463.673472
273.666978
166.927576
75.150728
39.768815
21.779537
19.463897
24.277568
31.334758
44.252872
58.291554
79.929829
95.635653
112.824440
121.271610
122.694969
116.586685
101.062655
85.463524
63.183904
48.761964
34.969449
28.045774
22.626519
20.350814
18.686652
17.593503
17.117858
17.018914
16.515851
16.092658
16.217828
15.554428
15.783906
15.515685
15.419722
14.624000
14.413595
14.497638
14.207959
13.420582
13.183951
13.593435
12.834668
12.488961
11.937618
12.073517
##ZVALUE=315
0.490546
0.504851
0.524521
0.442863
0.429749
0.598431
0.524521
0.511408
0.471473
0.499487
0.544786
0.582933
0.447631
0.566840
0.610948
0.534654
0.716448
0.711679
0.692606
0.626445
0.776649
0.777841
0.818968
0.661612
0.725985
0.845790
0.752807
0.808835
0.746846
0.709891
0.939965
0.794530
1.053810
1.079440
1.098514
1.142621
1.254678
1.441836
1.472831
3.081560
11.731982
52.676797
114.595890
257.434845
409.006476
642.807484
780.636668
901.957750
928.606987
857.419968
735.440850
527.541637
374.655724
201.776624
113.230944
47.233701
25.832653
17.216802
18.068552
22.176504
28.532743
40.510893
53.356886
70.905685
87.530613
104.918480
112.139583
114.097595
107.282996
90.602636
77.346563
58.744550
45.881867
31.637549
24.606586
19.011497
16.668439
15.422702
15.363693
14.268756
14.383793
14.244914
14.219880
14.248490
13.918877
13.810992
13.573766
13.250709
13.489723
13.033748
13.216734
12.661815
12.691617
12.071729
11.979938
11.663437
##ZVALUE=320
0.458956
0.412464
0.564456
0.343919
0.468493
0.611544
0.461936
0.418425
0.421405
0.433922
0.557899
0.624657
0.531673
0.599623
0.481606
0.560880
0.566840
0.493526
0.603795
0.553727
0.596642
0.664592
0.598431
0.703931
0.697970
0.641942
0.575781
0.774860
0.807643
0.767708
0.802875
0.899434
0.903606
0.854731
0.871420
1.054406
1.058578
1.147985
1.215935
1.276731
1.498461
1.823902
5.597472
30.275583
76.050758
189.026594
309.550762
511.976480
672.778487
843.192935
911.718607
893.262625
805.372000
612.679720
452.752709
256.152749
147.687793
64.498782
33.197999
16.429424
14.010668
14.465451
16.621947
23.368001
31.479001
46.823621
60.739517
79.080462
91.890693
102.085471
104.568601
97.253919
85.987449
67.832470
54.719448
39.276481
29.553771
21.235943
16.531944
14.171600
13.494492
12.690425
12.762547
12.683868
12.578964
12.507439
12.531877
12.179613
12.567639
11.949539
12.349486
11.866689
11.464953
11.780858
11.336803
11.379719
##ZVALUE=325
0.613928
0.461936
0.401735
0.485778
0.516772
0.348687
0.393987
0.502467
0.618696
0.444651
0.438690
0.574589
0.644922
0.530481
0.606775
0.433922
0.461936
0.538826
0.683665
0.468493
0.569820
0.631809
0.643730
0.736713
0.629425
0.551939
0.643730
0.598431
0.710487
0.708699
0.754595
0.801682
0.792742
0.890493
0.807643
0.864863
0.789762
1.060963
1.174808
1.171827
0.990629
1.234412
1.540780
1.635551
3.026724
18.991828
50.268769
131.152868
235.643983
424.878001
584.802628
770.491958
865.105987
894.971490
828.374028
656.528473
502.432585
306.633711
189.321637
84.526539
42.228699
15.821457
10.690689
9.474754
10.443926
13.736486
18.063784
29.369593
40.367842
58.594942
71.685910
87.104440
94.360709
95.332861
89.966655
77.309608
64.677596
48.121810
36.342740
25.251508
19.024611
14.412999
12.822747
11.840463
11.905432
11.547804
11.605620
11.393428
11.369586
11.342764
11.451840
11.320710
10.944605
11.518598
10.831952
11.167526
##ZVALUE=330
0.443459
0.518560
0.399947
0.550747
0.347495
0.408888
0.393987
0.492930
0.410676
0.371933
0.500679
0.366569
0.630617
0.421405
0.544786
0.443459
0.410676
0.551939
0.457764
0.614524
0.510812
0.538826
0.472665
0.566840
0.634789
0.620484
0.615716
0.674725
0.685453
0.583529
0.739694
0.863671
0.733733
0.690818
0.866652
0.858903
0.839829
0.682473
0.939965
1.091957
0.843406
1.063943
1.145601
1.184940
1.344681
1.606941
1.746416
7.416606
24.339557
82.877874
159.885883
319.174528
469.910502
678.450465
812.644958
892.829895
857.080817
724.816918
576.751828
373.508930
238.778591
113.141537
58.290958
22.185445
11.174679
8.005500
8.055568
9.418726
11.684895
18.055439
25.667548
39.150715
51.466823
69.967508
80.504417
88.721514
89.110732
83.652735
74.168444
58.660507
46.127439
32.810569
24.669766
18.708706
15.202761
12.502670
11.785626
11.134744
10.885596
11.075735
10.334849
10.260940
10.896921
10.773540
10.760427
10.356903
##ZVALUE=335
0.400543
0.309944
0.360608
0.346899
0.387430
0.406504
0.623465
0.556707
0.511408
0.560880
0.359416
0.402927
0.630617
0.421405
0.358820
0.533462
0.418425
0.551939
0.495911
0.667572
0.484586
0.556707
0.480413
0.585914
0.604987
0.543594
0.626445
0.676513
0.541806
0.639558
0.665784
0.545979
0.663996
0.617504
0.788569
0.724792
0.727773
0.873804
0.856519
0.827909
0.649691
0.929832
0.816584
0.850558
1.076460
1.169443
1.251698
1.238585
1.479983
2.761483
15.640855
43.740869
120.656490
213.964581
392.656922
543.508530
731.411576
822.627544
845.096707
780.282021
619.781613
467.962623
277.040005
168.054700
71.538687
35.148859
12.869835
8.277893
7.819533
8.116961
9.447932
11.244416
17.732978
24.395585
36.777854
48.516989
63.879490
75.126886
83.577633
83.629489
77.416897
69.558620
56.766868
45.820475
33.488870
25.808811
18.447638
15.394688
12.474656
10.837913
10.609627
10.083914
10.118484
10.368824
10.130405
10.327697
##ZVALUE=340
0.477433
0.402927
0.384450
0.546575
0.360608
0.427961
0.478625
0.526905
0.499487
0.490546
0.369549
0.579953
0.576973
0.398755
0.390410
0.510812
0.452995
0.422597
0.412464
0.506639
0.530481
0.489950
0.565648
0.506639
0.492930
0.482798
0.443459
0.439882
0.622869
0.472665
0.650883
0.758767
0.555515
0.714660
0.621676
0.576973
0.565648
0.714660
0.766516
0.729561
0.695586
0.817776
0.808835
0.810623
0.920892
0.934601
0.980496
0.965595
1.083612
1.112819
1.309514
1.837611
5.491972
28.576851
70.505738
176.667571
299.297571
490.712523
638.839602
789.314508
837.084651
789.868832
687.423944
505.548716
353.552699
185.861588
103.166699
43.154955
18.852949
8.567572
7.855892
7.768869
7.988811
9.519458
11.601448
16.791821
23.998618
35.736561
46.934485
62.285662
72.004795
79.291463
79.147816
74.689984
66.995621
55.271983
45.030713
32.390952
25.481582
18.261671
14.390945
11.634827
10.471940
10.227561
9.834766
9.809732
##ZVALUE=345
0.496507
0.533462
0.569820
0.459552
0.594854
0.560880
0.538826
0.486970
0.484586
0.608563
0.595450
0.476837
0.454783
0.495911
0.491738
0.589490
0.439882
0.445843
0.558496
0.518560
0.589490
0.556707
0.546575
0.626445
0.540614
0.595450
0.585914
0.702739
0.639558
0.667572
0.509620
0.625849
0.687838
0.721812
0.693798
0.732541
0.783801
0.637770
0.708699
0.798702
0.726581
0.905991
1.034737
0.805855
0.846982
1.080632
0.812411
1.085997
1.094937
1.050830
0.890493
1.111627
1.166463
1.389980
2.802610
15.893579
44.378638
119.061470
217.767954
393.654704
542.446971
723.017454
800.616741
808.746815
734.962821
559.901595
414.264798
243.135691
137.429833
55.400729
25.955439
10.434985
8.024573
7.355809
7.798672
8.146763
8.810759
11.176467
14.679432
22.918582
31.628609
45.161843
55.093765
65.038800
70.617795
72.967410
70.553422
63.009858
54.670572
42.839646
33.917427
23.938417
18.430948
13.514757
11.962652
9.990931
##ZVALUE=350
0.354648
0.389814
0.479817
0.413656
0.350475
0.308752
0.427961
0.424981
0.435710
0.442863
0.409484
0.485778
0.476837
0.481606
0.373721
0.366569
0.564456
0.610948
0.515580
0.475645
0.540614
0.486970
0.584722
0.679493
0.503659
0.435710
0.566840
0.520945
0.598431
0.522733
0.512600
0.567436
0.493526
0.579953
0.592470
0.795722
0.694990
0.718832
0.763535
0.695586
0.641942
0.515580
0.653863
0.576973
0.623465
0.694990
0.606775
0.842810
0.805855
0.841618
0.775456
0.939965
0.943542
1.132488
1.212955
1.271963
1.697540
7.733703
24.005771
79.035759
158.372521
325.054526
475.170612
662.953854
781.328678
837.664604
788.080692
629.623532
480.511785
290.800929
174.104571
78.029633
37.516952
13.161898
8.171797
7.143617
7.224679
7.085800
7.336736
8.136630
10.131598
14.679432
20.262599
29.594898
37.956834
49.860477
57.325959
64.256787
67.423582
64.724684
58.746934
48.949718
40.731430
30.691624
24.395585
17.945766
##ZVALUE=355
0.392795
0.466704
0.446439
0.461936
0.421405
0.562668
0.406504
0.485778
0.383854
0.361800
0.387430
0.363588
0.444651
0.358820
0.417829
0.382662
0.541806
0.454783
0.478625
0.525713
0.485778
0.567436
0.492930
0.493526
0.526905
0.415444
0.544786
0.410676
0.599623
0.592470
0.564456
0.544786
0.543594
0.492930
0.671744
0.726581
0.738502
0.688434
0.812411
0.694990
0.757575
0.538826
0.770688
0.756979
0.558496
0.690818
0.586510
0.750422
0.762939
0.789762
0.748634
1.072884
0.861883
0.868440
0.817776
0.985861
0.959635
1.309514
1.435876
3.611445
12.869835
50.840974
105.539560
227.481723
363.427997
565.151572
690.452456
780.204535
775.482655
658.098459
527.975559
347.312689
219.305754
98.635554
48.104525
16.319752
8.891821
6.787777
6.841421
6.705523
6.678700
7.316470
7.683635
9.638667
12.417436
17.891526
24.092793
34.374595
42.766929
51.918626
58.122873
60.700774
59.793591
54.333806
47.705770
38.356781
##ZVALUE=360
0.402927
0.397563
0.447631
0.446439
0.602603
0.546575
0.559688
0.504851
0.513792
0.543594
0.619888
0.526905
0.584722
0.458956
0.647902
0.658631
0.607967
0.625849
0.558496
0.549555
0.582933
0.701547
0.495911
0.527501
0.462532
0.618696
0.598431
0.655651
0.712872
0.508428
0.720620
0.695586
0.757575
0.680685
0.628829
0.573993
0.717640
0.665784
0.566840
0.603795
0.652671
0.821948
0.648499
0.702739
0.856519
0.743866
0.796914
0.879765
0.771880
0.752807
0.890493
0.844598
0.705719
0.925660
1.044869
0.986457
1.082420
1.133680
1.184940
1.431704
1.431704
2.137423
5.772710
26.651621
66.023469
172.894001
296.366811
507.555604
692.675710
862.029791
890.998840
805.132985
663.968921
435.226560
282.065868
133.769512
69.564581
26.496649
12.002587
6.752610
6.735921
6.497502
6.638765
6.515980
6.597638
7.131696
8.411407
11.137724
14.046431
20.402670
27.160645
37.064552
43.989420
51.098466
54.423809
54.728985
##ZVALUE=365
0.440478
0.489950
0.355840
0.526905
0.459552
0.577569
0.490546
0.506639
0.539422
0.462532
0.367761
0.522733
0.405908
0.453591
0.423789
0.469685
0.448823
0.540614
0.436902
0.402927
0.541806
0.397563
0.675917
0.487566
0.452995
0.539422
0.508428
0.571609
0.549555
0.400543
0.618696
0.560880
0.740886
0.516772
0.536442
0.464916
0.485778
0.702739
0.643730
0.640750
0.550747
0.549555
0.571609
0.675917
0.638962
0.521541
0.644922
0.672936
0.666976
0.729561
0.701547
0.791550
0.806451
0.830889
0.731945
0.851750
0.946522
0.886917
0.973940
0.956655
0.955462
1.217723
1.244545
1.500845
2.663732
14.035702
39.090514
105.397701
194.226503
359.911919
492.071509
640.295744
705.829859
683.452487
605.332851
456.072688
326.250792
172.093511
95.202923
35.600662
15.785694
7.155538
6.145835
6.044507
5.817413
5.999804
6.056428
5.903840
5.956888
7.116795
8.581877
12.766719
17.106533
24.399757
30.885935
39.151907
##ZVALUE=370
0.366569
0.424981
0.329614
0.508428
0.416636
0.376701
0.270605
0.322461
0.392795
0.323653
0.355840
0.508428
0.635982
0.367761
0.382662
0.385642
0.314713
0.250936
0.380874
0.462532
0.465512
0.557899
0.341535
0.468493
0.272989
0.481606
0.317693
0.521541
0.420809
0.474453
0.498891
0.486970
0.650883
0.400543
0.378489
0.484586
0.473857
0.448823
0.354648
0.453591
0.360608
0.653863
0.632405
0.556707
0.566840
0.519753
0.490546
0.589490
0.517964
0.696778
0.478625
0.540614
0.651479
0.716448
0.595450
0.685453
0.718832
0.614524
0.761747
0.806451
0.832677
0.979900
0.942945
0.983477
1.163483
1.231432
1.686811
7.262826
24.918914
80.526471
151.207447
287.848711
419.007540
593.333840
676.527023
700.094700
641.874671
502.360463
370.543599
208.310485
117.642879
47.385693
22.670627
9.367466
6.147623
5.559921
5.365610
5.175471
5.370975
5.264878
5.350709
5.540848
5.970597
8.068681
10.476708
15.230775
##ZVALUE=375
0.392795
0.407696
0.421405
0.449419
0.444651
0.444651
0.561476
0.374913
0.424981
0.380874
0.316501
0.523925
0.386834
0.400543
0.464916
0.317693
0.420809
0.417829
0.743866
0.489950
0.356436
0.340939
0.581741
0.449419
0.511408
0.442863
0.552535
0.539422
0.551939
0.426769
0.405908
0.559688
0.548959
0.500679
0.541806
0.549555
0.645518
0.454783
0.625849
0.636578
0.499487
0.629425
0.665784
0.719428
0.702739
0.741482
0.570416
0.691414
0.605583
0.646710
0.711679
0.625849
0.425577
0.782609
0.921488
0.729561
0.713468
0.773668
0.677705
0.909567
0.836849
0.878572
0.827909
0.970960
0.935793
1.136661
1.074672
1.284480
1.547933
4.131794
13.677478
49.812794
106.153488
240.584612
375.684500
574.559569
694.393516
769.543648
755.643845
618.212819
474.100709
282.249451
171.887875
77.747703
39.598942
13.839602
7.074475
5.148649
5.219579
4.866719
4.945993
4.807711
5.006790
5.250573
5.227923
5.720854
##ZVALUE=380
0.440478
0.339746
0.513792
0.298619
0.489950
0.456572
0.453591
0.430942
0.432730
0.389814
0.469685
0.468493
0.456572
0.307560
0.393987
0.483990
0.545979
0.546575
0.468493
0.563860
0.516772
0.441670
0.401735
0.454783
0.450611
0.401735
0.514984
0.463724
0.484586
0.392795
0.335574
0.328422
0.384450
0.413656
0.538826
0.446439
0.551939
0.585914
0.468493
0.469685
0.585914
0.568628
0.484586
0.553727
0.559688
0.619888
0.557899
0.638962
0.563860
0.682473
0.612736
0.661612
0.616908
0.674725
0.704527
0.566840
0.649691
0.680685
0.716448
0.677705
0.591874
0.745654
0.626445
0.498891
0.677705
0.714660
1.047850
0.940561
0.943542
1.047850
1.301765
2.256632
7.237792
33.995509
79.080462
183.593631
295.714736
458.005667
576.108694
677.214861
679.734945
586.553812
481.644869
335.693955
227.109790
112.059712
58.633685
21.596551
9.695888
5.479455
4.914999
4.631877
4.633665
4.407763
4.752874
4.548430
##ZVALUE=385
0.265837
0.367761
0.349879
0.218749
0.292659
0.369549
0.359416
0.333786
0.407696
0.403523
0.370741
0.235438
0.418425
0.358820
0.516772
0.468493
0.496507
0.505447
0.378489
0.378489
0.432730
0.538826
0.482798
0.525713
0.382662
0.451803
0.556707
0.506639
0.464916
0.443459
0.336766
0.349879
0.581741
0.512600
0.482798
0.469685
0.621676
0.516772
0.506639
0.392795
0.464916
0.417829
0.556707
0.498891
0.514984
0.692606
0.404716
0.569820
0.569820
0.625849
0.560880
0.689626
0.531673
0.506639
0.543594
0.572801
0.596642
0.583529
0.577569
0.643730
0.663996
0.684857
0.669956
0.871420
0.785589
0.716448
0.646710
0.754595
0.876784
0.919700
1.058578
1.077652
1.197457
1.486540
3.474951
19.290447
50.516725
127.050877
222.150683
386.301875
511.073470
636.003017
671.857595
631.508827
549.953580
401.699543
285.460949
156.112909
89.496970
37.676692
16.060472
5.796552
4.582405
4.139543
4.414916
4.167557
##ZVALUE=390
0.305772
0.467896
0.274777
0.311732
0.230670
0.395775
0.304580
0.324845
0.330806
0.506639
0.499487
0.316501
0.341535
0.385642
0.289679
0.264645
0.410676
0.413656
0.438690
0.397563
0.475645
0.265837
0.420809
0.402927
0.340939
0.455976
0.528693
0.330806
0.478625
0.439882
0.565648
0.350475
0.475645
0.536442
0.561476
0.426769
0.514984
0.575781
0.269413
0.471473
0.385642
0.481606
0.460744
0.474453
0.442863
0.425577
0.389814
0.596642
0.499487
0.533462
0.382662
0.369549
0.360608
0.306964
0.581741
0.570416
0.690818
0.593662
0.491738
0.561476
0.685453
0.589490
0.776649
0.649691
0.630617
0.710487
0.662804
0.835657
0.981688
0.896454
1.019835
0.828505
1.100898
1.052618
1.074672
1.230836
1.882911
10.089874
32.323599
100.877881
189.402699
350.706577
471.223593
600.041747
669.976473
679.053664
619.090796
485.067964
367.143750
223.371983
131.572485
54.267645
25.306940
8.316636
4.942417
4.043579
##ZVALUE=395
0.318885
0.411868
0.431538
0.249743
0.404716
0.309944
0.359416
0.502467
0.386834
0.230670
0.515580
0.361800
0.417829
0.399947
0.356436
0.546575
0.501871
0.413656
0.408888
0.451803
0.389814
0.466704
0.469685
0.326633
0.561476
0.514984
0.513792
0.388622
0.539422
0.582933
0.397563
0.555515
0.364780
0.709891
0.382662
0.465512
0.609756
0.481606
0.399947
0.365973
0.423789
0.391603
0.586510
0.535846
0.479817
0.431538
0.515580
0.457764
0.482798
0.458956
0.700951
0.440478
0.412464
0.509620
0.674725
0.486970
0.362992
0.606775
0.590682
0.482798
0.592470
0.645518
0.672936
0.633597
0.774860
0.758767
0.657439
0.593662
0.873804
0.824928
0.900626
0.957847
1.021624
1.091957
0.892878
0.978708
1.122952
1.290441
1.391768
5.182624
19.706488
74.168444
145.943761
288.592577
419.000983
590.241551
686.355829
728.616714
690.151453
570.699573
442.735553
270.555615
170.632601
80.966949
39.460659
13.550520
##ZVALUE=400
0.388622
0.502467
0.406504
0.414848
0.409484
0.368953
0.446439
0.402927
0.411868
0.358820
0.254512
0.292659
0.327826
0.268817
0.333786
0.346899
0.292659
0.358820
0.424981
0.418425
0.379682
0.460744
0.608563
0.434518
0.408888
0.411868
0.465512
0.425577
0.474453
0.454783
0.583529
0.428557
0.548959
0.358820
0.463724
0.559688
0.567436
0.455976
0.586510
0.482798
0.397563
0.505447
0.472665
0.497699
0.611544
0.477433
0.478625
0.437498
0.577569
0.448823
0.553727
0.476837
0.331998
0.515580
0.474453
0.481606
0.738502
0.568628
0.644922
0.563860
0.553727
0.550747
0.596642
0.596642
0.517964
0.608563
0.723600
0.715852
0.854731
0.834465
0.796914
0.926852
0.998974
0.877976
0.894666
0.972748
0.808835
1.015663
0.968575
1.016855
1.141429
2.919436
10.992885
43.408871
98.435879
224.243999
353.646874
536.447763
646.044612
720.742941
708.869696
603.062510
483.805537
317.497849
208.448768
105.242729
##END
