##TITLE=FQP00301
##FORMAT=SPECTACLE-ASCII V-1.2
##DATA TYPE=ULTRAVIOLET SPECTRUM
##SECOND TYPE=ULTRAVIOLET SPECTRUM
##DATE=02/01/18
##TIME=15:41:02
##SPECTROMETER/DATA SYSTEM=SPECTACLE
##XUNITS=NM EM
##YUNITS=ENERGY
##YFACTOR=1
##FIRSTX=220
##LASTX=410
##NPOINTS=96
##3DDATA=Equidistant
##ZUNITS=NM EX
##FIRSTZ=210
##LASTZ=400
##ZPOINTS=39
##XYDATA=(Y..Y)
##ZVALUE=210
1.744628
1.649857
1.653433
1.298785
2.366900
1.991987
1.899600
2.456903
1.992583
1.943707
1.804829
2.312660
1.943707
1.842976
1.795888
2.127886
1.996756
1.883507
2.144575
2.369881
2.204776
2.873540
2.605915
2.769828
2.723932
2.488494
3.142953
2.566576
3.128648
3.952980
3.355742
3.189445
3.898740
3.851652
3.611445
3.650784
3.694892
3.937483
3.487468
3.664494
4.140735
3.697872
3.696680
3.953576
3.458858
4.028678
3.492832
3.877878
3.532767
3.942847
4.080534
3.779531
4.543662
4.434586
3.841519
4.690886
3.689528
4.538894
3.953576
4.166961
3.919601
4.549623
4.045963
4.432797
3.880858
5.164742
4.769564
4.947782
6.014705
6.421804
6.585717
8.356571
8.460879
10.138750
9.604692
11.675954
11.197925
10.457635
10.083914
10.200739
8.269548
7.945895
7.563829
6.468892
6.438494
4.778504
4.770756
4.278421
4.211664
4.256964
4.112720
4.019737
4.086494
4.108548
5.085468
5.475879
##ZVALUE=215
4.310608
5.159974
4.755855
3.138781
3.500581
3.556609
3.759861
4.129410
4.185438
4.327893
4.487634
4.176497
2.547503
3.282428
3.014803
2.077818
1.965761
2.022982
2.342463
2.129674
2.552867
3.068447
2.497435
2.657771
2.918839
3.418922
3.961921
3.008842
3.419518
3.739595
3.539920
3.431439
4.266500
3.917813
4.375577
4.270673
3.863573
3.910661
4.337430
4.172921
4.175901
3.406405
4.051924
4.377961
3.962517
4.210472
3.943443
4.743934
4.029870
4.689693
4.314780
4.065633
4.719496
4.266500
4.522800
4.613996
4.260540
4.343987
4.242659
4.567504
5.285740
4.585981
4.626513
4.593730
4.855990
4.765987
5.463958
5.956888
5.259514
6.428957
7.371902
8.591413
9.274483
9.897947
11.381507
11.361837
11.809468
11.748672
10.574460
10.272861
9.124875
8.996725
7.195473
8.017421
6.633997
6.008744
5.575418
4.666448
4.991889
4.184842
4.893541
4.821420
5.134940
4.954934
5.203485
4.949570
##ZVALUE=220
16.675591
16.926527
17.570853
20.100474
16.216636
13.102889
12.427568
10.170937
9.141564
9.381771
10.199547
10.623932
10.406971
9.276867
7.249713
7.570982
4.277825
3.217459
3.084540
2.885461
2.861619
2.742410
3.429651
3.398657
2.940893
2.892613
3.375411
3.589988
4.696846
4.630685
4.824996
4.589558
4.620552
4.859567
4.885793
5.219579
4.836917
5.745888
5.215406
5.182624
4.704595
5.464554
5.326867
5.402565
4.993677
5.335808
4.566908
5.207658
4.642606
4.736781
4.679561
5.474687
5.053878
4.907846
4.967451
5.738735
5.352497
5.778670
5.819798
5.130768
4.712939
5.588531
5.458593
4.926920
6.360412
6.702542
5.377531
6.152987
7.073879
8.280873
8.756518
9.245872
10.017753
11.067986
10.968447
11.783838
12.288690
11.565685
11.497736
10.174513
11.120439
11.332631
9.733438
8.080602
7.394552
7.161498
7.019639
7.033944
7.193685
6.209612
6.962419
6.579757
5.729795
5.861521
5.903840
6.088614
##ZVALUE=225
30.581951
30.876994
41.020513
50.750971
58.944821
60.409904
55.917501
44.267774
32.755733
26.935935
22.617579
22.338629
23.666620
24.185777
26.621819
22.811890
20.099878
15.543699
11.580586
8.040667
5.393624
3.780723
3.120899
3.154874
3.596544
4.417896
4.621744
4.812479
5.526543
5.759597
6.085634
6.216764
5.515814
6.847978
6.530881
6.634593
7.356405
7.042885
6.698966
6.925464
7.133484
6.556511
5.696416
6.310940
6.947517
6.832480
5.980730
5.413890
5.785823
6.383657
6.477833
6.549954
6.746650
6.610751
6.155968
7.002950
7.926822
6.666780
7.387996
6.986856
8.152723
8.378625
8.995533
7.740855
8.209944
7.726550
8.639693
9.359717
9.205937
9.923577
9.964705
11.825562
13.068914
13.664961
14.540553
16.003847
14.963746
13.554692
13.528466
13.565421
13.318658
13.130903
12.348890
10.691881
11.713505
10.952950
9.947419
10.335445
11.024475
10.165572
9.652972
10.282993
9.628534
9.770989
9.442568
9.697676
##ZVALUE=230
25.886893
29.392838
52.099824
84.553957
110.089779
136.497617
149.978995
152.281523
145.033598
118.957758
86.021423
61.572790
46.234727
41.222572
42.652488
47.660470
49.506426
47.641993
42.942762
32.366514
26.286840
17.110705
12.004972
6.841421
5.825758
4.857779
5.308986
5.613565
5.148649
6.094575
7.249713
6.708503
8.802414
7.706881
9.183884
7.983446
8.551478
8.737445
9.655952
8.080602
7.943511
7.604957
7.789731
7.281899
7.128716
7.828474
7.860661
7.638931
8.066893
7.005930
8.437634
8.312464
7.665753
8.529425
8.935928
10.016561
10.142922
10.202527
10.608435
10.145903
10.928512
11.026859
11.368990
12.168884
13.143420
13.882518
13.204813
13.605952
14.840961
16.295910
17.592907
16.841888
19.863844
19.290447
20.424724
19.388795
20.310879
19.610524
19.761920
18.843412
20.285845
17.663836
19.270778
19.262433
17.832518
19.165874
16.175508
15.932918
18.415451
16.363859
15.856624
15.304685
16.366839
16.356707
15.927553
15.492439
##ZVALUE=235
10.681748
11.672974
29.298663
55.672526
96.520782
156.387687
217.574835
281.067491
307.526588
317.834616
286.767483
224.582553
172.790885
112.092495
88.276863
71.779490
69.149733
79.566836
81.842542
82.462430
76.018572
66.306591
48.366785
35.836697
23.447871
17.173886
10.709763
9.668469
7.557869
7.236600
8.088946
8.600950
7.304549
7.188916
9.095669
9.039640
7.583499
7.396936
8.520484
7.964969
9.220839
8.152723
7.003546
7.159710
7.672906
7.982850
6.798506
7.418990
8.451939
8.745790
8.651614
9.835958
9.689927
10.359883
9.490848
11.973977
12.931824
12.327433
12.697577
14.679432
13.951659
15.384555
16.575456
14.743805
16.169548
18.363595
18.399954
20.044446
21.345615
21.258593
24.003983
22.651553
24.093986
26.475787
27.703643
28.244853
27.485490
29.717684
27.333498
28.088689
25.538802
27.555823
25.356412
26.191473
27.229786
26.706457
26.903749
25.732517
25.077462
25.267601
24.266839
24.451613
23.954511
23.604631
23.223758
25.971532
##ZVALUE=240
1.462698
1.916885
4.465580
16.910434
35.035610
84.487796
140.279531
245.878696
340.114832
419.695973
489.735603
506.801009
459.535718
391.362906
285.087824
207.744837
130.932927
103.829503
90.356469
99.181533
105.218887
114.947557
111.838579
96.794963
83.353519
62.908530
45.920610
31.663775
22.981763
14.161468
10.864735
10.282993
9.223819
9.813905
8.668900
9.024739
9.432435
8.390546
8.864999
8.337498
8.291602
8.420944
7.505417
8.205771
8.064508
6.779432
7.607937
7.889867
8.406639
8.575916
10.199547
9.706616
10.978580
9.636879
10.842681
12.991428
13.504624
13.755560
14.886856
17.135739
16.717911
17.023683
17.840862
18.682480
20.172000
22.050738
21.716952
23.339987
22.554994
25.595427
27.257800
29.539466
29.537678
30.638576
32.207966
31.980872
32.011867
31.976700
31.710863
33.547878
32.193661
34.594536
32.775998
32.114983
31.713843
31.625628
34.130812
32.982826
33.318996
31.089783
30.677915
31.975508
32.808781
30.493736
32.606721
29.535890
##ZVALUE=245
1.474619
1.161695
1.527667
1.567602
2.579689
11.417866
30.915737
84.384680
146.227479
263.459682
367.918611
508.888960
587.937832
628.610849
599.548817
499.352813
407.480001
279.272795
194.514990
123.819709
100.065470
98.881721
111.614466
125.434995
132.961869
129.387975
115.238428
99.100471
76.076984
54.280758
36.190748
25.568604
18.851757
13.031960
11.646748
10.118484
8.943677
8.684993
9.045601
7.952452
7.735491
8.193851
7.238984
7.244945
7.680655
7.099509
7.384419
7.496476
7.537603
8.183718
9.054542
9.414554
9.490848
10.085702
9.574890
11.344552
12.692809
13.038516
13.371706
13.756752
14.571548
15.990734
15.591979
17.221570
17.716885
19.196868
18.924475
20.344853
22.187829
21.876693
24.608970
25.196671
25.917888
27.142763
27.976632
29.099584
30.997992
29.884577
29.782653
30.039549
31.759739
29.917955
33.471584
30.090809
32.622814
32.449961
31.828880
32.518506
32.518506
31.866431
30.699968
30.886531
30.645728
31.484962
31.894445
31.013489
##ZVALUE=250
1.278520
1.600981
1.428723
1.227856
1.201630
1.820922
2.457500
6.540418
27.224422
61.342716
141.901970
239.813924
355.167985
518.231988
623.984933
699.379444
695.744753
618.040562
525.942445
361.818671
249.735713
166.177750
105.205774
95.761418
108.550787
121.717453
133.086443
140.104890
136.915445
122.076869
110.321641
80.810785
62.725544
37.662983
26.293993
16.540885
11.405945
10.453463
8.769631
8.604527
7.641912
7.954836
7.679462
8.320808
8.469820
7.242560
7.314682
7.180572
7.052422
7.210970
8.488894
8.584857
8.293986
9.328723
9.972453
9.530783
10.891557
10.439754
11.833906
11.317730
11.950731
12.523532
13.504624
13.852715
16.587973
16.415715
15.556812
16.550422
18.129945
19.499660
21.285415
22.492409
23.171902
24.604797
24.635792
25.641918
26.991963
25.893450
27.638674
27.422905
27.504563
28.452873
29.007792
28.753877
29.951930
29.537678
29.200912
28.939843
30.306578
30.707717
30.851960
30.382872
30.284524
31.045675
29.790998
29.858947
##ZVALUE=255
1.266599
0.836849
1.009703
1.288652
0.896454
1.333952
1.329780
1.424551
1.577735
3.823638
19.787550
46.392679
95.106959
205.119848
322.982669
496.742725
622.714758
737.071633
785.030723
738.142729
636.853576
503.743887
314.863920
204.818845
114.739537
91.061592
90.846419
103.442669
125.789642
141.469836
147.114992
142.552853
130.104423
105.024576
83.243847
56.785941
39.357543
22.801757
15.202761
9.851456
8.708835
7.963777
6.613731
6.946921
7.222891
7.514954
6.707907
7.467866
7.173419
8.564591
7.617474
8.182526
7.528663
7.704496
8.588433
8.053780
8.527637
8.686781
9.307861
9.753704
10.103583
10.171533
12.023449
11.501908
12.054443
12.704730
13.321638
14.161468
16.228557
15.596747
16.218424
18.589497
19.548535
21.870732
21.104813
22.448897
22.645593
22.974610
24.324656
24.317503
24.054646
25.108457
26.371479
26.200414
27.606487
25.946498
27.365685
26.273727
26.461482
27.388930
27.733445
27.755499
27.836561
26.931763
27.473569
28.684735
##ZVALUE=260
1.011491
1.069903
0.985861
1.143813
1.206994
1.112819
1.301765
0.948906
1.013875
1.182556
1.587868
1.828671
6.756783
28.476715
65.437555
159.850717
268.300772
440.464616
582.349896
755.586624
843.083858
855.661631
755.251646
615.908504
412.760973
283.813477
166.049004
109.137893
79.472661
81.352592
98.303556
126.858950
140.364766
149.280429
146.230459
127.135515
111.488700
78.978539
60.414672
36.666989
23.775697
14.592409
9.821653
7.634759
7.180572
6.717443
7.126927
7.448792
6.513596
7.322431
7.751584
7.684827
7.488728
7.985830
7.984638
8.418560
8.889437
8.937716
9.188652
9.452701
9.680986
9.697676
10.403991
10.327697
10.644794
12.163520
12.294650
12.686849
14.045835
14.713407
15.595555
17.719865
16.748905
18.139482
18.470883
18.885732
19.779801
21.964908
21.204948
21.556616
21.943450
22.307634
23.117661
23.536682
24.047494
23.893714
24.157763
25.945902
24.360418
24.439692
25.498867
24.393797
25.657415
26.669502
25.908947
25.782585
##ZVALUE=265
0.762939
0.913739
0.850558
0.810623
0.772476
0.944734
0.900626
1.089573
1.137853
1.197457
1.090765
1.299977
1.496673
1.630783
3.590584
19.740462
48.510432
121.517777
215.505958
407.864451
569.790602
730.491877
889.157653
916.690826
839.763880
718.358755
533.220768
376.351476
212.390423
132.764578
84.558725
67.645907
80.236793
108.930469
131.572485
148.350000
152.157545
147.524476
133.743882
105.799437
83.894730
56.150556
39.670467
22.159815
14.139414
8.977652
7.521510
7.182956
7.066727
7.759929
7.411838
7.795691
8.033514
8.675456
8.847713
8.770823
9.304881
9.946823
9.950995
10.194778
9.758472
11.604428
10.861754
11.707544
11.532903
11.928678
12.846589
13.096929
13.703704
14.625788
15.463829
15.924573
17.325878
17.215610
18.211603
19.906759
18.936992
19.908547
20.303726
21.522641
21.170974
21.080971
22.816658
22.439957
22.233725
23.643970
23.824573
23.372769
23.402572
23.578405
23.912787
24.054646
24.949908
24.945736
24.281740
24.760962
##ZVALUE=270
0.804663
0.714660
0.836849
0.877976
0.744462
0.733733
0.854731
1.065731
0.982881
0.994802
0.943542
0.963807
1.064539
1.032948
1.515746
1.477599
1.942515
8.953810
25.925636
85.951686
170.826912
300.179720
531.187654
715.001822
916.168690
985.119939
961.949825
855.097771
659.664869
493.514538
347.445011
179.658532
104.432702
61.120987
61.563849
83.899498
103.833675
132.326484
145.175457
153.114796
150.728822
129.451752
110.732913
78.903437
60.179830
35.678744
23.675561
15.251637
11.129975
8.698702
8.381605
8.535981
8.393526
8.771420
8.951426
9.240508
9.865761
10.279417
10.348558
11.435747
10.945797
11.102557
11.714697
11.974573
12.558699
12.907982
13.038516
13.969541
13.865829
14.627576
16.363859
16.088486
16.385913
17.366409
18.418431
17.756820
19.274950
19.194484
19.461513
20.675659
21.103621
21.390915
21.521449
21.514893
22.416711
21.484494
21.822453
22.088885
22.368431
22.237897
22.039413
22.286773
22.641420
23.001432
23.349524
23.409724
##ZVALUE=275
0.855923
0.909567
0.776649
0.588894
0.811815
0.710487
0.894666
0.845790
0.758767
0.856519
0.822544
0.900626
1.156926
1.020432
1.089573
1.177788
1.282692
1.428723
1.690984
4.299879
16.029477
45.991540
132.312775
251.716971
475.122929
650.191903
860.329866
981.627703
1015.785933
983.340740
851.586461
624.758601
435.185432
230.026841
132.883787
64.189434
48.443675
58.407784
78.276992
105.888844
127.590895
145.458579
148.204565
143.940449
130.672455
104.130507
82.539916
56.809783
41.928887
24.042726
17.826557
12.133718
9.992719
9.922981
9.443760
10.285974
10.546446
11.244416
11.825562
11.925697
12.501478
12.683868
13.399720
13.080835
13.126731
14.027953
13.992786
15.241504
15.457869
15.346408
16.433597
17.100573
17.484426
18.207431
18.838644
18.880963
19.564629
19.270778
19.746423
20.471811
20.383596
20.555854
21.333694
21.249652
21.201968
21.647811
21.159649
21.743774
21.674633
22.083521
21.401644
21.653771
21.505952
21.569729
21.916628
22.700429
##ZVALUE=280
0.647902
0.760555
0.912547
0.773668
0.817776
0.666976
0.745654
0.515580
0.984669
0.909567
0.944734
0.989437
0.996590
0.974536
1.206994
1.099706
1.006722
1.161695
1.249909
1.165867
1.692772
2.013445
10.132790
33.917427
105.199814
195.042491
368.470550
544.447899
782.781839
941.905975
1015.785933
1015.785933
936.790705
705.796480
514.816642
287.691951
169.078708
77.813864
47.690868
41.050911
53.515434
79.086423
100.159645
126.571655
141.323805
147.720575
141.667724
125.719905
107.415915
79.257488
59.476495
39.379597
27.586818
18.154979
13.732910
11.970997
11.725426
12.022853
12.228489
13.359785
14.149547
13.995767
14.420748
14.814734
14.515519
15.392900
14.957786
16.541481
16.867518
17.196536
17.408729
17.918944
18.270612
18.340945
19.430518
19.608736
19.289851
20.497441
21.140575
20.564795
20.085573
20.712614
21.576881
20.936728
21.221638
21.843910
21.817684
20.996928
21.768808
20.901561
20.495653
21.315813
22.058487
21.486878
20.974874
21.202564
##ZVALUE=285
0.664592
0.811815
0.774860
0.745654
0.733733
0.839829
0.739694
0.858903
0.655651
0.871420
0.909567
0.825524
1.020432
0.948906
1.043677
0.960827
0.983477
0.952482
1.200438
1.207590
1.549721
1.419783
1.560450
1.746416
4.831553
17.423630
59.087873
120.437741
264.101624
425.195694
615.353584
872.648954
1012.026668
1015.784740
1015.784740
847.749710
656.334758
401.047468
245.357752
114.740729
60.605407
33.023953
33.787489
50.946474
71.258545
100.127459
119.627714
135.913491
143.191814
140.444636
129.399896
106.054544
87.914467
61.171651
44.842958
28.385520
21.293759
17.271638
15.255809
14.540553
15.510917
15.128851
15.605688
16.363859
15.976429
17.106533
17.474890
17.890930
18.012524
18.247962
19.628406
19.325614
19.669533
19.911528
20.508766
20.777583
21.372437
21.330714
20.897985
21.547675
21.117926
21.360517
20.888448
21.153688
21.585822
21.521449
21.372437
21.610856
21.849871
20.877719
21.914840
20.799637
20.702481
21.360517
21.329522
21.874905
##ZVALUE=290
0.703931
0.690818
0.575781
0.599623
0.768900
0.625849
0.829697
0.618696
0.900626
0.832677
0.707507
0.714660
0.739694
0.717640
0.832677
0.677705
0.868440
0.889897
0.945926
1.066923
1.151562
1.097918
1.234412
1.225471
1.383424
1.708865
2.176762
6.995797
33.482909
78.160763
185.700655
322.667956
503.108501
772.385597
941.941738
1015.774608
1015.774608
934.363604
756.274462
502.903461
330.361724
161.491632
84.749460
35.671592
25.140643
33.221841
47.435760
69.557428
89.982748
115.860701
130.336881
140.186548
137.870908
125.516653
109.336972
83.922744
64.772964
44.441819
33.591986
24.137497
20.242929
17.982721
17.509460
17.688870
18.072724
18.015504
18.899441
19.170642
19.827485
20.351410
21.262765
20.773411
20.668507
20.933747
21.204948
21.443963
22.136569
21.818876
22.090673
22.283792
22.531748
22.235513
22.224784
22.846460
22.184849
21.780729
21.892786
22.034645
21.310449
21.412969
21.752715
21.128654
20.692945
20.812750
21.069646
21.095872
##ZVALUE=295
0.608563
0.643730
0.460744
0.490546
0.611544
0.581741
0.772476
0.640750
0.814795
0.686646
0.624657
0.672936
0.749826
0.822544
0.764728
0.797510
0.867844
0.796914
0.698566
0.842810
1.013875
1.142621
1.166463
1.131892
1.285672
1.267791
1.321435
1.772642
1.897812
3.233552
16.090870
47.224760
108.380914
254.537463
416.284800
672.965646
856.120586
1012.042761
1015.785933
998.208523
851.821899
601.078868
409.973860
210.726857
114.750862
45.550466
23.875833
21.648407
29.673576
48.286915
65.596700
90.992451
109.997988
129.259825
138.150454
135.129690
125.502944
105.350614
86.997747
65.703988
49.919486
35.004616
27.925968
22.190809
20.410419
19.765496
19.647479
20.457506
21.038651
20.853877
21.423697
22.026896
22.510886
23.041964
23.071766
23.100972
22.801757
23.608804
23.277998
22.863746
23.577809
22.799969
22.586584
22.736788
22.716522
22.512674
22.625923
22.652745
22.963881
22.188425
22.207499
21.312833
21.683574
21.260977
21.066666
21.158457
##ZVALUE=300
0.574589
0.679493
0.565648
0.425577
0.667572
0.601411
0.591874
0.629425
0.662804
0.724792
0.750422
0.619888
0.697970
0.677705
0.609756
0.735521
0.769496
0.841618
0.826716
0.711679
0.668764
0.807643
1.016855
0.956655
1.077652
1.020432
1.047850
1.387596
1.203418
1.220703
1.672506
1.965761
7.583499
26.656985
88.806748
167.993903
346.680880
527.538657
769.955516
922.299623
1015.785933
1015.785933
897.706747
737.069845
479.566455
310.302973
154.305696
82.439780
33.372641
19.389987
20.754933
28.711557
45.892596
62.036514
87.422729
105.774999
125.313997
132.833719
132.372975
125.145912
106.358528
90.087652
67.333579
53.178668
36.481619
29.757619
24.557710
22.933483
21.662712
21.555424
21.685958
22.262931
22.125840
23.183823
22.907853
23.432970
23.119450
23.210645
23.412704
23.547411
24.726987
24.570823
23.715496
23.891926
23.569465
24.027824
23.699999
22.848845
23.294687
22.829771
22.326708
22.204518
21.933913
21.649599
21.683574
20.964742
##ZVALUE=305
0.681877
0.724792
0.609756
0.746846
0.722408
0.747442
0.719428
0.664592
0.741482
0.653863
0.764728
0.512600
0.681877
0.797510
0.714660
0.532866
0.758767
0.773668
0.908971
0.767708
0.762939
0.770688
0.865459
0.879765
0.963807
1.033545
0.922680
1.224875
1.009703
1.227856
1.534820
1.554489
1.562834
1.689792
3.196597
19.383430
54.132938
143.089890
254.179835
464.525819
645.748973
872.482657
992.040634
1015.854478
962.414742
756.415725
584.684014
371.416807
230.911970
104.821920
54.922700
23.632646
17.699599
21.491647
29.129982
45.303702
61.279535
84.821582
102.070570
120.976567
127.078891
127.476454
120.389462
102.804899
86.796880
64.335465
50.662756
37.089586
29.931664
25.268793
22.982955
21.993518
23.043752
22.481680
22.838712
23.014545
23.766756
23.827553
24.128556
24.190545
24.253726
24.221539
24.486780
24.395585
24.552941
24.338961
23.786426
23.702979
24.284720
23.145676
23.435950
22.475719
22.260547
22.841692
22.368431
21.899939
##ZVALUE=310
0.614524
0.574589
0.549555
0.548959
0.601411
0.541806
0.521541
0.549555
0.612736
0.471473
0.582933
0.564456
0.575781
0.586510
0.627637
0.835657
0.789762
0.751615
0.574589
0.587702
0.811815
0.765920
0.907779
0.753999
0.827909
0.773668
0.821948
0.720620
0.999570
1.004934
1.012683
1.142621
1.259446
1.231432
1.520514
1.803637
1.894832
7.363558
26.357770
88.406801
171.653628
347.511768
520.436764
755.905509
908.407569
1015.787721
1005.095840
879.318714
720.154643
479.061007
317.676663
159.579515
86.748600
34.615993
19.350648
16.780496
20.243526
29.241443
39.172769
58.309436
75.217485
95.791817
109.756589
120.987892
121.495724
113.707781
101.915598
84.090829
68.280697
48.148632
38.401484
29.663444
25.624633
23.569465
22.941828
22.447705
22.479892
23.112893
22.954941
23.298860
23.878813
23.679733
23.622513
24.086833
23.912787
24.636984
24.145842
24.045706
23.831725
24.043918
23.639798
22.917986
22.368431
22.996664
22.308826
22.425652
##ZVALUE=315
0.546575
0.293851
0.534654
0.581741
0.541806
0.415444
0.439882
0.540614
0.542998
0.654459
0.604987
0.612736
0.485778
0.519753
0.654459
0.778437
0.625849
0.778437
0.674725
0.663996
0.682473
0.629425
0.586510
0.719428
0.891685
0.788569
0.711679
0.797510
0.726581
0.952482
0.905991
0.959635
1.259446
1.053810
1.106858
1.149774
1.396537
1.443624
1.650453
3.541708
13.526678
57.538748
123.546720
274.772644
432.455540
690.311790
842.695832
984.449983
1015.781760
943.043828
811.427832
580.616593
407.976508
216.507912
118.530989
47.004819
24.110675
15.348792
15.890598
19.836426
26.369691
38.708448
51.565766
71.320534
85.772872
105.538964
113.807917
115.643740
110.049844
93.915462
80.261827
63.054562
49.819946
36.401749
30.112863
24.493933
23.180842
22.609830
22.840500
22.702813
22.868514
22.901893
23.699999
23.312569
23.936629
24.099946
24.238825
23.979545
23.807883
23.535490
23.531914
23.192763
23.428798
23.244619
22.606850
22.137761
##ZVALUE=320
0.488758
0.670552
0.459552
0.530481
0.501871
0.480413
0.543594
0.465512
0.422597
0.398755
0.515580
0.362992
0.477433
0.578761
0.615716
0.740886
0.737906
0.658631
0.697970
0.749826
0.809431
0.662804
0.635982
0.826716
0.755787
0.770688
0.901818
0.670552
0.861883
0.867844
0.997782
0.928640
0.876784
0.996590
0.976920
1.159906
1.173615
1.219511
1.380444
1.440644
1.769662
2.253652
6.344914
35.348535
86.046457
210.650563
345.409513
568.677783
741.151571
924.395919
1004.356742
990.505815
894.626975
681.463480
495.326519
276.161432
157.723427
68.992972
33.698678
15.637875
12.396574
14.119744
16.680956
23.996830
32.177567
48.221946
62.893629
83.097816
97.105503
107.655525
108.626485
102.885962
93.069673
76.134801
61.260462
45.593977
36.691427
29.117465
25.610924
23.960471
23.038983
22.308826
22.620559
23.362637
23.934841
23.473501
24.278760
23.683906
23.840666
23.647547
23.364425
23.067594
22.985935
22.416711
22.652745
21.950603
##ZVALUE=325
0.401735
0.389814
0.413656
0.515580
0.674725
0.619888
0.531673
0.513792
0.411868
0.392795
0.411868
0.508428
0.696778
0.584722
0.780821
0.556707
0.533462
0.572801
0.799894
0.658631
0.734925
0.560880
0.857711
0.655651
0.573993
0.654459
0.905991
0.735521
0.769496
0.807643
0.647902
0.655651
0.949502
0.849962
0.834465
1.000762
0.834465
1.056790
0.978708
1.267791
1.412630
1.249909
1.464486
1.722574
3.480911
22.501945
60.179830
148.978829
257.332921
465.303659
636.625886
843.310952
952.296853
994.230509
929.638743
735.237598
558.642745
339.550972
206.210613
90.254545
45.281649
17.448664
11.867881
10.954738
12.283921
16.062856
20.904541
32.060742
44.209957
63.413978
78.235865
92.497468
101.392865
103.119612
98.800659
85.186958
72.530508
57.440996
46.035647
34.684539
29.233694
24.861693
23.638606
23.357868
22.342801
22.797585
23.288727
23.423433
22.967458
22.763610
23.104548
22.519827
22.151470
22.274852
22.073984
21.837950
##ZVALUE=330
0.501871
0.441670
0.392795
0.431538
0.454783
0.377893
0.483990
0.538826
0.514984
0.554919
0.642538
0.579953
0.590682
0.620484
0.562668
0.540614
0.711679
0.583529
0.446439
0.482798
0.583529
0.640750
0.588894
0.554919
0.628829
0.678897
0.786781
0.715852
0.717640
0.712872
0.798702
0.614524
0.616908
0.648499
0.642538
0.946522
0.994802
0.871420
0.891685
1.002550
1.072884
1.162887
1.349449
1.378655
1.369715
1.535416
1.907945
8.635521
29.779673
97.678900
184.527636
361.865759
528.995991
756.605864
896.615982
991.771817
961.475968
811.831951
648.706555
413.188934
267.611742
125.869513
64.188838
24.576783
13.128519
10.225773
10.599494
12.229681
15.335679
21.863580
29.745698
44.153929
57.015419
75.758696
87.128878
97.221732
98.685622
92.184544
83.502531
68.605542
56.649446
43.285489
35.327673
28.789639
25.743842
23.757815
23.093820
22.878647
22.623539
22.085905
22.274852
22.512674
21.820664
21.897554
21.734834
21.726489
##ZVALUE=335
0.420809
0.389814
0.490546
0.468493
0.362992
0.499487
0.390410
0.351667
0.408888
0.282526
0.506639
0.436902
0.483990
0.515580
0.417829
0.591874
0.536442
0.519753
0.512600
0.506639
0.541806
0.396967
0.607967
0.531673
0.723600
0.543594
0.564456
0.606775
0.626445
0.583529
0.845790
0.676513
0.696778
0.748634
0.804663
0.626445
0.704527
0.813603
0.891685
0.764728
0.794530
1.082420
0.965595
1.051426
1.110435
1.267791
1.238585
1.486540
1.671910
3.532767
13.632774
53.929687
113.838911
253.003836
404.909849
641.685724
801.945925
938.583612
950.657725
853.426456
719.224811
493.104458
333.819985
175.210834
90.749860
32.911897
16.653538
10.599494
10.620952
11.347532
12.640953
15.618801
20.574927
30.834675
41.549802
58.642626
70.103407
82.956553
90.291500
92.796683
89.293718
77.866912
67.794919
55.002570
45.802593
35.527945
30.134916
25.432706
23.289919
22.288561
21.378994
21.444559
21.332502
20.934939
20.881891
21.145940
##ZVALUE=340
0.449419
0.358820
0.487566
0.454783
0.371933
0.441670
0.394583
0.455976
0.530481
0.454783
0.562668
0.458956
0.460744
0.396967
0.369549
0.464916
0.536442
0.556707
0.513792
0.720620
0.547767
0.402927
0.483990
0.535846
0.473857
0.431538
0.588894
0.569820
0.563860
0.610948
0.605583
0.483990
0.705719
0.834465
0.698566
0.734925
0.590682
0.611544
0.625849
0.783801
0.800490
0.827909
0.741482
0.659823
1.008511
1.049638
1.007915
1.016855
0.954866
1.200438
1.499653
1.908541
8.564591
28.349757
92.604756
181.050897
367.140770
528.110862
735.500455
861.657858
936.480761
902.886987
755.974650
602.876544
380.683541
241.014957
111.073852
54.412484
18.785000
11.545420
11.004806
11.241436
12.155771
13.449788
16.375780
20.968914
30.498505
40.595531
56.181550
68.486929
81.924796
88.053942
87.118745
84.680915
75.374842
65.770745
53.542852
44.052601
33.868551
28.477907
24.291873
22.233725
20.514727
20.163655
20.370483
20.319819
##ZVALUE=345
0.455976
0.439882
0.243783
0.415444
0.366569
0.506639
0.471473
0.385642
0.627637
0.422597
0.440478
0.477433
0.494719
0.435710
0.454783
0.461936
0.495911
0.555515
0.450611
0.466704
0.616908
0.500679
0.600815
0.465512
0.513792
0.702739
0.542998
0.410676
0.552535
0.504851
0.459552
0.646710
0.603795
0.734925
0.648499
0.653863
0.725985
0.647902
0.810623
0.667572
0.725985
0.710487
0.865459
0.860691
0.942945
0.916719
0.950694
0.941753
0.939965
0.955462
1.064539
1.154542
1.220703
1.706481
3.171563
20.714998
58.301687
155.617595
271.577835
480.653644
655.834675
847.864747
928.449631
922.669768
833.188891
636.259913
468.254685
264.216661
151.325464
65.678954
31.632781
14.009476
11.253953
10.866523
11.239648
12.319684
13.305545
16.612411
20.643473
29.140711
38.036704
52.625537
63.396692
74.759722
80.552697
81.847906
80.230832
72.700977
64.708591
51.842928
42.808652
33.108592
28.140545
23.362637
21.474957
19.957423
##ZVALUE=350
0.417829
0.552535
0.618696
0.561476
0.499487
0.442863
0.680685
0.442863
0.686646
0.526905
0.614524
0.662804
0.617504
0.491738
0.522733
0.444651
0.595450
0.550747
0.567436
0.583529
0.623465
0.588894
0.599623
0.522733
0.698566
0.644922
0.682473
0.594854
0.684857
0.659823
0.655651
0.633597
0.706911
0.657439
0.611544
0.649691
0.624657
0.649691
0.723600
0.799894
0.681877
0.795722
0.907779
0.882745
0.847578
1.010895
1.042485
0.787973
0.867844
0.865459
0.959635
1.209974
1.197457
1.270771
1.330972
1.443624
1.894832
9.511709
30.012727
95.344782
179.135799
354.051590
513.796806
715.062618
832.898617
887.475610
835.751891
680.056810
516.114831
303.969979
185.361505
88.217854
42.828918
16.694665
11.304617
10.815859
11.055470
11.230707
11.586547
13.785958
15.638471
20.952821
26.201606
35.576820
44.750571
56.517720
65.521002
72.991848
74.854493
73.751807
69.101453
58.582425
50.176978
38.887858
32.291412
26.123524
##ZVALUE=355
0.354648
0.403523
0.270605
0.390410
0.349879
0.569820
0.415444
0.384450
0.498891
0.485778
0.401735
0.596642
0.412464
0.455976
0.412464
0.534654
0.530481
0.570416
0.569820
0.376701
0.373721
0.462532
0.425577
0.480413
0.618696
0.557899
0.348687
0.500679
0.436902
0.535846
0.570416
0.631809
0.754595
0.583529
0.667572
0.673532
0.583529
0.699759
0.655651
0.742674
0.606775
0.673532
0.686646
0.637770
0.757575
0.693798
0.777841
0.538826
0.752807
0.863671
0.837445
0.932813
0.907779
0.881553
1.099706
1.149774
1.315475
1.342893
1.366735
4.316568
16.986728
64.123869
130.577683
270.143747
417.509675
632.517934
778.732896
877.114534
869.247913
735.911727
583.963990
380.077958
240.519643
107.374787
53.003430
20.058751
11.803508
9.731650
10.176897
10.590553
10.720491
11.512637
12.479424
15.046597
18.104911
24.345517
30.613542
40.974617
48.634410
58.948994
64.706802
68.601966
67.236423
62.816739
56.433678
47.014952
##ZVALUE=360
0.336766
0.300407
0.419617
0.393987
0.348687
0.470877
0.220537
0.665784
0.436902
0.512600
0.455976
0.390410
0.356436
0.438690
0.508428
0.712872
0.538826
0.529885
0.465512
0.617504
0.506639
0.475645
0.563860
0.527501
0.515580
0.594854
0.497699
0.341535
0.497699
0.569820
0.555515
0.666976
0.618696
0.586510
0.646710
0.659823
0.774860
0.887513
0.703931
0.592470
0.708699
0.572801
0.651479
0.664592
0.638962
0.727773
0.736713
0.646710
0.646710
0.779629
0.810623
0.684857
0.733733
0.838637
0.834465
0.940561
0.975728
1.149774
1.223683
1.318455
1.352429
2.447963
8.126497
37.454963
90.695620
215.915442
349.934697
555.129647
715.793967
858.976841
878.902674
800.501704
664.475560
443.818569
290.602446
141.477585
74.983835
30.401945
15.361905
9.424686
9.711981
9.518862
9.642839
10.279417
10.856986
11.579990
12.453794
15.635490
19.373894
26.169419
33.259988
43.065548
50.682425
58.610439
62.082410
61.865449
##ZVALUE=365
0.489950
0.440478
0.426769
0.361800
0.562668
0.515580
0.414848
0.558496
0.650883
0.572801
0.504851
0.622869
0.642538
0.457764
0.610948
0.330806
0.480413
0.451803
0.411868
0.494719
0.610948
0.376701
0.505447
0.437498
0.404716
0.513792
0.571609
0.499487
0.560880
0.578761
0.401735
0.564456
0.422597
0.605583
0.635982
0.487566
0.587702
0.674725
0.580549
0.565648
0.605583
0.551939
0.675917
0.516772
0.620484
0.696778
0.692606
0.671744
0.762939
0.636578
0.732541
0.699759
0.776649
0.931621
0.921488
0.855923
1.005530
0.958443
1.071692
1.122952
1.208782
1.408458
1.513958
1.781583
3.953576
23.393631
65.584779
172.294974
298.775434
503.031015
663.200021
829.854012
886.576772
841.788650
721.288919
513.159633
356.476903
193.758607
108.391643
42.729974
19.945502
9.933710
8.981824
8.858442
9.097457
9.285808
9.481907
9.787679
10.453463
11.728406
13.380647
17.167926
21.615624
28.918982
35.812855
45.487881
##ZVALUE=370
0.476837
0.488758
0.541806
0.463724
0.582933
0.416636
0.468493
0.424981
0.432730
0.421405
0.385642
0.402927
0.415444
0.399947
0.579953
0.344515
0.602603
0.447631
0.389814
0.588894
0.502467
0.428557
0.600815
0.588894
0.630617
0.426769
0.470877
0.593662
0.465512
0.547767
0.514984
0.651479
0.473857
0.418425
0.456572
0.562668
0.533462
0.656843
0.679493
0.668764
0.647902
0.634789
0.571609
0.718832
0.618696
0.798702
0.557899
0.727773
0.793934
0.770688
0.689626
0.704527
0.769496
0.698566
0.885725
0.704527
0.787973
0.996590
1.036525
0.985861
0.975728
1.190901
1.102686
1.141429
1.269579
1.550913
2.117753
12.625456
42.699575
131.066442
231.906772
407.790542
565.000772
751.260519
834.246874
839.677453
753.916502
576.641560
419.787765
231.002569
129.993558
53.451657
26.630759
12.149811
8.554459
7.989407
8.025765
8.184910
8.376837
8.408427
9.006858
9.484887
10.328889
12.240410
14.979839
19.772649
##ZVALUE=375
0.381470
0.433922
0.478625
0.429749
0.520945
0.344515
0.474453
0.371933
0.357628
0.275970
0.364780
0.458956
0.405908
0.490546
0.502467
0.490546
0.431538
0.386834
0.374913
0.521541
0.609756
0.340939
0.457764
0.440478
0.556707
0.602603
0.502467
0.518560
0.530481
0.473857
0.472665
0.484586
0.397563
0.556707
0.572801
0.450611
0.516772
0.643730
0.419617
0.585914
0.666976
0.581741
0.495911
0.652671
0.660419
0.519753
0.530481
0.645518
0.645518
0.775456
0.703931
0.752807
0.784993
0.697970
0.617504
0.563860
0.754595
0.661612
0.782609
0.798702
0.612736
0.835657
1.047850
1.029968
1.150966
1.014471
1.392961
1.423955
1.790524
6.720424
26.714802
95.046759
189.496875
376.477838
542.012453
743.966699
840.007663
871.385932
816.633701
649.554729
492.261648
294.341445
184.347630
91.888905
48.010945
18.076897
9.732842
7.427931
7.466674
7.467866
7.603765
7.858872
7.905960
8.124709
8.479953
9.427667
##ZVALUE=380
0.438690
0.388622
0.454783
0.560880
0.473857
0.416636
0.380874
0.411868
0.350475
0.336766
0.462532
0.424981
0.392795
0.636578
0.501871
0.243783
0.441670
0.361800
0.325441
0.433922
0.486970
0.416636
0.496507
0.316501
0.397563
0.438690
0.614524
0.367761
0.597835
0.472665
0.530481
0.505447
0.555515
0.560880
0.567436
0.406504
0.466704
0.521541
0.568628
0.513792
0.549555
0.566840
0.552535
0.622869
0.583529
0.532866
0.543594
0.517964
0.498891
0.494719
0.608563
0.610948
0.651479
0.577569
0.430942
0.690818
0.659823
0.656843
0.726581
0.675917
0.782609
0.935793
0.810623
0.609756
0.948906
0.821948
0.966787
1.144409
1.329780
1.498461
1.566410
2.858639
11.788011
61.510801
140.014887
300.725698
453.795791
656.303763
783.317685
857.975483
829.389691
690.373778
557.497740
383.637547
256.576538
127.378702
66.801906
25.140643
12.462735
7.429719
6.703734
6.852746
6.673932
7.321835
7.283688
7.362962
##ZVALUE=385
0.323653
0.280738
0.363588
0.413656
0.389814
0.289679
0.397563
0.350475
0.353456
0.441670
0.425577
0.395775
0.385642
0.409484
0.489950
0.350475
0.416636
0.438690
0.315905
0.453591
0.391603
0.534654
0.490546
0.441670
0.423789
0.338554
0.381470
0.542998
0.539422
0.529885
0.533462
0.471473
0.406504
0.337958
0.434518
0.519753
0.602603
0.557899
0.627637
0.475645
0.573993
0.458956
0.587702
0.424981
0.447631
0.485778
0.276566
0.570416
0.561476
0.643730
0.480413
0.347495
0.427961
0.574589
0.618696
0.644922
0.631809
0.576973
0.533462
0.591874
0.545979
0.713468
0.773668
0.677705
0.779629
0.752807
0.809431
0.896454
0.987649
1.031756
1.296997
1.310706
1.393557
1.700521
4.518628
28.785467
77.954531
194.050670
330.413580
552.724600
711.041689
832.296610
851.991773
785.548687
675.648451
485.844016
337.325931
181.612968
102.502704
43.701530
19.637942
7.973909
6.217957
6.185770
6.280541
6.463528
##ZVALUE=390
0.444651
0.453591
0.351667
0.318885
0.462532
0.417829
0.339746
0.414848
0.481606
0.355840
0.484586
0.485778
0.533462
0.327826
0.537634
0.233650
0.497699
0.406504
0.425577
0.487566
0.370741
0.526905
0.443459
0.361800
0.438690
0.301600
0.480413
0.456572
0.501871
0.454783
0.520945
0.436902
0.504851
0.389814
0.534654
0.496507
0.394583
0.408888
0.592470
0.464916
0.549555
0.646710
0.443459
0.484586
0.391603
0.562668
0.436902
0.624657
0.675917
0.624657
0.364780
0.534654
0.551939
0.616908
0.638962
0.488758
0.544786
0.562668
0.581741
0.616908
0.566840
0.579953
0.601411
0.728965
0.848770
0.577569
0.689626
0.845790
0.935793
0.979900
1.009703
1.232624
1.240969
1.279712
1.331568
1.442432
2.256632
12.724996
42.377710
134.846568
250.905752
463.074446
629.772544
802.755952
878.897905
867.841840
776.404738
591.125488
440.962911
262.848735
151.294470
62.838793
30.867457
11.523962
6.702542
5.923510
##ZVALUE=395
0.413656
0.248551
0.276566
0.359416
0.404716
0.365973
0.491738
0.364780
0.472665
0.474453
0.444651
0.425577
0.429749
0.365973
0.381470
0.341535
0.367761
0.513792
0.410676
0.312924
0.313520
0.333786
0.546575
0.478625
0.435710
0.404716
0.360608
0.268817
0.438690
0.542998
0.442863
0.395775
0.479817
0.468493
0.287890
0.373721
0.543594
0.329614
0.409484
0.413656
0.411868
0.451803
0.473857
0.468493
0.554919
0.496507
0.417829
0.479817
0.578761
0.377893
0.460744
0.553727
0.617504
0.396967
0.576973
0.508428
0.606775
0.553727
0.661612
0.558496
0.621676
0.674725
0.545979
0.622869
0.587702
0.783801
0.854731
0.822544
0.802875
0.876784
1.017451
1.064539
1.042485
1.159906
1.068711
1.215935
1.235604
1.240969
1.419783
6.796718
26.564598
99.812746
190.525651
354.220867
513.911843
717.895031
832.757950
880.295634
836.802721
691.754818
533.285737
327.439904
200.017691
87.418556
42.051673
15.605688
##ZVALUE=400
0.367761
0.471473
0.390410
0.461936
0.354648
0.314713
0.220537
0.609756
0.390410
0.458956
0.362992
0.182986
0.352859
0.390410
0.465512
0.421405
0.435710
0.384450
0.374913
0.494719
0.402927
0.366569
0.611544
0.393987
0.397563
0.426769
0.167489
0.318885
0.477433
0.462532
0.412464
0.464916
0.315905
0.399947
0.260472
0.547767
0.396967
0.377893
0.402927
0.527501
0.380874
0.442863
0.557899
0.488758
0.483990
0.327826
0.506639
0.487566
0.430942
0.521541
0.395775
0.579953
0.523925
0.591874
0.526905
0.563860
0.561476
0.573993
0.539422
0.547767
0.560880
0.585914
0.556707
0.652671
0.629425
0.710487
0.695586
0.819564
0.871420
0.893474
1.025796
0.884533
1.139641
1.062751
0.986457
1.063943
1.023412
0.927448
1.126528
1.127720
1.367927
3.409982
12.659431
55.039525
121.380687
266.248584
417.865515
632.835031
765.841603
861.609578
854.402781
729.005933
595.448613
400.241017
260.451436
129.643679
##END
