##TITLE=FQP00302
##FORMAT=SPECTACLE-ASCII V-1.2
##DATA TYPE=ULTRAVIOLET SPECTRUM
##SECOND TYPE=ULTRAVIOLET SPECTRUM
##DATE=02/01/18
##TIME=15:44:16
##SPECTROMETER/DATA SYSTEM=SPECTACLE
##XUNITS=NM EM
##YUNITS=ENERGY
##YFACTOR=1
##FIRSTX=220
##LASTX=410
##NPOINTS=96
##3DDATA=Equidistant
##ZUNITS=NM EX
##FIRSTZ=210
##LASTZ=400
##ZPOINTS=39
##XYDATA=(Y..Y)
##ZVALUE=210
2.294779
2.249479
2.426505
2.174973
1.906753
2.361536
2.421737
2.705455
3.144741
2.500415
2.804995
2.798438
2.716780
3.285408
2.729893
3.684759
3.886819
3.618598
3.925562
4.908442
4.906654
4.199743
5.279779
5.564690
6.772876
6.938577
7.219911
7.389784
8.218884
8.238554
8.996725
9.711981
9.228587
10.083914
10.354519
9.791851
10.054708
9.906888
11.626482
10.565519
10.164976
10.956526
11.092424
11.285543
10.872483
11.116862
11.440516
10.633469
12.214780
10.552406
12.439489
11.385679
12.489557
11.997819
11.264682
12.257695
12.725592
11.868477
13.073683
13.085604
12.698770
12.586713
13.239980
12.122989
11.966825
14.755726
14.949441
15.396476
17.686486
20.754933
23.620725
29.628873
34.842491
39.272904
44.073462
50.904751
51.333904
54.927468
56.074858
52.982569
50.727725
49.088597
43.147802
35.570860
31.370521
24.523735
20.854473
16.145706
14.940500
12.138486
12.052655
12.169480
10.540485
13.046861
11.415482
13.224483
##ZVALUE=215
8.545518
8.356571
6.722808
6.186962
4.977584
5.222559
4.503727
4.842877
4.773736
5.148649
4.620552
4.553795
4.416704
4.234910
4.139543
4.062653
4.426837
4.758835
5.256534
4.802942
5.216599
6.722808
6.844997
7.453561
7.255673
7.261634
8.552670
9.595752
9.275675
9.909868
10.270476
12.533665
13.085604
12.373924
14.201999
13.437867
13.589859
13.272762
12.458563
14.495850
13.131499
13.649464
13.163686
14.176965
13.520718
12.962818
12.653470
12.362599
12.120605
12.256503
13.824701
12.763739
12.785792
12.272000
12.539625
12.824535
13.635755
11.371970
13.451576
11.737943
12.252927
14.072657
14.108419
14.302731
13.162494
13.623834
15.431643
16.858578
17.507672
21.233559
24.554729
30.214787
34.748912
36.690831
41.418672
47.461987
48.427582
49.942732
53.525567
49.620867
47.430992
43.696761
37.306547
33.417940
28.068423
24.840832
20.195842
16.710758
15.844703
13.775826
12.672544
12.040734
11.789799
11.925697
13.018847
12.585521
##ZVALUE=220
31.700730
33.224821
38.004518
38.172603
39.130449
31.213760
24.937987
16.629696
12.707710
12.529492
11.878610
12.129545
11.167526
11.815429
9.000897
9.445548
7.585883
6.174445
5.667806
5.372763
5.717874
5.750656
6.694794
6.498694
8.911490
9.675622
9.818673
11.605620
13.735890
16.011000
15.040636
18.017888
18.225908
16.662478
17.944574
19.582510
20.621419
18.277764
19.679666
20.126700
18.611550
18.706918
18.655658
17.256737
16.621947
16.850829
17.081499
16.304851
15.943646
14.005899
15.568733
15.046000
14.460683
15.049577
13.912916
13.207793
14.107823
13.301969
14.574528
13.921857
14.535785
13.458729
13.117790
14.387965
13.722777
15.514493
14.851689
16.409755
19.066930
20.612478
24.366975
26.737452
31.815767
35.186410
36.101937
40.136576
40.492415
47.143698
49.025416
46.038628
42.721629
39.318800
36.678910
31.259656
27.714968
23.616552
19.126534
16.796589
13.832450
14.421940
13.598800
13.083816
12.411475
13.298988
12.885928
12.856722
##ZVALUE=225
64.205527
64.767599
91.380477
120.255947
132.117867
134.713650
130.906701
103.151798
79.571605
59.573650
36.317706
26.093721
25.970936
27.933717
26.285648
25.501847
21.272898
17.870665
15.169978
11.945963
8.927584
7.202625
7.366538
7.600784
8.147955
9.814501
10.504723
11.680722
14.576912
15.254617
16.848445
20.132661
19.892454
21.946430
21.842718
21.256804
22.488832
21.492839
23.249984
22.038817
21.037459
20.461679
20.756721
20.804405
19.070506
18.910766
17.611980
18.680692
16.480684
17.735958
16.623735
16.398430
18.932819
14.977455
17.804503
16.893744
15.727878
16.891956
16.983747
16.346574
16.403794
16.175508
16.569495
18.000603
15.965700
17.750859
17.418861
17.972589
21.173954
22.506714
22.943616
28.696656
30.148625
34.429431
37.607551
38.196445
40.240884
39.286613
37.641525
36.065578
34.174919
31.463504
28.899908
28.332472
23.740530
21.099448
20.892620
18.839836
18.536448
17.627478
15.672445
15.706420
17.329454
14.549494
15.005469
15.976429
##ZVALUE=230
58.298707
64.351559
104.340911
173.704624
237.798691
301.198959
333.452821
336.577892
306.383967
263.349414
177.796483
124.269724
76.251626
55.998564
45.616627
49.469471
47.831535
50.709844
44.808984
37.459731
30.389428
21.617413
15.094876
10.762811
10.147691
10.032654
11.302829
12.061000
12.460947
14.269948
15.465617
16.917586
18.602610
20.480752
20.500422
20.798445
19.168854
20.042658
21.115541
21.125674
20.278692
20.260811
18.351674
20.218492
18.114448
17.915964
18.848777
17.421842
18.888712
16.648769
17.852783
17.736554
17.656684
16.941428
16.802549
17.687678
16.398430
16.347766
17.327666
18.415451
19.424558
18.655658
19.552708
18.287897
17.634630
18.375516
19.012690
19.377470
21.906495
24.113655
27.385950
28.653741
29.441714
34.127831
34.260750
38.119555
35.854578
35.115480
34.262538
33.300519
30.839443
31.266809
28.634667
27.221441
25.459528
23.080707
23.039579
22.713542
22.826791
23.138523
21.580458
20.120740
19.786954
21.451712
19.815564
20.686984
##ZVALUE=235
20.006895
23.005605
48.524737
122.787952
198.017955
331.705809
444.606543
577.324629
653.634667
665.635467
605.723858
497.979522
331.430435
230.218768
140.210986
101.466775
77.256560
77.131987
85.220933
85.494518
80.063939
67.442656
58.409572
37.050843
28.952956
20.149946
14.384985
12.920499
14.224648
13.677478
14.292598
15.065670
15.901923
15.920997
17.901659
17.940998
17.739534
18.097758
17.095804
18.196702
17.461777
17.476678
17.982721
18.904805
18.826723
15.436411
18.129945
16.969442
18.903613
16.981959
16.565919
19.319654
18.179417
19.451976
19.568801
20.072460
20.595789
20.642877
21.539927
21.205544
20.643473
21.916628
23.121834
23.170710
22.083521
23.783445
24.142861
26.237965
26.905537
30.745864
32.645464
36.187768
38.339496
40.212870
39.976835
44.557452
43.517947
43.516755
42.292476
41.767955
41.890740
38.062930
35.020709
34.042001
35.411716
33.094883
30.971766
32.134652
29.525757
29.877424
29.536486
29.246807
27.422905
29.621720
29.611588
29.788613
##ZVALUE=240
2.540946
3.038645
13.980865
39.562583
107.456446
190.638900
364.976525
532.280803
755.501986
881.716609
985.338688
962.362885
863.139629
669.981837
508.740544
303.161740
206.549764
132.167935
105.284452
101.616979
114.131570
115.869641
113.875866
106.050968
88.516474
69.139600
51.947832
37.839413
27.050972
20.269752
16.639829
16.266704
15.773773
14.156699
15.725493
15.521646
15.912652
16.427636
16.381741
15.897751
16.098619
16.247630
15.731454
15.670657
16.143918
16.923547
17.495751
16.532540
16.321540
17.891526
18.662810
19.833446
18.128753
19.076467
19.237995
20.554662
19.793510
19.927621
20.762682
22.073984
22.416711
22.834539
23.989677
23.593903
25.412440
25.914907
27.790666
28.786659
29.155612
32.079816
34.479499
35.216808
38.553476
42.880774
40.380955
44.776797
47.270656
45.702457
44.848919
45.067668
44.159889
43.334961
40.922761
38.949847
39.653778
38.056970
37.511587
37.252903
36.905408
36.741495
34.664869
35.956502
36.106706
34.330487
37.037730
35.859942
##ZVALUE=245
1.421571
1.397729
1.290441
2.010465
7.294416
24.046898
91.120005
184.913874
388.747454
581.305623
829.715729
975.897908
1015.554667
1010.366678
908.159614
704.858899
530.866981
337.001681
225.668550
139.259696
104.138851
102.911592
116.227865
127.914548
134.729743
131.224990
115.517974
98.780990
80.861449
59.999824
45.927763
31.094551
23.891926
19.369721
18.840432
16.986728
17.074943
17.315745
15.633702
17.161965
15.417933
16.465783
15.628934
15.148520
14.660954
16.638637
15.988946
16.710758
16.158819
15.806556
15.530586
17.125607
16.907454
17.746687
16.784668
17.957687
20.321608
18.235445
18.665791
20.993948
20.984411
20.383000
20.848513
23.305416
22.846460
24.279952
22.715926
25.519729
25.799870
29.149652
31.869411
34.158826
35.956502
36.519766
39.051771
40.259957
41.572452
39.753914
44.704676
43.193698
41.678548
39.839745
36.927462
37.804842
36.833882
35.012960
35.057664
36.468506
35.515428
37.118793
36.105514
34.469962
33.774972
35.792589
34.396648
34.919977
##ZVALUE=250
1.591444
1.366735
1.576543
1.752973
1.656413
1.488924
2.534986
11.542439
58.347583
122.535825
297.134519
472.587943
664.788485
910.030603
1015.003920
1015.788913
1005.092859
839.588642
669.117570
436.553955
284.371972
185.467005
115.268826
99.219680
111.979842
125.404000
140.374899
146.221519
142.337680
131.681561
118.102431
88.183880
67.107677
48.595667
37.110448
25.299788
20.381808
20.079613
19.625425
18.689632
18.468499
19.272566
18.959641
16.885996
17.550588
17.063618
18.076897
15.994906
16.687512
16.376972
16.952753
17.078519
15.386939
17.138720
15.893579
17.578602
17.183423
16.988516
17.287731
16.688704
18.274784
16.688704
19.334555
18.471479
18.366575
20.294785
21.234751
21.927953
23.519993
23.491979
26.497841
28.890967
30.612946
30.812621
32.201409
34.161806
35.748482
34.972429
35.686493
36.606789
35.642982
34.154654
34.576654
33.862591
34.241676
32.921433
33.701658
33.200979
33.627748
31.628609
33.259988
31.684637
33.502579
32.470822
33.333898
33.988953
##ZVALUE=255
1.035929
1.007915
1.451969
1.116991
1.205802
1.451969
1.589656
2.013445
2.015829
6.100535
22.919774
87.076426
184.172988
389.655828
590.093732
880.533457
1015.785933
1015.785933
1015.785933
1015.785933
887.770653
687.480569
405.429602
245.693922
136.615634
102.431774
94.489455
110.316873
134.725571
150.768757
154.651999
153.788924
143.441558
118.632913
99.071860
69.884658
52.788854
37.781000
30.638576
23.486614
22.642612
22.840500
21.995902
21.676421
20.042658
19.804835
18.938780
19.039512
18.942952
18.258691
18.624663
17.613769
17.979741
16.276836
16.960502
16.996861
16.330481
16.681552
17.358661
17.157793
17.069578
16.979575
16.444921
17.687678
16.992688
17.537475
18.876791
19.126534
20.497441
21.743774
20.436645
24.519563
26.729703
25.685430
27.598739
27.382970
27.532578
29.660463
28.356910
29.713511
28.299689
29.630661
29.658675
29.906631
27.932525
30.674934
29.534698
29.041767
30.603409
31.029582
31.141639
30.809641
29.051900
30.447841
29.412508
31.385422
##ZVALUE=260
0.864863
1.166463
1.053810
1.141429
1.236796
1.102686
1.301765
1.428723
1.302958
1.598597
1.828671
2.771616
7.466674
32.557845
80.554485
230.612755
411.384702
707.733631
952.031612
1015.785933
1015.785933
1015.785933
1011.991501
810.292959
506.545901
336.412787
192.030668
125.341415
88.955760
93.286633
112.102628
137.740970
157.040954
166.401863
165.180564
147.800446
126.871467
100.378990
78.749657
54.892898
42.870641
31.988621
26.972890
25.454760
24.653673
22.260547
22.073984
20.721555
20.916462
19.570589
19.425750
18.450618
18.402934
17.773509
17.213821
17.454624
17.308593
16.566515
16.580820
17.092824
16.389489
16.173720
16.669631
15.572906
17.479658
17.685890
16.776919
16.688704
18.906593
19.330978
19.585490
20.957589
22.528768
23.851991
22.975802
23.637414
25.046468
25.176406
25.540590
24.840832
26.152730
25.990605
26.385784
25.803447
26.222467
26.846528
26.994944
26.301742
26.472807
28.728843
26.546717
25.969744
28.594732
28.888583
29.199719
28.990507
##ZVALUE=265
0.764728
0.859499
1.248717
0.995994
1.054406
1.030564
1.211762
1.189709
1.315475
1.565814
1.442432
1.548529
1.713634
2.037883
3.985763
20.927787
52.425861
153.111815
297.176838
597.196817
860.466957
1015.785933
1015.785933
1015.785933
1015.785933
933.134556
661.002994
454.078913
255.540609
157.271624
104.918480
85.561872
96.031427
127.613544
149.197578
169.475675
174.219608
165.680647
155.331492
127.594471
105.551481
76.678991
59.107542
41.967630
33.560991
25.946498
24.993420
22.682548
22.616982
21.752715
20.378828
20.524859
20.875931
19.429922
18.675923
18.251538
17.792583
17.490983
16.558766
17.204881
16.256571
16.058683
16.054511
15.767813
16.123652
16.888976
17.155409
17.612576
17.585754
17.924905
18.598437
20.189881
19.471645
20.741820
22.318959
22.766590
22.367835
24.005771
23.572445
23.209453
23.040771
23.460984
25.337934
24.945736
25.176406
25.159717
25.185943
25.634766
26.113987
25.366545
25.525689
26.382804
25.527477
28.185844
26.086569
27.801991
##ZVALUE=270
0.889897
0.752807
0.963807
0.889897
0.990629
0.750422
1.098514
1.036525
1.103878
1.018643
1.402497
1.353621
1.421571
1.196861
1.343489
1.902580
2.228618
11.203885
33.972859
109.839439
217.905641
378.818512
660.160780
869.879723
1015.785933
1015.785933
1015.785933
998.754501
786.536932
592.188835
408.795476
220.974684
135.225654
82.228780
80.396533
103.095770
126.631856
151.998401
168.926716
173.956752
169.713497
151.136518
132.307410
99.629760
78.461766
54.477453
42.487979
31.634569
26.151538
23.258924
21.725893
20.620823
20.042658
19.195676
17.873645
17.946959
17.856956
17.649531
17.205477
18.157959
17.531514
16.733408
16.740561
16.734600
16.029477
16.802549
17.065406
16.783476
18.127561
18.161535
18.164515
20.053983
18.906593
20.155907
21.094680
22.255778
22.329688
21.807551
22.650957
23.171902
22.626519
23.598671
23.560524
23.870468
25.030971
24.051666
23.933649
24.995804
24.374723
24.810433
23.832917
24.237633
25.090575
24.529696
25.257468
25.693774
##ZVALUE=275
0.709891
0.530481
0.899434
0.859499
0.850558
1.037717
0.926852
1.068711
0.910759
1.072884
1.028776
1.123548
0.980496
1.219511
1.136661
1.154542
1.257658
1.560450
1.603961
4.654527
19.244552
59.229732
165.070891
301.605463
551.477671
732.883811
947.300792
1015.781760
1015.781760
1015.781760
935.645700
698.080659
501.405001
272.920728
164.821744
86.175799
65.155625
74.272752
92.419982
121.502876
142.104626
160.740614
166.510940
161.990523
145.856738
119.357705
99.546909
72.141886
54.137707
36.657453
28.461814
22.587776
20.530820
17.935634
18.157959
17.931461
17.593503
16.932487
17.592907
17.583966
17.424822
17.171502
17.633438
17.480850
17.412901
17.449856
17.518997
18.492937
17.771721
18.439889
19.392967
19.980669
19.769669
20.766854
21.102428
21.336675
21.113753
22.396445
21.810532
22.928715
22.342801
23.052692
23.455620
23.815632
22.921562
23.114681
23.241639
23.809671
22.931695
23.563504
22.706985
24.436712
23.847818
23.893714
24.188757
24.886727
##ZVALUE=280
0.824928
0.759959
0.749826
0.673532
0.644922
0.854731
0.742674
0.858903
0.745654
0.905991
1.052618
0.720620
1.075864
0.908971
1.072884
1.192689
1.155734
1.402497
1.345873
1.573563
1.684427
2.329946
10.766983
37.124753
115.460753
211.356878
398.910642
577.498674
818.603635
957.299471
1015.784740
1015.784740
951.955914
733.211637
550.573468
320.518017
198.133588
95.925927
58.660507
50.433874
62.731504
88.953972
110.419989
136.948824
151.038766
156.537890
151.333809
133.546591
116.113424
87.825656
67.618489
47.053695
34.861565
24.258494
19.528866
17.296672
16.442537
17.129779
16.513467
17.496943
17.541647
17.483830
17.664433
17.914772
18.186569
18.785000
18.096566
18.038750
18.940568
19.648671
19.417405
20.730495
21.050572
21.070838
21.634698
21.813512
21.192431
21.655560
22.088885
22.601485
22.701621
23.573637
23.170710
23.393631
23.165941
23.567677
23.882985
23.749471
23.299456
24.071932
23.236871
23.546815
23.185611
23.412704
23.528934
23.466945
##ZVALUE=285
0.438690
0.499487
0.569820
0.505447
0.568628
0.555515
0.700951
0.485778
0.619888
0.651479
0.602603
0.737906
0.701547
0.521541
0.727773
0.818968
0.715852
0.651479
0.908971
0.955462
1.053810
1.085997
1.400709
1.643896
4.469752
16.628504
62.904954
130.742788
281.432867
427.822471
645.905733
803.034902
956.069827
1003.543735
945.929885
819.776654
606.291890
428.724885
232.545733
138.284564
63.734651
39.148927
40.176511
53.169727
78.295469
99.326968
125.298500
141.476989
148.797631
144.591928
131.372809
111.789703
86.493492
68.230629
46.935678
34.776926
23.723841
19.627810
18.222928
17.346740
17.792583
18.106699
18.365979
18.300414
18.837452
19.312501
19.628406
19.637942
19.886494
20.549893
20.553470
21.440983
21.830797
22.480488
22.473931
21.716952
22.687912
23.100972
23.563504
22.385716
22.351742
23.973584
23.379922
23.194551
23.832917
23.353696
23.414493
23.374557
22.971630
22.838712
23.201704
22.883415
23.148656
22.701621
23.317933
22.446513
##ZVALUE=290
0.680685
0.587702
0.864863
0.780821
0.734925
0.695586
0.726581
0.705719
0.719428
0.629425
0.692606
0.877976
0.743866
0.748634
0.803471
0.834465
0.869632
0.937581
1.063943
0.988841
1.134872
1.115799
1.119971
1.340508
1.644492
1.915693
2.264977
7.489920
41.135550
104.301572
204.208493
397.285819
582.828522
826.202035
956.213474
1015.783548
1015.783548
892.163515
733.476877
497.617722
334.066749
170.408487
92.344880
38.880706
26.880503
35.613775
49.126744
71.669817
92.743635
118.017793
134.879947
144.705772
143.808722
128.742456
113.921762
87.855458
66.965818
47.727823
36.432743
26.898980
22.820830
20.624995
19.841790
20.012856
19.120574
19.596815
20.428896
21.111965
21.858811
22.289753
22.191405
23.259521
23.473501
22.817850
24.074912
24.211407
23.853779
24.678707
24.460554
23.928881
24.021864
24.209619
24.251938
25.142431
24.782419
24.341941
24.179816
24.592876
24.232864
24.061799
23.624897
23.510456
23.014545
22.768974
23.170710
23.533702
##ZVALUE=295
0.575781
0.493526
0.531673
0.666976
0.593662
0.669956
0.634789
0.620484
0.635982
0.706911
0.770688
0.669956
0.721812
0.942945
0.730753
0.746846
0.894666
0.755787
0.858903
0.914931
1.103878
0.960827
1.223683
1.397729
1.357794
1.283884
1.629591
1.730919
2.139807
3.427863
23.529530
82.468987
197.934508
436.190963
651.555657
936.840773
1015.785933
1015.785933
1015.785933
990.176797
835.223794
590.412617
402.646661
209.642649
116.962790
47.611594
26.662946
23.038983
30.570626
49.624443
65.800548
93.030930
112.720728
130.910873
139.233470
138.257742
128.280520
107.702613
89.618564
66.451430
51.414967
36.072731
28.785467
24.282932
21.829605
21.940470
21.849871
22.230744
23.041964
22.731423
23.193955
24.132729
23.660660
24.381876
25.031567
24.400949
24.456978
24.556518
24.440885
25.370717
26.317835
25.733709
25.037527
25.611520
25.660992
25.232434
25.024414
24.783611
25.150776
24.728775
24.122596
24.001598
24.195910
24.043918
23.472905
22.862554
##ZVALUE=300
0.460744
0.628829
0.650883
0.605583
0.667572
0.515580
0.630617
0.627637
0.831485
0.551939
0.634789
0.705719
0.894666
0.705719
0.699759
0.912547
0.831485
0.760555
0.796914
0.882745
0.925660
0.851750
1.156926
1.088977
1.110435
1.153946
1.208782
1.362562
1.477599
1.804829
1.851916
2.193451
9.540915
38.124919
136.762857
266.711712
507.580638
723.806024
976.506472
1015.785933
1015.785933
1015.785933
879.454613
707.135797
461.272597
297.942758
150.657892
83.535910
34.275651
20.845532
21.943450
30.136704
45.668483
62.863827
87.701678
105.596781
127.732754
133.848786
134.126544
126.320720
107.029676
90.088844
68.871975
53.974986
38.526654
31.380653
25.237799
23.994446
23.396611
23.650527
23.346543
24.329424
23.987889
24.795532
24.764538
25.308728
25.450587
25.435686
25.701523
26.096702
25.778413
25.140643
25.957823
26.094913
26.231408
25.912523
25.396943
25.964975
25.493503
25.988817
24.504662
24.965405
24.206638
24.337769
23.610592
23.682714
##ZVALUE=305
0.567436
0.667572
0.686646
0.483990
0.584722
0.676513
0.572801
0.495911
0.639558
0.583529
0.557899
0.671744
0.589490
0.664592
0.550747
0.635982
0.640750
0.825524
0.738502
0.765920
0.978708
0.775456
0.777841
0.837445
0.856519
0.994802
0.881553
1.137853
1.227856
1.188517
1.239777
1.581907
1.273751
1.764894
3.334880
21.879673
60.774684
164.783597
283.774734
492.310524
663.214922
865.905881
960.601568
985.871553
908.195972
716.390014
555.954576
352.640748
220.864415
100.888610
52.904487
23.180842
18.330812
21.502972
29.710531
45.623779
62.575936
85.049868
102.181435
121.490955
128.511786
128.176808
121.197701
103.381872
86.974502
65.147877
51.495433
38.091540
31.396747
26.084781
24.231672
23.218989
23.502707
23.690462
23.811460
24.787784
24.821758
25.176406
25.422573
26.096702
26.500821
26.139617
26.044846
25.698543
26.705861
26.276708
26.569963
26.959777
26.235580
25.967956
25.287867
25.090575
24.509430
23.684502
24.682879
23.963451
##ZVALUE=310
0.464916
0.512600
0.452995
0.488758
0.455976
0.560880
0.467896
0.605583
0.351667
0.575781
0.535846
0.490546
0.721812
0.730753
0.680685
0.418425
0.570416
0.634789
0.584722
0.673532
0.710487
0.812411
0.812411
0.776649
0.673532
0.697970
0.783801
0.715852
0.908971
0.904799
0.980496
1.099706
1.054406
1.154542
1.338720
1.365542
1.691580
7.619858
26.393533
86.214542
163.340569
326.167941
482.929945
697.029829
839.185715
943.882465
930.104852
814.051628
669.566989
447.139740
298.652649
151.397586
83.019733
33.103824
19.254684
16.719699
20.334721
29.075742
39.694905
58.403611
74.881911
96.667409
110.801458
120.235682
122.961998
115.651488
103.582740
83.906651
67.585707
49.353838
39.921999
31.329989
27.580857
25.057793
23.962855
23.768544
25.175810
25.131702
24.892688
25.337934
25.882721
26.183724
26.013851
26.623607
26.411414
26.317835
26.236773
26.088953
25.763512
25.490522
25.648475
25.161505
24.700761
24.693608
24.534464
24.327636
##ZVALUE=315
0.397563
0.464916
0.500679
0.569820
0.507832
0.615716
0.665784
0.533462
0.460744
0.561476
0.506639
0.381470
0.478625
0.603795
0.575781
0.684857
0.558496
0.571609
0.527501
0.656843
0.601411
0.514984
0.731945
0.803471
0.834465
0.742674
0.744462
0.636578
0.925660
0.823736
0.886917
1.023412
1.151562
1.030564
1.275539
1.186728
1.196861
1.394749
1.607537
3.069639
11.695623
49.121976
106.036663
238.900781
386.406779
620.870590
767.837763
904.510617
941.300988
867.123604
745.240450
536.774993
379.887819
204.642415
113.735795
44.895411
23.601651
15.349984
15.841722
20.482540
25.893450
38.175583
51.815510
72.319508
87.789893
105.624795
114.223957
115.945935
110.939741
95.919967
82.320571
63.724518
50.991774
37.408471
31.298995
26.633739
24.884939
24.125576
24.898648
24.821758
25.392771
25.582910
26.269555
25.954843
25.751591
26.296973
26.733875
26.227832
25.666952
26.130676
25.649667
25.503635
25.427938
25.354624
25.286674
24.830699
##ZVALUE=320
0.340939
0.327826
0.427961
0.411868
0.187755
0.433922
0.399947
0.591874
0.459552
0.540614
0.359416
0.556707
0.585914
0.382662
0.447631
0.299811
0.495911
0.453591
0.528693
0.647902
0.600815
0.579953
0.490546
0.515580
0.668764
0.576973
0.684857
0.773668
0.564456
0.732541
0.802875
0.773668
0.911951
0.762939
0.980496
0.855923
1.069903
1.018643
1.299977
1.366735
1.566410
1.949668
5.019903
27.607679
73.609948
200.160742
341.332555
568.797588
746.089816
934.287906
998.324752
956.711769
845.839977
633.143783
458.718538
255.943537
147.650838
64.588785
33.096671
15.127659
12.885928
14.253855
17.022491
23.955703
33.000708
49.093962
63.681602
82.968473
96.141696
108.360648
110.615492
103.346705
94.642639
76.786876
63.354969
46.657920
38.293600
30.594468
27.015805
25.324821
24.853945
25.176406
25.250912
25.904775
25.458932
25.819540
25.892854
25.996566
25.643706
25.518537
25.531650
25.262833
25.007725
24.988651
24.585724
24.883747
##ZVALUE=325
0.517964
0.504851
0.447631
0.478625
0.430942
0.432730
0.609756
0.489950
0.625849
0.442863
0.598431
0.603795
0.525713
0.680685
0.487566
0.565648
0.531673
0.417829
0.502467
0.584722
0.508428
0.701547
0.531673
0.621676
0.823736
0.839829
0.663996
0.697970
0.806451
0.719428
0.882745
0.894666
0.701547
0.777841
0.803471
0.881553
1.271963
1.060963
1.046658
1.193881
1.250505
1.364946
1.524687
1.762509
3.168583
19.285679
54.838657
161.553621
309.920907
606.788993
847.586989
1015.785933
1015.785933
1015.785933
993.835926
728.741884
528.804660
317.205787
191.212893
85.904598
43.285489
17.459989
11.679530
11.187792
12.596846
16.591549
22.532940
32.890439
45.043826
64.547658
78.334808
93.430877
102.395415
104.612708
99.568963
86.707473
74.519515
58.668852
47.365427
36.613941
30.492544
26.677847
25.772452
24.979711
25.061965
25.107861
25.004745
25.009513
24.987459
25.350451
25.473833
24.522543
25.190711
24.486780
24.666786
24.302602
##ZVALUE=330
0.449419
0.482798
0.400543
0.592470
0.514984
0.470877
0.467896
0.522733
0.481606
0.382662
0.436902
0.520945
0.453591
0.636578
0.518560
0.507832
0.532866
0.539422
0.516772
0.538826
0.705719
0.676513
0.595450
0.556707
0.624657
0.678897
0.677705
0.742674
0.623465
0.550747
0.680685
0.806451
0.787973
0.672936
0.845790
0.914931
0.844598
0.852942
0.903606
0.994802
1.073480
1.094937
1.203418
1.294613
1.577735
1.549721
1.970530
9.144545
29.687881
109.392405
229.663849
496.576428
742.020011
1015.785933
1015.785933
1015.785933
1015.785933
851.323605
645.693541
399.536490
251.381993
117.460489
60.372949
24.395585
13.688803
10.704994
11.082888
12.955666
15.876889
23.452640
30.657649
45.447946
58.366656
76.543689
88.942647
98.676682
100.214481
94.655752
85.514784
70.318580
58.240891
44.240952
37.239790
30.925870
28.079748
25.999546
25.396943
24.858713
24.493933
24.362803
24.425983
24.468899
24.115443
24.059415
23.641586
23.848414
##ZVALUE=335
0.365973
0.421405
0.492930
0.577569
0.570416
0.470877
0.470877
0.485778
0.559688
0.456572
0.373721
0.523925
0.474453
0.491738
0.600815
0.653863
0.567436
0.727773
0.622869
0.485778
0.565648
0.585914
0.590682
0.697970
0.487566
0.572801
0.618696
0.651479
0.803471
0.758767
0.833869
0.712872
0.540614
0.853539
0.791550
0.690818
0.883937
0.739694
0.872612
1.030564
0.849962
0.972748
1.071692
1.070499
1.061559
1.408458
1.616478
1.656413
1.569986
4.091859
13.736486
59.668422
139.079690
348.333716
590.595007
943.573713
1015.790701
1015.790701
1015.790701
984.973907
771.989822
489.040017
318.190455
161.092877
85.053444
32.254457
16.511679
11.159778
11.465549
12.016892
13.580918
17.079711
21.978617
32.765865
42.880774
59.620738
72.508454
85.888505
92.853904
95.019937
90.572834
79.358816
69.717765
56.254864
46.992898
37.379861
31.626821
27.493834
25.558472
24.444461
23.674965
23.658872
23.406744
23.498535
23.628473
23.019910
##ZVALUE=340
0.549555
0.482798
0.569820
0.419617
0.348687
0.296831
0.624657
0.547767
0.444651
0.419617
0.435710
0.456572
0.441670
0.383854
0.519753
0.499487
0.487566
0.622869
0.523925
0.564456
0.557899
0.459552
0.594854
0.690818
0.642538
0.525713
0.653863
0.533462
0.605583
0.696778
0.747442
0.589490
0.660419
0.810623
0.665784
0.651479
0.673532
0.692606
0.653863
0.786781
0.805855
0.836849
1.128912
1.047850
1.121759
1.113415
1.200438
1.293421
1.260638
1.412630
1.488924
2.529621
7.212758
34.846663
91.120601
247.325897
437.232852
741.842985
965.448618
1015.785933
1015.785933
1013.498902
853.121877
581.260920
396.249890
205.034614
110.818744
43.988824
21.473765
12.161732
11.576414
11.988878
12.823939
14.435649
17.651916
23.775697
30.897856
44.277906
55.383444
71.320534
80.791712
88.797808
89.996457
85.327625
78.436732
66.128969
56.519508
44.584870
37.570596
30.316710
27.387738
24.109483
23.449659
22.513866
22.536516
22.595525
##ZVALUE=345
0.450611
0.401735
0.467896
0.381470
0.302792
0.547767
0.415444
0.527501
0.453591
0.447631
0.407696
0.386834
0.419617
0.441670
0.460744
0.406504
0.434518
0.457764
0.505447
0.424981
0.284910
0.496507
0.575781
0.506639
0.614524
0.460744
0.463724
0.437498
0.594854
0.578761
0.452995
0.612736
0.606775
0.708699
0.672936
0.479817
0.608563
0.713468
0.754595
0.732541
0.697970
0.754595
0.730753
0.853539
0.827909
0.857711
0.823736
0.854731
0.951886
1.007915
1.059771
1.176596
1.296997
1.667738
3.075600
18.682480
52.893758
142.344832
258.369446
482.842922
663.979650
877.448916
968.592763
953.185558
845.769644
621.884465
450.074673
262.690783
147.586465
59.221983
29.075742
13.964772
11.701584
11.618733
11.937618
12.841821
13.992786
17.312765
21.220446
30.613542
39.857626
54.067969
64.675808
75.131655
80.783963
83.486438
80.881715
73.240995
65.414906
54.170489
45.002699
34.743547
30.297637
25.134683
23.125410
22.256970
##ZVALUE=350
0.353456
0.394583
0.420809
0.401735
0.301600
0.324845
0.461936
0.431538
0.318885
0.350475
0.441670
0.378489
0.359416
0.434518
0.550747
0.538826
0.451803
0.417829
0.495911
0.478625
0.377893
0.438690
0.541806
0.505447
0.380874
0.432730
0.589490
0.459552
0.762939
0.642538
0.537634
0.474453
0.562668
0.800490
0.668764
0.568628
0.524521
0.638962
0.539422
0.719428
0.685453
0.728965
0.742674
0.682473
0.784993
0.824928
0.830889
0.949502
0.854731
0.703931
0.916719
0.822544
1.017451
1.099706
1.308918
1.504421
1.777411
8.896589
28.301477
90.198517
175.060630
351.286530
516.030788
729.128718
853.625536
911.860466
854.024887
677.884817
508.946776
307.547450
183.602571
82.219839
40.981770
16.080737
11.342764
11.203885
11.250973
11.847615
12.123585
14.189482
16.395450
21.454692
27.204752
37.295818
46.378970
57.997704
67.077875
74.898601
77.244639
76.156855
70.366859
60.145855
51.768422
41.667819
34.537911
28.193593
##ZVALUE=355
0.473857
0.249743
0.459552
0.599623
0.545979
0.473857
0.488758
0.378489
0.642538
0.451803
0.395775
0.283718
0.293851
0.454783
0.342727
0.478625
0.563860
0.426769
0.420809
0.630617
0.548959
0.654459
0.594854
0.644922
0.583529
0.564456
0.601411
0.497699
0.610948
0.514984
0.531673
0.653863
0.712872
0.553727
0.611544
0.649691
0.575781
0.650883
0.612736
0.580549
0.706911
0.634789
0.637770
0.638962
0.765920
0.871420
0.744462
0.705719
0.681877
0.756979
0.954866
0.843406
1.005530
1.091957
1.114607
1.141429
1.142621
1.386404
1.616478
4.318953
15.944839
61.638951
123.235583
252.527595
390.770435
590.018630
712.895989
798.699856
787.750483
665.856600
533.849001
348.150730
223.328471
100.448728
50.332546
19.193888
11.901855
10.453463
10.625720
10.998845
11.478662
12.343526
13.462901
15.587807
18.605590
24.852753
31.092763
41.931868
50.169826
59.978962
65.873861
69.638491
69.450736
63.788891
57.011843
47.416687
##ZVALUE=360
0.346899
0.547767
0.360608
0.443459
0.389814
0.482798
0.561476
0.460744
0.392795
0.491738
0.259876
0.372529
0.379682
0.511408
0.284910
0.484586
0.383854
0.556707
0.453591
0.519753
0.645518
0.579953
0.684857
0.448823
0.501871
0.341535
0.547767
0.602603
0.523925
0.560880
0.304580
0.470877
0.435710
0.487566
0.516772
0.548959
0.539422
0.562668
0.575781
0.652671
0.520945
0.505447
0.658631
0.665784
0.653863
0.645518
0.655651
0.690818
0.637770
0.741482
0.774860
0.821948
0.763535
0.907779
0.974536
0.813603
0.982881
1.128912
1.101494
1.336932
1.433492
2.159476
7.149577
34.964681
83.523989
190.854669
303.475857
469.258428
598.263741
713.807940
735.102892
676.930547
572.979450
391.743779
263.091922
130.744576
70.477724
28.843880
14.709830
9.775758
9.744763
10.243654
10.168552
10.835528
10.938644
12.190938
13.485551
16.354918
20.219684
26.876926
34.369826
44.989586
52.970648
60.100555
63.324571
63.572526
##ZVALUE=365
0.393987
0.441670
0.522733
0.339746
0.360608
0.429749
0.314713
0.482798
0.468493
0.512600
0.426769
0.447631
0.238419
0.341535
0.412464
0.217557
0.434518
0.378489
0.502467
0.450611
0.382662
0.352859
0.392795
0.462532
0.402927
0.623465
0.547767
0.585914
0.414848
0.527501
0.694990
0.448823
0.455976
0.545979
0.641942
0.365973
0.583529
0.529885
0.581741
0.605583
0.434518
0.560880
0.615716
0.787973
0.694990
0.708699
0.629425
0.738502
0.570416
0.572801
0.736713
0.733733
0.740886
0.561476
0.759959
0.945926
0.919700
0.946522
1.004934
1.095533
1.178980
1.212955
1.263618
1.562834
2.858639
16.637444
48.846602
130.071640
227.057934
389.214754
521.136522
657.367706
711.390972
691.140890
604.860783
443.663001
317.126513
176.659822
98.899603
39.803982
19.517541
9.959936
9.209514
9.516478
9.609461
9.658933
9.894967
10.708570
10.792613
11.959672
13.941526
18.157959
22.718906
29.890537
36.736727
46.030879
##ZVALUE=370
0.388622
0.394583
0.368953
0.542998
0.397563
0.338554
0.446439
0.460744
0.437498
0.496507
0.526905
0.602603
0.519753
0.505447
0.549555
0.566840
0.504851
0.529885
0.475645
0.472665
0.541806
0.413656
0.458956
0.400543
0.399947
0.415444
0.571609
0.501871
0.558496
0.688434
0.463724
0.370741
0.368953
0.478625
0.572801
0.549555
0.562668
0.502467
0.653863
0.755787
0.607967
0.533462
0.653863
0.570416
0.528693
0.578761
0.647902
0.565648
0.755787
0.795722
0.719428
0.684857
0.581741
0.716448
0.624657
0.768900
0.786781
0.815988
0.826716
0.835657
0.939965
1.052618
1.067519
1.232624
1.135468
1.200438
1.888871
8.712411
30.612946
100.927949
183.734894
331.360698
463.704467
627.849698
697.567463
706.059933
642.186999
502.675772
372.234583
210.509896
121.070743
49.507618
24.999976
11.586547
8.859634
8.391738
8.465648
8.647442
8.915663
9.325743
9.478927
10.317564
11.089444
12.757778
15.129447
19.997954
##ZVALUE=375
0.493526
0.542998
0.328422
0.279546
0.443459
0.419617
0.276566
0.435710
0.388622
0.443459
0.461936
0.616908
0.630617
0.361800
0.563860
0.338554
0.588894
0.410676
0.497699
0.421405
0.476837
0.433922
0.563860
0.549555
0.359416
0.604987
0.504851
0.580549
0.535846
0.481606
0.592470
0.635982
0.599623
0.626445
0.503659
0.574589
0.683665
0.649691
0.551939
0.509620
0.481606
0.632405
0.457764
0.654459
0.529885
0.542998
0.717640
0.704527
0.567436
0.569820
0.657439
0.642538
0.723600
0.663996
0.804663
0.636578
0.771880
0.800490
0.780821
0.824928
0.852942
0.890493
1.036525
0.992417
0.920892
1.056790
1.144409
1.239777
1.655817
4.357696
16.482472
64.338446
134.665966
281.317830
416.139960
587.723851
676.534772
718.906522
685.915947
558.933616
429.918766
264.587998
168.331861
85.396767
44.472814
17.404556
9.651780
7.767677
7.778406
8.035898
8.181930
8.188486
8.568764
8.821487
9.202957
10.000467
##ZVALUE=380
0.373721
0.468493
0.303984
0.419617
0.244975
0.378489
0.245571
0.387430
0.381470
0.430942
0.422597
0.402927
0.290871
0.599623
0.537634
0.492930
0.518560
0.354648
0.400543
0.430942
0.488758
0.539422
0.579953
0.453591
0.561476
0.598431
0.349879
0.474453
0.604987
0.531673
0.521541
0.469685
0.492930
0.648499
0.580549
0.582933
0.451803
0.297427
0.564456
0.491738
0.555515
0.530481
0.550747
0.531673
0.558496
0.475645
0.573993
0.546575
0.648499
0.547767
0.473857
0.546575
0.560880
0.448823
0.627637
0.620484
0.576973
0.787973
0.772476
0.758767
0.788569
0.788569
0.622869
0.768900
0.793934
0.935793
0.742674
0.949502
1.106858
1.218915
1.283884
2.396703
8.879900
47.129989
108.237863
235.028863
356.333852
519.113541
624.084473
698.601604
689.692497
588.689446
479.892492
336.560607
227.375627
114.540458
60.154796
23.417473
11.908412
7.886887
7.249713
7.178783
7.416606
7.927418
7.816553
7.957816
##ZVALUE=385
0.377893
0.354648
0.409484
0.220537
0.294447
0.422597
0.477433
0.403523
0.341535
0.274777
0.436902
0.218749
0.464916
0.449419
0.409484
0.512600
0.317693
0.349879
0.422597
0.324845
0.369549
0.316501
0.389814
0.284910
0.401735
0.350475
0.446439
0.629425
0.410676
0.390410
0.387430
0.353456
0.427961
0.404716
0.308752
0.316501
0.392795
0.575781
0.334978
0.469685
0.443459
0.507832
0.483990
0.493526
0.410676
0.438690
0.483990
0.504851
0.516772
0.519753
0.493526
0.678897
0.573993
0.656843
0.475645
0.541806
0.374913
0.580549
0.503659
0.539422
0.691414
0.510812
0.779629
0.600815
0.611544
0.808835
0.756979
0.864863
0.842810
1.052618
0.930429
1.195669
1.332760
1.414418
4.109740
25.278926
68.162680
165.920854
277.675986
453.401804
574.042797
674.743652
689.748526
641.470551
558.933616
408.465862
289.960504
159.066916
90.911984
38.845539
17.744899
7.642508
6.593466
6.535649
6.520748
6.927848
##ZVALUE=390
0.401735
0.379682
0.405908
0.299811
0.301600
0.422597
0.589490
0.347495
0.308752
0.268817
0.273585
0.323653
0.511408
0.383854
0.387430
0.466704
0.399947
0.395775
0.394583
0.332594
0.421405
0.566840
0.487566
0.388622
0.616908
0.424981
0.296831
0.446439
0.338554
0.448823
0.477433
0.397563
0.638962
0.622869
0.373721
0.463724
0.461936
0.595450
0.622869
0.464916
0.418425
0.433922
0.560880
0.526905
0.473857
0.441670
0.488758
0.441670
0.432730
0.697970
0.553727
0.465512
0.377893
0.640750
0.502467
0.527501
0.647902
0.565648
0.585914
0.569820
0.489950
0.619888
0.645518
0.751615
0.691414
0.536442
0.720620
0.699759
0.805855
1.015663
1.082420
1.038909
1.139641
1.168847
1.223683
1.239777
2.190471
12.610555
41.564703
125.992894
226.370692
397.175550
524.369478
649.691820
699.153543
687.059760
617.879629
478.999615
363.199711
222.320557
130.350590
55.556893
27.433634
10.746717
6.644726
6.093979
##ZVALUE=395
0.390410
0.380874
0.415444
0.372529
0.317693
0.491738
0.163913
0.419617
0.161529
0.389814
0.368953
0.390410
0.434518
0.335574
0.183582
0.432730
0.421405
0.361800
0.397563
0.431538
0.352859
0.356436
0.391603
0.379682
0.387430
0.399947
0.469685
0.468493
0.497699
0.362992
0.585914
0.538826
0.485778
0.478625
0.383854
0.490546
0.553727
0.517964
0.492930
0.593662
0.391603
0.481606
0.577569
0.530481
0.430942
0.598431
0.461936
0.506639
0.551939
0.489950
0.605583
0.492930
0.593662
0.502467
0.633597
0.494719
0.488758
0.447631
0.779629
0.552535
0.688434
0.729561
0.655651
0.646710
0.611544
0.579953
0.664592
0.853539
0.743866
0.940561
0.946522
0.760555
1.072884
0.863671
0.941753
1.002550
1.055598
1.298785
1.451969
7.097721
28.341413
99.744797
189.283490
347.423553
474.635959
625.286698
696.997643
718.387961
674.080849
559.499860
436.673760
269.297957
173.149705
82.705617
41.383505
15.289783
##ZVALUE=400
0.540614
0.526905
0.424981
0.501871
0.429749
0.403523
0.487566
0.432730
0.270605
0.647902
0.528693
0.509620
0.382662
0.328422
0.417829
0.543594
0.586510
0.552535
0.462532
0.450611
0.390410
0.552535
0.555515
0.624657
0.603795
0.467896
0.521541
0.508428
0.559688
0.550747
0.602603
0.647902
0.451803
0.749826
0.683665
0.523925
0.743866
0.560880
0.553727
0.607967
0.591874
0.479817
0.611544
0.578761
0.531673
0.495911
0.510812
0.594854
0.596642
0.683665
0.640750
0.591874
0.691414
0.738502
0.653863
0.602603
0.679493
0.660419
0.584722
0.484586
0.745654
0.750422
0.710487
0.708699
0.800490
0.747442
0.720620
0.974536
0.819564
1.078844
1.061559
1.102686
1.023412
1.088977
1.014471
0.934601
1.087785
1.095533
1.180768
1.218915
1.301765
3.491640
11.545420
46.236515
102.190971
226.478577
350.106955
523.231626
624.024868
691.217780
680.835843
586.336851
473.034978
310.241580
205.300450
104.422569
##END
