##TITLE=FQP00602
##FORMAT=SPECTACLE-ASCII V-1.2
##DATA TYPE=ULTRAVIOLET SPECTRUM
##SECOND TYPE=ULTRAVIOLET SPECTRUM
##DATE=02/01/18
##TIME=15:09:47
##SPECTROMETER/DATA SYSTEM=SPECTACLE
##XUNITS=NM EM
##YUNITS=ENERGY
##YFACTOR=1
##FIRSTX=220
##LASTX=410
##NPOINTS=96
##3DDATA=Equidistant
##ZUNITS=NM EX
##FIRSTZ=210
##LASTZ=400
##ZPOINTS=39
##XYDATA=(Y..Y)
##ZVALUE=210
1.498461
1.388788
1.507998
1.534820
1.621842
2.124906
1.590848
2.242923
1.951456
2.148747
1.930594
2.278686
2.023578
1.737475
1.660585
2.091527
2.315640
2.110600
2.545714
2.892613
2.672672
2.892613
3.116727
3.818870
4.113913
4.163980
3.818870
4.167557
5.078912
5.731583
6.276965
5.551577
6.072521
6.813407
6.023645
5.916953
6.168485
7.300973
6.815791
6.338954
6.681681
6.372929
7.029772
6.479621
5.987883
5.528927
5.974770
7.391572
5.527735
6.548762
6.062984
6.932616
6.543994
6.749630
6.991625
6.571412
6.712675
6.696582
6.873608
7.303953
7.693768
6.773472
7.781982
6.103516
6.978512
7.154942
7.607937
9.045601
9.545684
11.565685
12.969971
14.846921
16.380548
19.425750
21.705627
22.561550
24.251938
24.604797
28.859973
25.128722
23.992658
22.035837
19.029975
17.070770
14.538765
11.693835
10.392666
7.869601
7.021427
6.711483
6.193519
7.759929
6.112456
7.103682
7.655621
7.803440
##ZVALUE=215
6.232858
5.878806
4.732609
5.125999
3.966689
4.077554
3.800988
4.422665
4.864931
4.301667
4.479885
4.287958
3.600717
3.294945
3.062487
2.627969
2.720952
3.291965
2.400875
3.002882
3.629923
3.821850
3.075600
4.182458
3.927946
4.278421
6.045699
6.765723
6.564856
7.261634
8.028746
7.735491
9.728670
9.182692
10.571480
10.291934
10.179877
10.583997
10.364652
9.127855
10.288954
10.414720
10.398626
9.452701
8.946657
8.899570
9.059906
7.402897
8.500814
8.477569
8.871555
8.738637
8.977652
9.518862
8.797646
7.784963
7.873774
8.270741
7.508993
8.380413
7.839799
9.177923
7.900000
7.802844
7.646680
7.744431
7.701516
8.486509
8.762479
9.777546
11.432767
13.677478
15.781522
18.430948
20.343661
22.011995
24.122596
22.599697
21.753907
23.057461
21.289587
17.992854
17.666817
14.120936
12.705922
11.183619
9.689927
9.028912
7.939935
7.157922
7.786751
7.509589
6.910563
7.710457
7.084608
8.023977
##ZVALUE=220
27.722716
28.050542
28.627515
29.777884
27.823448
20.840764
15.663505
12.505651
10.582805
9.792447
10.579824
11.101961
10.446906
9.989738
8.760691
7.524490
5.971789
4.470944
4.129410
4.220605
3.979802
3.411770
4.856586
4.467964
5.128980
6.218553
6.845593
8.512735
9.643435
10.230541
11.716485
12.318492
13.957620
15.519857
13.959408
15.414953
16.544461
15.805960
15.465617
15.271902
15.048981
14.789701
14.745593
13.590455
12.258887
12.510419
11.587739
11.841655
12.557507
11.980534
12.391806
10.561943
11.463761
10.730624
10.951757
11.006594
11.046529
10.282993
10.268688
10.718703
9.885430
9.749532
9.522438
11.463761
10.678768
9.867549
11.298656
11.207461
13.865829
14.730692
18.280745
18.836856
22.936463
24.498701
28.382540
28.897524
31.201839
29.364824
29.043555
28.975606
26.036501
25.486946
22.863746
18.757582
14.456511
12.549758
12.407899
10.138750
10.059476
10.462999
9.122491
10.535717
8.800626
9.084940
9.077787
9.327531
##ZVALUE=225
47.665834
51.045418
66.440701
84.411502
97.928643
104.962587
99.144578
77.835917
63.898563
47.216415
30.675530
24.125576
25.096536
25.253892
26.765466
24.796724
19.377470
16.115904
13.202429
8.753538
8.165836
6.595850
5.621910
6.378889
6.608963
8.108616
8.559823
11.407733
13.026595
14.221668
15.475750
17.470717
16.810894
18.663406
19.433498
19.627810
20.196438
20.317435
21.601915
20.802617
20.138621
18.874407
19.292831
17.575622
18.445849
17.671585
17.136931
15.820861
16.258955
14.020801
14.314651
14.236569
14.524460
14.522672
14.495850
13.351440
13.723969
13.501644
13.660789
13.815761
14.480948
14.054775
14.340878
13.108850
12.969971
13.899803
14.031529
15.849471
17.146468
19.029975
21.077991
21.707416
23.538470
28.917789
29.724836
30.896664
32.512546
32.649636
32.028556
32.999516
30.555725
26.051998
24.897456
19.104481
17.824769
18.581748
17.273426
15.701652
15.054941
13.741851
14.015436
13.374686
14.661551
13.082623
13.685822
12.649894
##ZVALUE=230
44.513941
53.575635
83.405972
139.523745
185.398459
234.055519
246.698856
246.846676
215.957761
174.371004
117.211938
77.888966
50.166845
42.251945
44.521689
49.802661
50.082803
49.405694
45.719743
36.361814
28.539896
20.869970
13.388991
9.624958
8.041859
7.593632
8.151531
10.479689
10.638833
11.676550
13.906956
14.056563
16.416907
16.097426
17.947555
16.790628
18.165708
18.957853
17.554760
19.109845
18.504858
18.004775
18.760562
16.863942
15.436411
17.904639
15.852451
13.893843
15.122890
14.053583
14.098883
13.733506
13.144612
13.540983
14.052987
15.747547
13.452768
14.350414
13.515949
15.945435
14.733672
14.084578
14.015436
15.039444
15.435815
16.104579
15.742779
16.412735
19.602776
19.940734
21.997690
24.004579
24.376512
27.845502
29.585958
31.304955
30.019879
34.424663
32.786727
30.381680
29.203892
25.495887
22.525787
21.909475
20.956993
19.968748
20.081997
18.949509
19.831657
18.686652
18.600821
18.226504
19.791722
18.983483
19.166470
19.520521
##ZVALUE=235
11.385679
13.541579
33.002496
80.282688
133.733749
223.333836
287.574530
395.136476
424.714684
422.931910
374.925733
287.202001
218.234658
142.292976
103.945732
82.089901
70.964694
75.885653
84.520578
83.100796
76.698661
68.351626
49.260855
38.710833
24.378896
17.890930
12.913942
10.326505
9.158850
10.215640
11.040568
9.558797
10.989904
14.801621
13.233423
12.967587
14.108419
14.631748
13.373494
14.513731
13.322830
13.439655
14.534593
13.744831
14.207959
13.463497
13.333559
14.761686
13.325810
15.031695
12.332797
13.645887
16.117692
14.167428
14.177561
14.283657
15.521646
15.851855
14.717579
16.333461
16.441941
16.537905
17.979741
16.806722
17.445683
18.348694
19.119978
20.626783
22.264719
23.067594
25.358796
26.419759
28.181672
29.736757
30.109882
32.840967
31.727552
33.997893
31.241775
30.702949
31.775832
31.980872
31.197667
29.103756
29.486418
28.066635
26.035905
28.406978
25.957823
26.858449
27.727485
27.569532
27.127862
25.247931
25.128722
26.648641
##ZVALUE=240
1.385808
2.023578
5.169511
17.792583
46.827793
111.200809
200.676918
351.035595
488.137007
612.936616
714.823604
719.843507
645.728707
530.110002
378.088951
251.848698
145.523548
111.103654
96.092820
96.374750
104.467869
117.942691
114.123821
98.533630
86.318851
62.933564
48.467517
33.209920
22.851825
16.717911
13.220906
13.842583
12.890697
13.949871
12.620687
12.039542
12.565851
14.586449
13.505816
13.959408
13.407469
13.295412
14.029741
14.086962
13.107657
12.769699
12.102723
13.360977
12.847781
13.340712
12.936592
13.155937
16.006827
15.129447
16.206503
15.091896
17.316937
16.155839
16.277432
17.102957
18.595457
18.340945
19.200444
20.322800
20.583868
21.182895
21.291971
23.914576
25.257468
25.308728
27.870536
29.908419
31.556487
34.210682
36.610961
36.235452
37.185550
37.981868
38.513541
38.482547
40.142536
37.492514
36.318898
35.200715
33.763647
33.511519
34.758449
32.385588
31.952858
32.896996
33.790469
31.411648
32.433867
31.612515
31.223893
32.165647
##ZVALUE=245
1.138449
1.513958
0.936985
1.401901
3.906488
12.378693
44.308901
94.207525
217.968822
322.650671
495.353937
615.370870
684.966445
698.642731
646.497011
524.586439
419.244766
282.859802
202.396512
128.683448
99.399686
94.703436
113.359690
121.957660
132.633448
125.337839
113.068819
99.136829
76.330900
58.420897
44.562817
27.369857
21.888614
17.027855
16.318560
15.549660
14.810562
15.073419
14.920831
13.309717
14.512539
14.330745
13.457537
13.394952
12.673736
13.473630
12.391806
12.364984
13.031960
13.003945
13.912916
13.919473
12.661815
14.413595
13.840795
14.706850
14.468431
14.563799
16.317964
15.439987
16.290545
16.146898
17.515421
18.811822
17.606616
18.015504
19.778609
21.109581
20.334721
23.713708
23.918748
26.117563
27.277470
30.731559
30.624866
32.552481
32.170415
34.619570
34.961700
33.447742
32.616854
31.068921
33.076406
31.721592
32.455921
31.803846
29.868484
30.841827
31.327605
30.616522
29.613972
33.430457
31.245947
32.366514
31.644702
31.915903
##ZVALUE=250
1.004934
1.257658
1.028776
1.036525
1.361966
1.136661
1.956820
7.593632
36.454797
82.175732
193.586946
314.154625
440.137982
593.324900
674.603581
714.628696
699.817538
592.503548
496.581793
337.959528
227.715969
152.962804
103.251934
91.179609
106.305480
120.806694
137.360692
141.829848
134.773850
126.429796
107.659698
86.807609
65.844655
45.488477
31.897426
23.824573
20.982623
16.827583
17.082691
15.823841
16.396642
15.163422
15.758872
15.810728
14.967918
14.464855
14.226437
14.696717
14.466643
13.829470
13.334751
13.522506
12.711883
14.439821
13.978481
13.395548
14.637709
13.721585
14.433861
14.975667
14.767647
14.504790
14.830828
16.539693
15.924573
16.376972
17.490983
17.722845
17.501712
19.590855
20.549893
21.858811
21.034479
24.337769
24.329424
24.863482
27.014613
27.885437
27.176738
28.323531
27.366877
28.354526
28.397441
27.976632
27.706623
30.331612
29.294491
29.340982
29.134750
30.446649
30.085444
29.071569
30.096769
29.047728
29.898882
29.399991
##ZVALUE=255
1.002550
0.914931
0.834465
0.873804
1.062751
1.096725
0.999570
1.091957
1.604557
3.794432
19.993782
47.060847
96.698403
200.437903
309.102535
471.807718
578.181744
686.717629
720.164776
668.862462
577.003956
458.207726
290.472507
193.532705
113.980770
89.411736
90.008974
106.963515
129.055977
145.039558
150.875449
145.560503
140.139461
112.682581
92.600584
66.176653
50.819516
35.455823
28.271675
22.838712
20.600557
21.655560
20.523667
19.677877
19.895434
17.933846
16.980767
17.214417
16.671419
16.801953
16.568899
16.325712
14.638901
15.961528
14.866590
15.382767
15.046597
15.054941
14.005899
15.220642
14.556646
14.744997
14.630556
14.780760
15.465617
15.770793
16.485453
16.046762
16.680956
17.614961
18.842816
19.751787
20.565987
21.140575
19.565821
23.055673
24.105906
24.298429
23.043752
25.556684
25.162697
25.822520
25.333762
26.091933
26.966929
26.881695
26.257634
27.457476
27.854443
27.963519
29.756427
27.144551
29.207468
27.323961
26.370883
28.084517
##ZVALUE=260
0.717640
0.853539
0.777841
0.723600
0.969768
0.826716
1.152754
1.174808
0.895858
1.201630
1.311898
1.911521
7.022619
37.829876
85.316896
197.498798
318.991542
493.762493
623.734593
767.948627
819.703937
806.055665
694.185495
567.030907
375.511646
260.334611
153.116584
105.032921
81.044436
89.703798
107.523799
135.092735
154.934525
164.594650
160.617828
144.767761
123.956800
98.104477
77.443719
53.842664
42.019486
32.318830
28.373599
24.359822
23.600459
22.598505
21.649599
20.490885
20.329952
19.726753
18.652678
18.532872
17.257929
16.980767
17.029643
17.478466
16.344786
15.081763
16.226768
15.032887
15.744567
14.497638
14.624000
14.923811
15.409589
15.739799
15.983582
17.067790
16.696453
17.266870
17.875433
18.196702
19.052625
20.947456
21.435618
21.032691
22.130609
22.034645
21.878481
22.961497
22.780895
23.720860
23.721457
24.027824
25.551915
23.826957
24.664998
24.369955
25.126934
25.394559
25.194883
24.767518
25.558472
26.136637
25.412440
26.691556
##ZVALUE=265
0.952482
0.996590
0.917912
0.709891
0.751615
1.040697
0.743866
0.815988
1.112819
1.043677
1.061559
1.406670
1.269579
1.881719
4.440546
23.489594
57.008862
141.053796
243.739486
436.370969
590.233803
731.956959
851.264596
869.398713
782.311559
669.804811
494.081974
352.797508
205.020905
131.796002
91.998577
83.088875
95.171928
126.778483
146.542788
167.922974
171.894431
164.437890
151.627660
126.414895
105.677843
76.106787
59.542656
42.893887
34.204721
27.943850
26.379824
24.163723
23.313761
21.483898
21.403432
20.137429
20.824671
18.906593
17.870665
17.592907
16.702414
16.856790
16.495585
15.494823
15.926957
14.885664
15.663505
16.198754
15.601516
15.315413
15.883446
17.319918
16.987920
16.467571
17.412901
18.006563
19.003749
19.579530
19.232631
20.169616
19.582510
20.059943
20.945668
21.072626
22.346973
22.085905
22.491813
23.329854
24.310946
24.193525
24.559498
23.951530
24.720430
24.830699
23.850799
24.343729
25.057793
25.242567
25.476813
25.574565
##ZVALUE=270
0.621676
0.565648
0.861883
0.880957
0.920892
0.875592
0.729561
0.888705
0.832677
0.819564
1.121759
1.078844
1.167655
1.262426
1.172423
1.728535
1.884699
8.446574
24.239421
78.058839
155.286789
263.024569
474.978685
647.689700
818.161964
888.957977
869.115591
783.179998
608.752966
460.286736
287.503600
182.706714
115.134716
79.259872
79.432726
103.040934
125.297904
151.969790
167.442560
175.315738
169.684887
151.069760
129.601955
98.611712
76.566935
53.980947
41.585565
32.456517
26.999712
23.268461
22.034645
20.950437
20.409822
19.539595
18.920898
18.132925
18.187761
17.722845
17.102957
16.818643
16.844869
16.640425
16.186833
15.914440
15.960932
16.063452
16.400814
15.901923
16.994476
17.118454
17.966628
17.992854
18.970966
18.251538
19.535422
19.395947
20.839572
20.673871
20.850897
21.143556
21.249652
21.721721
21.737814
22.278428
22.194982
22.494793
22.970438
23.101568
23.651719
22.988915
23.117661
23.970604
22.217631
23.843646
23.889542
23.941994
##ZVALUE=275
0.732541
0.657439
0.696778
0.732541
0.781417
0.678897
0.660419
0.969768
0.835657
0.734925
0.939965
0.873804
0.996590
0.934601
1.057982
1.156926
1.035929
1.462698
1.350641
3.958941
13.788939
39.505959
117.002726
222.784877
416.646600
570.230484
753.244758
860.802531
908.407569
860.968828
764.958858
571.084619
408.183932
227.190852
139.749646
78.407526
64.426661
75.229406
92.955828
121.680498
142.603517
159.267783
165.915489
158.485770
143.638849
117.236972
96.572638
70.860982
52.662492
37.184954
29.073954
22.502542
20.236969
19.139647
18.318892
18.127561
17.580986
17.063618
16.742945
16.837716
17.273426
16.795993
16.346574
16.740561
17.437935
16.897917
16.880631
17.356873
17.266870
17.938614
18.299818
18.809438
18.803477
19.863844
19.562840
20.324588
20.587444
20.884871
21.014810
21.513700
21.337867
21.399856
21.420717
22.156835
21.468997
22.772551
22.395849
22.800565
21.650791
22.421479
22.408962
22.354722
22.407770
22.908449
21.956563
22.430420
##ZVALUE=280
0.677705
0.616908
0.692606
0.882745
0.718832
0.714660
0.622869
0.760555
0.978708
0.736713
0.855923
0.834465
0.893474
0.925660
0.942945
0.963807
1.065731
1.049638
0.995994
1.333952
1.426935
1.849532
8.990765
29.339790
92.826486
170.917511
321.545005
477.122664
683.301687
810.064673
896.701813
899.276733
813.867450
623.623729
467.020869
269.141793
166.712999
82.042813
54.821968
49.626827
62.538981
88.204741
109.650493
135.237575
147.779584
152.810812
148.120522
130.695701
113.855600
86.959004
66.292882
45.515895
34.254789
24.575591
19.546747
17.645955
16.554594
15.977621
15.583634
16.428828
16.473532
16.585588
16.757846
17.082691
17.181635
17.210841
16.875863
17.355680
18.196702
17.848611
18.905997
19.229650
19.522905
19.784570
20.290613
20.584464
20.534992
20.714998
21.828413
21.464825
21.560788
21.916628
21.556616
21.919608
21.209717
22.087693
22.173524
21.522641
21.937490
21.666884
21.808743
21.068454
21.854639
21.508932
22.349954
21.687746
##ZVALUE=285
0.549555
0.797510
0.671744
0.675917
0.533462
0.632405
0.634789
0.590682
0.702739
0.733733
0.554919
0.800490
0.741482
1.016855
0.876784
0.909567
0.847578
0.801682
0.935793
1.091957
1.124740
1.219511
1.419783
1.588464
4.313588
14.865994
51.229596
105.389953
232.360959
370.814800
522.488952
732.010603
849.953890
916.608572
864.382982
707.568526
562.222600
353.692770
224.616528
109.794736
60.540438
36.211610
37.500858
55.823922
75.144768
101.853609
118.880868
136.566758
143.496990
140.380859
126.489997
106.628537
87.701678
62.797666
46.514869
30.971766
23.371577
18.779635
16.507506
16.177893
16.950965
16.570687
16.320944
17.039776
16.815662
17.708540
17.897487
17.710924
18.414855
18.976927
19.363761
19.850731
20.068884
20.692945
20.546913
20.361543
21.101832
20.851493
21.110773
22.237897
21.200776
21.538734
21.821856
22.397637
21.960735
22.790432
21.629930
22.708774
21.949410
22.264719
21.461844
21.545887
21.529794
20.600557
21.708608
21.066666
##ZVALUE=290
0.405908
0.444651
0.427961
0.432730
0.332594
0.620484
0.410676
0.413656
0.587702
0.630617
0.418425
0.605583
0.610948
0.651479
0.795722
0.619888
0.546575
0.583529
0.728965
0.641942
0.649691
0.902414
0.993609
1.031756
1.359582
1.475811
1.921654
6.270409
29.664636
68.127513
133.289695
282.272696
439.313650
668.273568
810.117722
912.414789
905.491710
789.695978
647.166967
439.454913
292.557478
148.191452
79.580545
35.009980
26.261806
33.442974
48.259497
70.832968
88.417530
114.407539
128.287673
136.560798
135.852695
124.053955
106.738806
81.487894
63.540936
43.867826
33.063889
24.239421
19.502640
16.976595
16.651750
16.861558
17.427802
17.483830
18.230677
18.464923
18.853545
18.884540
19.836426
20.349622
20.979643
20.393729
21.303892
21.860600
22.140741
21.990538
21.918416
21.975636
21.498799
21.855831
21.539927
22.296906
22.533536
21.855831
21.885633
21.932721
21.920800
21.717548
20.785928
21.040440
20.891428
21.030903
21.413565
21.019578
##ZVALUE=295
0.579953
0.560880
0.430942
0.481606
0.562668
0.566840
0.602603
0.715852
0.616908
0.666976
0.720620
0.700951
0.656843
0.741482
0.634789
0.602603
0.911951
0.816584
0.922680
0.961423
0.955462
0.904799
0.894666
1.153946
1.093745
1.269579
1.246929
1.415610
1.683831
2.902746
14.265776
41.872859
93.327761
223.892927
362.755656
583.883524
734.360814
877.583027
911.214948
841.375589
724.645853
523.708463
364.801884
191.047788
106.122494
43.496490
24.410486
21.262765
29.372573
46.306849
62.596798
89.757442
106.725693
125.900507
131.908655
131.723881
120.842457
100.800991
83.947778
61.742663
47.484636
32.473803
25.777817
21.023750
18.983483
18.544793
18.253922
18.217564
18.818974
19.507408
19.738674
20.752549
20.969510
21.080971
21.092892
21.840930
21.513700
22.055507
21.905899
22.392869
22.779703
22.245646
22.350550
22.231936
22.493601
22.728443
22.347569
22.279620
22.216439
22.032857
21.810532
21.909475
21.478534
20.910501
21.052957
20.570755
##ZVALUE=300
0.595450
0.590682
0.561476
0.509620
0.635982
0.461936
0.636578
0.630617
0.453591
0.511408
0.783801
0.634789
0.527501
0.627637
0.460744
0.569820
0.655651
0.564456
0.638962
0.681877
0.628829
0.532866
0.892878
0.976920
0.976920
0.945926
1.033545
1.071692
1.129508
1.265407
1.395941
1.772642
6.096959
21.425486
72.402954
142.826438
294.793844
452.718735
666.526556
796.274543
896.039605
895.965695
776.885748
638.230443
429.809690
282.533765
145.143867
79.277754
32.602549
19.093752
19.978881
28.145909
43.385625
58.841705
83.685517
100.862980
120.533705
128.482580
126.463771
118.739605
101.906657
85.480809
62.723756
48.798919
33.624768
26.771426
21.676421
19.656420
19.701719
19.901991
19.794703
19.854903
20.495653
20.973682
21.513700
21.673441
22.188425
22.426844
22.429824
22.685528
22.659898
23.157001
23.436546
22.989511
22.881627
23.126602
23.347735
22.935867
22.522807
22.365451
22.326708
21.989942
22.136569
22.091866
21.392703
21.266937
##ZVALUE=305
0.444651
0.455976
0.535846
0.387430
0.447631
0.494719
0.643730
0.660419
0.552535
0.713468
0.550747
0.741482
0.579953
0.457764
0.603795
0.733733
0.729561
0.584722
0.548959
0.569820
0.676513
0.740886
0.673532
0.703931
0.706911
0.710487
0.924468
0.980496
1.001954
1.030564
0.875592
1.356602
1.315475
1.636744
2.786517
16.202927
43.841600
120.609403
215.051770
400.096774
558.683872
750.683546
857.580900
898.136497
838.549733
670.725703
522.407889
338.438749
213.127732
98.314881
50.397515
21.214485
15.675426
19.870996
27.335882
42.626858
58.096647
80.826879
97.751617
115.530491
122.360587
122.255683
114.183426
96.635818
81.021786
60.248971
46.925545
35.011768
27.226806
22.098422
20.751953
19.917488
20.404458
20.633936
20.797849
21.484494
21.620989
21.970868
22.128820
22.607446
23.164749
23.401976
23.346543
23.185611
23.662448
23.617744
23.753643
23.104548
22.769570
23.335814
22.729635
22.391677
21.858811
21.920800
21.449924
21.820664
##ZVALUE=310
0.485778
0.529885
0.530481
0.338554
0.639558
0.586510
0.291467
0.570416
0.521541
0.562668
0.561476
0.575781
0.640750
0.698566
0.778437
0.480413
0.656843
0.704527
0.639558
0.632405
0.581741
0.799894
0.684857
0.671744
0.651479
0.658631
0.695586
0.914931
0.884533
0.981688
0.984669
1.037717
1.213551
1.150966
1.149774
1.388788
1.515746
6.577969
21.102428
72.742701
143.247843
296.115875
447.045565
656.633973
790.428519
892.630816
880.710483
776.301622
641.859770
428.980589
287.330747
146.469474
79.599619
32.011867
16.924739
14.715791
17.418861
25.928617
36.334991
54.705739
70.761442
92.499852
105.863810
115.391612
118.110776
109.321475
97.236633
79.180002
63.934922
45.774579
36.313534
27.709603
24.001598
21.081567
21.189451
21.314621
21.516681
21.500587
21.880865
22.492409
22.577643
23.344755
23.173690
23.454428
23.462772
23.762584
23.173690
23.752451
23.665428
22.996664
22.875667
22.518635
22.622943
22.409558
21.551847
22.595525
##ZVALUE=315
0.483990
0.471473
0.408888
0.473857
0.464916
0.538826
0.508428
0.474453
0.468493
0.535846
0.371933
0.460744
0.503659
0.507832
0.612736
0.678897
0.595450
0.645518
0.745654
0.503659
0.622869
0.556707
0.777841
0.585914
0.789762
0.741482
0.749826
0.806451
0.778437
0.842810
0.870824
0.927448
0.989437
0.990629
1.032948
1.159906
1.205802
1.240969
1.360774
3.320575
11.627674
47.903657
103.756785
227.477551
367.913842
590.795875
723.080635
850.168467
885.042548
821.069479
712.878704
513.193011
364.747643
198.551416
109.430552
44.045448
21.198988
13.154745
13.430715
17.357469
23.694634
35.799742
47.758818
67.370534
83.060861
101.476908
109.361410
109.479427
105.846524
89.798570
78.084469
60.306787
48.323870
34.247637
28.736591
23.879409
21.929741
22.000670
20.976663
22.393465
22.896528
23.267865
23.026466
23.236871
23.338795
23.795962
23.612976
23.973584
23.619533
23.525953
23.006797
22.882819
23.332834
22.731423
22.599697
22.369623
##ZVALUE=320
0.281930
0.412464
0.539422
0.409484
0.464916
0.462532
0.545979
0.346899
0.481606
0.462532
0.581741
0.482798
0.441670
0.580549
0.544786
0.551939
0.526905
0.508428
0.569820
0.728965
0.719428
0.738502
0.645518
0.653863
0.632405
0.668764
0.720620
0.787973
0.744462
0.735521
0.704527
0.756979
0.702739
0.760555
0.864863
0.970960
1.034737
1.060963
1.225471
1.128912
1.455545
1.652837
5.044937
26.985407
67.660809
169.291496
280.433893
474.695563
624.000430
792.625546
864.453912
855.885744
778.281689
597.984791
440.967679
251.549482
143.950582
61.950684
30.252934
13.967752
11.354685
12.678504
15.191436
21.652579
30.569434
45.613647
60.940981
78.993440
92.444420
103.377700
105.137825
100.018978
91.442466
74.840784
59.381723
44.925809
35.844445
28.710961
25.194883
22.889972
22.742748
22.425652
22.508502
23.079515
23.136735
23.909807
23.152828
23.226738
23.602843
23.439527
23.258924
23.201704
23.020506
22.514462
22.480488
22.293925
##ZVALUE=325
0.364780
0.351667
0.234842
0.393987
0.507832
0.394583
0.454783
0.371933
0.325441
0.495911
0.502467
0.422597
0.417829
0.434518
0.415444
0.387430
0.455976
0.483990
0.364780
0.427961
0.552535
0.460744
0.667572
0.632405
0.592470
0.504851
0.573993
0.645518
0.517964
0.659823
0.610948
0.623465
0.679493
0.869632
0.766516
0.702739
0.893474
0.811815
0.913739
0.885725
1.049638
1.161695
0.998974
1.348853
3.141761
11.797547
46.517849
98.501444
220.406651
360.069871
566.612482
704.623461
833.909512
862.116814
791.990757
669.651628
461.289883
321.072936
172.027946
96.378922
37.891865
18.159747
10.900497
10.156631
11.959672
14.367700
20.866990
29.818416
45.081973
59.632659
77.908635
88.702440
97.905993
99.537969
93.588829
86.137652
69.607496
56.804419
43.557882
35.032630
28.040409
24.881959
23.169518
23.138523
23.174882
22.960901
23.030639
22.921562
22.730827
23.007989
22.509694
22.341609
22.579432
22.651553
21.864772
21.981001
##ZVALUE=330
0.462532
0.402927
0.568628
0.511408
0.492930
0.410676
0.482798
0.403523
0.448823
0.493526
0.504851
0.346899
0.285506
0.398755
0.528693
0.551939
0.575781
0.371933
0.473857
0.559688
0.426769
0.546575
0.624657
0.586510
0.638962
0.560880
0.425577
0.652671
0.685453
0.695586
0.593662
0.725985
0.656843
0.736713
0.655651
0.733733
0.722408
0.796914
0.790954
0.797510
0.757575
0.957847
1.019835
1.212955
1.147985
1.196861
1.443624
6.887913
21.803975
72.858930
142.566562
292.475820
435.082912
636.300445
765.845776
849.897861
828.042626
705.379844
567.898750
367.004871
239.061713
114.941001
59.503913
23.157001
12.957454
9.858608
10.134578
12.051463
14.815927
21.580458
29.063821
43.224692
55.910945
74.574947
85.548759
95.863938
95.933676
90.723634
82.355738
67.770481
56.143999
42.355657
35.181642
29.356480
25.878549
24.065971
23.111701
22.446513
22.672415
22.444725
22.496581
22.346973
22.378564
22.333860
22.046566
22.141933
##ZVALUE=335
0.565648
0.338554
0.431538
0.319481
0.339746
0.411868
0.399947
0.628829
0.307560
0.530481
0.501871
0.580549
0.648499
0.546575
0.457764
0.397563
0.490546
0.472665
0.598431
0.471473
0.447631
0.503659
0.394583
0.429749
0.499487
0.587702
0.736713
0.572801
0.566840
0.602603
0.614524
0.551939
0.660419
0.641942
0.413656
0.704527
0.497699
0.933409
0.744462
0.830889
0.704527
0.719428
0.935793
1.047850
0.903606
0.953674
1.239777
1.379848
1.325607
3.178716
11.282563
44.169426
94.305873
214.461684
348.703861
558.023453
698.065758
811.794996
828.379989
744.003654
626.968741
430.670977
295.193791
155.209899
82.889795
31.447411
15.701652
10.219812
10.155439
11.420846
12.384653
15.844703
20.272732
30.213594
40.520430
57.214499
69.064498
82.137585
89.397430
90.435743
86.764693
75.626969
67.342520
54.299831
45.082569
35.348535
30.210614
25.662780
23.888946
22.360682
22.044778
21.604896
21.265745
21.451712
21.345615
21.559000
##ZVALUE=340
0.441670
0.309944
0.444651
0.343919
0.434518
0.535846
0.500679
0.344515
0.536442
0.444651
0.529885
0.230670
0.395775
0.475645
0.441670
0.268817
0.368953
0.395775
0.448823
0.537634
0.546575
0.581741
0.470877
0.467896
0.496507
0.555515
0.685453
0.657439
0.539422
0.657439
0.328422
0.527501
0.591874
0.596642
0.771880
0.687838
0.680685
0.658631
0.822544
0.799894
0.723600
0.853539
0.918508
0.870824
0.841618
0.871420
1.045465
1.090765
0.910759
1.132488
1.360774
1.864433
5.232692
27.000904
66.006780
162.609816
278.118849
462.062955
610.165000
757.473707
810.290575
773.127675
679.434538
503.466725
354.979634
190.191865
107.006431
45.870543
21.358728
11.062622
9.833574
10.777712
11.534691
13.196468
15.543699
21.917820
28.838515
41.295886
52.325726
68.742633
78.063607
86.280704
87.351799
82.850456
76.528788
64.923763
54.160953
42.016506
35.749674
28.425455
24.821758
22.352934
21.033883
21.047592
20.482540
20.681620
##ZVALUE=345
0.439882
0.328422
0.273585
0.444651
0.355840
0.561476
0.404716
0.449419
0.299811
0.400543
0.378489
0.399947
0.432730
0.414848
0.511408
0.413656
0.342727
0.369549
0.418425
0.378489
0.517964
0.554919
0.540614
0.491738
0.506639
0.475645
0.551939
0.597835
0.486970
0.519753
0.505447
0.565648
0.433922
0.431538
0.622869
0.550747
0.598431
0.567436
0.575781
0.550747
0.638962
0.584722
0.727773
0.843406
0.783801
0.754595
0.836849
0.885725
0.878572
1.052618
0.940561
1.043677
1.158714
1.379848
2.595782
15.048981
42.685866
116.305947
202.859640
364.629626
506.719947
677.683949
760.502815
780.333877
719.251037
556.700826
417.438745
249.619484
143.350959
59.897900
29.337406
12.913942
10.531545
10.830760
10.985732
12.177825
13.106465
16.278625
20.416975
28.892756
37.688613
51.032901
61.183572
71.317554
77.339411
81.019998
78.246593
70.568919
62.892437
51.431656
42.692423
33.035874
27.916431
23.523569
21.742582
20.286441
##ZVALUE=350
0.531673
0.457764
0.462532
0.314713
0.375509
0.523925
0.398755
0.390410
0.384450
0.469685
0.487566
0.516772
0.633597
0.492930
0.453591
0.537634
0.519753
0.381470
0.535846
0.361800
0.444651
0.542998
0.588894
0.526905
0.426769
0.679493
0.592470
0.433922
0.501871
0.468493
0.496507
0.639558
0.495911
0.656843
0.594854
0.601411
0.710487
0.670552
0.659823
0.560880
0.573993
0.480413
0.617504
0.599623
0.737906
0.714660
0.801682
0.877976
0.747442
0.901818
0.861883
0.820756
1.072884
1.015663
1.017451
1.260638
1.527667
7.400513
23.665428
75.354576
142.744780
404.518843
426.390767
687.273741
705.460906
750.480890
712.910891
615.941882
437.690616
300.773978
88.469982
80.588460
18.160939
14.731884
10.780692
10.012984
10.602474
11.114478
12.509823
13.246536
18.219948
19.732714
33.981800
35.628676
43.946505
63.139796
64.996481
71.488619
74.104667
67.420602
66.439509
59.382915
48.760772
40.169954
31.532645
24.481416
##ZVALUE=355
0.395775
0.409484
0.294447
0.470877
0.497699
0.332594
0.423789
0.304580
0.390410
0.429749
0.363588
0.410676
0.485778
0.543594
0.430942
0.533462
0.523925
0.470877
0.494719
0.415444
0.471473
0.557899
0.507832
0.438690
0.497699
0.396967
0.348687
0.442863
0.442863
0.523925
0.545979
0.471473
0.567436
0.517964
0.468493
0.688434
0.568628
0.577569
0.503659
0.457764
0.476837
0.646710
0.547767
0.561476
0.775456
0.721812
0.641942
0.816584
0.793934
0.738502
0.839829
0.774860
0.807643
0.652671
0.890493
0.996590
0.995994
1.297593
1.394749
3.529787
12.977719
49.351454
101.079941
210.423470
331.282616
509.585738
627.992749
718.502998
718.629956
625.706911
508.515835
337.428451
216.262937
99.698901
49.791932
18.586516
11.065602
9.746552
9.833574
10.202527
10.679960
11.566877
12.226701
14.817715
17.765760
23.656487
29.390454
39.412975
47.375560
57.638884
63.902736
67.440867
66.395998
61.681867
55.221915
46.028495
##ZVALUE=360
0.401735
0.395775
0.424981
0.468493
0.414848
0.376701
0.540614
0.366569
0.293851
0.443459
0.370741
0.297427
0.412464
0.428557
0.510812
0.403523
0.411868
0.469685
0.332594
0.308752
0.429749
0.531673
0.416636
0.575781
0.441670
0.482798
0.469685
0.615716
0.507832
0.526905
0.312924
0.481606
0.596642
0.655651
0.386834
0.451803
0.557899
0.582933
0.569820
0.593662
0.571609
0.427961
0.727773
0.503659
0.670552
0.624657
0.734925
0.682473
0.543594
0.780821
0.730753
0.795722
0.708699
0.749826
0.776649
0.823736
0.877976
1.011491
0.967979
1.132488
1.405478
1.645684
7.006526
21.545887
70.556998
135.346651
266.084671
395.889878
568.012595
662.401915
702.709556
662.371516
540.100932
413.741469
248.043537
151.247978
67.565441
32.291412
13.052821
9.269714
9.184480
9.652972
9.696484
9.923577
10.515451
11.375546
13.099909
15.261769
19.773841
25.136471
33.768415
41.545630
50.714612
56.006908
60.872436
60.939789
##ZVALUE=365
0.410676
0.349879
0.407696
0.431538
0.324845
0.351667
0.605583
0.349879
0.477433
0.495911
0.616908
0.444651
0.508428
0.501871
0.440478
0.462532
0.432730
0.421405
0.346899
0.230670
0.453591
0.406504
0.390410
0.511408
0.538826
0.307560
0.489950
0.571609
0.534654
0.556707
0.440478
0.607967
0.543594
0.508428
0.512600
0.481606
0.307560
0.498891
0.417829
0.684857
0.514984
0.626445
0.596642
0.461936
0.540614
0.554919
0.754595
0.743866
0.532866
0.631809
0.648499
0.655651
0.610948
0.706911
0.561476
0.642538
0.777841
0.936985
0.847578
1.000762
1.152754
1.140833
1.200438
1.415610
2.277493
13.323426
37.681460
103.520751
187.786818
337.693691
463.504791
602.685809
668.548942
662.789941
588.403940
439.078808
313.993692
177.375674
99.390745
39.856434
18.768907
9.266734
8.318424
8.693933
8.645654
8.955598
9.328723
9.705424
10.060668
11.152625
12.931824
17.179847
21.367669
28.676987
35.099983
43.755770
##ZVALUE=370
0.436902
0.300407
0.349879
0.377893
0.370741
0.349879
0.344515
0.396967
0.421405
0.352859
0.356436
0.438690
0.416636
0.411868
0.395775
0.469685
0.484586
0.448823
0.449419
0.456572
0.399947
0.519753
0.444651
0.398755
0.463724
0.370741
0.510812
0.603795
0.411868
0.438690
0.349879
0.431538
0.433922
0.480413
0.523925
0.367761
0.481606
0.477433
0.583529
0.552535
0.608563
0.456572
0.660419
0.566840
0.627637
0.658631
0.674725
0.603795
0.559688
0.595450
0.571609
0.754595
0.671744
0.754595
0.754595
0.730753
0.673532
0.693798
0.773668
0.806451
0.879765
0.911951
1.110435
1.027584
1.255870
1.170635
1.831651
5.937815
29.602647
71.134567
165.766478
264.194608
419.617891
536.732674
646.736622
668.589473
610.013008
509.126782
343.858600
227.428675
108.963847
58.270693
24.007559
12.276769
7.877946
7.680655
8.025765
8.100867
8.249879
8.465648
8.786917
9.373426
10.272861
11.790991
15.121698
18.497705
##ZVALUE=375
0.418425
0.329614
0.402927
0.487566
0.286698
0.250936
0.443459
0.354648
0.446439
0.440478
0.405908
0.485778
0.472665
0.310540
0.412464
0.386834
0.325441
0.322461
0.364780
0.378489
0.490546
0.478625
0.433922
0.398755
0.302792
0.368953
0.383854
0.453591
0.399947
0.296831
0.488758
0.456572
0.389814
0.366569
0.315905
0.511408
0.520945
0.644922
0.431538
0.424981
0.545979
0.523925
0.451803
0.767708
0.497699
0.486970
0.621676
0.569820
0.594854
0.486970
0.563860
0.498891
0.493526
0.557899
0.621676
0.532866
0.666976
0.700951
0.823736
0.657439
0.718832
0.643730
0.770688
0.803471
0.908971
0.876784
0.984669
0.996590
1.510978
3.830791
12.822747
45.418739
96.505880
214.822888
332.228541
496.040583
593.754649
657.521486
644.292831
540.211797
425.179005
263.924599
168.445706
85.578561
44.356585
16.564727
8.937716
6.832480
7.167459
7.188916
7.335544
7.594824
7.925630
8.271933
8.656979
9.452701
##ZVALUE=380
0.347495
0.440478
0.315905
0.244975
0.410676
0.337958
0.439882
0.421405
0.430942
0.457764
0.386834
0.344515
0.250936
0.245571
0.351667
0.324845
0.429749
0.320673
0.372529
0.379682
0.479817
0.295639
0.463724
0.345707
0.485778
0.441670
0.346899
0.462532
0.421405
0.357628
0.518560
0.480413
0.524521
0.436902
0.393987
0.414848
0.546575
0.441670
0.541806
0.614524
0.406504
0.565648
0.448823
0.544786
0.482798
0.489950
0.601411
0.502467
0.571609
0.510812
0.556707
0.632405
0.617504
0.596642
0.441670
0.582933
0.535846
0.637770
0.590682
0.625849
0.581741
0.626445
0.693798
0.760555
0.673532
0.909567
0.843406
0.962615
1.039505
0.987649
1.204610
1.778603
9.156466
27.103424
77.524781
145.395994
280.651450
407.941937
557.409525
633.288026
646.250844
588.324666
466.352701
354.828835
211.530924
126.395822
54.911971
26.470423
10.137558
7.044673
6.421804
6.527901
6.716847
6.941557
7.168651
7.096529
##ZVALUE=385
0.284910
0.451803
0.390410
0.450611
0.324845
0.402927
0.662804
0.403523
0.367761
0.509620
0.357628
0.432730
0.423789
0.331998
0.354648
0.442863
0.233650
0.522733
0.322461
0.472665
0.415444
0.526905
0.420809
0.516772
0.513792
0.362992
0.478625
0.469685
0.450611
0.484586
0.233650
0.432730
0.430942
0.353456
0.610948
0.522733
0.507832
0.588894
0.388622
0.585914
0.498891
0.424981
0.637770
0.506639
0.445843
0.536442
0.510812
0.428557
0.521541
0.353456
0.520945
0.519753
0.438690
0.454783
0.457764
0.530481
0.546575
0.528693
0.617504
0.577569
0.727773
0.624657
0.553727
0.709891
0.657439
0.700951
0.692606
0.867844
0.832677
1.044869
0.863671
1.187921
1.285672
1.377463
3.506541
17.968416
46.679974
116.045475
206.336975
364.894867
483.004451
605.335832
641.149879
614.126921
544.496775
405.699015
289.292932
161.359906
92.012882
39.381981
17.682910
7.433891
5.983710
6.105900
6.048679
6.225705
##ZVALUE=390
0.281930
0.377893
0.427961
0.367761
0.507832
0.433922
0.502467
0.445843
0.260472
0.283718
0.370741
0.383854
0.449419
0.402927
0.181794
0.348687
0.485778
0.464916
0.453591
0.451803
0.533462
0.340939
0.396967
0.426769
0.350475
0.366569
0.358820
0.297427
0.371933
0.385642
0.296831
0.422597
0.382662
0.576973
0.497699
0.474453
0.476837
0.379682
0.442863
0.471473
0.566840
0.345707
0.440478
0.487566
0.418425
0.505447
0.614524
0.464916
0.536442
0.423789
0.490546
0.544786
0.526905
0.606775
0.542998
0.557899
0.531673
0.482798
0.628829
0.617504
0.483990
0.582933
0.531673
0.686646
0.664592
0.627637
0.572801
0.631809
0.756979
0.913739
0.883937
0.957847
0.880957
1.001954
1.097918
1.245737
1.825690
9.222627
28.268695
84.787607
159.255862
299.392939
416.402817
552.862883
619.040728
639.939904
590.739846
470.300913
362.017751
223.037601
132.089853
55.547953
27.344823
10.240674
6.428957
5.556941
##ZVALUE=395
0.250936
0.358820
0.302792
0.275970
0.339746
0.309944
0.427961
0.214577
0.314713
0.353456
0.479817
0.321865
0.360608
0.405908
0.479817
0.435710
0.414848
0.522733
0.270605
0.360608
0.257492
0.368953
0.397563
0.422597
0.255704
0.314713
0.373721
0.276566
0.384450
0.462532
0.537634
0.434518
0.538826
0.540614
0.488758
0.414848
0.449419
0.526905
0.442863
0.566840
0.576973
0.444651
0.441670
0.343919
0.442863
0.598431
0.515580
0.480413
0.542998
0.427961
0.433922
0.377893
0.597835
0.537634
0.449419
0.528693
0.557899
0.546575
0.537634
0.604987
0.665784
0.623465
0.565648
0.732541
0.571609
0.600815
0.664592
0.907779
0.862479
0.867844
0.912547
0.690818
0.842810
0.920892
0.887513
0.966787
0.915527
0.948906
1.319647
5.184412
18.321872
63.973665
120.904446
229.139924
339.500904
494.637489
588.830709
651.292801
640.686750
546.134710
431.989431
271.310806
170.724988
76.316595
38.338900
14.020801
##ZVALUE=400
0.408888
0.279546
0.410676
0.398755
0.428557
0.372529
0.464916
0.347495
0.292659
0.277758
0.446439
0.555515
0.418425
0.412464
0.338554
0.390410
0.385642
0.346899
0.411868
0.233650
0.382662
0.380874
0.255704
0.491738
0.422597
0.333786
0.443459
0.478625
0.280738
0.473857
0.633597
0.469685
0.400543
0.455976
0.474453
0.389814
0.343919
0.523925
0.419617
0.545979
0.527501
0.345707
0.417829
0.392795
0.467896
0.534654
0.514984
0.506639
0.689626
0.449419
0.512600
0.569820
0.463724
0.646710
0.592470
0.627637
0.511408
0.659823
0.586510
0.371933
0.650883
0.582933
0.534654
0.685453
0.724792
0.679493
0.732541
0.624657
0.765920
0.862479
0.867844
0.758767
1.019835
0.947714
0.854731
0.735521
0.794530
0.783801
1.027584
1.207590
1.072884
2.775788
9.615421
37.665963
80.076456
175.071955
276.726484
428.697467
529.846549
617.993474
631.448030
560.484529
470.729470
326.908827
218.742490
112.550855
##END
