##TITLE=QP00352
##FORMAT=SPECTACLE-ASCII V-1.2
##DATA TYPE=ULTRAVIOLET SPECTRUM
##SECOND TYPE=ULTRAVIOLET SPECTRUM
##DATE=02/01/18
##TIME=15:19:13
##SPECTROMETER/DATA SYSTEM=SPECTACLE
##XUNITS=NM EM
##YUNITS=ENERGY
##YFACTOR=1
##FIRSTX=220
##LASTX=410
##NPOINTS=96
##3DDATA=Equidistant
##ZUNITS=NM EX
##FIRSTZ=210
##LASTZ=400
##ZPOINTS=39
##XYDATA=(Y..Y)
##ZVALUE=210
1.376867
1.655817
1.647472
1.692772
1.756549
2.219677
2.389550
2.588630
2.281666
2.070665
2.001524
1.814961
2.528429
2.368689
2.207756
2.732873
2.537966
3.158450
3.269911
2.757907
3.642440
4.498959
3.603697
4.067421
4.464984
4.899502
5.728602
4.111528
4.986525
5.564690
5.452633
5.882978
6.899834
6.243587
5.632639
6.195903
6.016493
6.753802
6.220937
7.525682
7.249713
7.791519
8.566976
7.680655
8.379817
8.785725
8.880496
7.797480
8.837581
9.602904
10.374784
9.041429
9.019971
9.350777
9.921789
9.841919
10.795593
11.266470
10.209680
11.812449
11.608601
11.973977
12.205839
13.162494
12.423992
12.899637
12.883544
15.242696
18.197894
21.903515
24.692416
30.227900
33.400655
41.023493
45.159459
45.553446
48.325658
48.353672
43.708682
42.553544
38.997531
32.622814
30.003786
24.918914
22.054911
18.395782
16.290545
12.895465
13.395548
11.692643
11.827946
12.294650
13.505816
12.463927
11.244416
12.068748
##ZVALUE=215
6.665587
6.460547
5.027652
4.979968
4.242659
4.668832
3.955960
4.118681
3.773570
4.395843
4.105568
3.917813
3.788471
3.015995
2.564788
2.730489
2.385974
2.807975
3.392696
3.096461
3.793836
3.659725
4.079938
4.656911
5.172491
4.939437
5.004406
5.836487
6.126761
6.676912
6.106496
6.699562
6.010532
7.187724
6.854534
7.227659
7.284880
8.015633
7.578731
8.166432
7.740855
8.367896
8.950830
8.748770
8.562803
7.657409
9.781718
10.218620
8.772612
9.043813
10.487437
10.262728
10.674596
11.451840
10.799766
10.654926
11.768937
11.656880
12.658834
11.741519
11.207461
12.441874
12.306571
12.171865
12.006760
13.210773
14.776587
15.085936
18.560886
21.629930
23.600459
29.549599
33.409595
35.716891
39.656758
44.586658
39.608479
40.560961
38.703680
36.306977
35.009980
30.664802
26.885867
23.432970
21.446943
18.162727
16.232729
13.886690
13.289452
11.966825
11.495948
13.038516
12.054443
11.047721
11.626482
12.627840
##ZVALUE=220
21.877885
21.597743
24.119616
24.620891
23.946762
19.622445
16.391873
11.824965
10.477901
9.454489
11.567473
11.384487
10.605454
9.568930
9.836555
6.690621
5.615950
4.729629
3.745556
3.871918
4.403591
4.414916
4.451871
4.977584
5.084872
5.098581
5.742908
5.791783
6.007552
5.643964
6.693602
7.087588
7.479787
7.297993
6.628633
5.524755
8.005500
7.446408
8.830428
8.715987
8.662939
8.580685
8.733869
9.253621
9.226799
9.540915
9.647608
9.827614
10.130405
10.658503
11.553764
12.947917
11.379719
12.391806
12.235641
12.173653
12.790561
12.292862
12.320876
13.963580
13.157725
12.548566
13.564825
13.772845
14.889836
15.084743
15.294552
16.532540
18.894672
23.074746
25.375485
29.438734
33.718944
37.625432
41.896701
43.039918
41.838884
42.047501
40.250421
37.342906
37.037730
31.206608
29.175878
24.656653
21.326542
17.382503
17.281771
15.844703
14.685988
12.643933
12.819767
12.943745
13.029575
12.597442
11.448860
12.322664
##ZVALUE=225
40.383935
54.904819
54.211617
74.011683
79.535842
81.447959
78.440905
61.149001
50.327778
38.191676
26.014447
24.138689
22.425652
23.768544
25.123954
22.824407
19.186735
17.848611
12.758970
8.561611
6.582737
5.476475
5.465746
6.284714
5.896688
5.407929
6.411672
5.790591
7.245541
6.254911
7.124543
8.005500
7.335544
8.698702
7.764697
7.891655
8.750558
8.944869
9.063482
8.569956
7.903576
9.415746
9.500980
8.719563
8.945465
11.070967
10.171533
10.720491
10.533929
11.145473
10.518432
11.083484
12.276769
12.700558
12.447834
14.148951
12.908578
13.824701
13.867617
15.485883
13.155937
15.305877
15.414953
15.245676
14.585853
16.043782
16.475916
18.502474
20.679832
21.801591
25.776625
29.330850
31.615496
35.709739
37.417412
39.040446
38.127899
37.804842
32.304525
31.206608
30.910969
27.361512
25.134683
22.784472
20.787716
19.520521
16.438961
15.977621
16.070604
14.463663
15.942454
14.119744
13.943911
14.415979
13.845563
12.955666
##ZVALUE=230
36.687851
40.974617
71.908832
105.408430
146.926641
191.264749
218.431950
220.938921
206.681490
159.759521
127.459764
81.472993
59.946775
46.941638
45.795441
50.755739
50.259829
48.201680
44.889450
35.379529
28.611422
20.449758
12.955666
8.983612
6.476641
6.781816
6.843805
6.996989
7.965565
7.696748
8.408427
7.783771
7.698536
8.536577
9.298921
9.506941
9.147525
9.417534
9.649992
9.911656
11.053681
9.867549
9.045601
10.218620
10.232925
10.654926
11.747479
11.131763
12.743473
11.580586
12.864470
13.099909
12.327433
14.544725
13.720989
15.453696
16.186833
15.726686
15.432835
16.827583
18.453598
17.659664
17.542839
18.200874
19.942522
18.811822
19.421577
21.924973
23.661852
25.891662
31.620860
32.177567
36.782622
37.434697
41.592717
40.912628
38.838983
38.140416
37.278533
33.247471
30.564666
28.501749
25.405884
24.300814
23.084879
21.407604
19.582510
18.298626
18.160939
17.752647
16.356707
18.295646
15.915632
16.523600
16.761422
15.517473
##ZVALUE=235
12.596846
15.396476
34.019947
81.356764
142.564774
229.505897
339.946747
403.518677
459.142923
466.242433
431.118608
325.634480
252.828002
166.152716
116.799474
81.879497
72.573423
79.013705
86.555481
75.826645
78.392625
69.720745
53.291917
35.987496
25.416613
18.679500
12.240410
11.284947
10.224581
8.196831
10.029674
9.732842
10.584593
9.360909
9.693503
10.902882
9.650588
10.138750
10.091662
9.992719
10.061860
10.621548
10.542870
11.747479
10.849833
11.052489
11.655688
12.918711
13.120770
14.948845
14.657974
14.624596
17.626882
15.903711
17.691851
18.538833
18.435717
21.116734
20.050406
21.592975
22.349954
22.297502
22.843480
25.768876
23.146868
25.407672
25.956631
28.271675
30.349493
32.947659
35.053492
38.978457
44.664741
43.681860
47.438741
46.782494
48.937798
43.694973
44.716001
41.711926
37.300587
33.809543
32.470822
29.892921
27.458668
24.839640
24.608970
21.800995
21.985769
21.495819
22.161603
21.868944
19.581914
19.984841
20.846725
21.484494
##ZVALUE=240
1.699924
1.539588
6.787777
17.551780
53.905845
104.921460
215.764642
328.392982
517.969728
625.631809
738.477707
743.505955
699.765682
557.366014
424.282551
234.562755
125.184655
123.497844
99.985600
100.968480
112.614632
118.278861
112.341642
100.654960
89.364648
68.498850
47.266483
34.383535
25.731921
17.623901
13.651848
12.967587
12.508631
10.956526
11.767745
10.871887
12.423992
11.797547
10.609627
9.924769
10.279417
11.684895
9.929538
10.412931
10.864735
11.757612
10.949969
12.001991
12.708902
13.572574
15.518665
15.719533
16.507506
18.817782
19.508600
19.502640
21.437407
22.672415
22.376776
24.368763
23.151636
24.481416
24.567842
25.827885
24.744868
25.056601
26.862621
28.502941
30.311942
35.222769
34.255981
39.844513
43.132901
45.968890
44.186711
47.087669
47.022700
43.698549
41.239858
41.967630
39.026737
35.074949
33.229589
29.779673
28.256774
27.302504
27.088523
25.917888
25.136471
24.934411
24.183989
23.437738
23.034811
23.994446
24.544001
24.689436
##ZVALUE=245
1.452565
1.355410
1.409650
1.611710
4.173517
13.439655
45.056939
96.267462
230.632424
363.909602
594.501495
761.240721
887.506604
966.728926
931.536555
777.802467
629.313588
437.617898
290.863514
166.139007
117.562413
103.683472
117.494464
128.290653
133.580565
123.943686
112.833977
98.698735
75.496435
55.925846
43.828487
28.926730
20.184517
14.768839
14.007688
12.444854
12.935996
11.154413
11.795759
11.131763
10.327697
11.039972
10.569692
9.754896
9.944439
10.563731
10.189414
10.613799
12.496710
13.532639
13.276935
14.639497
15.479922
16.297698
17.946959
17.874837
18.939972
19.144416
18.948913
21.894574
22.007823
20.756721
22.052526
22.410750
23.656487
23.993850
24.269819
26.976466
27.594566
27.955770
32.819510
32.640696
37.856698
40.033460
40.970445
43.497682
40.679574
40.134788
40.153861
36.074519
34.363866
31.574965
30.629635
29.122829
27.807951
26.322603
24.712682
23.689866
24.813414
25.291443
23.121834
22.843480
23.904443
21.515489
21.541715
23.602843
##ZVALUE=250
1.389980
1.238585
1.315475
1.732707
1.441836
1.869798
3.178716
9.397864
39.121509
85.607767
215.596557
368.003845
556.086898
834.756494
996.255875
1015.785933
1015.785933
1015.785933
902.779698
625.619888
423.899889
265.056491
142.413974
107.233524
108.103752
122.064948
136.355758
141.562819
137.134790
127.363801
110.579729
82.332492
63.442588
40.956736
27.816892
18.165708
14.010668
11.725426
11.252761
10.484457
10.122657
9.570718
9.576678
9.676814
9.347796
9.778738
9.927750
10.577440
11.229515
10.827780
11.877418
13.244748
14.190674
14.503598
14.257431
15.127659
15.923977
16.390681
16.122460
17.579794
18.641949
18.836856
18.814802
18.076897
19.288659
19.844770
19.450784
20.944476
23.579597
25.061965
27.517676
30.573606
31.758547
35.643578
36.455989
36.327839
35.724640
34.390688
32.886863
31.498671
29.990673
26.713610
26.157498
24.971962
23.684502
24.471879
21.754503
21.964908
22.773743
21.724701
20.312667
22.320747
20.822883
22.149682
20.445585
21.854639
##ZVALUE=255
1.160502
1.655817
1.370907
1.465678
1.510978
1.414418
1.662970
1.482964
2.391934
5.563498
28.349757
72.691441
147.287846
321.146846
507.425666
810.467601
1007.102728
1015.785933
1015.785933
1015.785933
1015.785933
888.399482
554.232597
344.476700
177.149773
117.390752
97.653866
107.393861
127.208829
141.502619
145.322680
139.796734
129.107833
104.880929
82.335472
57.283640
39.782524
24.376512
16.365647
10.631680
10.251999
9.127855
9.000897
7.835627
7.929802
9.034872
8.355975
9.190440
9.462833
9.750724
9.186864
10.082722
11.153817
10.698438
11.944771
11.838675
12.315512
13.688803
12.998581
13.650656
14.297962
14.716983
14.580488
15.192628
15.983582
16.249418
16.454458
17.081499
19.182563
20.958781
21.813512
24.777651
26.550889
28.036833
29.570460
29.217601
27.884841
27.668476
26.645660
23.443699
23.232698
22.487640
21.937490
21.105409
19.997954
20.115972
19.515753
18.674731
19.185543
18.980503
19.557476
20.026565
19.244552
19.615889
20.683408
19.211769
##ZVALUE=260
1.157522
1.421571
1.280904
1.242757
1.104474
1.228452
1.191497
1.412630
1.535416
2.013445
2.079606
2.772808
10.595918
46.956539
110.596418
264.842510
446.504951
766.132474
1002.866030
1015.777588
1015.777588
1015.777588
1015.777588
1015.777588
797.498822
531.163812
286.413431
165.038705
96.723437
88.616014
102.051497
126.220584
141.410828
149.608850
146.277547
126.677752
109.676719
79.237819
60.017705
36.057830
24.313927
15.239716
10.838509
8.718967
7.639527
7.314682
8.120537
8.819699
8.806586
9.017587
9.562969
9.644628
9.853840
10.667443
10.582805
11.635423
11.855960
11.999607
12.123585
12.980700
12.866855
13.150573
13.220906
13.363957
14.487505
14.027953
14.070868
15.018582
16.683936
17.470717
19.479990
21.466613
22.498965
23.495555
24.268627
23.267865
23.886561
22.368431
21.672845
21.882653
20.918846
19.006729
18.881559
18.607974
17.865896
17.662644
16.685724
17.725825
16.857982
17.463565
17.014742
17.561913
18.170476
16.912818
18.529892
18.230677
##ZVALUE=265
1.104474
1.095533
1.077652
1.242757
1.241565
1.254678
1.214743
1.372695
1.695752
1.621842
1.650453
1.957417
2.137423
2.404451
6.417632
31.867623
82.120895
215.761662
379.941463
717.270970
988.619924
1015.785933
1015.785933
1015.785933
1015.785933
1015.785933
1015.785933
778.076649
414.759517
231.547952
112.944841
78.910589
84.554553
106.448531
131.856799
143.314600
151.462555
147.752762
126.881599
106.507540
77.573657
58.968663
35.007000
23.858547
14.670491
9.689927
8.399487
8.076429
8.046627
8.618832
9.710789
9.848475
10.419488
10.934472
11.372566
11.248589
11.758804
12.519956
12.967587
13.487935
13.867617
13.767481
13.123751
14.002919
13.825893
13.690591
14.847517
14.939904
15.790462
16.726851
18.749833
19.250512
20.629764
21.229982
21.367669
21.386743
20.861626
20.327568
20.046830
19.076467
18.195510
16.910434
16.560555
16.351938
16.200542
16.646981
16.279817
16.280413
15.536547
15.836954
15.530586
15.713573
15.964508
16.290545
16.457438
16.089678
##ZVALUE=270
1.092553
1.128912
1.193881
1.027584
1.150966
0.929832
1.112819
1.413822
1.387596
1.624823
1.365542
1.669526
1.672506
1.851916
1.849532
2.044439
2.848506
14.256835
43.616891
148.867965
300.631523
529.611707
941.425562
1015.827656
1015.827656
1015.827656
1015.827656
1015.827656
1015.827656
986.613035
690.841675
349.797010
182.990432
82.557797
66.489577
84.618926
104.818940
128.676891
144.388676
150.480866
145.033002
127.435923
107.107759
78.176856
57.584643
33.577681
23.643970
15.599728
11.308789
9.421706
9.103417
10.362864
10.587573
11.082888
11.306405
12.180805
12.298822
13.226867
13.681650
14.241934
14.482737
14.598966
14.087558
14.820695
15.083551
15.799999
15.489459
15.721917
16.617775
17.980933
18.072724
18.533468
19.919872
21.032691
20.645857
20.777583
19.316673
19.220710
18.324852
18.129945
17.210841
16.688704
16.095638
16.323924
14.806986
15.169978
15.544891
15.467405
14.608502
14.763474
15.271902
14.017820
14.696717
15.043616
15.777946
15.083551
##ZVALUE=275
0.897646
1.064539
1.106858
1.022816
1.181960
1.141429
1.079440
0.990629
1.239777
1.240969
1.304746
1.234412
1.589656
1.596808
1.606941
1.716614
1.908541
2.545714
2.137423
6.869435
25.917888
102.945566
238.320827
450.282693
847.649574
1015.785933
1015.785933
1015.785933
1015.785933
1015.785933
1015.785933
1015.785933
772.143602
478.455424
219.308734
112.308860
56.904554
57.583451
81.750751
102.337599
126.727819
140.442848
147.581697
141.752958
125.924945
104.466677
78.043938
58.323741
37.734509
26.142001
17.869473
14.402866
11.982918
11.815429
11.909604
12.459755
13.203621
13.338923
14.319420
14.805794
14.987588
15.452504
14.958978
15.590787
15.602708
15.484691
16.143918
16.253591
16.976595
17.071962
18.315911
19.501448
19.118786
19.551516
19.961596
19.988418
20.022988
18.714666
17.797947
17.595887
16.737580
16.383529
15.278459
15.013814
14.365911
14.212728
14.141798
14.302731
13.759732
13.465881
13.310909
13.821721
13.413429
13.929605
13.494492
13.509989
##ZVALUE=280
0.981688
0.864863
1.060963
0.900626
0.896454
0.879765
1.074672
0.951886
1.046658
1.020432
0.977516
1.134872
1.184940
1.406670
1.348853
1.589656
1.365542
1.525879
1.860857
2.042651
2.379417
3.589392
13.636947
65.356493
165.601969
409.760475
674.747825
950.250030
1015.785933
1015.785933
1015.785933
1015.785933
1015.785933
1015.785933
955.630541
620.558858
294.119716
149.533749
59.988499
43.741465
52.459836
77.939630
98.963976
125.371814
139.698982
144.045949
141.455531
124.307871
104.620457
85.731745
59.831738
43.175817
28.845668
21.639466
16.384721
15.050769
14.753938
15.861988
15.621781
16.744733
16.704798
17.377734
17.493963
16.576648
17.395616
17.232895
17.815828
18.016696
18.164515
18.922687
19.320846
19.678473
19.972920
20.659566
19.861460
20.282865
19.483566
18.129945
17.290711
16.867518
16.723871
15.888810
15.500784
15.023947
14.753938
14.815927
14.174581
14.009476
13.843775
13.064742
13.138652
13.428926
13.553500
12.247562
13.148785
12.144446
##ZVALUE=285
0.800490
0.816584
0.967979
0.963807
0.961423
0.927448
1.075864
0.810623
0.952482
1.150966
1.021624
1.121759
1.147985
1.244545
1.170635
1.411438
1.457930
1.327991
1.539588
1.736879
2.026558
2.066493
2.257824
3.018975
6.438494
36.546588
94.932914
263.621807
478.512049
895.617008
1015.785933
1015.785933
1015.785933
1015.785933
1015.785933
1015.785933
1015.785933
772.131681
480.370522
220.298767
107.234716
43.186545
36.273599
52.922964
71.948767
100.917816
118.455887
137.941837
143.743753
138.845444
129.365921
106.064677
87.522864
64.192414
48.818588
32.347441
24.687648
20.255446
19.677877
19.367933
19.536614
19.938946
19.617677
19.077659
19.238591
19.518733
18.991828
19.358993
19.787550
20.196438
20.665526
20.694733
21.019578
21.410584
21.224618
20.249486
19.775629
19.530654
18.672943
18.102527
16.612411
16.313791
15.773773
15.848875
14.905930
14.291406
14.200807
14.340878
13.863444
13.487935
13.672709
13.040900
12.805462
12.538433
12.452602
12.769699
##ZVALUE=290
0.960827
0.816584
0.915527
0.722408
0.988841
0.834465
0.952482
0.930429
0.957847
1.169443
0.964999
1.059771
1.096725
1.265407
1.098514
1.228452
1.401901
1.270771
1.540780
1.411438
1.620650
1.538992
1.893640
2.104640
2.371669
2.373457
3.850460
12.344718
57.268739
146.084428
304.407477
673.903823
1008.477807
1015.785933
1015.785933
1015.785933
1015.785933
1015.785933
1015.785933
1006.120443
691.703558
331.121683
167.357922
59.567690
32.018423
36.278963
48.222542
72.043538
91.455579
118.342638
133.553743
144.397616
142.340660
127.381682
110.672712
87.072849
68.041682
48.368573
38.398504
29.554963
25.499463
23.483634
22.256970
21.805763
21.668673
21.315813
21.682978
21.928549
22.637844
22.302866
22.794604
22.963881
22.897720
22.332668
22.095442
20.993948
21.031499
20.145774
19.672513
18.372536
18.210411
17.013550
16.437769
15.801787
15.205741
15.429854
14.933944
14.184713
14.272928
13.846755
13.615489
13.173819
12.892485
12.487769
12.999773
12.618899
##ZVALUE=295
0.847578
0.871420
0.846982
0.787973
0.876784
0.797510
1.024604
0.916719
0.941753
0.899434
0.991821
1.105666
1.012683
1.166463
1.231432
1.239777
1.315475
1.210570
1.145601
1.391768
1.522899
1.407862
1.521707
1.855493
1.994967
2.159476
2.406836
2.513528
3.063679
5.422831
19.827485
88.681579
208.232403
523.321629
881.422758
1015.782952
1015.782952
1015.782952
1015.782952
1015.782952
1015.782952
1015.782952
980.746746
533.258915
282.318592
95.928907
41.419864
26.214719
32.903552
51.382780
69.140792
94.874501
113.414526
133.765936
141.663551
138.428807
129.097700
111.087561
91.624856
70.441961
56.151748
40.341616
32.867789
27.478933
24.875998
23.868680
23.432970
23.251772
23.669600
23.757815
23.715496
24.045706
23.591518
23.625493
22.926927
21.994710
21.603703
19.842982
19.275546
19.119978
17.658472
17.352700
16.496778
16.186833
16.192794
15.310645
14.534593
14.923811
14.234781
14.023781
13.661981
13.916492
12.935996
12.877584
12.650490
12.978911
##ZVALUE=300
0.790954
0.804663
0.785589
0.910759
0.815988
0.879765
0.983477
0.949502
0.899434
0.884533
1.024604
0.846982
0.900626
0.991821
1.182556
1.012683
1.125932
1.174808
1.181960
1.342893
1.233816
1.498461
1.334548
1.444817
1.582503
1.451969
2.031922
1.889467
2.259612
2.424717
2.668500
3.426671
13.359785
47.833920
165.197849
340.181589
743.183494
1015.785933
1015.785933
1015.785933
1015.785933
1015.785933
1015.785933
1015.785933
1015.785933
746.871829
371.084809
195.171833
66.731572
31.595826
26.826859
34.410954
51.338673
66.618919
91.380477
110.319853
129.984617
138.440728
137.618780
129.230618
109.565854
94.076991
71.518421
56.951642
41.632652
33.835769
27.716756
25.817752
23.814440
23.473501
23.966432
23.954511
23.173690
23.650527
23.135543
22.560954
21.254420
20.815730
19.881725
18.311739
18.251538
17.531514
17.267466
16.325712
15.787482
15.433431
14.796853
14.495850
14.204979
14.143586
14.204979
13.165474
13.097525
13.121963
11.872649
12.034774
##ZVALUE=305
1.018643
1.019835
1.110435
0.842810
0.945926
1.039505
0.967979
0.947714
0.761747
1.088977
1.102686
1.124740
1.243949
1.287460
1.283884
0.991821
1.233816
1.300573
1.186728
1.313686
1.312494
1.364946
1.401901
1.720786
1.564622
1.580715
1.734495
1.777411
2.172589
2.175570
2.355576
2.572536
2.834797
3.041625
5.595684
33.761859
99.491477
297.988057
556.494594
1005.063653
1015.982628
1015.982628
1015.982628
1015.982628
1015.982628
1015.982628
1015.982628
957.720876
597.772598
264.664888
127.606988
43.336749
26.687980
28.124452
35.276413
52.084923
68.334937
91.193914
108.353496
125.059485
131.682754
131.753683
123.477578
105.858445
88.312626
67.340732
51.850677
40.135980
31.877756
26.521683
24.742484
23.456812
23.068786
22.422671
21.370649
20.872951
20.112991
19.477606
19.024611
18.369555
18.072724
17.415881
16.940832
16.677976
15.667677
15.417933
15.185475
14.700890
14.548898
14.122725
13.627410
13.310909
12.953877
12.885928
12.220740
12.175441
##ZVALUE=310
0.752807
0.811815
0.844598
0.851750
0.845790
1.003742
0.906587
0.896454
1.065731
0.892878
0.937581
0.964999
0.660419
1.101494
1.110435
1.004934
0.859499
0.568628
1.053810
1.101494
0.910759
1.022816
1.059771
1.191497
1.107454
1.450777
1.276731
1.426935
1.475811
1.607537
1.806617
2.072453
2.057552
2.212524
2.462864
2.887845
3.535748
14.232993
52.421689
188.477635
385.804772
824.231505
1015.784740
1015.784740
1015.784740
1015.784740
1015.784740
1015.784740
1015.784740
1015.784740
814.446807
405.579805
214.200616
75.018406
33.063889
22.437572
26.028752
34.491420
44.267774
62.790513
79.180002
99.742413
111.304522
121.054649
122.686625
114.470720
101.663470
82.415938
67.163706
47.687888
37.721992
28.651953
24.456978
21.125674
19.733906
18.880963
18.105507
17.551780
16.493797
16.561747
16.409755
15.475750
15.468597
15.235543
14.835000
14.698505
13.929605
13.823509
13.657808
13.255477
13.036728
12.549758
12.675524
12.539625
12.023449
12.205839
##ZVALUE=315
0.792742
0.781417
0.844598
0.645518
0.807643
0.748634
0.716448
0.725985
0.826716
0.651479
0.708699
0.792742
0.704527
0.983477
0.776649
0.956655
0.981688
0.894666
1.217723
1.028776
1.102686
0.922680
1.052618
1.112819
1.079440
1.102686
1.198649
1.335740
1.297593
1.471639
1.476407
1.621842
1.801848
1.949668
2.091527
2.146959
2.315640
2.856851
3.047585
6.871819
25.695562
115.725994
257.924795
601.012707
967.329741
1015.785933
1015.785933
1015.785933
1015.785933
1015.785933
1015.785933
1015.785933
1015.785933
582.797527
313.873887
112.455487
46.378970
21.948814
20.605922
24.099946
30.035973
42.502880
54.049492
72.270632
87.297559
106.015801
113.051534
113.160610
106.405616
93.383789
79.340935
59.922934
46.959519
33.437610
25.961995
20.598769
18.402934
16.362667
15.596747
15.240908
14.940500
14.565587
14.378428
14.056563
13.472438
13.683438
13.313890
13.426542
12.703538
12.718439
12.753606
12.261868
12.003779
11.935830
11.833906
11.343956
##ZVALUE=320
0.741482
0.729561
0.731945
0.785589
0.856519
0.662804
0.721812
0.627637
0.578761
0.697970
0.629425
0.755787
0.726581
0.813603
0.821948
0.828505
0.893474
0.961423
0.948906
0.927448
0.937581
0.866652
0.957847
1.047850
1.014471
1.043677
1.063943
1.225471
1.288652
1.425743
1.191497
1.206994
1.424551
1.606941
1.797676
1.841784
1.852512
2.098680
2.378821
2.473593
2.962947
3.605485
12.480617
71.245432
182.974935
468.863845
797.945857
1015.785933
1015.785933
1015.785933
1015.785933
1015.785933
1015.785933
1015.785933
1015.785933
718.240738
411.883593
171.991587
76.334476
24.497509
16.697645
16.962886
18.960834
25.182962
32.738447
48.620701
62.447786
80.218911
93.683004
103.709698
106.225610
98.919868
89.367628
71.513653
56.625605
40.149689
30.236840
22.195578
17.946959
14.874935
13.783574
13.362765
12.750626
13.340712
12.878776
12.419820
12.566447
12.250543
12.151599
12.029409
11.880994
11.590719
11.332631
11.157990
11.276603
10.714531
##ZVALUE=325
0.690818
0.707507
0.733733
0.605583
0.752807
0.694990
0.703931
0.662804
0.727773
0.665784
0.770688
0.499487
0.732541
0.743866
0.811815
0.778437
0.949502
0.775456
0.894666
0.791550
0.874996
0.976920
0.869632
0.854731
0.985861
1.037717
0.964999
1.073480
1.230836
1.007915
1.230836
1.202822
1.428723
1.461506
1.344681
1.557469
1.488924
1.977682
2.048612
2.067685
2.214909
2.389550
2.571940
2.975464
7.941723
31.431913
132.167339
284.356475
647.047758
1001.158953
1015.785933
1015.785933
1015.785933
1015.785933
1015.785933
1015.785933
1015.785933
995.004773
562.665462
307.640433
110.376477
42.750835
14.806986
12.269616
13.572574
15.717745
21.632910
29.140711
45.045614
59.071779
77.392459
88.158846
97.763538
98.035932
91.640949
80.966949
65.051913
51.474571
36.086440
26.718974
18.962622
15.889406
13.070703
12.550950
12.131929
11.543632
11.542439
11.574626
11.052489
11.029840
11.197925
10.983944
11.068583
11.221766
11.159778
10.658503
##ZVALUE=330
0.551939
0.605583
0.559688
0.637770
0.578761
0.793934
0.715852
0.627637
0.748634
0.738502
0.653863
0.905991
0.681877
0.672936
0.699759
0.612736
0.719428
0.715852
0.745654
0.682473
0.802875
0.916719
0.790954
1.005530
0.930429
1.172423
1.015663
0.982881
1.102686
1.006722
1.152754
1.087785
1.209974
1.211762
1.202822
1.247525
1.479983
1.408458
1.591444
1.661777
2.059937
1.919866
2.007484
2.192855
2.500415
3.037453
3.827810
18.731952
63.412786
227.343440
448.820591
930.133462
1015.785933
1015.785933
1015.785933
1015.785933
1015.785933
1015.785933
1015.785933
1015.785933
759.451389
358.688831
178.285837
57.993531
21.149516
11.079907
10.667443
11.746883
14.015436
20.741820
27.830601
41.405559
53.900480
71.807504
82.468987
89.505911
90.288520
83.044767
74.574947
58.697462
47.072768
32.611489
25.364757
19.225478
15.307665
12.635589
11.672974
11.092424
10.881424
10.833740
10.866523
10.205507
10.152459
10.490417
10.157824
10.520816
##ZVALUE=335
0.695586
0.568628
0.857711
0.768900
0.701547
0.529885
0.680685
0.691414
0.681877
0.728965
0.667572
0.622869
0.496507
0.747442
0.773668
0.766516
0.670552
0.785589
0.705719
0.894666
0.899434
0.848770
0.833869
0.817776
0.732541
0.846982
0.870824
1.040697
0.842810
0.992417
0.923872
0.938773
1.042485
1.137853
0.859499
1.351833
1.367927
1.332760
1.415610
1.441836
1.583695
1.678467
1.698732
2.003908
2.045631
2.312660
2.441406
2.895594
3.166795
9.181499
36.057830
147.438645
313.929915
703.842640
1015.785933
1015.785933
1015.785933
1015.785933
1015.785933
1015.785933
1015.785933
1015.785933
879.404545
442.030430
224.121809
72.690845
28.105974
12.248755
10.608435
10.540485
11.898875
14.393926
18.631816
28.007627
37.498474
53.458810
64.860582
78.112483
82.830787
83.448887
79.546571
67.754984
58.202744
44.618845
35.249591
25.365949
19.100904
14.380813
12.657642
11.173487
10.683537
10.141730
10.110736
9.984970
10.080934
9.854436
##ZVALUE=340
0.693798
0.501871
0.548959
0.566840
0.685453
0.524521
0.430942
0.696778
0.524521
0.646710
0.680685
0.663996
0.662804
0.771880
0.724792
0.674725
0.627637
0.766516
0.783801
0.826716
0.767708
0.798702
0.860691
0.764728
0.817776
0.776649
0.714660
0.770688
1.013875
0.989437
0.849962
0.929832
1.002550
1.130700
1.063943
1.105666
1.151562
1.201630
1.170635
1.278520
1.300573
1.555681
1.460910
1.554489
1.688600
1.817942
1.831651
2.201796
2.211928
2.481937
2.892613
4.617572
16.214848
85.517764
212.525725
533.570647
900.459886
1015.785933
1015.785933
1015.785933
1015.785933
1015.785933
1015.785933
1015.785933
1006.212831
550.975800
305.875540
124.476552
47.753453
14.664531
11.185408
10.711551
10.892749
12.352467
13.890862
19.508600
25.195479
36.437511
47.626495
61.701536
71.156621
78.759789
79.020858
73.870420
67.273974
54.867864
43.962598
32.914877
25.291443
18.352866
14.918447
11.540651
10.575652
10.181665
9.821653
9.637475
##ZVALUE=345
0.518560
0.550747
0.713468
0.589490
0.549555
0.753999
0.413656
0.523925
0.754595
0.729561
0.584722
0.628829
0.655651
0.524521
0.639558
0.766516
0.793934
0.733733
0.784993
0.644922
0.778437
0.787973
0.723600
0.753999
0.706911
0.825524
0.677705
0.751615
0.841618
0.951886
0.803471
1.022816
0.987649
1.008511
0.997782
1.004934
0.993609
1.046658
1.156926
1.196861
1.025796
1.266599
1.270771
1.287460
1.452565
1.645684
1.656413
1.687407
1.916885
2.077818
2.155900
2.534986
2.882481
3.302693
8.960962
39.645433
166.797638
345.517993
731.225014
1015.785933
1015.785933
1015.785933
1015.785933
1015.785933
1015.785933
1015.785933
1015.785933
827.722549
375.031829
181.383491
57.230592
23.317933
12.179613
10.722876
10.474920
10.540485
11.121631
12.600422
17.214417
23.410916
34.601688
44.132471
56.333542
64.895749
71.995854
73.726773
70.832968
64.551830
52.200556
43.407679
32.155514
24.619699
17.882586
14.364719
11.322498
10.562539
##ZVALUE=350
0.485778
0.507832
0.570416
0.770688
0.625849
0.617504
0.655651
0.615716
0.543594
0.641942
0.600815
0.560880
0.639558
0.712872
0.806451
0.722408
0.683665
0.767708
0.680685
0.749826
0.692606
0.753999
0.942945
0.778437
0.749826
0.743866
0.826716
0.907779
0.993609
0.745654
0.919700
0.926852
1.019835
1.092553
1.039505
0.939965
0.869632
1.061559
1.143813
1.283884
1.106858
1.088977
1.146793
1.238585
1.398921
1.492500
1.516938
1.628995
1.568794
1.710653
1.814961
1.937747
2.213717
2.372861
2.604723
3.259778
4.490614
25.440454
86.429715
275.598764
526.985526
996.201634
1015.785933
1015.785933
1015.785933
1015.785933
1015.785933
1015.785933
1015.785933
887.559652
538.877845
242.440701
110.823512
29.752851
13.587475
10.534525
9.912848
9.620786
9.798408
10.370612
11.901855
16.434789
21.515489
30.208826
38.788915
50.180554
58.377981
66.117644
67.887902
65.243840
60.390830
49.737692
41.535497
29.872656
23.816824
17.170906
##ZVALUE=355
0.571609
0.688434
0.846982
0.782609
0.617504
0.541806
0.763535
0.683665
0.573993
0.793934
0.757575
0.730753
0.748634
0.711679
0.833869
0.770688
0.690818
0.716448
0.772476
0.692606
0.693798
0.775456
0.880957
0.781417
0.910759
0.898838
0.786781
0.907779
1.014471
0.849962
0.761747
0.990629
1.021624
1.135468
0.994802
0.961423
1.005530
0.937581
0.876784
0.934601
1.176596
1.104474
1.156926
1.211762
1.396537
1.415610
1.318455
1.532435
1.529455
1.523495
1.701713
1.951456
1.993775
2.270937
2.312660
2.447963
2.763867
2.916455
3.412962
12.127757
46.022534
189.945698
396.628976
846.502781
1015.785933
1015.785933
1015.785933
1015.785933
1015.785933
1015.785933
1015.785933
1015.785933
677.827597
287.714601
134.128928
43.955445
16.881824
10.206699
9.606481
8.890629
9.066463
9.324551
9.615421
11.119843
13.445616
19.174814
25.287867
35.733581
43.105483
52.648783
58.260560
61.342716
60.345531
54.634809
48.471689
38.428903
##ZVALUE=360
0.682473
0.647902
0.693798
0.608563
0.657439
0.817776
0.677705
0.712872
0.774860
0.653863
0.665784
0.621676
0.733733
0.697970
0.688434
0.780821
0.706911
0.735521
0.817776
0.874996
0.838637
0.904799
0.924468
0.811815
0.680685
0.961423
0.880957
1.022816
1.087785
0.945926
1.024604
0.880957
0.962615
0.967979
1.044869
1.026988
1.031756
1.057982
1.056790
1.154542
1.229644
1.242757
1.091957
1.269579
1.224875
1.197457
1.305938
1.472831
1.504421
1.559854
1.500845
1.633763
1.840591
1.849532
2.010465
2.008677
2.341866
2.525449
2.729893
3.246665
3.587008
5.744696
19.166470
93.160868
235.682726
609.468818
982.462764
1015.785933
1015.785933
1015.785933
1015.785933
1015.785933
1015.785933
1015.785933
917.077661
436.515808
216.829777
74.191689
27.155876
10.945797
9.443760
8.830428
8.772612
8.560419
8.426905
8.703470
9.632707
12.039542
15.319586
21.456480
28.589964
38.016438
44.545531
51.883459
54.930449
55.216551
##ZVALUE=365
0.572801
0.667572
0.894666
0.704527
0.758767
0.844598
0.681877
0.804663
0.612736
0.758767
0.756979
0.830889
0.583529
0.733733
0.655651
0.749826
0.775456
0.775456
0.691414
0.779629
0.873804
0.841618
0.795722
0.900626
0.654459
0.939965
0.791550
0.882745
0.910759
0.885725
0.849962
0.946522
1.057982
1.004934
0.884533
0.992417
1.013875
1.010895
0.993609
1.055598
1.259446
1.007915
1.143813
1.268983
1.302958
1.308918
1.300573
1.331568
1.270771
1.506805
1.486540
1.640916
1.772642
1.780987
1.783967
1.798868
2.106428
2.351999
2.359748
2.479553
2.793670
3.162622
3.545880
4.148483
9.075403
55.940747
157.365799
425.678492
792.706609
1015.785933
1015.785933
1015.785933
1015.785933
1015.785933
1015.785933
1015.785933
1015.785933
655.224919
353.815556
123.971701
44.803619
12.166500
9.276867
8.555651
8.241534
7.885695
7.424951
7.429719
7.742643
8.402467
9.866953
13.641715
17.710924
24.982691
31.479001
39.752722
##ZVALUE=370
0.574589
0.584722
0.721812
0.699759
0.641942
0.611544
0.658631
0.730753
0.766516
0.561476
0.616908
0.758767
0.683665
0.778437
0.782609
0.741482
0.824928
0.838637
0.839829
0.757575
0.726581
0.822544
0.813603
0.748634
0.940561
0.810623
0.777841
0.948906
0.815988
0.885725
0.983477
0.995994
0.838637
0.957847
1.017451
0.980496
0.921488
0.884533
0.999570
1.040697
1.044869
0.993609
0.961423
1.073480
1.124740
1.167655
1.187921
1.309514
1.065731
1.322627
1.338720
1.363754
1.283884
1.416802
1.515746
1.641512
1.656413
1.606941
1.753569
1.967549
2.035499
2.281666
2.430677
2.826452
2.832413
3.592968
4.972816
25.516748
89.217424
299.522877
567.335486
1007.782817
1015.785933
1015.785933
1015.785933
1015.785933
1015.785933
1015.785933
1015.785933
733.407736
399.021506
147.943497
63.601732
19.234419
9.752512
7.846951
7.347465
7.160902
6.830692
6.811619
6.437898
6.874800
7.059574
9.056926
11.199713
15.828609
##ZVALUE=375
0.491738
0.731945
0.619888
0.701547
0.578761
0.620484
0.760555
0.631809
0.554919
0.491738
0.419617
0.647902
0.546575
0.623465
0.626445
0.761747
0.610948
0.697970
0.721812
0.695586
0.521541
0.565648
0.680685
0.838637
0.481606
0.719428
0.631809
0.729561
0.674725
0.653863
0.728965
0.622869
0.787973
0.864863
0.872612
0.975728
0.904799
0.851750
0.854731
1.015663
0.837445
0.877976
0.907779
0.902414
1.063943
0.887513
1.111627
1.170635
1.035929
1.166463
1.246929
1.184940
1.072884
1.302958
1.139641
1.280904
1.239777
1.479983
1.542568
1.564622
1.602769
1.822710
1.911521
2.109408
2.281666
2.457500
2.901554
3.260970
4.102588
16.818643
63.014627
218.811631
464.217663
973.850489
1015.752554
1015.752554
1015.752554
1015.752554
1015.752554
1015.752554
1015.752554
968.228579
611.330867
288.459659
136.318803
38.893819
14.409423
7.936954
7.582903
6.697774
6.605983
6.431937
6.066561
6.256700
6.444454
6.714463
##ZVALUE=380
0.566840
0.555515
0.646710
0.746846
0.594854
0.569820
0.578761
0.517964
0.616908
0.682473
0.608563
0.603795
0.661612
0.784993
0.637770
0.632405
0.779629
0.692606
0.695586
0.744462
0.686646
0.597835
0.671744
0.752807
0.672936
0.716448
0.804663
0.621676
0.774860
0.774860
0.726581
0.846982
0.808835
0.813603
0.830889
0.857711
0.755787
0.811815
0.754595
0.980496
0.910759
0.937581
0.980496
0.872612
0.952482
0.857711
0.913739
0.935793
1.041889
0.971556
1.119971
0.995994
1.061559
1.252890
1.186728
1.289845
1.357794
1.435876
1.338720
1.511574
1.383424
1.712441
1.580715
1.740456
2.065897
2.191663
2.384782
2.731681
3.226995
3.637671
4.123449
7.141829
28.066635
144.404769
338.097811
798.974633
1015.785933
1015.785933
1015.785933
1015.785933
1015.785933
1015.785933
1015.785933
1015.785933
956.422687
459.547639
220.721960
69.768429
24.916530
9.098649
7.346869
6.955862
6.624460
6.560683
6.287694
6.135702
##ZVALUE=385
0.591874
0.586510
0.500679
0.527501
0.696778
0.641942
0.628829
0.580549
0.496507
0.700951
0.599623
0.501871
0.562668
0.660419
0.674725
0.697970
0.497699
0.726581
0.571609
0.645518
0.557899
0.658631
0.580549
0.519753
0.824928
0.586510
0.665784
0.721812
0.739694
0.749826
0.728965
0.725985
0.899434
0.882745
0.760555
0.779629
0.827909
0.858903
0.874996
0.741482
0.929832
0.902414
0.788569
0.839829
1.009703
0.816584
0.917912
1.155734
0.960827
1.046658
0.992417
1.107454
1.098514
1.107454
1.203418
1.004934
1.138449
1.263618
1.134872
1.258850
1.311898
1.473427
1.556873
1.737475
1.737475
1.971722
2.083778
2.299547
2.539754
2.931952
3.295541
3.606677
3.702641
4.842877
14.647841
100.659728
267.478824
663.541555
1015.780568
1015.780568
1015.780568
1015.780568
1015.780568
1015.780568
1015.780568
1015.780568
1015.780568
655.616522
357.590914
133.616924
48.948526
12.079477
7.515550
6.921887
6.773472
6.490946
##ZVALUE=390
0.676513
0.696778
0.555515
0.451803
0.696778
0.637770
0.636578
0.598431
0.488758
0.649691
0.713468
0.648499
0.674725
0.669956
0.716448
0.576973
0.702739
0.771880
0.748634
0.710487
0.694990
0.976920
0.751615
0.663996
0.792742
0.688434
0.689626
0.676513
0.869632
0.766516
0.822544
0.861883
0.753999
0.703931
0.852942
0.701547
0.795722
0.706911
0.836849
0.822544
0.835657
0.947714
0.957847
0.770688
0.871420
1.019835
0.833869
1.138449
0.870824
1.096725
1.072884
1.017451
1.051426
1.116991
1.139641
1.165867
1.206994
1.116991
1.228452
1.187921
1.368523
1.348853
1.498461
1.528859
1.705885
1.655817
2.132654
2.212524
2.407432
2.809763
3.007650
3.004670
3.488660
3.439784
3.932714
3.999472
8.151531
35.793781
178.941488
414.856672
941.767693
1015.856862
1015.856862
1015.856862
1015.856862
1015.856862
1015.856862
1015.856862
1015.856862
975.304842
491.693020
238.308907
74.178576
25.246739
8.747578
7.314682
##ZVALUE=395
0.594854
0.547767
0.474453
0.590682
0.478625
0.573993
0.544786
0.566840
0.684857
0.551939
0.641942
0.537634
0.468493
0.570416
0.692606
0.586510
0.610948
0.458956
0.511408
0.512600
0.567436
0.553727
0.640750
0.539422
0.613928
0.629425
0.551939
0.587702
0.512600
0.606775
0.660419
0.635982
0.585914
0.641942
0.798702
0.806451
0.705719
0.844598
0.755787
0.841618
0.812411
0.843406
0.765920
0.777841
0.765920
0.805855
0.778437
0.876784
1.001954
1.003742
0.858903
0.930429
1.036525
1.025796
0.979900
0.977516
1.008511
1.138449
1.028776
1.202822
1.187921
1.217723
1.125932
1.417994
1.521707
1.594424
1.762509
1.913905
2.204776
2.327561
2.645850
2.677441
2.878904
2.784729
2.800822
2.936721
3.164411
3.410578
5.302429
19.026399
118.238926
289.146900
676.212907
1015.785933
1015.785933
1015.785933
1015.785933
1015.785933
1015.785933
1015.785933
1015.785933
1015.785933
654.251575
337.438583
116.780996
46.454668
##ZVALUE=400
0.599623
0.568628
0.561476
0.571609
0.593662
0.594854
0.503659
0.523925
0.632405
0.530481
0.471473
0.452995
0.597835
0.597835
0.637770
0.520945
0.597835
0.704527
0.755787
0.733733
0.710487
0.748634
0.503659
0.709891
0.938773
0.718832
0.702739
0.706911
0.737906
0.718832
0.668764
0.689626
0.692606
0.517964
0.565648
0.752807
0.653863
0.810623
0.820756
0.851750
0.885725
0.758767
0.717640
0.745654
0.993609
0.742674
0.927448
0.960827
0.878572
0.929832
0.915527
0.909567
0.976920
0.966787
0.946522
0.997782
1.055598
1.139641
1.091957
1.192689
1.189709
1.306534
1.242757
1.202822
1.445413
1.594424
1.636744
1.726747
2.168417
2.144575
2.291799
2.413988
2.483726
2.414584
2.356768
2.324581
2.610683
2.742410
2.855659
3.314614
3.841519
12.798905
50.997734
196.276903
422.755480
928.548574
1015.823483
1015.823483
1015.823483
1015.823483
1015.823483
1015.823483
1015.823483
1015.823483
856.333971
419.516563
##END
