##TITLE=QP00652
##FORMAT=SPECTACLE-ASCII V-1.2
##DATA TYPE=ULTRAVIOLET SPECTRUM
##SECOND TYPE=ULTRAVIOLET SPECTRUM
##DATE=02/01/18
##TIME=14:45:24
##SPECTROMETER/DATA SYSTEM=SPECTACLE
##XUNITS=NM EM
##YUNITS=ENERGY
##YFACTOR=1
##FIRSTX=220
##LASTX=410
##NPOINTS=96
##3DDATA=Equidistant
##ZUNITS=NM EX
##FIRSTZ=210
##LASTZ=400
##ZPOINTS=39
##XYDATA=(Y..Y)
##ZVALUE=210
1.265407
1.715422
1.399517
1.827478
1.577735
1.750588
1.843572
1.994967
2.141595
1.828671
2.039671
1.936555
1.755953
1.341701
1.692772
1.998544
1.633763
1.660585
2.209544
2.819896
2.546906
3.103614
3.151894
3.057718
3.150702
3.963709
3.965497
3.172755
3.821850
3.890991
3.816485
3.978610
4.112720
4.474521
5.505681
4.190803
4.230738
4.058480
4.553795
3.978610
4.739761
4.828572
4.708767
4.800558
5.246997
4.855990
5.682707
5.860925
4.693866
4.571676
5.395412
5.391836
5.114675
5.369782
6.124973
4.991889
5.937815
6.316900
5.376935
6.370544
5.885959
5.471706
5.380511
6.163716
6.760955
6.363988
7.356405
8.155704
9.876490
11.586547
12.498498
14.075637
17.267466
18.641949
20.734668
22.843480
22.068620
22.458434
22.928715
22.590756
20.002723
20.397902
16.049743
15.760660
12.559891
10.852814
8.576512
7.711649
6.862879
6.873608
6.273985
5.999804
6.496906
6.624460
6.192923
7.205606
##ZVALUE=215
6.172657
5.997419
5.874634
4.852414
3.670454
3.957748
4.081726
4.395843
4.356503
4.304647
4.593730
3.925562
3.143549
2.822876
2.712607
2.331734
2.728701
2.015829
2.358556
2.198815
2.862811
2.920628
3.225803
2.960563
3.308654
4.455447
3.602505
3.671646
4.317760
4.879832
3.772974
3.530979
4.823804
5.008578
5.132556
5.184412
4.816651
4.630685
5.913973
5.795956
5.798936
5.183816
5.293489
5.470514
5.767941
5.684495
5.026460
6.186962
6.264448
7.060766
6.502867
6.083846
5.081892
6.327629
5.916953
6.840825
7.048845
6.749630
6.394982
6.387830
5.899668
6.442666
5.952716
6.649494
6.617904
6.999969
7.197857
8.720756
9.853840
10.697842
13.038516
14.917850
16.508698
19.053817
20.604730
20.452738
20.985603
21.559596
20.769835
19.347668
19.002557
18.312931
16.688704
14.204979
12.942553
11.733770
9.207726
7.192492
6.899834
7.096529
6.042719
6.296635
6.806850
6.760955
6.256700
6.865859
##ZVALUE=220
24.366975
25.005937
25.164485
26.309490
22.071600
18.821955
16.204715
10.816455
11.534691
9.551644
10.670424
11.267662
11.505485
10.861754
8.039474
6.078482
4.804730
4.290938
3.721714
3.125668
2.720952
3.356934
3.106594
4.172921
4.193783
4.184842
4.070997
3.805757
4.638433
4.719496
4.693866
5.010962
4.695654
5.133748
5.383492
5.678535
5.051494
5.596876
5.846620
5.492568
5.884767
4.820824
5.142689
4.889965
5.654693
5.765557
5.776882
6.832480
6.540418
6.071925
6.100535
5.748868
7.288456
6.626844
6.987453
7.380843
6.626844
6.829500
8.345842
6.688833
6.877780
7.320642
6.948709
7.941723
7.034540
8.465648
7.839799
8.926988
9.442568
12.414455
11.788607
14.945865
15.912652
16.484857
19.683838
22.008419
20.178556
20.990968
21.530986
20.940900
16.942620
15.196800
15.512705
12.392998
11.639595
9.754896
8.801818
8.000731
7.885695
7.841587
7.727742
7.186532
6.202459
6.475449
6.667972
6.140471
##ZVALUE=225
42.835474
45.697689
63.003898
76.808929
83.721876
82.106590
74.722767
62.198639
44.105649
35.245419
25.067925
22.503734
23.554564
26.075840
25.697947
22.793412
21.823645
16.000867
12.831688
8.651614
6.294847
4.872680
4.197955
3.852844
4.297495
4.963875
4.790425
5.128980
4.408956
5.271435
5.638599
6.030798
5.727410
5.883574
6.092787
7.049441
6.764531
5.794764
6.532669
6.407499
5.800724
5.928874
6.956458
7.633567
6.922483
6.151795
6.485581
6.466508
7.822514
6.876588
6.414652
6.070733
6.989837
7.249713
7.707477
7.336736
7.618666
7.621646
7.780790
7.551908
8.131862
8.258820
7.070899
7.722974
8.130670
8.392930
9.181499
10.218620
9.894967
12.138486
11.316538
14.993548
16.422868
17.856956
17.751455
18.858910
18.039942
16.742945
16.969442
15.311837
15.250444
13.060570
13.673902
12.490749
10.942817
10.332465
9.608865
8.528829
8.637905
8.422732
8.736849
7.705688
7.763505
8.062720
8.728504
7.496476
##ZVALUE=230
41.920543
47.074556
67.903996
114.401579
145.635605
186.405778
192.338824
192.180872
168.774724
148.226619
101.411939
71.165562
51.567554
47.336817
48.624873
48.637986
51.190853
48.660636
41.979551
35.475492
26.544929
18.325448
12.925863
8.079410
6.068945
5.157590
4.994869
4.832745
5.458593
4.663467
4.791617
5.032420
5.762577
6.101727
4.920959
5.692840
6.037951
5.424619
5.710721
5.511642
5.525947
5.517602
5.925894
5.932450
5.966425
6.265640
5.969405
5.773902
6.071925
5.811453
5.926490
7.741451
6.231666
5.977750
7.895827
6.183982
7.164478
7.129908
7.153749
7.321835
7.529855
7.185936
7.622838
8.413792
7.611513
9.672642
9.282827
10.533929
11.149645
11.609793
13.712645
13.231635
16.098619
16.920567
18.073916
18.977523
18.800497
17.842650
17.074943
18.704534
16.790628
16.503930
13.805628
12.849569
12.965798
10.931492
10.491610
11.354685
10.135770
10.341406
8.944869
10.578632
10.941625
8.884668
10.852814
10.842681
##ZVALUE=235
15.809536
17.230511
38.529634
88.238716
137.472749
217.539668
278.251767
341.897607
371.605754
371.731520
329.230428
266.840458
179.457664
131.638646
94.976425
76.628923
76.593757
78.478456
85.985661
82.955956
77.324510
66.031814
55.239797
37.909746
26.040673
15.627742
11.001825
9.176731
6.748438
7.966757
7.631779
6.152987
6.472468
6.707907
6.896853
6.220937
7.164478
6.807446
6.713867
6.159544
7.139444
7.258654
6.156564
5.511642
7.249713
6.252527
6.354451
6.468892
7.057786
7.256866
6.560683
7.551908
6.627440
6.890893
7.799864
7.630587
8.238554
8.060932
8.626580
8.483529
8.976460
8.976460
9.694695
10.180473
10.522604
10.360479
10.754466
11.910796
12.426972
14.937520
16.639829
16.805530
17.805696
19.191504
21.248460
22.725463
22.367835
23.682714
21.753907
21.554828
20.419955
21.097660
18.443465
17.102957
16.351938
17.374754
16.003847
15.666485
15.524626
13.827682
15.093684
14.784932
14.175773
13.193488
13.155937
14.103651
##ZVALUE=240
1.590848
1.551509
7.794499
24.592876
53.080916
120.009780
200.086832
333.925486
429.956913
523.228645
572.217703
552.689433
505.367517
392.620564
309.586525
198.720694
139.806867
98.426938
91.900826
96.019506
107.355714
111.874938
106.904507
98.886490
78.368783
64.961910
45.044422
32.168627
21.331906
15.938878
10.552406
9.628534
8.856654
9.162426
8.378625
8.309484
8.743405
8.149743
6.937981
6.461740
6.785989
7.257462
7.168651
6.986856
6.903410
6.362796
7.267594
6.822944
7.495880
7.223487
7.686615
7.351637
7.402897
7.309914
7.499456
7.387996
7.635951
8.244514
9.011626
9.044409
8.608699
9.923577
9.574890
8.948445
10.616779
10.657907
10.730624
13.055801
13.454556
15.506744
16.772747
18.306971
21.367669
23.204684
22.085905
24.581552
23.655891
24.933815
22.220612
23.077726
21.320581
19.863844
21.360517
19.425750
17.926693
17.073750
16.411543
17.686486
16.553998
16.726851
15.643835
14.992952
15.825629
16.159415
16.316772
15.673637
##ZVALUE=245
0.960827
1.060963
1.047850
1.284480
4.972816
16.805530
57.593584
114.850998
252.814889
383.461714
578.485727
708.400011
809.101462
842.991471
792.924762
644.361973
503.406525
323.267579
219.406486
129.907727
102.750659
96.507668
109.771490
120.783448
126.116872
124.626756
108.572841
90.550780
70.559978
56.248903
41.567683
26.695728
17.722845
13.019443
11.964440
10.580420
9.364486
8.429885
8.647442
7.961988
7.044673
7.116795
6.587505
6.776452
6.971955
6.385446
7.132888
6.917715
6.100535
6.793737
6.744862
6.036758
7.852912
7.004738
5.947948
6.296635
7.029772
7.992983
6.861687
7.974505
7.896423
8.499622
8.347631
9.128451
9.958744
10.921955
10.473728
11.493564
11.969805
14.135838
15.297532
17.681718
18.578768
20.403862
21.824837
21.251440
21.714568
21.528602
20.346642
21.110773
20.488501
19.868612
18.363595
18.832684
18.368959
17.685890
18.025637
16.116500
17.065406
16.042590
15.647411
15.897751
15.795827
15.444756
15.030503
16.564727
##ZVALUE=250
0.863671
0.794530
0.934601
1.055598
1.196861
1.261830
2.611876
8.366704
42.885542
88.086724
207.740664
339.131951
478.272438
657.388568
767.957568
847.474933
830.322504
732.900500
619.814992
432.616472
298.756957
201.419592
124.037862
99.610686
106.781721
115.823746
134.128928
135.869980
131.692886
119.094849
104.177594
77.606440
59.139729
37.181973
26.774406
15.624762
12.007952
9.267926
8.369684
7.642508
7.737875
7.617474
7.090569
6.463528
6.555915
6.342530
5.527735
5.767941
6.155968
5.607605
5.967617
5.802512
6.132722
6.051660
5.870461
6.117821
6.083846
6.626844
6.918907
6.710887
7.274747
7.620454
7.944703
8.188486
8.174777
9.399652
9.168983
10.576844
10.602474
11.853576
12.919903
14.959574
15.270710
17.472506
18.835664
18.601418
18.606782
18.966794
18.944740
18.854737
17.803907
18.101931
16.215444
16.051531
16.120672
16.555786
16.154647
15.468597
15.382767
14.369488
16.265512
16.180873
15.822649
14.961958
15.663505
15.327930
##ZVALUE=255
0.900626
0.860691
1.006722
0.822544
1.174808
1.079440
1.055598
1.532435
1.572967
4.059672
25.515556
64.887404
161.026716
276.697874
470.716953
645.553470
877.422690
987.624526
1015.785933
1006.589532
890.506506
662.947893
480.457544
272.980928
174.938440
109.882951
96.166730
106.434822
119.551420
134.488940
139.274001
135.471821
124.686956
100.152493
79.344511
53.876638
36.917925
21.191835
13.180971
9.309649
7.149577
7.114410
6.019473
5.644560
5.777478
5.599856
5.867481
5.901456
5.653501
6.055832
5.997419
5.371571
5.623698
5.714893
5.494952
5.819798
5.392432
5.635619
5.996823
6.349683
6.187558
6.306767
6.345510
6.719828
7.048845
7.372499
8.158684
8.442998
9.348989
10.773540
12.018681
11.526942
13.111830
15.224814
16.126633
15.785694
15.885830
14.984608
14.468431
14.835596
15.035868
14.893413
14.553666
14.235973
13.660789
14.255643
13.989806
14.403462
14.748573
14.055967
14.332533
14.668703
13.626814
13.637543
14.315844
14.221668
##ZVALUE=260
0.672936
0.753999
0.913739
0.950694
1.151562
0.884533
1.354814
1.014471
1.176000
1.401901
1.821518
2.631545
10.214448
48.471689
104.119778
238.285661
388.658643
641.735792
844.984651
1015.789509
1015.789509
1015.789509
1015.789509
903.117657
587.670803
380.432010
201.082826
121.469498
79.149604
80.377460
94.525814
119.599700
135.841966
143.906474
138.673782
122.599602
104.924440
75.352788
56.456923
34.476519
21.991730
11.671782
8.580685
5.908608
5.681515
4.863739
5.570650
5.007982
5.130768
4.584789
4.832745
5.110502
5.354881
5.335808
4.972816
5.066991
5.154610
4.996657
5.184412
5.609989
5.475879
5.529523
5.151629
5.892515
6.072521
6.428957
6.995797
7.942915
7.682443
9.164810
10.175705
10.266900
11.234879
12.515783
13.255477
12.922883
13.122559
12.261868
13.121963
12.959838
13.081431
12.967587
12.089610
12.218952
12.075901
11.456609
12.307763
11.754632
13.249516
12.515783
12.973547
12.454987
12.578964
13.094544
13.104677
12.954473
##ZVALUE=265
0.866652
0.683665
0.735521
0.874996
0.861883
0.664592
0.762939
1.129508
1.151562
0.943542
1.149774
1.353621
1.556873
1.919866
4.836917
27.665496
69.081783
168.020725
297.081470
549.177527
778.645873
988.490582
1015.785933
1015.785933
1015.785933
995.600820
733.163953
505.622625
269.182920
154.803991
94.133615
65.879822
75.696707
102.604628
123.743415
137.194991
143.758655
135.454535
123.249888
98.372698
77.800751
50.214529
34.696460
19.251704
12.124777
7.317662
5.576611
4.791617
4.712939
4.985929
4.821420
4.757643
4.687905
4.481673
5.308986
4.931688
4.805923
4.996657
4.858971
5.643964
5.118847
5.129576
5.414486
5.295873
5.547404
6.145835
6.056428
6.907582
6.953478
8.240938
7.974505
9.435415
10.029674
10.446906
10.873675
11.436939
11.837482
11.027455
10.745525
10.773540
10.796785
11.318922
10.874867
11.522770
10.634661
10.758638
10.895729
11.226535
11.229515
11.193752
11.756420
11.385679
11.507869
11.975765
11.680722
12.404919
##ZVALUE=270
0.791550
0.805855
0.797510
0.825524
0.825524
0.804663
0.879765
1.039505
0.849962
0.840425
1.105666
1.173615
1.167655
1.339912
1.507998
1.747608
2.188683
11.653900
35.999417
115.141869
219.819546
374.579430
653.815866
850.872993
1015.873551
1015.873551
1015.873551
999.521613
779.155493
576.951504
389.829874
194.069743
111.907721
61.328411
57.055950
76.574683
98.478794
123.156905
135.570765
143.299699
137.825608
118.320584
103.430748
74.218512
53.054690
31.064749
19.919872
11.911988
8.051991
5.440712
4.844666
4.402995
4.410744
4.403591
4.449487
4.704595
4.602671
4.651546
5.201697
4.899502
5.380511
5.211830
4.675984
5.311966
5.382895
5.533695
5.844831
6.100535
6.635785
6.989837
7.833838
8.686781
8.660555
9.370446
10.273457
9.943843
10.203719
10.139942
10.207891
9.668469
9.773970
10.366440
9.906888
8.884668
9.514689
10.006428
9.887815
10.012984
9.638667
10.513663
10.427833
10.236502
10.078549
10.872483
10.989904
10.581613
##ZVALUE=275
0.585914
0.591874
0.591874
0.551939
0.501871
0.520945
0.840425
0.771880
0.802875
0.853539
0.818968
1.017451
1.060963
1.068711
1.176596
1.287460
1.297593
1.616478
1.528859
4.890561
19.974709
59.428811
170.432925
313.802958
595.032573
811.375976
1015.785933
1015.785933
1015.785933
1015.785933
994.361639
716.810822
497.799516
258.695483
144.573450
66.930652
46.539903
53.975582
71.600676
98.051429
116.165876
133.883953
139.535666
135.002732
121.707916
95.176697
75.535774
52.568913
35.289526
20.458698
13.508797
7.610917
5.967617
4.412532
4.607439
4.554987
4.708767
5.402565
5.156994
4.892945
5.553961
5.601645
5.353689
5.391836
5.539656
5.956888
5.880594
5.926490
6.513000
7.380843
7.752776
8.190870
8.852482
9.302497
9.904504
9.774566
10.337830
9.747744
10.073781
9.774566
9.812713
9.964705
9.414554
9.451509
9.531975
8.579493
9.277463
9.365678
9.247661
9.616613
9.461641
9.155869
9.470582
9.449720
9.991527
9.618998
##ZVALUE=280
0.507832
0.586510
0.651479
0.655651
0.733733
0.639558
0.749826
0.608563
0.622869
0.665784
0.820756
0.690818
0.718832
1.144409
1.067519
1.202822
1.189709
1.198649
1.250505
1.495481
1.550913
2.869964
11.402965
39.963722
127.204657
237.424970
449.507833
665.766597
960.049033
1015.785933
1015.785933
1015.785933
1012.414694
840.227604
549.677610
356.343985
177.642703
96.532702
45.331717
37.253499
51.925778
70.702434
96.569657
114.833713
130.845904
135.846734
128.390789
117.079616
96.636415
74.594617
50.201416
35.827756
19.816756
13.012886
7.527471
6.001592
4.917979
4.666448
4.671812
4.744530
5.113482
5.086660
5.132556
5.143881
5.280972
5.339980
5.810857
5.794764
6.797910
7.016659
7.053614
7.763505
7.619858
8.401871
8.261800
8.689761
8.884668
8.633733
8.672476
8.204579
8.682609
8.481741
8.717775
8.546710
8.892417
8.895993
8.951426
8.617640
9.052753
9.111762
8.753538
8.854866
8.673668
9.000897
9.122491
8.843541
##ZVALUE=285
0.551939
0.367761
0.599623
0.649691
0.666976
0.638962
0.729561
0.664592
0.533462
0.585914
0.521541
0.708699
0.646710
0.696778
0.666976
0.841618
1.003742
0.922680
0.865459
0.932813
1.232624
1.289845
1.649857
1.657605
5.424619
19.344687
70.263743
143.111944
307.117701
483.108759
680.020452
931.929946
1015.783548
1015.783548
1015.783548
877.173543
685.696006
426.918864
266.036987
126.872659
66.026449
32.262802
31.448603
47.101974
64.685941
92.360973
108.486414
123.857856
132.188797
129.101872
117.762685
96.832514
77.376962
51.931739
36.273599
20.864606
13.098717
8.083582
6.031990
5.148649
5.350709
4.866719
4.990697
5.108714
5.688667
5.335808
5.623698
6.129742
6.303787
7.164478
7.093549
7.524490
7.703900
8.034706
7.714629
8.565784
8.395910
8.395910
8.645654
8.644462
8.474588
8.625984
7.862449
8.182526
8.161664
8.560419
8.099675
8.383989
8.298755
8.635521
8.639693
8.427501
8.251667
8.532405
8.423924
8.305907
##ZVALUE=290
0.655651
0.739694
0.725985
0.555515
0.815988
0.612736
0.690818
0.808835
0.768900
0.786781
0.756979
0.798702
0.620484
0.799894
0.791550
0.899434
1.001954
1.076460
1.099706
1.157522
1.171827
1.384616
1.341701
1.351833
1.746416
1.784563
2.465844
8.076429
39.725900
100.942850
205.505490
430.885553
644.768476
941.365957
1015.955806
1015.955806
1015.955806
993.887782
821.454525
557.653904
371.868610
189.047456
99.679828
39.309859
24.547577
30.763745
41.916966
63.506961
81.126690
106.565952
117.983818
127.884746
126.448870
113.456845
96.789598
72.378516
54.311752
33.979416
23.246408
13.070703
9.187460
6.694794
5.938411
5.885959
5.678535
5.751848
5.859733
6.259680
6.960630
6.889701
7.145405
7.979870
7.986426
8.305907
8.207560
8.313656
8.757710
8.048415
8.463860
8.452535
8.310676
8.571744
8.949637
8.393526
8.290410
8.437634
8.714795
8.621812
8.851886
8.569956
8.743405
8.824468
8.501410
8.342862
8.662939
8.572936
##ZVALUE=295
0.567436
0.481606
0.466704
0.661612
0.782609
0.633597
0.655651
0.691414
0.621676
0.673532
0.776649
0.630617
0.887513
0.768900
0.869632
0.798702
0.828505
0.864863
1.076460
0.793934
0.977516
0.992417
1.129508
1.168847
1.457930
1.413822
1.418591
1.785755
1.861453
3.601909
19.357800
60.800910
144.113898
342.487693
548.380017
844.834447
1013.347507
1015.885472
1015.885472
1015.885472
927.421451
662.641525
451.957583
237.955451
132.601857
52.461624
25.966763
19.827485
26.490688
41.710734
57.920814
81.063509
97.535849
114.906430
122.310519
119.266510
109.205842
90.437531
72.949529
49.937963
36.327839
21.729469
14.281869
9.773970
7.212758
6.245971
6.304979
6.438494
6.703734
6.785989
6.871819
7.301569
8.102655
8.097887
8.563995
8.512735
8.754730
8.429885
8.758903
8.375645
8.391738
8.619428
8.785725
8.580685
8.230805
8.578897
8.706450
8.565784
8.858442
8.692741
8.568764
8.380413
8.867979
8.598566
8.803606
8.562803
##ZVALUE=300
0.498891
0.457764
0.357628
0.401735
0.405908
0.536442
0.568628
0.561476
0.708699
0.574589
0.612736
0.677705
0.708699
0.643730
0.718832
0.638962
0.609756
0.773668
0.701547
0.788569
0.848770
0.966787
0.883937
0.943542
1.140833
1.051426
0.943542
1.356602
1.319647
1.583695
1.764894
1.852512
8.572936
31.417608
111.859441
221.203566
453.202724
682.040453
983.394980
1015.785933
1015.785933
1015.785933
1015.785933
874.513984
577.012897
373.033881
186.742544
100.182891
36.885738
18.206835
16.801953
22.755861
37.653446
52.857995
73.978901
91.285706
109.493732
115.624666
115.065575
106.605887
89.408755
72.599649
52.027702
36.888719
22.952557
15.975833
10.488629
8.442998
7.239580
7.148981
7.838607
7.622838
8.163452
8.116961
8.638501
8.402467
8.588433
8.823872
9.042621
8.790493
8.333921
8.911490
8.643866
8.844733
9.066463
8.694530
8.707643
8.987784
8.601546
8.307695
8.333921
8.219481
8.003712
8.364916
8.294582
8.379817
##ZVALUE=305
0.421405
0.353456
0.414848
0.376701
0.508428
0.522733
0.520945
0.320673
0.455976
0.548959
0.353456
0.621676
0.480413
0.624657
0.499487
0.623465
0.467896
0.574589
0.620484
0.672936
0.617504
0.554919
0.564456
0.633597
0.882745
0.856519
0.892878
1.087785
1.147985
1.140833
1.182556
1.284480
1.441836
1.717806
3.933907
15.585423
67.156553
151.942968
340.468884
530.846715
812.704563
999.348760
1015.785933
1015.785933
1015.785933
927.897692
667.778850
472.108722
253.675580
141.799450
59.085488
27.182698
12.606978
14.410615
22.519827
33.196807
52.881837
68.955421
88.722706
102.760792
110.690594
110.157728
100.289583
88.507533
67.969561
52.370429
34.461617
23.805499
14.637709
10.773540
8.762479
8.361936
8.223653
8.252859
7.996559
8.507967
8.436441
8.477569
8.927584
8.597970
8.677840
9.028912
8.720756
8.852482
9.049773
8.933544
8.909702
8.907914
8.691549
8.727908
8.603930
8.575916
8.399487
8.223653
8.202791
8.293986
##ZVALUE=310
0.430942
0.386834
0.350475
0.245571
0.391603
0.390410
0.357628
0.400543
0.488758
0.462532
0.500679
0.455976
0.560880
0.513792
0.499487
0.628829
0.547767
0.465512
0.628829
0.526905
0.474453
0.587702
0.703931
0.568628
0.750422
0.872612
0.651479
0.917912
0.997782
0.990629
0.870824
1.112819
1.260638
1.362562
1.434684
1.586676
2.039671
8.059740
27.588606
95.312595
193.493962
407.736897
621.645451
926.970840
1015.785933
1015.785933
1015.785933
1015.785933
876.365900
591.144562
401.618481
205.300450
113.068819
39.516687
16.244650
10.542870
13.203621
20.582676
29.173493
46.208501
61.373711
81.467628
93.806982
104.439855
104.348660
96.118450
86.420774
68.395734
52.379966
34.305453
24.884939
16.676784
12.308955
9.828806
8.779764
8.583665
8.415580
8.320808
8.295774
8.691549
8.580685
8.526444
8.668900
9.222627
9.145737
9.107590
8.929968
8.922815
8.997917
8.967519
8.508563
8.321404
8.692741
8.926988
8.386970
8.299947
##ZVALUE=315
0.222921
0.321865
0.219941
0.306964
0.291467
0.255704
0.306964
0.400543
0.306964
0.281930
0.473857
0.369549
0.487566
0.379682
0.407696
0.393987
0.267625
0.450611
0.436902
0.496507
0.613928
0.614524
0.472665
0.580549
0.596642
0.640750
0.543594
0.572801
0.626445
0.817776
0.837445
0.845790
0.896454
0.870824
1.001954
1.056790
1.265407
1.485944
1.730919
3.626943
14.286637
58.402419
136.407614
317.873955
518.626571
848.142505
1015.712023
1015.712023
1015.712023
1015.712023
1015.712023
748.385787
525.916815
282.799006
156.269670
58.161616
23.369789
9.854436
9.648800
12.794733
17.234683
29.552579
41.466951
59.195757
74.674487
90.604424
98.188519
99.031925
94.315410
79.817772
66.052675
47.970414
35.798550
23.381710
17.447472
12.135506
9.976625
8.954406
8.993745
8.560419
8.738637
8.681417
9.020567
9.142756
9.002686
8.792877
8.981824
8.946657
9.073615
8.921623
8.997917
8.908510
8.914471
8.756518
8.787513
8.361936
##ZVALUE=320
0.297427
0.382662
0.360608
0.446439
0.530481
0.447631
0.356436
0.555515
0.444651
0.401735
0.399947
0.319481
0.454783
0.577569
0.449419
0.612736
0.558496
0.600815
0.660419
0.449419
0.373721
0.521541
0.612736
0.545979
0.647902
0.507832
0.662804
0.584722
0.693798
0.805855
0.753999
0.647902
0.671744
0.912547
1.020432
1.059771
0.932813
1.318455
1.365542
1.332760
1.549721
2.121925
6.837845
35.743713
88.316798
229.751468
391.330719
687.859654
925.205946
1015.785933
1015.785933
1015.785933
1015.785933
907.898545
661.227703
372.101665
211.641788
86.207986
39.163828
13.450980
8.593798
9.273887
11.301637
17.132759
24.825931
39.966702
52.062869
69.680810
83.196759
93.073845
93.936920
89.441538
79.186559
62.805414
48.495531
33.441782
24.778843
16.821623
12.719631
10.050535
9.490848
9.123683
9.019971
9.157658
9.195805
9.016991
9.173751
9.357929
8.872747
8.889437
8.702874
8.824468
8.904934
8.712411
8.847713
8.724928
##ZVALUE=325
0.389814
0.283718
0.497699
0.495911
0.499487
0.469685
0.377893
0.267625
0.394583
0.530481
0.381470
0.493526
0.477433
0.622869
0.494719
0.329614
0.566840
0.526905
0.469685
0.570416
0.572801
0.318885
0.541806
0.537634
0.680685
0.592470
0.645518
0.558496
0.587702
0.713468
0.820756
0.572801
0.756979
0.879765
0.937581
0.851750
1.123548
1.173615
1.208782
1.168847
1.092553
1.468658
1.733899
1.821518
4.143715
16.605854
65.064430
136.978030
307.095647
511.208773
844.947696
1015.797853
1015.797853
1015.797853
1015.797853
1014.742851
714.925528
489.305854
262.305737
143.646002
53.239465
22.222996
9.350777
8.012652
8.979440
11.020899
16.687512
24.063587
38.742423
51.604509
70.710778
80.069900
88.753700
90.326667
83.639622
75.216889
58.858991
47.271848
32.286644
23.415685
15.894771
12.412667
10.481477
10.021925
9.304881
9.105802
8.974671
8.907914
8.629560
8.771420
8.870959
8.810759
8.544922
8.573532
8.592606
8.449554
##ZVALUE=330
0.282526
0.386834
0.427961
0.551939
0.340939
0.438690
0.361800
0.364780
0.532866
0.373721
0.438690
0.499487
0.447631
0.416636
0.337958
0.478625
0.397563
0.418425
0.386834
0.352859
0.515580
0.474453
0.456572
0.566840
0.452995
0.729561
0.608563
0.569820
0.518560
0.539422
0.458956
0.672936
0.696778
0.778437
0.670552
0.783801
0.915527
0.913739
0.912547
0.908971
1.057982
1.086593
1.244545
1.188517
1.224875
1.601577
2.275705
7.143617
37.224889
90.850592
223.291516
379.202962
667.779446
900.038481
1015.785933
1015.785933
1015.785933
1015.785933
853.629708
623.294711
350.373983
196.273923
76.373816
34.791827
11.757612
8.203983
7.942915
8.495450
11.813641
16.192794
25.429726
35.372972
49.674511
62.515736
76.491833
82.218647
84.460974
79.462528
68.015456
56.651831
41.933656
31.831861
22.287965
17.008781
12.491941
10.821819
9.247661
9.122491
8.719563
8.716583
8.585453
8.644462
8.266568
8.332729
8.553863
8.473992
##ZVALUE=335
0.349879
0.272989
0.438690
0.456572
0.536442
0.387430
0.319481
0.405908
0.319481
0.510812
0.451803
0.527501
0.476837
0.400543
0.463724
0.520945
0.474453
0.478625
0.469685
0.258684
0.297427
0.434518
0.416636
0.618696
0.570416
0.555515
0.430942
0.533462
0.562668
0.511408
0.570416
0.554919
0.633597
0.556707
0.596642
0.652671
0.601411
0.779629
0.822544
0.874996
0.848770
1.046658
1.108646
1.067519
1.096725
1.264811
1.155734
1.537800
1.621842
3.275871
19.512773
54.565668
152.518749
277.195573
527.071953
764.454007
1015.785933
1015.785933
1015.785933
1015.785933
981.273651
753.811598
449.176431
272.352695
115.897655
52.627921
16.415715
8.718967
7.976890
8.007884
8.984804
11.048913
15.744567
22.944808
34.404993
45.597553
59.965849
70.202947
77.611804
78.987479
73.807836
65.741539
53.239465
43.490529
31.577945
23.538470
16.305447
13.103485
10.210872
9.336472
8.623600
8.629560
8.332729
8.707643
8.004904
8.080602
##ZVALUE=340
0.095963
0.171661
0.106692
0.250936
0.161529
0.170469
0.196695
0.207424
0.187755
0.193715
0.242591
0.205636
0.203848
0.113845
0.173450
0.168681
0.229478
0.165701
0.213981
0.204444
0.250936
0.245571
0.173450
0.223517
0.326633
0.436902
0.445843
0.384450
0.369549
0.571609
0.712872
0.345707
0.374913
0.393987
0.366569
0.291467
0.619888
0.681877
0.479817
0.588894
0.737906
0.645518
0.614524
0.744462
0.696778
0.994802
0.840425
0.852942
1.133680
1.030564
1.290441
2.051592
7.288456
36.996603
93.656778
239.808559
412.622690
701.867938
943.078995
1015.616655
1015.616655
1015.616655
1015.616655
876.802802
632.749796
345.945954
195.875764
76.814890
29.278994
9.628534
7.847548
7.802844
8.047819
8.964539
10.649562
15.855432
21.820664
32.666922
43.027997
57.092905
65.864921
73.933601
73.905587
69.300532
62.652826
51.558614
41.514635
30.088425
23.339987
16.067624
12.756586
9.975433
8.726716
8.097887
7.842779
7.678866
##ZVALUE=345
0.328422
0.309944
0.256896
0.396967
0.293851
0.363588
0.385642
0.331998
0.452995
0.437498
0.296831
0.330806
0.306964
0.306964
0.436902
0.264645
0.231862
0.452995
0.298619
0.497699
0.453591
0.361800
0.511408
0.369549
0.475645
0.361800
0.459552
0.423789
0.346899
0.406504
0.630617
0.489950
0.559688
0.537634
0.436902
0.548959
0.620484
0.586510
0.575781
0.928640
0.647902
0.755787
0.643730
0.705719
0.924468
0.888705
1.013875
1.060963
0.999570
1.209974
1.273751
1.331568
1.363754
1.743436
3.393888
20.892620
59.100986
163.692832
297.771692
555.586815
777.756572
1015.785933
1015.785933
1015.785933
1015.785933
997.560024
793.435574
502.069592
299.357772
122.676492
53.736567
15.976429
8.903742
7.940531
7.838607
8.033514
8.426905
10.462999
13.859868
21.341443
29.508471
42.174459
51.108599
60.166717
66.241622
68.663955
66.678524
58.828592
50.941706
39.523840
30.947924
21.849871
16.256571
11.606812
9.626746
8.497834
##ZVALUE=350
0.285506
0.392795
0.293851
0.329614
0.357628
0.399947
0.450611
0.365973
0.363588
0.355840
0.409484
0.392795
0.289679
0.359416
0.295639
0.447631
0.353456
0.513792
0.337958
0.217557
0.253916
0.510812
0.566840
0.280738
0.457764
0.399947
0.408888
0.545979
0.613928
0.369549
0.531673
0.452995
0.654459
0.486970
0.464916
0.498891
0.421405
0.610948
0.623465
0.807643
0.596642
0.568628
0.756979
0.845790
0.664592
0.614524
0.806451
0.856519
0.783801
0.961423
0.959635
1.230836
1.147985
1.196861
1.416802
1.524687
2.165437
10.798573
35.028458
111.287832
213.284492
429.604650
632.300973
902.099013
1015.785933
1015.785933
1015.785933
994.930863
797.022581
501.687527
318.454504
155.638456
72.675943
19.860864
9.417534
7.311702
7.127523
6.672740
6.913543
7.963777
9.569526
13.636947
18.266439
26.749969
34.406781
45.418739
53.798556
60.707927
62.489510
60.734749
56.424737
46.590567
38.270950
28.065443
21.657944
15.400648
##ZVALUE=355
0.456572
0.201464
0.410676
0.313520
0.275970
0.284910
0.463724
0.471473
0.444651
0.510812
0.259876
0.373721
0.500679
0.389814
0.485778
0.306964
0.428557
0.535846
0.591874
0.600815
0.263453
0.424981
0.575781
0.374913
0.497699
0.554919
0.383854
0.460744
0.541806
0.472665
0.464916
0.472665
0.505447
0.365973
0.457764
0.569820
0.633597
0.598431
0.662804
0.626445
0.672936
0.540614
0.571609
0.607967
0.512600
0.805855
0.729561
0.780821
0.778437
0.913739
0.943542
1.151562
1.108646
0.972748
1.177788
1.189709
1.170635
1.625419
1.810789
5.464554
19.527674
75.278878
156.452656
327.877998
506.079793
767.625570
949.071646
1015.785933
1015.785933
987.295508
828.906894
579.968691
391.039848
194.696784
99.654794
30.379891
11.717677
7.133484
6.841421
6.592870
6.441474
6.318688
7.194877
8.958578
11.445880
16.781688
22.576451
31.266809
38.849711
47.822595
54.076910
57.117939
55.923462
51.744580
45.594573
35.985708
##ZVALUE=360
0.471473
0.331998
0.332594
0.354648
0.330806
0.431538
0.324845
0.301600
0.317693
0.339746
0.380874
0.440478
0.515580
0.451803
0.581741
0.514984
0.481606
0.368953
0.298619
0.525713
0.562668
0.364780
0.493526
0.487566
0.573993
0.568628
0.607967
0.438690
0.440478
0.509620
0.450611
0.528693
0.489950
0.736713
0.377893
0.428557
0.605583
0.515580
0.531673
0.368953
0.489950
0.607967
0.631809
0.732541
0.706911
0.733733
0.627637
0.889897
0.748634
0.742674
0.690818
0.853539
1.031756
0.925660
0.964999
0.983477
1.056790
1.256466
1.293421
1.413822
1.727939
2.715588
8.464456
40.459633
97.848773
242.596865
401.358604
649.477839
847.764015
1015.785933
1015.785933
1007.382870
876.248479
625.867844
443.312526
246.547461
134.641528
46.811700
18.326640
7.211566
6.307960
6.377697
6.099939
6.171465
6.178617
6.567836
7.276535
9.923577
12.530684
18.656850
24.684668
34.315586
41.195750
48.415661
51.059723
51.379800
##ZVALUE=365
0.309944
0.353456
0.573993
0.296831
0.331998
0.286698
0.310540
0.193715
0.336766
0.246763
0.444651
0.319481
0.361800
0.391603
0.396967
0.469685
0.400543
0.331998
0.410676
0.376701
0.467896
0.407696
0.443459
0.519753
0.586510
0.362992
0.368953
0.367761
0.439882
0.632405
0.467896
0.377893
0.427961
0.527501
0.434518
0.548959
0.425577
0.472665
0.551939
0.554919
0.608563
0.547767
0.530481
0.428557
0.576973
0.680685
0.692606
0.750422
0.618696
0.667572
0.779629
0.651479
0.834465
0.932813
0.789762
0.917912
0.937581
1.027584
1.084805
1.193881
1.225471
1.477599
1.546741
2.095699
4.067421
24.158955
64.806938
169.631839
307.868719
554.814935
731.833577
927.729607
1015.767455
1013.325453
907.374024
683.724880
496.861935
282.105803
158.198476
58.702826
23.561716
7.717609
6.345510
5.713701
5.726814
5.586743
5.584955
5.561709
5.635619
6.246567
8.117557
11.381507
15.189648
22.417903
28.877854
36.793947
##ZVALUE=370
0.353456
0.285506
0.258684
0.410676
0.440478
0.394583
0.408888
0.375509
0.435710
0.385642
0.454783
0.282526
0.418425
0.350475
0.313520
0.426769
0.276566
0.285506
0.499487
0.376701
0.345707
0.424981
0.568628
0.403523
0.441670
0.393987
0.341535
0.412464
0.472665
0.404716
0.374913
0.302792
0.447631
0.342727
0.647902
0.534654
0.464916
0.486970
0.527501
0.483990
0.362992
0.595450
0.353456
0.619888
0.588894
0.474453
0.727773
0.642538
0.666976
0.561476
0.623465
0.557899
0.668764
0.641942
0.566840
0.826716
0.683665
0.753999
0.854731
0.979900
1.028776
1.126528
1.250505
1.387596
1.326799
1.671910
2.392530
12.196898
40.997863
132.372975
241.146684
446.454883
639.848709
873.484015
989.500880
1013.888717
944.784880
760.316849
575.660467
336.313844
195.468664
81.534982
38.131475
12.718439
6.608963
5.334616
5.284548
5.102754
5.013943
4.868507
4.893541
5.112886
5.500913
7.263422
9.577870
13.886690
##ZVALUE=375
0.224710
0.409484
0.171661
0.237823
0.277758
0.396967
0.408888
0.245571
0.455976
0.383854
0.416636
0.440478
0.517964
0.439882
0.284910
0.300407
0.351667
0.253916
0.382662
0.297427
0.380874
0.458956
0.301600
0.492930
0.422597
0.566840
0.425577
0.430942
0.344515
0.467896
0.524521
0.477433
0.449419
0.492930
0.473857
0.396967
0.570416
0.529885
0.443459
0.473857
0.438690
0.503659
0.603795
0.534654
0.527501
0.689626
0.552535
0.554919
0.508428
0.602603
0.498891
0.601411
0.566840
0.696778
0.861883
0.605583
0.722408
0.786781
0.803471
0.902414
0.893474
0.933409
0.831485
1.053810
1.064539
1.094937
1.304746
1.519918
1.886487
6.116629
22.655725
82.666874
174.983740
377.360582
576.324463
834.599733
982.765555
1015.785933
1015.785933
862.710476
673.666596
424.697995
276.670456
142.364502
74.694753
23.745894
9.220839
5.494952
4.814863
4.818439
4.789829
4.643798
4.561543
4.575849
4.388690
5.144477
##ZVALUE=380
0.390410
0.375509
0.355840
0.312924
0.479817
0.390410
0.305772
0.272989
0.224710
0.278950
0.260472
0.439882
0.334978
0.417829
0.317693
0.382662
0.534654
0.169873
0.322461
0.408888
0.442863
0.294447
0.331998
0.356436
0.403523
0.358820
0.435710
0.305772
0.565648
0.399947
0.420809
0.606775
0.402927
0.587702
0.529885
0.467896
0.360608
0.507832
0.509620
0.435710
0.466704
0.454783
0.506639
0.551939
0.432730
0.476837
0.317693
0.379682
0.504851
0.626445
0.419617
0.502467
0.556707
0.613928
0.648499
0.585914
0.608563
0.687838
0.626445
0.688434
0.694990
0.762939
0.698566
0.839829
0.933409
0.944734
0.965595
1.188517
1.420975
1.527667
1.731515
3.212690
12.022853
58.789849
135.408640
311.123729
488.279462
743.030906
918.398499
1015.785933
1015.785933
925.882459
764.946938
530.828834
364.525914
190.286636
102.691650
37.316680
14.262795
5.661845
4.828572
4.500747
4.387498
4.315972
4.342794
4.089475
##ZVALUE=385
0.326633
0.277758
0.126958
0.209808
0.354648
0.118613
0.357628
0.197887
0.326633
0.376701
0.325441
0.396967
0.272989
0.352859
0.315905
0.413656
0.413656
0.326633
0.147820
0.370741
0.358820
0.325441
0.355840
0.360608
0.305772
0.331998
0.260472
0.435710
0.367761
0.308752
0.410676
0.377893
0.389814
0.370741
0.338554
0.321865
0.361800
0.350475
0.596642
0.487566
0.226498
0.408888
0.436902
0.392795
0.398755
0.385642
0.361800
0.444651
0.431538
0.527501
0.534654
0.561476
0.696778
0.579953
0.495911
0.679493
0.660419
0.644922
0.582933
0.631809
0.654459
0.643730
0.621676
0.733733
0.749826
0.755787
0.917912
0.821948
1.022816
1.247525
1.311898
1.384616
1.657605
1.817942
6.145835
22.532940
88.910460
187.212825
394.198895
590.906739
850.498676
981.513858
1015.785933
1000.126600
833.867788
668.365955
432.196856
281.918645
136.146545
70.310831
23.526549
8.688569
4.591942
4.177690
3.999472
4.007816
##ZVALUE=390
0.465512
0.251532
0.434518
0.407696
0.499487
0.445843
0.597835
0.532866
0.427961
0.379682
0.264645
0.379682
0.409484
0.483990
0.357628
0.469685
0.478625
0.430942
0.454783
0.453591
0.473857
0.445843
0.500679
0.512600
0.349879
0.481606
0.666976
0.390410
0.443459
0.519753
0.287890
0.452995
0.447631
0.284910
0.475645
0.430942
0.478625
0.397563
0.452995
0.480413
0.545979
0.438690
0.566840
0.462532
0.424981
0.554919
0.489950
0.567436
0.575781
0.611544
0.627637
0.633597
0.642538
0.612736
0.707507
0.536442
0.608563
0.608563
0.704527
0.626445
0.588894
0.768900
0.831485
0.650883
0.876784
0.748634
0.822544
1.179576
0.891685
1.139641
1.431704
1.392961
1.434684
1.420975
1.769662
1.761913
3.049970
16.179681
52.833557
169.848800
324.832797
609.802008
821.329951
1013.286710
1015.881896
1015.881896
1007.104516
786.952972
589.692593
357.595682
210.023522
89.613795
41.175485
11.485815
5.482435
4.253983
##ZVALUE=395
0.299811
0.255704
0.272989
0.393987
0.193715
0.390410
0.197887
0.420809
0.135899
0.128746
0.321865
0.268817
0.307560
0.281930
0.394583
0.382662
0.223517
0.311732
0.410676
0.242591
0.226498
0.023842
0.347495
0.220537
0.249743
0.485778
0.349879
0.343919
0.447631
0.384450
0.371933
0.358820
0.345707
0.301600
0.341535
0.516772
0.246763
0.416636
0.274777
0.363588
0.464916
0.405908
0.590682
0.451803
0.385642
0.467896
0.469685
0.378489
0.459552
0.513792
0.462532
0.516772
0.462532
0.484586
0.446439
0.387430
0.514984
0.639558
0.497699
0.570416
0.510812
0.632405
0.563860
0.656843
0.537634
0.761747
0.801682
0.802875
0.906587
1.122952
1.300573
1.297593
1.120567
1.140833
1.116991
1.177788
1.307726
1.399517
2.125502
6.880760
40.908456
104.020834
245.591998
404.033661
667.673945
865.245461
1015.778780
1015.778780
1015.778780
895.267725
655.089617
460.542440
248.297453
138.216615
54.382682
23.565888
##ZVALUE=400
0.322461
0.259876
0.276566
0.429749
0.309944
0.238419
0.394583
0.156760
0.372529
0.277758
0.394583
0.324845
0.367761
0.243783
0.260472
0.119805
0.301600
0.255704
0.257492
0.317693
0.282526
0.234842
0.329614
0.424981
0.353456
0.403523
0.328422
0.440478
0.176430
0.178814
0.326633
0.420809
0.256896
0.379682
0.455976
0.434518
0.540614
0.297427
0.377893
0.203848
0.263453
0.390410
0.276566
0.367761
0.388622
0.397563
0.560880
0.557899
0.336766
0.436902
0.358820
0.345707
0.430942
0.389814
0.571609
0.575781
0.464916
0.487566
0.504851
0.451803
0.366569
0.546575
0.461936
0.623465
0.690818
0.689626
1.039505
0.917912
0.940561
1.088977
1.100898
1.191497
1.076460
0.981688
1.072884
1.095533
1.009703
1.124740
1.251698
1.408458
1.652837
4.250407
17.103553
71.630478
154.937506
342.561603
530.844927
792.633891
963.471532
1015.785933
1015.785933
924.475789
754.935741
510.116816
334.963799
170.618892
##END
