##TITLE=QP00301
##FORMAT=SPECTACLE-ASCII V-1.2
##DATA TYPE=ULTRAVIOLET SPECTRUM
##SECOND TYPE=ULTRAVIOLET SPECTRUM
##DATE=02/01/18
##TIME=15:32:20
##SPECTROMETER/DATA SYSTEM=SPECTACLE
##XUNITS=NM EM
##YUNITS=ENERGY
##YFACTOR=1
##FIRSTX=220
##LASTX=410
##NPOINTS=96
##3DDATA=Equidistant
##ZUNITS=NM EX
##FIRSTZ=210
##LASTZ=400
##ZPOINTS=39
##XYDATA=(Y..Y)
##ZVALUE=210
1.460910
1.298785
2.055764
1.714826
1.873970
1.971722
1.852512
2.123713
1.784563
2.495646
2.070665
2.100468
2.343655
2.112985
2.296567
2.446771
1.717806
2.322793
2.474785
2.491474
2.577901
3.295541
3.189445
3.240705
3.141761
3.542900
3.644824
3.489852
4.285574
3.836751
3.972650
4.171729
4.209876
4.208684
4.049540
4.552603
4.597902
4.678965
4.659891
4.784465
4.638433
4.432797
4.436970
5.766749
4.311800
5.131960
5.107522
5.513430
4.856586
4.749894
5.816817
6.061792
5.232692
5.309582
5.097985
6.371737
5.377531
5.698800
6.318688
6.016493
6.808639
6.049871
6.986856
6.838441
6.215572
6.397963
7.151961
8.800626
9.105802
9.871721
12.934804
14.018416
16.687512
17.800927
20.562410
23.075938
22.387505
20.656586
19.865632
19.958615
17.125607
15.600920
13.816953
13.888478
10.031462
10.759830
7.993579
7.595420
7.632971
7.306933
6.986856
6.137490
6.495714
7.039905
7.558465
7.291436
##ZVALUE=215
5.497932
6.130934
5.055666
4.258752
4.393458
4.176497
4.078746
4.106760
5.067587
4.090667
4.131794
3.699660
2.981424
2.978444
3.004670
2.635717
2.465844
2.234578
2.944469
3.526807
2.927780
2.602935
3.132820
3.996491
3.720522
3.373623
3.589988
3.717542
4.255772
4.296899
4.086494
4.182458
4.669428
5.256534
4.720688
5.192757
4.913807
4.667640
4.817843
5.846620
5.157590
4.533529
5.607605
5.052686
5.083680
5.479455
5.176663
5.866885
5.301833
6.366968
6.099939
5.608797
7.472634
6.045699
6.760955
6.777644
7.760525
6.145835
5.983710
6.654859
6.668568
7.260442
6.634593
7.397532
7.606745
6.930828
7.204413
8.036494
9.620786
10.386705
13.332963
13.156533
16.489625
18.738508
19.689798
21.277666
20.592809
20.902753
20.502806
18.890500
16.595721
15.984774
15.849471
11.569858
9.700656
9.770989
7.705688
8.926988
6.877780
7.138848
7.359982
7.133484
6.966591
7.579923
6.871819
7.439852
##ZVALUE=220
19.640923
20.037889
22.324920
20.870566
19.893646
17.804503
13.204813
10.270476
9.711981
10.767579
10.672808
11.563897
10.373592
10.434985
8.798838
7.369518
5.250573
4.211664
2.894998
3.524423
2.850890
3.837943
2.842546
3.802776
3.929734
4.086494
4.500747
4.601479
4.755855
3.988743
4.518628
4.708767
4.902482
4.853606
5.231500
5.614758
5.148649
5.666614
5.608797
5.460978
5.882978
5.155802
6.405711
5.755424
5.329847
6.226897
6.048679
5.894899
6.535649
7.604957
6.775856
6.464720
6.840825
6.145835
6.412864
6.738901
6.724596
7.587671
7.049441
7.481575
7.510781
7.718801
8.143783
6.787777
7.595420
8.545518
9.505749
8.042455
10.547638
11.890531
14.265776
15.350580
16.565919
17.578602
20.142794
21.286607
22.742748
21.329522
20.831823
19.963980
17.176867
17.339587
16.045570
14.449954
13.497472
10.991693
10.605454
9.178519
9.419918
8.651614
8.713603
8.901954
7.590652
7.982850
8.260608
8.185506
##ZVALUE=225
34.573674
35.925508
52.132607
62.030554
69.106817
69.272518
61.940551
55.188537
40.935874
31.163692
23.960471
22.121668
23.146868
25.660992
24.903417
23.509860
19.253492
15.064478
11.735559
8.165836
5.948544
5.238652
4.372597
3.983974
3.726482
4.722476
4.894733
5.476475
4.993677
5.082488
5.045533
5.159974
6.018877
5.138516
5.663633
5.910993
6.208420
6.399751
7.397532
6.606579
5.936623
6.006956
6.573796
6.318688
6.617904
7.207990
6.931424
7.143617
6.778836
6.902814
7.642508
8.188486
7.682443
7.513762
8.549690
8.717775
7.904768
8.397698
9.295940
8.379817
9.223819
9.333491
9.564757
10.084510
9.740591
10.153651
12.368560
11.964440
11.397600
14.231801
14.766455
16.869903
17.096996
21.654963
20.385981
20.909905
20.641685
21.354556
21.635890
20.851493
18.626451
16.634464
16.621947
14.916658
14.248490
13.958812
13.165474
12.783408
12.589693
11.554956
11.714697
12.339950
11.611581
12.094975
11.049509
11.374950
##ZVALUE=230
32.069683
32.390952
54.870844
97.002983
125.035644
165.206790
179.866552
180.689692
166.821480
131.605864
100.350976
73.658824
50.157905
42.446852
44.631958
47.240853
51.785707
51.090717
43.075681
37.152767
26.507974
18.149614
11.705756
7.895827
6.627440
5.487800
5.300641
5.990863
5.608797
6.349683
5.740523
5.738735
6.625652
5.905628
6.438494
6.436706
6.776452
6.637573
6.623864
7.141829
6.484985
6.871819
6.825924
7.338524
8.594990
6.795526
7.987618
7.116795
8.231997
7.733703
9.762645
9.843707
9.580851
9.785891
10.256767
10.356903
10.342598
11.984706
10.958910
11.185408
12.505651
12.617707
12.986660
13.763905
13.541579
13.313890
14.117956
16.794801
16.707778
18.587708
20.136833
21.712780
25.061965
26.079416
26.354790
26.805997
26.352406
30.092001
25.620461
25.895834
24.869442
22.782683
23.791790
20.426512
20.951629
20.501614
19.211769
18.754601
18.240809
18.849969
19.414425
19.405484
18.495917
18.667579
18.130541
18.598437
##ZVALUE=235
11.620522
12.710690
33.797622
63.329935
123.274922
179.693699
263.734460
323.807597
369.135737
369.751453
323.969722
274.381638
210.434794
135.666728
99.075437
74.934959
72.322488
78.568459
84.346533
82.603693
80.359578
67.453980
54.622889
36.669970
24.465919
16.656518
10.832548
8.486509
8.174777
7.797480
8.065701
7.509589
6.760955
7.313490
7.479787
8.049607
7.206798
7.037520
7.432699
7.852912
7.804632
8.466840
8.513927
7.740855
7.998943
8.438826
8.802414
7.869601
8.893609
8.909702
9.472966
9.393692
10.488629
11.950731
11.695623
12.695789
11.532903
14.828444
13.845563
14.254451
15.681982
15.803576
16.383529
18.085837
16.474724
16.957521
19.140840
20.620823
22.527575
23.189783
24.564862
27.565956
28.829575
32.514930
32.598972
33.968687
33.881664
33.062696
33.088923
32.993555
32.283664
30.365586
30.126572
28.537512
30.812621
27.800798
27.946830
29.047728
26.594996
27.864575
27.553439
26.947856
24.967790
25.859475
26.869774
25.789738
##ZVALUE=240
1.603961
1.904964
5.074739
14.418960
45.530796
87.522864
174.105763
267.636776
415.557623
506.985784
587.274432
594.806671
561.088920
447.417498
349.063873
229.032636
161.357522
111.259818
94.069839
99.838972
108.540654
111.467838
115.884542
103.884935
80.049634
65.654516
46.234727
32.732487
21.106601
15.749931
13.483763
10.522604
9.791851
9.852648
9.035468
9.393692
7.794499
8.459687
8.473992
8.107424
8.082986
7.987618
7.319450
8.385777
8.400679
8.014441
8.939505
9.023547
8.781552
9.398460
9.373426
11.246800
11.444688
12.408495
11.942983
13.664961
13.665557
14.897585
16.254783
17.603636
17.277598
17.983913
18.163919
19.738674
19.492507
21.343827
23.352504
23.147464
23.506880
26.768446
29.533505
31.616688
33.225417
35.282969
38.191676
38.643479
37.555695
38.853884
38.041472
36.301613
36.503673
35.998821
34.933686
35.125613
35.648942
33.470988
33.228993
34.297705
33.166409
33.495426
33.377409
33.308864
32.211542
32.317638
31.565428
32.175779
##ZVALUE=245
1.681447
1.535416
1.738667
2.056956
4.094839
11.512637
39.125681
85.483789
188.951492
295.415521
474.262834
597.380996
699.687004
756.027699
732.601881
621.197820
514.870882
344.130993
242.617726
146.567822
108.390450
104.273558
115.202665
127.224922
128.390789
125.956535
113.305449
100.678802
75.875521
53.842664
42.367578
26.943684
18.818974
13.054609
10.923743
9.304881
9.979606
9.710789
8.692741
8.639693
8.068681
7.662773
7.492900
8.379817
7.123947
7.239580
7.882714
8.813739
8.518696
8.176565
9.135604
9.788871
10.257959
10.921955
11.879802
12.292862
11.629462
13.515949
14.390945
15.610456
15.327930
16.631484
15.559793
18.335581
17.911792
18.760562
19.629598
22.007823
22.312999
25.127530
25.996566
27.250648
29.460788
32.690763
34.290552
34.732819
35.105944
35.403967
34.780502
34.854412
34.328699
34.145713
33.659935
33.758879
32.891631
34.222603
32.115579
32.891631
31.149983
33.017993
32.885671
31.726956
32.248497
32.127500
30.093789
32.211542
##ZVALUE=250
1.193881
1.354814
1.588464
1.245737
1.587868
1.930594
1.958609
9.778738
26.711822
75.592995
145.491958
295.105577
445.934534
645.032525
772.617459
883.813500
887.627602
790.802836
670.538545
455.929637
321.993828
218.573809
125.870705
103.879571
107.513666
122.131705
134.421587
142.983794
133.893490
125.590563
101.564527
83.538890
58.244467
39.157867
24.015903
16.566515
11.660457
9.285808
8.302927
8.800626
7.914901
7.586479
7.780790
7.737875
7.205606
7.116795
6.913543
6.964803
8.377433
7.269979
8.020997
9.802580
9.447932
9.189844
9.528995
10.473728
10.840893
11.245608
11.830926
12.063980
12.204647
13.139844
14.587641
14.707446
15.063882
15.019774
16.683936
18.230677
17.281771
21.429658
22.385716
25.566816
25.657415
27.916431
29.088855
30.457973
30.588508
32.936931
30.792952
30.930638
30.929446
30.817986
30.662417
30.520558
29.940605
30.775666
30.429959
30.175447
29.810667
29.310584
30.391812
29.396415
31.705499
29.262900
30.768514
28.860569
##ZVALUE=255
1.249909
0.962615
1.235604
1.060963
1.168847
1.545548
1.254678
1.576543
1.751781
3.900528
17.885566
51.096678
133.602619
235.646963
412.779450
585.358739
816.693902
947.355032
1013.225913
993.916988
880.724788
646.361709
458.401442
257.074833
159.768462
97.703934
92.563629
110.106468
125.041604
140.086412
148.670673
139.861703
129.705667
102.289915
83.425641
54.289699
39.559603
21.379590
14.836788
9.504557
7.887483
7.514954
7.143617
7.124543
6.924868
6.808639
6.704926
7.116795
7.115602
7.340908
7.362962
8.228421
7.750988
8.574724
8.206964
9.089708
8.847713
9.667873
9.900928
9.965897
11.141896
10.842681
12.562871
12.641549
12.413859
13.168454
14.700890
15.973449
16.042590
17.813444
18.548965
21.937490
23.536682
24.727583
25.886893
25.803447
25.649667
26.380420
26.751757
26.969910
26.050806
28.109550
26.765466
27.361512
28.909445
29.023886
28.005838
27.774572
27.869940
27.173758
28.662682
27.681589
27.768612
28.604865
29.292703
28.226972
##ZVALUE=260
1.120567
0.964999
0.697970
0.812411
0.968575
1.043677
1.018643
1.092553
1.197457
1.307726
1.478791
2.700686
8.161664
34.423470
77.834725
191.245675
319.183469
553.543568
748.350024
998.049974
1015.573740
1015.573740
1015.573740
861.603022
572.810769
389.312506
216.206908
130.502582
83.863735
84.980726
100.832582
127.141476
140.674710
152.218938
146.531463
129.535794
108.057857
79.258680
57.714581
35.353899
24.437904
13.043880
8.958578
6.867647
6.511807
5.759597
6.531477
6.820560
6.032586
6.531477
6.748438
7.143617
6.867647
7.882714
8.168817
7.583499
8.473992
8.720756
9.383559
9.186864
9.926558
9.931922
10.521412
10.652542
10.853410
12.352467
13.185740
13.993979
15.586615
16.763806
17.043948
19.974709
19.849539
21.584630
21.940470
22.359490
22.754669
23.919940
23.634434
23.136735
22.777915
23.304820
24.592876
24.311543
23.806691
24.340749
24.889708
24.788976
25.540590
25.635958
25.074482
25.059581
26.057959
26.369691
26.002526
26.637912
##ZVALUE=265
1.074672
1.040697
0.982881
1.048446
1.225471
0.915527
1.176596
1.152754
1.172423
1.576543
1.349449
1.531839
1.621842
2.417564
4.491806
23.701787
58.673620
149.174929
266.299844
513.519645
753.206015
980.087519
1015.785933
1015.785933
1015.785933
1015.785933
784.384608
553.975701
299.430490
179.215670
110.105872
76.349974
80.261827
107.510686
128.398538
147.732496
148.748755
144.392848
130.906701
105.022788
81.330538
52.346587
36.804676
20.943880
13.806820
8.339882
7.051826
6.672740
7.019639
7.555485
7.454753
7.931590
7.522702
8.383989
8.423924
8.892417
8.967519
9.816885
9.613633
10.730624
10.213852
10.905862
12.005568
12.048483
11.120439
12.632608
13.416409
13.680458
14.419556
16.049743
17.006993
17.802715
18.783808
21.093488
21.091700
20.545721
22.120476
22.713542
22.287965
23.204684
21.890998
22.392869
22.761822
22.939444
23.496747
23.153424
23.650527
23.757815
24.263859
24.855733
23.675561
24.060607
24.661422
25.281906
25.881529
25.283694
##ZVALUE=270
0.829697
0.927448
0.865459
1.061559
1.098514
1.052618
0.925660
1.206994
1.173615
1.301765
1.211762
1.434684
1.432896
1.489520
1.466870
1.907945
2.409816
10.882616
33.335686
104.031563
214.100480
377.443433
692.470670
964.507461
1015.816927
1015.816927
1015.816927
1015.816927
998.882651
762.269497
518.219471
262.559652
145.933628
71.265697
62.096715
83.248615
104.834437
132.441521
146.702528
153.167844
147.007704
128.964782
107.946992
78.906417
56.774616
35.532713
23.343563
14.810562
10.336637
8.432865
8.031726
8.244514
8.186698
8.391738
8.810759
9.638667
9.988546
10.133982
10.720491
10.722876
11.688471
11.475682
11.613965
12.523532
12.493730
13.171434
13.508797
14.210939
14.837980
15.733838
16.417503
17.357469
19.445419
19.494891
20.675659
21.039844
20.960569
21.510720
20.806789
21.873713
21.357536
21.744967
21.486878
21.559000
22.394657
22.438765
21.888614
21.988750
23.062825
22.441745
22.944808
22.746921
23.491979
23.105741
23.636818
22.325516
##ZVALUE=275
0.911951
0.884533
0.877976
0.891685
0.880957
0.957847
0.955462
0.991821
1.183748
1.078844
1.006722
1.097918
1.150966
1.296997
1.419783
1.608729
1.648664
1.789927
2.108812
4.998446
18.956661
55.124760
163.095593
312.482715
608.763695
854.224563
1015.776992
1015.776992
1015.776992
1015.776992
1015.776992
906.249881
641.770959
339.064598
193.037987
83.702803
54.145455
57.384968
77.611804
103.681684
125.791430
143.453479
150.071979
142.459869
129.923820
102.158785
82.687736
58.417916
40.025711
23.865700
16.643405
11.375546
10.067821
9.236932
10.016561
10.163784
9.933710
11.301637
11.030436
11.608601
12.212992
12.194514
12.889504
12.902617
12.953877
14.311671
13.876557
15.235543
15.700459
16.367435
17.000437
17.943978
19.026995
19.548535
20.504594
20.991564
21.531582
21.646619
21.153688
21.282434
20.871758
21.038651
20.983815
20.919442
21.476746
21.414757
22.397637
21.832585
21.794438
22.487640
21.768808
21.238923
22.242665
21.758676
22.801757
21.680593
##ZVALUE=280
0.788569
0.735521
0.811815
0.890493
0.737906
0.879765
1.047850
1.018643
1.015663
1.203418
0.982881
1.211762
1.207590
1.186728
1.184940
1.468658
1.241565
1.550913
1.591444
1.859665
2.282858
2.729893
12.284517
39.218664
132.307410
252.399445
494.762659
759.501457
1015.785933
1015.785933
1015.785933
1015.785933
1015.785933
1015.785933
786.419511
437.000990
258.492827
112.524629
59.545636
43.160915
54.950714
78.702569
101.597905
127.517581
140.622854
146.344900
142.401457
125.411749
107.149482
78.954697
60.452819
39.041638
27.992725
18.025637
13.988614
12.048483
11.278987
11.402965
12.464523
12.356639
13.121963
13.390779
14.052987
14.195442
14.482737
14.989972
15.483499
16.737580
16.035438
17.383695
18.211603
18.347502
18.948913
19.964576
20.918846
20.662546
21.326542
20.780563
21.875501
20.973682
20.956993
20.983815
21.908879
21.480918
21.025538
20.817518
21.615624
21.588802
21.350980
21.435618
20.678639
21.310449
21.202564
21.524429
21.462440
21.499991
##ZVALUE=285
0.815988
0.758767
0.845790
0.809431
0.800490
0.791550
1.012683
0.930429
0.928640
0.840425
0.963807
0.908971
1.099706
1.170635
1.059771
1.202822
1.123548
1.051426
1.123548
1.396537
1.530647
1.774430
1.908541
2.252460
6.285906
22.282004
77.294707
161.209702
365.695953
602.740645
877.867937
1015.756726
1015.756726
1015.756726
1015.756726
1015.756726
983.226895
611.788630
382.009745
179.058909
88.797808
40.095448
35.554767
53.671598
73.116422
100.466609
118.504763
136.224627
142.510533
139.650702
129.354596
106.820464
86.549520
60.193539
44.717789
28.902888
21.498799
16.301870
14.510751
14.523864
15.028715
14.347434
15.321970
15.760660
16.219616
16.093850
16.339421
17.371774
17.946959
18.519759
19.904971
20.282865
20.939708
20.980835
21.290779
21.495819
22.056699
21.813512
21.276474
22.068620
21.518469
21.455884
21.071434
21.108985
20.901561
21.020770
21.761656
20.838976
21.108985
21.496415
21.137595
20.737648
20.909905
20.599961
21.100640
21.007657
##ZVALUE=290
0.721812
0.758767
0.715852
0.873804
0.873804
0.956655
0.728965
0.840425
0.919700
0.880957
0.991821
0.994802
1.074672
1.000762
0.899434
1.000762
1.137853
1.051426
1.263618
1.110435
1.363754
1.474619
1.656413
1.705885
1.894832
2.118945
2.516508
11.603832
35.184622
112.645626
221.491456
473.752618
738.552809
1015.785933
1015.785933
1015.785933
1015.785933
1015.785933
1015.785933
790.230036
487.871766
296.451449
124.525428
58.311820
27.877688
31.977892
49.827695
68.143606
93.950629
114.135742
133.530498
141.352415
138.629675
126.651525
107.931495
87.962747
61.742663
46.640635
32.677650
25.406480
20.097494
17.631650
17.542839
17.592907
17.930865
17.972589
18.106699
17.916560
19.436479
19.933581
20.444989
21.219850
22.040606
21.976829
22.579432
22.684932
23.020506
22.963881
22.244453
22.654533
21.858811
22.422671
22.495985
21.990538
22.143722
21.534562
22.285581
22.136569
21.532774
21.704435
21.036863
20.856857
21.022558
20.289421
20.822883
20.784736
##ZVALUE=295
0.634789
0.513792
0.628829
0.824928
0.768900
0.914931
0.732541
0.841618
0.855923
0.652671
0.797510
0.905991
1.041889
0.832677
0.974536
0.993609
1.038909
1.170635
0.951886
1.176596
1.211762
1.332760
1.352429
1.399517
1.378655
1.521707
1.689792
1.929998
2.291799
4.193783
14.246702
62.403679
145.892501
356.628895
601.826906
982.377529
1015.785933
1015.785933
1015.785933
1015.785933
1015.785933
961.415768
669.707656
355.820656
190.972686
67.487955
32.071471
23.340583
30.229688
48.877001
66.033602
92.153549
110.699534
129.961967
137.014985
135.132670
125.154853
104.537606
87.483525
64.053535
48.863888
34.323931
27.229786
22.410750
20.302534
19.547939
19.405484
19.916892
20.531416
21.644831
21.541715
22.534728
22.239685
22.793412
22.646785
23.155808
23.436546
23.441911
23.576617
23.542643
22.831559
22.319555
23.065805
22.520423
22.646785
22.242665
22.250414
21.930933
22.662878
21.430850
21.572709
21.907687
20.714998
20.732880
20.711422
21.001697
##ZVALUE=300
0.549555
0.632405
0.735521
0.691414
0.745654
0.694990
0.705719
0.843406
0.612736
0.780821
0.753999
0.905991
0.851750
0.798702
0.697970
0.837445
0.806451
0.991821
0.902414
0.835657
0.986457
1.011491
0.974536
1.249909
1.387596
1.385808
1.505613
1.486540
1.715422
2.103448
2.061725
2.625585
6.739497
39.923787
98.916888
259.928703
455.886722
809.069872
1015.785933
1015.785933
1015.785933
1015.785933
1015.785933
1015.785933
815.142989
461.799502
273.626447
117.567778
54.239631
22.967458
21.465421
31.450987
43.823719
64.051747
84.594488
107.975602
122.810602
133.232474
132.689476
122.789741
108.272433
84.680915
68.260431
49.582720
37.890673
28.855801
24.014711
22.305846
21.480918
21.641850
22.581816
22.706985
22.682548
23.678541
23.506880
24.083853
23.972988
23.568869
23.347735
23.596883
23.209453
23.722649
23.395419
23.276806
23.696423
23.607612
23.519993
22.535920
22.011995
22.211671
22.549629
21.990538
21.648407
21.834970
20.971894
20.920634
##ZVALUE=305
0.683665
0.767708
0.800490
0.681877
0.691414
0.882745
0.645518
0.802875
0.923872
0.688434
0.867844
0.893474
0.781417
0.799894
0.724792
0.679493
0.835657
0.905991
1.004934
0.927448
0.865459
1.081824
0.938773
0.942945
1.164675
1.262426
1.392961
1.456738
1.507998
1.577735
1.284480
1.879930
2.214909
2.274513
4.171729
24.186969
68.511963
197.608471
363.388658
681.187510
966.717005
1015.785933
1015.785933
1015.785933
1015.785933
1015.785933
988.584757
648.015738
406.848788
182.814598
88.577867
30.917525
19.398928
23.108721
30.152798
47.166944
62.965751
85.885525
103.776455
121.917725
127.312541
127.473474
120.438933
102.258921
85.767508
62.837601
49.892664
37.503839
29.578805
24.835467
22.836924
22.509694
23.071766
22.799969
23.411512
23.271441
23.446679
23.585558
23.742914
23.761988
23.886561
24.175644
24.271607
23.595691
24.136901
23.956895
23.718476
23.332834
23.104548
22.989511
22.768974
22.175908
22.210479
21.663904
21.277666
20.975471
##ZVALUE=310
0.592470
0.669956
0.723600
0.716448
0.703931
0.724792
0.665784
0.713468
0.842810
0.787973
0.736713
0.764728
0.643730
0.638962
0.715852
0.933409
0.832677
0.857711
0.965595
0.875592
0.947714
0.820756
0.864863
0.976920
0.927448
1.114607
1.186728
1.249909
1.166463
1.134872
1.340508
1.620650
1.482964
1.752973
1.795888
2.047420
2.504587
10.064840
34.172535
116.680861
236.795545
502.500534
786.564946
1015.785933
1015.785933
1015.785933
1015.785933
1015.785933
1015.785933
831.160545
553.377867
279.673934
145.711899
51.760674
24.316907
17.609596
20.586848
29.459596
39.448738
59.080720
75.573921
96.740723
111.287832
121.052861
122.136474
112.483501
102.813840
82.433820
66.049695
48.249960
38.413405
30.498505
26.068687
23.532510
23.412704
23.038983
23.137927
23.359656
23.500919
23.109913
23.841858
24.027824
23.886561
23.572445
24.007559
23.715496
24.275780
24.278760
23.529530
23.339987
22.917986
22.580624
22.396445
21.853447
22.123456
21.974444
##ZVALUE=315
0.715852
0.675917
0.630617
0.651479
0.901818
0.596642
0.582933
0.750422
0.689626
0.563860
0.832677
0.778437
0.800490
0.683665
0.831485
0.720620
0.802875
0.834465
0.843406
0.993609
0.779629
0.778437
0.990629
0.862479
1.144409
1.171827
1.093745
1.000762
1.119971
1.161695
1.104474
1.284480
1.425743
1.667738
1.505613
1.775622
1.871586
2.039671
2.434850
5.059838
18.133521
74.833632
165.889859
384.943485
634.977818
1001.598835
1015.844941
1015.844941
1015.844941
1015.844941
1015.844941
976.538658
696.598887
372.706652
198.006630
72.960854
31.842589
17.204881
16.215444
21.031499
26.314855
39.494634
51.907897
70.976615
86.916685
106.011629
113.208890
114.389658
109.159946
95.559955
81.316829
63.287616
50.230622
37.233829
29.938817
25.492907
23.734570
23.095608
22.536516
22.868514
23.103952
23.198724
23.740530
23.531914
23.661852
23.943782
23.925900
23.682714
23.540854
23.162961
23.245811
23.072958
23.021698
22.331476
22.048950
21.853447
##ZVALUE=320
0.662804
0.625849
0.633597
0.607967
0.560880
0.852942
0.647902
0.803471
0.593662
0.603795
0.834465
0.747442
0.616908
0.581741
0.700951
0.691414
0.737906
0.907779
0.787973
0.718832
0.853539
0.785589
0.888705
0.994802
1.018643
0.892878
0.815988
0.890493
1.173615
0.934601
0.968575
1.209974
1.039505
1.164675
1.353621
1.352429
1.588464
1.845956
1.793504
1.938939
2.297759
2.870560
9.195805
48.956871
120.217800
305.760503
513.832569
887.261629
1015.785933
1015.785933
1015.785933
1015.785933
1015.785933
1015.785933
937.454700
522.246957
290.388465
115.330815
52.284598
19.537807
14.244914
14.841557
17.264485
24.227500
32.842755
48.641562
63.578486
82.758665
96.514821
107.108951
108.828545
103.940964
94.344616
75.358748
62.151551
46.182871
36.985874
29.313564
25.395751
23.497939
22.690892
22.585988
22.874475
22.799969
23.242831
23.448467
22.757649
23.062825
22.992492
22.861958
23.119450
22.449493
22.448897
22.057891
22.339821
22.212863
##ZVALUE=325
0.322461
0.401735
0.437498
0.466704
0.458956
0.418425
0.413656
0.612736
0.359416
0.489950
0.488758
0.463724
0.444651
0.601411
0.586510
0.638962
0.589490
0.418425
0.633597
0.545979
0.624657
0.535846
0.600815
0.598431
0.616908
0.514984
0.679493
0.714660
0.715852
0.883937
1.015663
0.868440
0.888705
1.026988
0.948906
1.103878
1.289845
1.252890
1.359582
1.330972
1.664758
1.612902
1.997948
2.164841
4.661679
29.014945
76.472759
209.691525
378.665924
723.330975
1000.281572
1015.595794
1015.595794
1015.595794
1015.595794
1015.595794
1015.595794
659.316778
399.791598
171.760917
77.726841
24.194717
13.259649
12.027621
13.126731
16.596913
22.105575
32.994747
45.180917
65.092444
78.426600
93.652606
101.544857
103.735924
98.123550
84.330440
72.362423
56.742430
45.902729
33.681989
28.647780
24.473667
22.761822
22.415519
22.222996
22.590756
22.718906
22.543669
22.139549
22.300482
22.398829
22.264719
21.917820
21.718740
21.855831
21.864772
##ZVALUE=330
0.579953
0.492930
0.566840
0.487566
0.545979
0.599623
0.640750
0.633597
0.617504
0.622869
0.707507
0.653863
0.729561
0.582933
0.593662
0.778437
0.646710
0.762939
0.721812
0.760555
0.771880
0.584722
0.762939
0.737906
0.792742
0.869632
0.778437
0.838637
0.886917
0.846982
0.863671
1.040697
1.085997
1.265407
1.018643
1.138449
1.308918
1.163483
1.186728
1.465678
1.319647
1.511574
1.578927
1.736879
2.031922
2.278686
2.841949
13.102889
43.687820
146.221519
284.429789
587.193966
887.062550
1015.780568
1015.780568
1015.780568
1015.780568
1015.780568
1015.780568
867.313743
545.473695
245.512724
119.067430
40.454865
16.758442
11.640787
11.812449
13.216734
16.217828
23.594499
31.852722
45.252442
59.105754
77.726841
88.340640
97.624660
98.350644
93.198419
83.379745
67.910552
56.396723
42.514801
35.547614
29.087663
25.786757
23.691654
22.770762
22.415519
22.248626
22.357702
21.908879
21.958947
22.021532
21.693707
21.401644
21.734834
##ZVALUE=335
0.676513
0.552535
0.499487
0.515580
0.651479
0.489950
0.446439
0.606775
0.564456
0.525713
0.630617
0.578761
0.551939
0.559688
0.518560
0.611544
0.555515
0.797510
0.799894
0.812411
0.694990
0.623465
0.711679
0.749826
0.769496
0.669956
0.812411
0.872612
0.893474
0.733733
0.678897
0.935793
0.901818
0.995994
1.026988
1.049638
1.132488
1.147985
0.886917
1.181960
1.196861
1.436472
1.449585
1.461506
1.552701
1.774430
1.837611
2.292991
2.300739
6.082654
21.571517
87.043643
185.773969
431.448817
707.832575
1015.785933
1015.785933
1015.785933
1015.785933
1015.785933
1015.785933
998.893976
699.000955
351.260900
176.307559
57.420731
23.319721
12.515783
11.984706
12.758970
14.390945
17.345548
21.975636
33.046603
42.805672
60.141683
70.614815
84.985495
91.094971
93.225837
87.774992
76.052547
67.619681
54.365993
45.066476
34.965873
29.684901
25.143623
23.031831
22.306442
21.669865
21.001697
21.037459
21.031499
20.559430
20.842552
##ZVALUE=340
0.545979
0.438690
0.526905
0.539422
0.509620
0.541806
0.603795
0.497699
0.581741
0.795722
0.598431
0.566840
0.563860
0.561476
0.527501
0.576973
0.528693
0.577569
0.522733
0.709891
0.668764
0.641942
0.677705
0.803471
0.757575
0.689626
0.842810
0.793934
0.752807
0.804663
0.975728
0.870824
0.965595
1.053810
0.954866
0.938773
0.973940
0.951886
1.018643
0.967979
1.143813
1.122952
1.226664
1.353621
1.369715
1.421571
1.634955
1.740456
1.823902
2.090931
2.304912
3.382564
10.732412
54.414868
134.670734
349.169970
606.366992
1001.874804
1015.780568
1015.780568
1015.780568
1015.780568
1015.780568
1015.780568
867.233872
443.666577
238.519907
90.748668
34.566522
13.834834
12.540817
12.703538
13.263822
15.126467
17.633438
23.512840
30.052662
43.011904
53.612590
69.753528
80.169439
86.607933
88.766813
84.163547
76.827407
64.642429
54.409504
42.566657
35.704970
28.495789
24.689436
22.234917
20.943880
19.951463
19.955635
19.875765
##ZVALUE=345
0.245571
0.266433
0.235438
0.309944
0.318885
0.241995
0.331998
0.185966
0.280738
0.322461
0.424981
0.265837
0.203848
0.199676
0.418425
0.299811
0.437498
0.278950
0.339746
0.270605
0.391603
0.407696
0.393987
0.228882
0.538826
0.477433
0.345707
0.486970
0.446439
0.478625
0.409484
0.432730
0.619888
0.420809
0.448823
0.592470
0.626445
0.533462
0.617504
0.694990
0.717640
0.793934
0.942945
0.777841
0.940561
0.979900
0.945926
1.117587
1.106858
1.310706
1.382828
1.609921
1.876950
2.198815
4.787445
29.588938
84.938407
238.405466
438.478589
824.538469
1015.502810
1015.502810
1015.502810
1015.502810
1015.502810
1015.502810
983.054042
578.293800
317.416787
117.383003
50.576925
17.424822
12.751818
12.882948
12.626648
13.074875
14.085770
16.881824
20.681620
29.716492
38.088560
52.665472
62.955618
72.874427
79.597831
82.105994
79.896450
71.931481
63.444972
51.951408
42.308569
32.813549
27.375817
22.482872
20.989776
19.420981
##ZVALUE=350
0.267625
0.306964
0.254512
0.328422
0.331998
0.368953
0.243783
0.255704
0.334978
0.350475
0.533462
0.412464
0.305772
0.263453
0.279546
0.496507
0.275970
0.372529
0.405908
0.572801
0.491738
0.504851
0.304580
0.320673
0.438690
0.429749
0.461936
0.403523
0.363588
0.493526
0.411868
0.527501
0.682473
0.678897
0.547767
0.571609
0.647902
0.684857
0.624657
0.623465
0.681877
0.843406
0.775456
0.844598
0.802875
0.683665
0.905991
0.964999
0.902414
1.131892
1.285672
1.173615
1.366735
1.496673
1.699924
1.950860
3.283620
11.329651
54.249763
129.006505
325.679779
559.415817
960.785747
1015.529633
1015.529633
1015.529633
1015.529633
1015.529633
991.578698
680.185556
329.656005
176.901817
65.574646
26.498437
12.445450
11.611581
11.386871
11.596680
12.372732
13.503432
16.526580
19.836426
26.907921
34.412742
46.353936
55.000782
66.362619
71.754456
74.771643
73.166490
66.264868
59.891939
48.485994
40.142536
31.334758
26.213527
##ZVALUE=355
0.583529
0.596642
0.518560
0.573993
0.510812
0.567436
0.538826
0.593662
0.565648
0.593662
0.599623
0.657439
0.492930
0.713468
0.481606
0.458956
0.521541
0.516772
0.718832
0.556707
0.610948
0.730753
0.649691
0.590682
0.720620
0.765920
0.741482
0.673532
0.757575
0.752807
0.599623
0.657439
0.672936
0.738502
0.811815
0.803471
0.795722
0.737906
0.930429
0.893474
0.889897
0.930429
0.975728
0.994802
1.035929
0.939965
1.113415
1.036525
1.121759
1.227856
1.028776
1.413822
1.269579
1.674891
1.676679
1.832843
1.985431
2.128482
2.511740
7.154942
26.089549
101.173520
212.782621
461.727977
735.988617
1015.785933
1015.785933
1015.785933
1015.785933
1015.785933
1015.785933
810.746551
502.726436
211.012959
98.208785
29.689670
14.426708
11.299849
11.198521
11.532903
11.607409
12.196898
13.003945
15.296936
18.344522
24.482608
31.060576
40.726662
49.834847
59.065819
64.851642
69.008470
67.867637
62.305927
55.506825
46.570897
##ZVALUE=360
0.548959
0.518560
0.665784
0.596642
0.734925
0.518560
0.480413
0.709891
0.632405
0.610948
0.591874
0.649691
0.655651
0.634789
0.645518
0.784993
0.678897
0.650883
0.626445
0.606775
0.652671
0.668764
0.593662
0.653863
0.692606
0.693798
0.694990
0.605583
0.694990
0.674725
0.778437
0.825524
0.815988
0.817776
0.733733
0.761747
0.696778
0.778437
0.811815
0.877976
0.950694
0.896454
1.031756
0.811815
0.969768
1.046658
1.075864
1.087785
1.154542
1.194477
1.153946
1.309514
1.219511
1.428723
1.444817
1.453757
1.500845
1.633763
1.809597
1.885891
2.397895
2.987981
12.915730
42.075515
139.607787
275.010467
565.430522
875.377655
1015.785933
1015.785933
1015.785933
1015.785933
1015.785933
995.676517
600.566864
352.779627
146.070719
62.205791
18.686652
11.599660
10.731816
10.278821
10.614991
11.041760
11.285543
11.997819
13.560653
15.367866
20.764470
25.241971
34.196973
42.681694
51.911473
57.280660
62.061548
62.145591
##ZVALUE=365
0.580549
0.663996
0.532866
0.521541
0.646710
0.685453
0.585914
0.664592
0.712872
0.663996
0.600815
0.798702
0.796914
0.701547
0.718832
0.824928
0.734925
0.809431
0.699759
0.836849
0.747442
0.704527
0.630617
0.714660
0.657439
0.766516
0.867844
0.844598
0.830889
0.748634
0.981688
0.839829
0.770688
0.858903
0.859499
0.831485
0.885725
0.868440
1.009703
1.065731
0.910759
0.930429
0.950694
0.998974
1.048446
1.271963
1.098514
1.121759
1.134872
1.126528
1.253486
1.300573
1.366735
1.249909
1.342893
1.295805
1.293421
1.572967
1.681447
1.709461
1.957417
2.223849
2.250671
2.885461
5.383492
29.300451
81.237555
226.681828
429.381728
837.225914
1015.842557
1015.842557
1015.842557
1015.842557
1015.842557
1015.842557
768.801570
420.124531
227.111578
80.022812
31.643510
12.113452
10.187626
9.873509
10.098815
10.162592
10.047555
10.371804
10.570884
12.118816
13.635755
17.768741
22.122860
30.052662
36.998987
45.468807
##ZVALUE=370
0.504851
0.510812
0.580549
0.498891
0.582933
0.620484
0.695586
0.588894
0.614524
0.629425
0.645518
0.518560
0.604987
0.551939
0.575781
0.700951
0.686646
0.516772
0.725985
0.657439
0.691414
0.725985
0.661612
0.808835
0.652671
0.616908
0.685453
0.743866
0.753999
0.771880
0.736713
0.693798
0.716448
0.656843
0.614524
0.635982
0.668764
0.906587
0.774860
0.772476
0.672936
0.789762
0.758767
1.091957
0.925660
0.875592
0.974536
0.922680
0.941753
1.043677
0.978708
0.997782
0.997782
1.120567
1.168847
1.121759
1.295805
1.332760
1.335740
1.393557
1.447797
1.587868
1.846552
1.795888
2.064705
2.419949
3.388524
14.693737
49.372911
171.135664
334.836841
670.095682
983.741879
1015.785933
1015.785933
1015.785933
1015.785933
1015.785933
960.305929
531.144738
292.043686
110.546947
49.795508
17.341971
10.069609
9.077787
9.300709
9.160638
9.128451
9.298921
9.494424
9.656549
10.726452
12.664795
15.341640
20.368695
##ZVALUE=375
0.595450
0.627637
0.462532
0.655651
0.616908
0.655651
0.611544
0.663996
0.569820
0.544786
0.592470
0.714660
0.641942
0.660419
0.496507
0.630617
0.548959
0.605583
0.523925
0.587702
0.624657
0.681877
0.548959
0.805855
0.706911
0.835657
0.679493
0.723600
0.728965
0.705719
0.665784
0.732541
0.618696
0.843406
0.657439
0.736713
0.814795
0.681877
0.690818
0.813603
0.841618
0.818968
0.871420
0.863671
0.723600
0.811815
0.801682
0.828505
0.997782
0.820756
0.966787
0.890493
0.980496
0.981688
1.017451
1.009703
1.208782
1.070499
1.311898
1.049638
1.201630
1.348853
1.345873
1.342893
1.661777
1.641512
1.790524
2.147555
2.601743
7.768869
26.232004
95.907450
212.363005
502.312779
812.681913
1015.824676
1015.824676
1015.824676
1015.824676
1015.824676
1015.824676
675.343871
422.706604
204.268694
99.163651
31.057000
12.792945
8.449554
8.400679
8.084774
8.193851
8.298755
8.398890
8.810759
8.992553
9.781718
##ZVALUE=380
0.478625
0.488758
0.503659
0.468493
0.465512
0.499487
0.549555
0.564456
0.442863
0.300407
0.516772
0.551939
0.506639
0.496507
0.526905
0.500679
0.517964
0.624657
0.664592
0.542998
0.570416
0.570416
0.540614
0.512600
0.465512
0.459552
0.618696
0.741482
0.604987
0.633597
0.589490
0.601411
0.557899
0.670552
0.641942
0.647902
0.703931
0.612736
0.759959
0.733733
0.636578
0.701547
0.717640
0.697970
0.741482
0.859499
0.577569
0.729561
0.676513
0.714660
0.727773
0.769496
0.808835
0.859499
0.878572
0.958443
0.925660
0.979900
0.932813
0.966787
1.074672
1.236796
1.354814
1.371503
1.351833
1.428723
1.653433
1.817942
2.045631
2.261996
2.660751
4.362464
15.183687
72.490573
169.106722
415.437818
697.096586
1015.785933
1015.785933
1015.785933
1015.785933
1015.785933
1015.785933
865.385532
573.520660
279.615521
143.308640
48.209429
19.210577
8.886456
7.620454
7.610917
7.540584
7.501841
7.761717
7.623434
##ZVALUE=385
0.393987
0.497699
0.408888
0.407696
0.408888
0.529885
0.560880
0.520945
0.575781
0.514984
0.484586
0.547767
0.510812
0.654459
0.604987
0.477433
0.497699
0.492930
0.462532
0.473857
0.580549
0.459552
0.434518
0.449419
0.473857
0.513792
0.561476
0.683665
0.660419
0.521541
0.770688
0.578761
0.617504
0.629425
0.599623
0.589490
0.666976
0.672936
0.693798
0.539422
0.544786
0.720620
0.689626
0.685453
0.676513
0.733733
0.828505
0.587702
0.716448
0.599623
0.678897
0.868440
0.778437
0.926852
0.896454
0.843406
0.854731
0.766516
0.819564
0.857711
0.935793
0.945926
0.968575
1.080632
1.233816
1.331568
1.361966
1.489520
1.864433
2.004504
2.022982
2.265573
2.324581
2.835989
6.816983
40.107965
105.834603
281.174779
514.737964
951.526761
1015.785933
1015.785933
1015.785933
1015.785933
1015.785933
1015.785933
830.248594
441.655517
245.547891
96.069574
37.767887
10.521412
7.319450
6.867647
6.854534
6.990433
##ZVALUE=390
0.533462
0.457764
0.466704
0.443459
0.395775
0.447631
0.329614
0.548959
0.433922
0.514984
0.485778
0.493526
0.434518
0.307560
0.526905
0.380874
0.482798
0.414848
0.453591
0.602603
0.590682
0.587702
0.565648
0.554919
0.583529
0.631809
0.591874
0.633597
0.415444
0.562668
0.575781
0.540614
0.681877
0.537634
0.464916
0.611544
0.656843
0.608563
0.638962
0.698566
0.553727
0.581741
0.638962
0.567436
0.626445
0.662804
0.631809
0.648499
0.796914
0.728965
0.716448
0.836849
0.663996
0.799894
0.836849
0.798702
0.825524
0.758767
0.805855
0.855923
0.901818
0.807643
0.918508
0.916719
1.159906
1.229644
1.206994
1.308918
1.517534
1.612902
1.627803
1.958609
1.714826
1.802444
2.113581
2.380610
3.672838
20.430684
64.982772
210.402608
419.301987
831.686854
1015.785933
1015.785933
1015.785933
1015.785933
1015.785933
1015.785933
977.714062
590.551496
334.270597
131.990910
58.332682
15.575886
7.847548
6.789565
##ZVALUE=395
0.366569
0.465512
0.330806
0.391603
0.251532
0.516772
0.393987
0.493526
0.417829
0.478625
0.405908
0.556707
0.462532
0.544786
0.517964
0.434518
0.602603
0.554919
0.429749
0.530481
0.534654
0.477433
0.556707
0.467896
0.545979
0.478625
0.685453
0.500679
0.488758
0.688434
0.391603
0.512600
0.545979
0.613928
0.479817
0.615716
0.588894
0.679493
0.594854
0.623465
0.706911
0.668764
0.796914
0.677705
0.640750
0.685453
0.722408
0.705719
0.587702
0.773668
0.597835
0.934601
0.735521
0.814795
0.644922
0.818968
0.774860
0.830889
0.732541
0.851750
0.916719
0.902414
0.867844
0.931621
1.035929
1.141429
1.218915
1.190901
1.325607
1.586676
1.654625
1.656413
1.758933
1.895428
1.821518
1.832843
1.789927
2.215505
2.642870
11.666417
43.965578
152.736902
299.952626
608.784556
938.470960
1015.785933
1015.785933
1015.785933
1015.785933
1015.785933
1015.785933
745.112896
452.148914
185.540915
83.405972
26.238561
##ZVALUE=400
0.370741
0.481606
0.411868
0.365973
0.444651
0.472665
0.506639
0.507832
0.510812
0.450611
0.422597
0.594854
0.604987
0.514984
0.599623
0.517964
0.625849
0.464916
0.545979
0.501871
0.522733
0.647902
0.484586
0.521541
0.503659
0.451803
0.551939
0.434518
0.520945
0.441670
0.402927
0.534654
0.611544
0.658631
0.607967
0.570416
0.561476
0.727773
0.700951
0.599623
0.660419
0.589490
0.650883
0.497699
0.644922
0.655651
0.675917
0.735521
0.670552
0.735521
0.820756
0.722408
0.639558
0.641942
0.900626
0.792742
0.684857
0.787973
0.787973
0.845790
0.728965
0.841618
0.900626
0.999570
1.062751
0.997782
1.192689
1.203418
1.266599
1.663566
1.569986
1.639724
1.596808
1.915693
1.662970
1.849532
1.747608
1.854897
1.966953
2.316833
2.496839
6.037951
22.938848
93.549490
214.648843
513.660908
859.260559
1015.785933
1015.785933
1015.785933
1015.785933
1015.785933
1015.785933
995.665789
666.978955
318.641663
##END
