##TITLE=QP00302
##FORMAT=SPECTACLE-ASCII V-1.2
##DATA TYPE=ULTRAVIOLET SPECTRUM
##SECOND TYPE=ULTRAVIOLET SPECTRUM
##DATE=02/01/18
##TIME=15:35:51
##SPECTROMETER/DATA SYSTEM=SPECTACLE
##XUNITS=NM EM
##YUNITS=ENERGY
##YFACTOR=1
##FIRSTX=220
##LASTX=410
##NPOINTS=96
##3DDATA=Equidistant
##ZUNITS=NM EX
##FIRSTZ=210
##LASTZ=400
##ZPOINTS=39
##XYDATA=(Y..Y)
##ZVALUE=210
1.915693
1.990795
1.642704
1.784563
2.256632
2.093911
2.377629
2.367496
2.269745
2.888441
2.510548
2.287626
2.900958
2.621412
3.154874
3.560781
3.673434
3.592968
3.692508
3.762841
4.653931
6.124973
5.511642
4.795790
5.703568
5.837679
5.789995
6.069541
6.290674
7.549524
7.611513
7.801652
6.595850
7.632971
6.976724
7.683635
7.605553
8.294582
8.182526
8.136630
8.608699
8.595586
9.047985
9.139776
9.262562
9.309649
11.162758
11.146665
10.174513
9.658933
10.541677
11.908412
11.684895
11.637807
10.733604
11.351705
11.867881
12.014508
11.896491
12.556911
12.729764
12.562871
13.211966
12.401938
14.799833
13.540983
15.525818
16.157627
21.871924
23.894906
28.457642
34.703612
36.515594
43.800473
48.151612
52.299500
53.973794
53.408742
53.705573
48.923492
45.097470
40.210485
35.206676
32.402873
23.488998
20.637512
18.712878
16.614795
12.830496
15.108585
13.686419
13.006926
13.635755
13.901591
12.712479
14.332533
##ZVALUE=215
6.164908
6.935596
6.323457
5.832911
4.950762
3.899932
3.630519
3.965497
4.541874
4.683733
5.242825
4.763603
4.120469
3.985763
3.557801
2.992749
3.622770
3.557801
3.883839
3.706813
3.693700
4.494786
5.059838
4.794598
4.993677
5.573630
6.629825
5.745888
5.326867
6.227493
7.295609
8.254647
7.930994
8.152723
7.642508
8.249879
7.930994
9.180903
8.164644
9.275675
7.837415
9.068847
8.550882
9.451509
9.137988
9.356737
10.779500
10.929704
10.165572
11.192560
12.768507
12.837648
11.150837
11.577606
12.602806
12.638569
13.489723
11.976957
13.989806
13.915896
13.966560
13.740659
12.769699
13.579726
14.478564
14.945865
15.202761
18.276572
20.414591
25.046468
28.376579
33.751726
37.469864
42.659640
46.903491
52.539706
52.884817
55.588484
55.855513
52.777529
50.048828
43.607950
38.717985
32.287836
28.307438
21.814704
19.473433
18.196702
16.651750
14.981627
14.421940
13.008714
13.727546
15.397668
14.816523
14.167428
##ZVALUE=220
28.789639
26.577711
33.708811
33.888817
34.205914
28.037429
23.462772
13.658404
11.939406
11.283755
11.114478
11.155605
11.974573
11.005998
9.100437
8.847713
6.852746
5.114675
4.642606
5.408525
4.876852
5.285740
4.882812
6.702542
6.407499
7.334948
7.247925
7.112622
8.247495
7.396936
8.032918
8.986592
9.020567
8.357763
9.638667
10.697842
9.994507
10.911822
9.160638
10.540485
9.906888
10.065436
10.632873
10.726452
11.710525
12.160540
12.100935
11.493564
12.452602
14.070868
13.673902
14.196634
13.363957
14.157891
13.386607
13.707876
14.498830
15.229583
15.623569
14.582872
13.711452
15.625954
15.961528
15.456676
17.532706
16.864538
18.003583
19.520521
22.056699
27.223825
30.619502
36.263466
42.021871
48.215985
52.471757
57.895780
59.295893
61.561465
58.593750
59.122443
56.556463
51.603913
46.066642
39.851665
34.368634
28.369427
24.336576
19.660592
17.996430
16.519427
16.847849
17.580986
15.224814
15.612841
15.982985
15.466809
##ZVALUE=225
55.101514
63.406825
78.799725
97.976923
108.531713
113.076568
101.934671
76.167583
58.750510
38.317442
27.949810
22.418499
24.993420
24.952888
24.921894
27.002692
21.515489
17.143488
12.912750
10.912418
8.105636
5.727410
6.478429
6.174445
7.055998
7.434487
8.789897
8.185506
8.288622
8.584857
7.925630
9.575486
9.419918
8.321404
10.017753
10.416508
10.315776
10.984540
9.717941
10.529757
11.096597
11.777878
11.209846
10.734797
11.050701
13.025999
12.239814
13.016462
13.106465
13.537407
14.013648
13.925433
14.194846
15.077591
14.252663
14.867783
15.322566
15.748739
16.608834
15.773773
16.972423
16.730428
18.390417
16.832948
18.047690
19.127727
18.114448
21.054745
21.851659
25.365949
28.902888
35.082698
37.492514
42.225718
41.399002
47.098994
46.274662
47.720671
48.323870
43.303967
41.853786
37.855506
35.615563
31.196475
27.473569
23.800731
22.878647
20.965934
19.221902
17.540455
18.975735
19.219518
17.328858
20.014644
17.396808
17.813444
##ZVALUE=230
43.907762
51.580667
82.431436
137.687922
187.395811
239.744782
264.987946
269.517899
242.583752
205.089450
136.406422
94.328523
56.778789
45.638680
46.521425
45.668483
51.541924
51.289797
41.404963
36.025643
28.390884
19.283891
14.654994
10.330677
8.116961
7.326603
7.578731
8.231997
8.016825
7.925630
7.790923
9.498596
8.948445
7.601976
8.747578
8.998513
9.479523
9.558797
10.487437
10.665655
9.587407
10.990500
10.178685
11.228919
10.361671
9.971857
10.871887
10.619760
10.843873
10.706782
11.395812
11.862516
12.693405
13.578534
14.334917
14.530420
15.197992
14.423728
16.892552
16.208887
16.682744
17.338991
17.950535
18.315911
18.786788
20.832419
20.023584
22.937655
23.290515
27.315617
31.342506
31.733513
36.799908
37.389994
44.305921
41.205883
42.310953
41.354895
43.839812
40.457845
37.938952
35.266876
34.417510
30.934811
28.734803
26.083589
25.808811
24.226904
22.199750
22.920966
23.222566
23.186803
21.307468
23.286939
21.599531
21.818876
##ZVALUE=235
15.312433
18.481612
40.488839
99.937916
172.807574
280.563831
365.248919
468.897820
505.058765
500.312448
443.397760
337.154865
245.413780
156.946778
109.169483
85.578561
75.348616
77.546835
83.663464
85.971951
78.372955
66.941977
51.423907
39.158463
26.969910
19.096732
13.601780
11.039972
9.230971
10.261536
10.423660
9.838939
10.238886
11.292696
11.109710
10.705590
11.913776
10.865927
11.051893
11.622906
11.133552
11.346936
11.747479
10.696650
11.817813
11.522770
13.174415
13.730526
13.656616
12.962818
14.201999
14.640689
16.449690
14.934540
15.411973
17.479658
17.824769
17.858744
19.761920
20.892620
21.175742
21.260977
22.537708
22.498965
24.922490
24.637580
26.047826
28.025508
28.288960
33.480525
34.352541
39.974451
43.022633
44.844747
48.446655
50.247908
48.691630
51.512718
49.456954
48.203468
47.450662
42.823553
40.008426
38.385987
34.493804
32.536983
34.646988
32.043457
33.587813
31.632781
31.235814
32.038689
32.024980
32.296777
29.616952
31.597614
##ZVALUE=240
2.768636
3.764629
12.547970
48.292875
93.721747
191.328526
296.637416
475.619435
627.682805
737.350583
828.453898
809.629560
707.337856
587.616563
414.974689
295.787454
175.506473
124.065876
102.255940
105.200410
111.948848
117.401481
113.334656
101.802945
88.678598
64.797997
49.806833
32.759905
24.074912
19.374490
14.978647
12.659431
12.607574
13.344884
11.398792
12.364984
13.542771
11.743903
12.114644
12.270808
11.777878
11.392832
11.897683
10.609627
11.558533
11.606812
12.161732
13.583899
13.462901
14.148951
14.738441
14.874935
15.097857
16.924739
16.903877
19.941926
18.255711
19.480586
20.614862
19.529462
21.615624
22.819638
23.754835
24.752617
25.027990
26.116967
26.315451
31.975508
33.474565
34.980774
38.237572
44.493675
46.783686
52.140951
54.250956
54.534674
55.000782
54.281950
54.110885
51.035881
47.039986
45.378804
44.732690
41.377544
41.627884
39.071441
42.184591
39.380789
37.044883
38.762689
38.104653
38.273931
36.750436
36.335588
37.524700
40.109754
##ZVALUE=245
1.339912
1.497865
2.015829
1.879930
6.330609
19.250512
65.222979
142.934918
304.837823
461.546779
739.634037
939.854980
1015.785933
1015.785933
1015.785933
997.048020
825.576782
571.678877
399.452448
222.740769
148.602724
114.218593
114.516616
128.864646
137.033463
128.811002
116.599798
102.561712
77.988505
58.240891
43.914914
28.772950
21.571517
16.671419
15.281439
13.497472
13.407469
13.041496
13.587475
13.487935
11.533499
11.843443
11.337996
10.857582
11.615753
11.878610
11.471510
12.848973
13.356805
13.303757
14.267564
14.746785
14.848709
16.284585
15.953779
17.036796
17.406940
17.074943
19.897819
20.424724
20.770431
22.835732
22.155643
21.426678
22.554994
23.581982
24.359822
26.911497
30.629635
33.255816
35.152435
41.205883
41.543841
45.630932
46.692491
48.090816
51.956773
48.535466
46.498775
47.686696
44.649839
41.183829
41.805506
41.136742
39.654970
39.366484
40.028691
40.555000
37.295818
37.109852
37.711859
37.308931
36.963820
38.208961
35.338998
36.679506
##ZVALUE=250
1.515746
1.272559
1.624823
1.696944
1.838803
1.559854
4.726648
19.663572
84.239841
172.456503
368.081927
563.573837
762.711763
994.547606
1015.785933
1015.785933
1015.785933
1000.483632
830.187798
575.449467
385.685563
247.753859
142.606497
107.025504
107.873678
124.599934
141.135454
143.008828
138.306618
127.014518
108.877420
83.704591
63.959956
41.633844
29.351711
17.799735
14.613867
11.613965
10.628700
10.352731
10.547638
9.825826
9.281635
9.467602
10.242462
9.519458
9.847879
10.193586
10.324717
10.463595
11.258721
11.851788
11.200905
12.551546
12.842417
11.734962
13.619661
14.184713
14.860630
14.403462
16.190410
16.554594
16.630888
16.301870
18.596649
19.648671
21.014810
22.069812
23.544431
27.157664
30.836463
31.886697
33.134818
36.479831
39.130449
39.723516
41.147470
39.884448
39.916635
38.209558
36.178827
37.278533
36.252737
35.571456
36.233664
35.434961
34.544468
34.530759
33.924580
33.649802
34.648776
34.880638
34.639835
33.976436
35.061836
35.086870
##ZVALUE=255
1.508594
1.599789
1.837611
1.777411
1.912713
1.724958
2.074838
2.220869
2.746582
7.782578
45.972466
117.972493
231.707692
457.770824
671.491027
968.925953
1016.138792
1016.138792
1016.138792
1016.138792
992.262959
788.087845
496.528745
318.644643
168.818831
114.833713
97.911954
109.202862
129.586458
143.576860
148.312449
143.403411
132.939816
106.877685
83.230734
57.264566
41.116476
25.642514
17.703772
11.200905
9.379983
9.672642
9.840727
9.238720
9.133816
9.532571
10.559559
9.225607
9.739995
10.078549
10.060668
10.438561
10.665655
10.636449
11.627674
12.133718
12.518764
12.437701
12.566447
12.644529
12.818575
14.518499
14.527440
15.180707
15.983582
16.780496
17.307997
17.953515
20.750761
22.673607
24.655461
27.956963
28.992891
31.338930
31.519532
34.162998
35.197735
33.237934
33.383965
32.804608
32.802820
31.578541
31.099916
29.810667
29.116869
31.094551
31.699538
31.738877
31.676888
31.657815
31.117797
32.553673
31.321645
30.406713
30.866861
32.596588
##ZVALUE=260
0.968575
1.120567
1.120567
1.407862
1.122952
1.203418
1.338720
1.550913
1.958609
1.795888
1.985431
3.536940
11.962652
65.276623
149.514675
345.451832
557.713509
865.783691
1015.785933
1015.785933
1015.785933
1015.785933
1015.785933
958.507657
623.415709
425.661802
246.578455
151.357651
89.889765
87.646842
101.060867
126.391649
143.946409
151.530504
150.378942
128.726959
111.395717
80.464482
59.795976
37.031770
25.501847
14.747977
10.770559
8.962750
8.428693
8.763671
8.454919
8.982420
8.634925
8.680820
10.021925
9.285808
10.067821
9.973645
10.200739
10.978580
11.030436
11.809468
11.333823
12.036562
11.574626
12.804866
13.369918
13.373494
13.267994
14.269948
15.718937
16.138554
18.595457
19.488931
20.898581
23.497939
24.250746
26.671886
27.538538
28.361678
27.659535
28.454661
28.134584
27.522445
27.748942
26.443601
28.252602
27.509928
28.052926
27.686954
27.420521
28.909445
28.697848
28.557777
27.868748
29.425621
29.698610
28.823614
28.729439
29.801726
##ZVALUE=265
1.077652
0.965595
1.300573
1.243949
1.246929
1.101494
1.158714
1.369715
1.392961
1.337528
1.506805
1.582503
2.067685
2.147555
5.810857
30.141473
74.292421
192.936063
340.653658
656.087995
926.233530
1015.782952
1015.782952
1015.782952
1015.782952
1015.782952
851.013660
599.456429
323.962569
193.372965
99.899769
76.085925
80.000758
110.158920
127.389431
148.675442
153.005719
145.834684
132.725835
105.861425
84.046721
56.559443
38.886666
23.353696
15.030503
10.183454
9.006858
9.256601
8.719563
8.793473
8.659959
10.065436
10.360479
10.298491
9.952784
11.435747
11.804700
12.326837
11.567473
11.807680
12.821555
12.825727
13.005733
13.719797
13.549924
15.076995
15.000701
15.902519
16.257763
18.910766
20.067692
21.757483
23.703575
24.776459
25.145411
27.034879
26.589632
26.822686
26.163459
26.407838
26.702881
27.439594
26.248693
26.036501
25.902987
26.622415
27.616620
26.557446
26.002526
25.909543
26.995540
27.152896
26.878715
27.147532
26.247501
27.961731
##ZVALUE=270
0.948906
0.835657
0.969768
1.180768
1.103878
0.927448
1.155734
1.485944
1.386404
1.413822
1.284480
1.315475
1.550913
2.000928
2.129674
2.132654
3.101826
10.777712
49.136877
116.305947
290.215611
507.843494
910.033584
1015.785933
1015.785933
1015.785933
1015.785933
1015.785933
1015.785933
793.294907
530.746579
268.829465
149.238706
76.016784
64.241886
83.066821
104.591846
132.272840
148.009658
154.408813
148.336887
130.073428
110.242963
81.911683
59.165955
36.840439
24.667978
16.280413
12.787580
9.842515
9.667873
9.821653
10.775924
10.791421
10.897517
11.277795
11.360645
12.409687
11.973977
12.757778
12.973547
13.709664
14.054775
13.495684
14.814734
14.646649
15.379786
16.964674
17.685890
18.597841
19.872785
20.747781
22.587776
23.011565
24.242997
24.477839
25.048852
24.421811
24.677515
24.562478
24.252534
23.472905
23.907423
23.856759
23.969412
24.358630
25.087595
24.264455
24.560690
24.688840
25.959611
25.047660
25.202632
25.621653
25.511980
25.700927
##ZVALUE=275
0.959635
0.903606
1.143813
1.055598
1.128912
1.102686
1.205802
1.127720
1.086593
1.389980
1.057982
1.259446
1.444817
1.524687
1.497865
1.759529
2.053976
2.079606
2.407432
6.446838
26.461482
77.845454
236.624479
438.187718
822.101831
1015.785933
1015.785933
1015.785933
1015.785933
1015.785933
1015.785933
1004.636884
727.956891
374.538898
207.179785
89.272857
58.150887
61.352849
80.165863
107.772946
127.156973
145.373940
150.267482
145.254731
130.605698
104.264617
85.424781
59.202909
41.866899
25.996566
18.574595
13.174415
11.682510
11.761785
11.830926
11.737943
12.186766
12.811422
13.129711
14.559627
14.208555
14.243722
14.998913
14.828444
15.399456
15.830994
16.738772
17.433763
18.275976
19.438863
20.729899
21.355748
22.287965
24.059415
24.584532
24.111867
25.017858
24.022460
24.634600
24.984479
24.598837
23.992658
22.754669
23.339987
23.572445
23.323894
24.062991
24.289489
23.809671
24.439692
24.551749
23.554564
24.410486
23.950934
24.325848
24.233460
##ZVALUE=280
0.794530
0.809431
0.976920
0.879765
0.983477
0.993609
1.078844
1.017451
1.169443
1.219511
1.093745
1.218915
1.533628
1.161695
1.416802
1.558661
1.372695
1.447797
2.039671
1.980662
2.373457
2.962947
15.804768
55.586696
180.938840
334.091783
636.951923
941.314697
1015.783548
1015.783548
1015.783548
1015.783548
1015.783548
1015.783548
876.350999
483.919978
281.120539
124.488473
65.721869
47.337413
56.403875
81.085563
103.309751
128.013492
142.200589
147.793889
143.265724
127.217770
109.863877
82.097650
61.851740
40.435791
28.962493
20.013452
15.165806
13.219714
13.177991
13.228655
14.720559
14.682412
15.484691
15.786886
16.022921
16.000867
16.300678
17.315745
17.199516
18.508434
18.750429
19.649863
20.326972
21.868944
23.199916
23.761988
23.928881
24.587512
24.023652
24.177432
24.484992
23.706555
24.213791
23.467541
23.872852
23.034811
23.383498
23.313761
23.318529
23.115873
23.755431
22.925735
22.976995
23.967624
22.659898
23.183823
23.196936
23.240447
##ZVALUE=285
0.905991
0.795722
0.746846
1.022816
0.971556
0.983477
0.804663
0.925660
0.860691
1.108646
1.090765
1.059771
1.091957
1.142621
1.313686
1.422763
1.315475
1.476407
1.550913
1.613498
1.977682
1.920462
2.201796
2.407432
8.186698
30.613542
108.927488
231.961608
501.618385
779.018998
1015.785933
1015.785933
1015.785933
1015.785933
1015.785933
1015.785933
1015.785933
711.074471
434.566736
200.837851
103.658438
44.156909
37.549734
54.443479
73.920488
101.865530
120.598674
137.741566
145.700574
141.487718
129.876733
108.094811
89.671612
62.817931
46.877861
31.029582
23.047924
17.863512
16.673803
16.425848
16.152859
16.596913
17.354488
17.414689
17.281771
18.449426
18.975735
19.452572
19.957423
21.264553
21.195412
22.833943
23.348927
24.134517
23.965836
23.967624
24.688840
24.476647
24.151802
23.134947
24.349689
23.645759
23.963451
23.662448
23.169518
23.389459
23.511648
22.656918
23.390651
22.444725
23.503900
21.950603
23.135543
22.566915
22.408962
22.281408
##ZVALUE=290
0.876784
0.827909
0.817776
0.860691
0.741482
0.814795
0.875592
0.816584
1.082420
0.897646
0.767708
0.948906
1.077652
1.067519
0.979900
1.118779
1.166463
1.098514
1.335740
1.495481
1.435876
1.541972
1.505613
2.089739
2.349615
2.461672
3.605485
11.035800
52.954555
131.036043
264.246464
566.239953
892.381668
1015.785933
1015.785933
1015.785933
1015.785933
1015.785933
1015.785933
888.131857
578.402877
278.918743
143.897533
54.157972
30.307770
35.916567
48.897862
71.542859
93.062520
119.675994
132.176876
143.057704
141.679645
128.343701
110.458732
84.726810
65.118670
46.590567
34.881830
25.817752
22.075772
19.171834
18.371940
19.322634
19.039512
19.554496
19.373894
20.591617
21.651983
21.242499
23.276806
23.828745
23.603439
24.853945
24.522543
24.594665
23.875833
24.532676
24.216771
24.466515
24.476647
23.172498
23.938417
24.228692
23.877621
23.422837
22.987723
23.946762
22.775531
23.103952
22.956729
22.984743
22.225976
22.692680
22.709966
22.492409
##ZVALUE=295
0.822544
0.869632
0.926852
0.711679
0.895858
0.789762
0.509620
0.837445
0.872612
0.893474
0.940561
0.860691
0.922680
0.988841
0.919700
1.105666
1.126528
1.195669
1.078844
1.213551
1.271963
1.586676
1.383424
1.470447
1.703501
1.768470
1.960993
2.307892
2.571940
5.691648
21.720529
91.132522
200.571418
473.216772
775.845647
1015.785933
1015.785933
1015.785933
1015.785933
1015.785933
1015.785933
1011.954546
728.306770
373.634696
200.226903
75.002909
34.946799
24.479628
31.770468
49.133897
66.299438
91.769695
111.158490
131.884813
137.834549
137.889981
128.830671
107.592940
89.379549
66.374540
50.746799
35.149455
28.630495
23.189783
21.735430
20.808578
21.834970
22.140741
21.831989
22.170544
23.968816
24.506450
24.829507
25.490522
25.108457
25.626421
25.255680
25.487542
25.071502
23.958683
24.861693
24.761558
24.117827
24.349689
24.091601
24.598837
24.289489
23.700595
23.437738
23.243427
22.809505
23.370981
22.751689
22.218823
23.062825
22.525787
##ZVALUE=300
0.770688
0.687838
0.728965
0.737906
0.750422
0.878572
0.956655
0.813603
1.011491
0.762939
0.861883
0.777841
1.071692
0.863671
0.790954
1.051426
0.957847
1.194477
0.961423
0.915527
1.319647
1.366735
1.277924
1.347661
1.489520
1.488924
1.757741
1.797676
2.286434
2.129674
2.427697
2.894402
11.637807
42.023659
146.194696
297.767520
638.667941
976.648927
1015.785933
1015.785933
1015.785933
1015.785933
1015.785933
1015.785933
912.402868
581.789613
289.797783
154.157877
56.503415
26.182532
23.136735
30.807853
47.603846
62.383413
86.752772
106.769800
126.921535
134.179592
133.962631
125.330687
107.000470
90.369582
66.628456
53.924918
38.243532
31.095743
25.959611
23.866892
22.867918
23.281574
23.837686
23.726821
24.298429
24.753809
25.292635
25.179982
25.545955
25.111437
24.817586
25.136471
25.169849
24.959445
24.823546
25.226474
25.703907
24.583936
24.290681
24.312735
23.557544
24.238825
23.667812
23.136735
22.909641
22.600889
22.385716
22.475719
##ZVALUE=305
0.773668
0.606775
0.661612
0.921488
0.784993
0.803471
0.720620
0.947714
0.908971
0.767708
0.776649
0.759959
0.775456
0.683665
0.891685
0.862479
1.014471
0.931621
0.896454
0.917912
1.100898
1.062751
1.435876
1.151562
1.126528
1.458526
1.603961
1.537800
1.603961
1.651645
1.555681
2.054572
2.141595
2.726912
4.785657
28.622746
80.576539
241.654515
457.631946
892.837644
1015.785933
1015.785933
1015.785933
1015.785933
1015.785933
1015.785933
1015.785933
737.304688
461.156964
207.219720
102.083683
35.549998
21.514893
23.969412
31.359792
47.312975
63.367486
86.719990
104.256868
122.020841
130.515695
128.907561
121.553540
103.292465
87.338686
65.162778
51.522851
38.108826
31.295419
26.160479
24.705529
24.456978
24.777651
25.503635
25.323629
24.749637
24.549961
25.264621
24.843812
25.141835
25.652647
25.127530
25.343895
25.713444
25.671721
24.806857
25.166869
25.028586
24.909973
23.966432
23.799539
23.346543
23.350716
22.783875
22.975802
22.678971
##ZVALUE=310
0.634789
0.626445
0.611544
0.647902
0.560880
0.680685
0.709891
0.683665
0.472665
0.603795
0.639558
0.673532
0.619888
0.601411
0.692606
0.713468
0.758767
0.791550
0.836849
0.895858
0.636578
0.863671
0.947714
0.981688
1.010895
1.138449
1.269579
1.258850
1.285672
1.267791
1.405478
1.394749
1.626611
1.802444
2.010465
2.194643
3.067851
12.678504
42.656660
145.428777
296.406746
641.451478
975.340605
1015.670896
1015.670896
1015.670896
1015.670896
1015.670896
1015.670896
954.302549
636.606812
324.058533
174.078941
61.634779
27.267933
18.769503
21.464825
30.441880
40.218830
59.572458
75.108409
97.562671
110.585690
122.078657
123.631954
114.317536
103.414655
84.105730
67.749619
49.204826
39.854646
31.482577
28.013587
24.854541
24.366975
24.134517
24.700761
24.577975
23.869872
24.322867
25.324821
24.901628
25.510788
25.083423
24.863482
24.993420
25.240779
25.289655
24.501681
24.256706
24.150610
23.472905
23.587942
23.079515
23.066998
23.113489
##ZVALUE=315
0.709891
0.576973
0.672936
0.649691
0.621676
0.735521
0.719428
0.637770
0.686646
0.658631
0.754595
0.695586
0.642538
0.657439
0.757575
0.490546
0.753999
0.838637
0.729561
0.893474
0.933409
1.039505
0.967979
0.963807
0.977516
1.078844
1.039505
1.023412
1.234412
1.109838
1.304746
1.375675
1.389980
1.667738
1.734495
1.801848
2.048612
2.271533
2.600551
4.626513
27.715564
80.824494
245.184898
465.282798
915.302634
1015.732884
1015.732884
1015.732884
1015.732884
1015.732884
1015.732884
1015.732884
790.186524
498.852730
235.360861
114.077926
35.093427
18.873811
18.148422
20.688772
28.582811
38.298965
54.987669
70.153475
91.004968
103.945732
114.949942
116.003752
109.162927
97.762942
78.297853
65.732002
49.395561
40.166974
31.338930
27.318001
25.457740
24.339557
23.770928
24.184585
24.144650
24.714470
24.807453
24.976730
24.540424
24.764538
24.908781
25.172830
24.624467
25.091767
24.142861
23.825765
24.118423
23.643970
23.561716
23.043752
##ZVALUE=320
0.668764
0.634789
0.720620
0.789762
0.527501
0.587702
0.610948
0.644922
0.743866
0.683665
0.759959
0.787973
0.702739
0.855923
0.826716
0.774860
0.682473
0.889897
0.869632
0.749826
0.690818
0.820756
0.855923
1.011491
1.147985
1.128912
1.297593
1.151562
1.080632
1.216531
1.329780
1.479983
1.301765
1.501441
1.465678
1.478791
1.686811
1.912713
2.146959
2.487898
2.445579
3.395677
10.382533
58.178902
145.159364
395.428538
693.596601
1015.785933
1015.785933
1015.785933
1015.785933
1015.785933
1015.785933
1015.785933
1015.785933
622.085929
362.658501
155.918002
71.043968
23.261905
15.091896
15.877485
18.346906
25.451779
33.401847
49.438477
64.973831
84.270835
98.821521
109.432936
110.506415
105.368495
95.740557
77.321529
63.282847
47.208667
38.494468
30.941963
26.387572
24.297833
24.133921
23.477674
23.792982
24.409890
23.863912
24.566650
24.333000
24.582744
24.498701
24.286509
24.258494
24.215579
24.348497
23.598671
23.793578
23.315549
##ZVALUE=325
0.610948
0.700951
0.639558
0.594854
0.763535
0.759959
0.739694
0.623465
0.687838
0.723600
0.582933
0.805855
0.641942
0.677705
0.778437
0.741482
0.769496
0.901818
0.657439
0.904799
0.821948
0.725985
0.876784
0.891685
1.000762
0.994802
0.962615
0.957847
1.118779
1.054406
0.947714
1.242757
1.110435
1.176596
1.263618
1.359582
1.454949
1.458526
1.520514
1.892447
1.940727
2.004504
2.325773
2.730489
6.894469
27.036667
109.847784
239.027739
557.670593
914.422870
1015.785933
1015.785933
1015.785933
1015.785933
1015.785933
1015.785933
1015.785933
785.448551
424.418449
236.540437
86.285472
36.073923
14.320612
12.542605
14.182925
17.029643
23.818612
32.324791
48.533678
63.693523
83.374977
94.842911
104.655623
106.693506
100.032687
89.361668
73.113441
60.673952
46.039820
36.767721
29.348731
26.069880
24.865866
24.327636
24.010539
24.334788
24.856925
24.556518
23.848414
24.373531
23.400784
23.465753
23.648739
23.463964
23.166537
23.399591
##ZVALUE=330
0.633597
0.650883
0.614524
0.511408
0.553727
0.621676
0.673532
0.847578
0.874996
0.841618
0.672936
0.696778
0.571609
0.764728
0.620484
0.638962
0.714660
0.616908
0.730753
0.732541
0.725985
0.869632
0.733733
0.851750
0.842810
0.851750
0.701547
0.915527
0.935793
0.990629
0.984669
0.982881
1.102686
1.287460
1.227856
1.204610
1.238585
1.405478
1.482964
1.538992
1.519918
1.660585
1.826882
2.064705
2.070665
2.667904
3.352761
15.573502
52.862763
187.993646
373.199582
769.351721
1015.785933
1015.785933
1015.785933
1015.785933
1015.785933
1015.785933
1015.785933
949.851871
611.926913
284.329653
139.037967
44.974685
18.872619
12.439489
12.473464
14.285445
17.190576
23.944974
32.227635
46.235919
60.030818
78.246593
90.110898
98.726749
99.535584
93.753934
84.929466
69.792867
57.903528
44.193864
36.675930
29.481649
27.214885
24.989843
24.062991
23.343563
23.116469
22.918582
23.076534
23.050904
22.893548
23.060441
22.452474
22.455454
##ZVALUE=335
0.531673
0.640750
0.637770
0.697970
0.468493
0.548959
0.674725
0.687838
0.748634
0.550747
0.618696
0.585914
0.490546
0.562668
0.727773
0.661612
0.641942
0.562668
0.653863
0.819564
0.595450
0.731945
0.794530
0.741482
0.842810
0.834465
0.703931
0.847578
0.777841
1.024604
0.935793
0.868440
0.951886
0.819564
0.910759
1.021624
1.214743
1.251698
1.192689
1.349449
1.458526
1.331568
1.610518
1.667738
1.944900
2.041459
2.285838
2.447963
2.645850
8.015633
31.534433
126.684904
270.614624
603.160858
960.245728
1015.785933
1015.785933
1015.785933
1015.785933
1015.785933
1015.785933
1015.785933
791.300535
404.910445
205.086470
65.798759
26.416779
13.727546
12.784600
13.606548
15.272498
18.208623
23.069978
33.741593
44.374466
61.175823
73.569417
86.110830
92.496872
93.800426
89.891553
78.216791
68.758726
56.324601
47.402978
36.573410
31.346679
26.656985
24.835467
22.877455
22.606850
22.093654
22.338629
22.289753
22.002459
22.165775
##ZVALUE=340
0.580549
0.551939
0.590682
0.565648
0.633597
0.585914
0.452995
0.702739
0.599623
0.548959
0.684857
0.644922
0.707507
0.675917
0.586510
0.727773
0.689626
0.833869
0.755787
0.578761
0.845790
0.622869
0.922680
0.760555
0.717640
0.781417
0.841618
0.829697
0.858903
0.946522
0.756979
1.072884
0.950694
0.966787
1.062751
1.028776
1.130700
0.815988
1.173615
1.166463
1.324415
1.184940
1.375675
1.380444
1.595616
1.531839
1.757741
1.912713
2.201796
2.347827
2.686977
4.403591
17.200708
85.505843
201.456547
495.181680
818.767548
1015.785933
1015.785933
1015.785933
1015.785933
1015.785933
1015.785933
1015.785933
945.988894
494.290590
267.476439
101.231933
39.537549
15.164614
13.280511
13.568997
14.116764
15.894771
18.568635
24.557710
32.151937
43.884516
55.561662
71.238875
80.641508
88.718534
89.573860
85.456967
78.329444
65.329671
55.419803
44.054985
36.806464
30.220747
25.617480
23.221970
22.158623
21.966696
21.436810
21.462440
##ZVALUE=345
0.493526
0.525713
0.482798
0.438690
0.665784
0.612736
0.666976
0.643730
0.602603
0.689626
0.690818
0.654459
0.491738
0.643730
0.535846
0.499487
0.604987
0.557899
0.493526
0.668764
0.676513
0.352859
0.714660
0.682473
0.653863
0.712872
0.586510
0.709891
0.718832
0.688434
0.779629
0.715852
0.947714
0.964999
0.874996
1.019835
0.854731
0.941753
0.951886
0.968575
0.967979
1.152754
1.168847
1.194477
1.210570
1.270771
1.500845
1.661777
1.737475
1.916885
2.034903
2.138615
2.422929
2.914667
6.734729
44.829845
127.967596
346.806645
602.847934
1011.521816
1015.754938
1015.754938
1015.754938
1015.754938
1015.754938
1015.754938
1015.754938
659.132600
371.115804
142.577887
59.584975
20.268559
13.994575
13.671517
14.017820
14.125705
14.946461
18.294454
22.184849
30.795932
40.252805
55.317879
63.997507
74.845552
80.392957
84.020495
81.027746
72.958469
65.474510
54.150820
44.181943
33.900738
28.834939
24.653673
22.040606
20.953417
##ZVALUE=350
0.693798
0.594854
0.613928
0.614524
0.592470
0.640750
0.627637
0.595450
0.646710
0.492930
0.631809
0.758767
0.757575
0.529885
0.664592
0.717640
0.717640
0.591874
0.650883
0.628829
0.779629
0.778437
0.741482
0.698566
0.842810
0.648499
0.779629
0.800490
0.736713
0.865459
0.676513
0.766516
0.871420
0.852942
0.876784
0.851750
0.977516
1.020432
1.062751
1.087785
1.082420
1.054406
1.087785
1.322627
1.235604
1.318455
1.388788
1.511574
1.495481
1.591444
1.865625
1.808405
2.137423
2.232790
2.639890
2.787709
4.096627
21.556616
69.455504
224.892497
432.704687
863.451958
1015.783548
1015.783548
1015.783548
1015.783548
1015.783548
1015.783548
1015.783548
842.672586
506.206751
223.402977
99.722743
29.068589
15.458465
13.386607
13.151765
13.160706
14.004707
15.330911
17.266870
23.079515
27.981997
37.439466
46.072602
57.922602
67.111850
74.370503
76.577663
74.904561
69.779754
60.107708
51.714778
41.305423
34.801960
27.503967
##ZVALUE=355
0.588894
0.530481
0.366569
0.658631
0.525713
0.445843
0.474453
0.564456
0.511408
0.477433
0.426769
0.582933
0.493526
0.632405
0.601411
0.588894
0.631809
0.477433
0.557899
0.473857
0.603795
0.735521
0.681877
0.627637
0.716448
0.619888
0.709891
0.741482
0.758767
0.752807
0.852942
0.871420
0.724792
0.721812
0.776649
0.788569
0.848770
1.008511
1.074672
0.876784
1.103878
1.065731
1.039505
0.969768
1.154542
1.146793
1.084805
1.251698
1.223683
1.209974
1.272559
1.396537
1.648664
1.773834
1.891851
2.231598
2.349615
2.676845
3.065467
9.556413
36.848783
151.844621
316.672921
678.522587
1008.878946
1015.674472
1015.674472
1015.674472
1015.674472
1015.674472
1015.674472
988.880992
645.509958
275.934935
127.050877
38.441420
17.030835
12.477636
12.025833
12.467504
12.747645
13.292432
14.308691
16.388893
19.132495
25.160909
32.205582
42.295456
50.790906
60.299635
66.134930
69.842935
68.571568
63.194633
56.495667
47.233701
##ZVALUE=360
0.665784
0.669956
0.614524
0.674725
0.537634
0.579953
0.627637
0.628829
0.811815
0.648499
0.702739
0.773668
0.584722
0.661612
0.631809
0.764728
0.558496
0.755787
0.765920
0.749826
0.726581
0.739694
0.812411
0.927448
0.856519
0.809431
0.669956
0.742674
0.789762
0.769496
0.781417
0.729561
1.038909
0.916719
0.781417
0.769496
0.846982
0.925660
0.878572
1.083612
0.953674
1.114607
1.166463
0.961423
1.063943
1.183748
1.143813
1.317859
1.402497
1.459718
1.477599
1.634955
1.584888
1.661777
1.839995
1.829863
1.958609
2.160668
2.321601
2.812743
3.078580
4.840493
16.753674
84.730983
211.125612
520.184636
853.593946
1015.785933
1015.785933
1015.785933
1015.785933
1015.785933
1015.785933
1015.785933
776.599646
396.431684
202.232003
64.201951
25.699735
12.653470
11.957884
12.071729
11.855960
11.946559
12.667775
13.110638
14.290810
17.568469
20.954609
27.490854
34.758449
45.595765
52.184463
60.199499
63.824654
63.733459
##ZVALUE=365
0.669956
0.602603
0.753999
0.464916
0.692606
0.551939
0.527501
0.504851
0.650883
0.625849
0.775456
0.701547
0.531673
0.657439
0.670552
0.654459
0.573993
0.797510
0.672936
0.665784
0.627637
0.622869
0.603795
0.757575
0.770688
0.818968
0.847578
0.780821
0.807643
0.818968
0.855923
0.861883
0.948906
0.804663
1.027584
0.805855
0.885725
0.916719
0.987649
0.939965
1.011491
1.074672
1.068711
0.874996
1.002550
1.036525
1.199841
1.131892
1.212955
1.125932
1.310706
1.278520
1.317859
1.599789
1.628995
1.755953
1.908541
1.983643
1.967549
2.131462
2.361536
2.719760
3.029704
3.758669
7.505417
45.295954
126.993656
344.119072
641.433001
1015.785933
1015.785933
1015.785933
1015.785933
1015.785933
1015.785933
1015.785933
973.056555
549.031496
300.291777
106.982589
41.515827
13.729930
11.050701
10.880828
10.815859
10.876656
11.227727
11.454821
11.401772
13.189912
14.342666
18.559694
22.805929
30.879974
37.875772
46.493411
##ZVALUE=370
0.634789
0.586510
0.736713
0.631809
0.578761
0.436902
0.708699
0.591874
0.564456
0.700951
0.656843
0.673532
0.644922
0.598431
0.601411
0.735521
0.810623
0.787973
0.815988
0.772476
0.692606
0.865459
0.598431
0.765920
0.838637
0.889897
0.961423
0.863671
0.693798
0.764728
0.777841
0.670552
0.652671
0.900626
0.983477
0.721812
0.829697
0.845790
0.854731
0.836849
0.823736
0.947714
0.856519
0.905991
0.957847
0.849962
0.905991
1.133680
1.013875
0.907779
1.117587
1.096725
1.094937
1.032948
1.351833
1.271963
1.235604
1.452565
1.631975
1.646876
1.723766
2.000928
2.235770
2.556443
2.705455
2.946854
4.263520
21.243691
72.441697
244.767666
460.791588
882.791877
1015.788913
1015.788913
1015.788913
1015.788913
1015.788913
1015.788913
1015.788913
665.462017
376.501679
144.090652
62.896609
20.736456
11.387467
10.091662
9.912848
10.010600
9.991527
10.153651
10.245442
10.703802
11.432767
13.549924
15.871525
21.267533
##ZVALUE=375
0.683665
0.579953
0.643730
0.631809
0.593662
0.693798
0.547767
0.746846
0.600815
0.510812
0.652671
0.506639
0.492930
0.566840
0.639558
0.703931
0.575781
0.638962
0.533462
0.496507
0.639558
0.770688
0.579953
0.734925
0.670552
0.641942
0.606775
0.688434
0.758767
0.728965
0.852942
0.725985
0.704527
0.758767
0.818968
0.814795
0.727773
0.699759
0.748634
0.895858
0.780821
0.765920
0.893474
0.814795
0.856519
0.925660
0.943542
0.844598
0.790954
0.969768
0.925660
1.008511
0.936985
1.134872
1.120567
1.094937
1.174808
1.094937
1.330972
1.256466
1.497865
1.539588
1.698732
1.698732
1.888871
2.283454
2.401471
2.741814
3.256798
11.251569
41.196942
152.656436
328.532457
745.719671
1015.785933
1015.785933
1015.785933
1015.785933
1015.785933
1015.785933
1015.785933
838.465691
529.937744
257.263780
126.352906
38.218498
15.582442
9.588599
9.250641
9.093881
9.043813
9.235740
9.374619
9.536743
9.907484
10.668635
##ZVALUE=380
0.478625
0.481606
0.472665
0.469685
0.528693
0.448823
0.522733
0.579953
0.492930
0.470877
0.584722
0.476837
0.473857
0.359416
0.494719
0.514984
0.555515
0.528693
0.518560
0.579953
0.604987
0.565648
0.286698
0.609756
0.459552
0.765920
0.564456
0.611544
0.629425
0.619888
0.867844
0.661612
0.641942
0.678897
0.477433
0.651479
0.635982
0.617504
0.650883
0.791550
0.712872
0.652671
0.566840
0.687838
0.763535
0.769496
0.776649
0.704527
0.786781
0.745654
0.713468
0.877976
0.874996
0.803471
0.981688
0.868440
0.931621
1.107454
1.025796
1.066923
1.116991
1.289845
1.132488
1.296997
1.470447
1.702905
1.737475
1.890659
2.320409
2.967715
3.271699
5.803704
21.846890
110.218525
261.823535
619.454980
973.382592
1015.707850
1015.707850
1015.707850
1015.707850
1015.707850
1015.707850
1015.707850
757.954717
379.269719
195.827484
66.078901
25.779605
9.926558
8.531809
8.235574
8.442998
8.399487
8.430481
8.378625
##ZVALUE=385
0.552535
0.537634
0.509620
0.519753
0.349879
0.540614
0.484586
0.450611
0.580549
0.553727
0.483990
0.540614
0.692606
0.516772
0.486970
0.467896
0.502467
0.517964
0.689626
0.631809
0.554919
0.578761
0.589490
0.646710
0.606775
0.706911
0.542998
0.620484
0.564456
0.523925
0.496507
0.591874
0.737906
0.739694
0.637770
0.582933
0.599623
0.802875
0.692606
0.686646
0.779629
0.759959
0.863671
0.737906
0.732541
0.607967
0.840425
0.698566
0.868440
0.850558
0.909567
0.891685
1.008511
0.981688
0.930429
0.856519
0.807643
0.976920
1.108646
1.088977
1.205802
1.081824
1.203418
1.321435
1.396537
1.429915
1.517534
1.793504
1.801848
2.219677
2.215505
2.714992
2.735853
3.474951
10.155439
62.508583
163.673759
416.079760
731.544495
1015.787721
1015.787721
1015.787721
1015.787721
1015.787721
1015.787721
1015.787721
964.725018
529.138446
292.266607
117.443800
45.956969
12.013912
7.936954
7.607937
7.493496
7.522702
##ZVALUE=390
0.507832
0.447631
0.387430
0.537634
0.495911
0.424981
0.439882
0.517964
0.615716
0.469685
0.493526
0.511408
0.326633
0.396967
0.499487
0.576973
0.451803
0.530481
0.414848
0.452995
0.537634
0.459552
0.562668
0.448823
0.558496
0.463724
0.598431
0.587702
0.646710
0.543594
0.666976
0.608563
0.594854
0.476837
0.519753
0.589490
0.653863
0.541806
0.566840
0.560880
0.407696
0.613928
0.681877
0.563860
0.697970
0.712872
0.555515
0.797510
0.619888
0.709891
0.613928
0.810623
0.792742
0.795722
0.793934
0.697970
0.772476
0.940561
0.973940
0.918508
0.948906
0.975728
0.849962
1.224875
1.116991
1.305938
1.319647
1.419783
1.602769
1.963973
2.072453
2.385974
2.412796
2.460480
2.568960
2.986789
4.919767
31.368732
104.438663
321.995616
599.231720
1015.751958
1015.751958
1015.751958
1015.751958
1015.751958
1015.751958
1015.751958
1015.751958
703.698993
399.126410
155.619979
67.163706
17.699599
8.499622
6.989837
##ZVALUE=395
0.449419
0.472665
0.572801
0.715852
0.519753
0.497699
0.567436
0.553727
0.468493
0.418425
0.468493
0.549555
0.522733
0.455976
0.474453
0.387430
0.540614
0.524521
0.594854
0.418425
0.494719
0.454783
0.678897
0.584722
0.580549
0.406504
0.547767
0.536442
0.528693
0.549555
0.528693
0.484586
0.472665
0.662804
0.533462
0.623465
0.472665
0.716448
0.553727
0.746846
0.634789
0.721812
0.696778
0.634789
0.812411
0.744462
0.643730
0.743866
0.694990
0.734925
0.618696
0.821948
0.733733
0.865459
0.862479
0.878572
0.988841
0.897646
0.872612
0.902414
0.978708
1.123548
0.959635
1.149774
1.242757
1.342893
1.349449
1.308918
1.608729
1.885891
1.824498
1.857877
1.771450
1.997948
1.925826
2.285838
2.327561
2.588630
3.468990
16.976595
66.248775
234.226584
442.490578
835.130811
1015.785933
1015.785933
1015.785933
1015.785933
1015.785933
1015.785933
1015.785933
833.973885
505.960584
212.056637
96.418858
29.510856
##ZVALUE=400
0.567436
0.530481
0.679493
0.688434
0.702739
0.660419
0.653863
0.890493
0.678897
0.652671
0.552535
0.637770
0.606775
0.630617
0.738502
0.733733
0.690818
0.718832
0.695586
0.671744
0.770688
0.777841
0.677705
0.637770
0.643730
0.772476
0.752807
0.699759
0.798702
0.710487
0.652671
0.864863
0.818968
0.630617
0.804663
0.783801
0.882745
0.844598
0.785589
0.756979
0.896454
0.822544
0.910759
0.929832
0.950694
0.914931
0.938773
0.764728
1.055598
0.884533
0.896454
1.043677
0.933409
1.012683
1.079440
0.939965
1.063943
1.079440
1.003742
0.990629
0.943542
1.059771
0.981688
0.987649
1.195669
1.461506
1.430511
1.567602
1.791716
1.874566
2.074838
2.199411
2.196431
2.126694
1.810789
2.070665
2.197623
2.111793
2.452731
2.678633
3.029704
8.402467
32.281876
124.413967
271.890759
613.237619
966.793895
1015.983820
1015.983820
1015.983820
1015.983820
1015.983820
1015.983820
959.360003
624.880791
304.052830
##END
