##TITLE=QP00601
##FORMAT=SPECTACLE-ASCII V-1.2
##DATA TYPE=ULTRAVIOLET SPECTRUM
##SECOND TYPE=ULTRAVIOLET SPECTRUM
##DATE=02/01/18
##TIME=14:59:16
##SPECTROMETER/DATA SYSTEM=SPECTACLE
##XUNITS=NM EM
##YUNITS=ENERGY
##YFACTOR=1
##FIRSTX=220
##LASTX=410
##NPOINTS=96
##3DDATA=Equidistant
##ZUNITS=NM EX
##FIRSTZ=210
##LASTZ=400
##ZPOINTS=39
##XYDATA=(Y..Y)
##ZVALUE=210
1.189709
1.046658
1.412630
1.519918
1.347661
1.943707
1.456738
1.959801
2.263784
1.475811
1.863837
1.523495
1.410842
1.761913
1.590848
2.080798
1.309514
1.588464
1.782775
2.164841
2.392530
2.382994
2.146959
2.188683
2.220869
2.005696
2.511740
2.813935
3.216863
3.177524
3.561974
3.670454
3.492832
3.155470
2.471805
2.892613
2.961755
3.624558
3.433824
3.299713
3.061891
3.837943
3.161430
3.827810
3.960729
4.049540
3.978610
3.712773
3.785491
3.587604
3.971457
3.623962
3.891587
3.854632
3.874898
3.783703
3.724694
4.384518
4.276633
4.048944
4.357696
4.220605
3.822446
3.667474
4.052520
4.486442
4.278421
5.665421
5.521774
6.637573
6.639957
8.170605
9.825826
10.951757
10.638833
11.201501
11.222959
11.192560
11.285543
11.046529
9.908676
9.015799
8.102655
7.193685
6.539822
5.627871
4.751682
3.876686
4.347563
4.367828
4.605651
4.381537
4.202724
5.235672
5.871654
5.041957
##ZVALUE=215
3.819466
4.442930
3.976822
3.265738
3.462434
3.114939
3.345609
2.960563
3.931522
4.282594
3.710985
3.449917
3.301501
2.750754
2.019405
2.163649
1.502633
2.241731
2.088547
2.481937
2.435446
2.022982
2.599955
2.235770
3.024936
3.035665
2.909899
2.425909
3.080964
3.708601
3.017783
4.111528
3.622770
3.527999
4.018545
3.349781
3.194809
3.009439
3.919601
3.449917
3.523827
3.699660
3.676414
3.695488
4.012585
3.979802
3.986955
4.253983
4.712939
3.847480
4.682541
3.614426
4.515648
4.596710
4.227757
3.783703
4.095435
3.810525
4.064441
4.565716
4.499555
4.408956
4.652739
4.929900
3.960729
5.424619
4.839897
4.723668
5.771518
6.350875
8.396506
9.035468
10.348558
10.657907
12.538433
11.026859
10.264516
10.011792
9.848475
9.932518
9.313822
8.854866
7.737875
6.218553
6.829500
5.083680
5.149841
4.729629
4.265904
5.119443
4.820824
4.343987
4.273653
4.399419
4.081726
5.014539
##ZVALUE=220
17.258525
18.044710
18.633604
17.569661
16.611814
14.448762
11.219978
9.064674
10.940433
9.780526
9.387732
10.783672
10.492802
6.794930
7.946491
4.689693
4.403591
3.890991
3.108978
2.254844
2.637506
2.793670
2.789497
2.878904
3.335476
2.491474
3.078580
2.776980
3.938675
4.231930
3.992915
5.111694
3.938675
4.855990
4.060864
4.376769
4.456639
4.826784
4.925728
4.750490
4.441738
4.989505
4.492998
4.351735
3.638864
4.407763
3.974438
3.888607
4.649758
4.842877
4.809499
4.942417
4.564524
4.747510
5.039573
5.255938
4.925728
5.026460
5.178452
4.111528
5.518794
5.753636
5.422831
5.208850
5.149841
5.618930
6.056428
7.271767
8.127689
7.119775
8.218884
8.379817
11.108518
10.961890
11.583567
11.531711
12.638569
13.198853
12.214780
10.620952
10.950565
10.251999
9.964705
9.396672
8.989573
7.482767
7.075667
5.982518
7.068515
6.150603
6.050467
5.794764
6.208420
5.950928
6.089807
6.103516
##ZVALUE=225
29.001832
33.867955
40.806532
53.038597
57.291985
59.117675
55.202842
44.099689
35.334826
25.620461
22.228956
19.153953
22.920966
24.012923
23.422837
24.037957
19.538999
15.715957
10.255575
8.225441
4.802942
3.876686
3.494620
3.502965
3.249645
3.796816
4.019737
3.907681
3.637671
4.529953
4.233718
5.403757
5.301833
5.360842
4.819632
5.349517
5.832911
6.207824
5.779862
5.605817
5.329847
5.962849
6.264448
5.232692
4.687905
4.956722
5.359650
5.694628
5.240440
4.986525
4.575849
5.578995
5.672574
5.587935
5.409718
6.265640
5.631447
6.616712
6.646514
6.570816
6.642938
6.997585
7.016659
6.504655
7.238984
7.523894
7.960796
8.755922
7.838607
10.015965
11.385679
12.116432
11.468530
14.507771
14.200807
13.343692
14.693737
13.247728
14.021993
12.779832
12.073517
11.186600
11.969805
11.490583
11.916757
9.845495
10.208488
11.323690
9.907484
9.680986
9.686947
9.177923
9.470582
9.173751
9.950995
9.789467
##ZVALUE=230
28.353930
28.893948
47.010779
82.773566
104.150772
135.580897
147.749782
150.403976
137.224793
115.709901
81.357956
60.956478
45.400858
44.071674
44.112802
45.503974
50.239563
48.962831
43.361783
35.189986
25.415421
17.247796
11.188984
7.036924
5.063415
4.883409
4.346967
4.659891
4.934669
5.322695
5.222559
5.755424
5.970597
5.348921
4.889965
6.142855
5.890727
5.610585
6.390810
6.093979
5.713701
5.213618
6.184578
6.203651
6.184578
6.535649
6.356835
5.867481
6.173849
6.195903
5.852580
6.515980
7.802844
6.437898
7.470846
7.630587
7.537603
7.868409
8.746982
8.917451
8.910894
10.331869
9.689927
9.715557
10.284781
10.513663
11.592507
11.493564
12.838840
13.808608
14.244914
15.883446
17.398000
18.300414
18.394589
20.069480
18.128753
18.725991
20.118952
18.508434
18.230677
17.726421
18.671751
16.252995
16.851425
15.655756
15.934706
16.347766
15.966892
15.197992
15.175939
15.185475
14.424920
16.391873
16.324520
14.863610
##ZVALUE=235
10.269880
11.264682
25.609732
59.391856
101.568699
157.393813
206.898451
272.816420
304.209590
308.578610
269.975662
228.455663
155.164003
117.736459
83.688498
73.121786
70.990920
73.582530
82.113743
83.086491
75.947642
67.415833
53.357482
35.700798
24.901628
15.081763
10.078549
7.832646
7.345676
5.883574
5.966425
7.445812
6.341934
6.518960
6.591678
6.743670
7.074475
7.293820
6.794930
6.691813
5.931854
6.930828
6.089807
6.912947
5.988479
5.919933
6.646514
6.753802
6.226897
7.548928
7.200837
7.812977
7.900596
9.292960
8.928776
9.506941
9.614825
9.906888
11.580586
11.771917
11.892915
13.437867
15.008450
14.052987
13.059974
14.601946
15.185475
16.105771
16.471744
20.218492
19.885898
22.214651
22.154450
23.865700
24.692416
25.333762
26.106834
26.091933
25.103688
26.782751
26.431680
23.660660
25.321841
24.104714
24.668574
25.586486
23.589730
23.291707
24.336576
24.929643
23.484826
23.026466
23.302436
21.867752
22.338629
23.690462
##ZVALUE=240
1.188517
0.963807
3.971457
13.513565
36.730766
67.748427
142.657757
214.906931
326.264501
397.869945
458.496809
455.016494
430.106521
345.285535
272.603631
174.629688
128.666759
97.410679
87.934732
95.248818
107.603669
114.112496
110.392570
100.560784
80.646873
65.070987
42.521954
33.108592
20.140409
14.672875
9.650588
9.879470
8.797646
7.622838
7.771850
8.507967
7.372499
7.894635
7.455945
7.165670
7.033944
6.343722
6.581545
6.955862
6.712675
6.452799
6.677508
6.321669
7.666945
7.424951
7.369518
8.534789
7.404685
8.557439
9.454489
11.304617
10.967851
10.089874
11.073947
11.927485
13.096929
12.795925
13.854504
13.867617
15.869737
17.322898
16.513467
17.721653
18.348694
20.371675
22.020936
23.451447
25.289655
24.822950
28.215647
29.232502
29.139519
29.167533
28.790832
29.254556
29.924512
28.243661
29.371977
29.412508
27.097464
28.686523
29.754639
26.853681
28.765798
28.357506
29.902458
27.853847
27.684569
27.803779
28.557777
26.784539
##ZVALUE=245
1.197457
0.874996
1.009703
1.049638
3.328919
8.878708
31.900406
70.045590
151.355863
236.231685
364.598632
462.666750
527.016521
568.175912
539.777875
453.529954
372.696519
252.941847
180.996656
115.037560
95.108747
94.802976
110.450983
124.383569
127.326846
120.543838
110.146999
97.892880
70.893764
53.241849
40.013790
24.634600
16.265512
11.229515
9.992719
10.454655
8.673668
8.747578
8.390546
7.337928
6.443858
6.433725
7.131696
6.524920
6.366968
6.081462
6.213784
6.686449
7.268786
6.690621
6.984472
7.632971
8.265972
8.010864
8.511543
8.622408
9.468794
9.529591
10.286570
11.174679
11.347532
12.149811
12.215972
12.819767
14.047623
15.278459
15.252829
16.873479
17.573833
18.986464
19.928813
21.852851
23.514628
25.226474
25.959611
27.044415
26.384592
28.512478
26.833415
27.562976
26.545525
27.737617
29.927492
28.246641
29.105544
28.251410
29.493570
28.545856
29.085875
29.274821
29.096603
27.886629
28.568506
27.437806
27.496815
26.778579
##ZVALUE=250
0.784993
0.927448
0.901818
1.190901
0.794530
1.372695
1.867414
6.023645
24.693608
56.399703
135.238767
220.547915
328.537822
474.318862
563.929677
641.109943
642.762780
584.509969
495.407581
345.565677
239.701867
158.966780
102.433562
90.428591
104.627609
117.592812
135.257840
136.768818
134.030581
119.602680
103.654861
79.497695
57.948828
37.054420
24.888515
15.297532
12.405515
8.365512
8.732677
7.285476
7.619858
7.171631
6.760955
7.030964
6.100535
6.769896
6.008744
6.050467
6.358624
6.622672
7.041693
7.299781
7.117987
7.133484
7.005930
7.720590
7.794499
8.210540
8.766651
8.851886
9.864569
9.885430
10.226965
11.756420
12.171865
12.035966
13.546944
14.399886
14.537573
16.851425
17.018914
19.319654
19.430518
20.780563
20.822883
23.176670
22.471547
23.682714
25.014877
24.004579
25.875568
26.432872
25.643706
25.986433
25.965571
27.240515
26.624799
26.985407
25.378466
26.001930
25.462508
26.683807
26.764870
27.012825
27.102828
27.289987
##ZVALUE=255
0.919700
1.033545
0.677705
0.988841
0.907779
0.933409
0.935793
1.180768
1.257658
3.602505
16.604662
41.066408
86.498857
187.847614
298.678875
462.529659
580.150485
691.689849
729.472637
688.850880
600.155592
479.428768
307.170749
198.327899
114.129782
89.782476
86.907744
99.924803
123.338699
135.548711
138.652921
140.236616
126.594901
98.948479
79.689622
53.001642
37.697554
22.068620
14.228821
9.837747
7.992983
7.033944
7.466674
6.361604
6.734729
5.694628
5.936623
6.291866
6.422997
6.126761
5.945563
6.514788
7.338524
7.490516
6.865859
7.198453
7.389784
7.523894
7.869601
7.620454
8.898973
9.501576
8.837581
10.121465
10.368824
11.615753
11.680722
11.885762
13.659000
13.861656
15.174747
16.705990
17.355680
18.313527
18.676519
19.947886
20.424724
20.966530
21.517873
22.470951
21.884441
22.743940
22.182465
22.290945
23.186803
23.074746
24.393797
23.926497
24.123788
24.694800
25.186539
23.717880
24.573803
26.360750
24.046898
26.273727
##ZVALUE=260
0.710487
0.604987
0.932813
0.704527
1.030564
1.047850
1.060963
1.017451
0.861883
1.097918
1.213551
2.270937
7.399917
29.439926
64.937472
122.752786
258.138776
379.670858
571.878552
695.963502
799.787641
808.312893
712.645650
588.243604
403.815508
272.025466
175.620914
97.700953
77.916980
80.237985
99.433661
124.712586
136.588812
143.546462
140.738487
123.329759
104.817748
76.984763
57.457685
35.083890
24.818778
13.559461
9.275675
7.161498
6.359816
5.972981
6.596446
5.773902
6.389618
6.513000
6.808639
6.391406
6.578565
7.116795
6.705523
7.254481
7.371902
7.227659
7.319450
8.196831
8.731484
8.759499
8.898973
9.030700
9.387732
10.519624
10.209680
11.547804
12.226701
12.793541
13.108850
14.901757
15.777946
16.244650
17.130971
18.151999
17.932653
18.862486
18.780828
20.396709
19.083619
20.707846
21.232963
20.778775
21.177530
20.765662
22.016764
21.932721
22.243857
23.981929
23.349524
23.294687
22.860765
23.030639
22.800565
24.273992
##ZVALUE=265
0.813603
0.871420
0.809431
0.875592
0.660419
0.823736
0.809431
0.936985
1.030564
1.105666
1.148582
1.319647
1.377463
1.663566
3.650784
17.957687
45.240521
113.811493
196.876526
376.041532
528.897643
682.286024
835.540891
879.334807
817.033648
712.212920
531.527996
381.817818
217.359662
129.550695
84.579587
66.704750
77.255964
104.562640
125.613809
142.609477
147.137642
139.730573
127.496719
99.689960
79.315901
53.418875
35.463572
20.844936
13.907552
8.418560
7.381439
6.557703
6.666780
6.628633
6.680489
6.839633
7.414818
7.365942
6.897449
6.974936
7.455945
7.474422
7.755756
8.483529
9.019971
8.947849
9.245872
9.674430
9.271502
9.807944
10.701418
10.592937
11.672974
13.022423
12.928843
13.911724
14.829636
15.874505
16.310811
16.888976
16.555786
18.389821
18.168688
18.974543
19.011497
19.184947
19.287467
19.120574
19.278526
20.867586
20.876527
22.267699
21.233559
21.011829
21.528602
21.930933
21.969676
22.374988
22.386909
21.915436
##ZVALUE=270
0.678897
0.653863
0.667572
0.757575
0.824928
0.933409
0.549555
0.774860
0.972748
0.940561
0.887513
0.948906
1.237988
1.263618
1.132488
1.398921
1.793504
8.670688
25.147796
81.152916
159.275532
269.670486
482.761860
658.578873
851.181746
927.729607
919.058919
839.098692
662.877560
502.919555
306.078792
194.220543
96.611977
63.033700
61.160922
76.513886
104.435682
125.281811
141.337514
147.098899
139.130950
126.848817
102.334619
80.657601
53.689480
36.756992
21.991730
15.001893
9.408593
7.597804
7.066727
7.182956
7.317662
7.699728
7.528663
7.402897
8.049607
8.621812
7.755756
9.045601
8.982420
9.072423
9.300709
10.111928
10.344982
10.528564
10.615587
11.459589
12.467504
12.113452
12.816787
14.911890
14.728904
15.705824
16.123652
16.440749
17.575622
16.628504
17.407537
17.108917
17.566681
18.785000
18.530488
19.069910
18.811822
19.542575
19.900799
19.742846
19.670725
20.227432
20.006895
20.738840
20.872951
21.199584
20.730495
21.302700
##ZVALUE=275
0.413656
0.508428
0.327826
0.475645
0.726581
0.557899
0.538826
0.494719
0.621676
0.546575
0.509620
0.608563
0.728965
0.689626
0.984669
0.885725
0.779629
1.059771
1.249909
3.848672
15.688539
44.679642
128.553510
238.716602
437.175632
601.935983
793.576837
913.043022
973.851681
936.671495
828.822851
615.736842
448.443890
242.445469
141.605735
67.474842
48.690438
56.296587
73.474646
101.069808
121.928453
139.198899
143.784881
138.362646
126.340985
98.268986
78.899860
55.151582
38.815737
21.532774
15.632510
10.030866
8.000731
7.694960
7.724762
7.906556
8.264780
8.977652
8.851886
8.638501
9.926558
9.460449
10.100603
10.008812
10.276437
10.907650
11.237860
11.662841
12.340546
12.908578
13.268590
14.266968
14.164448
15.749931
15.571713
15.638471
16.438961
17.015934
17.217994
17.625690
17.519593
18.446445
17.765760
18.428564
18.523932
19.187927
17.842650
18.746853
18.434525
18.564463
19.292831
18.849969
19.698739
19.550920
19.592643
20.159483
##ZVALUE=280
0.711679
0.627637
0.641942
0.780821
0.783801
0.632405
0.708699
0.825524
0.691414
0.709891
0.658631
0.801682
0.823736
0.954866
0.919700
0.846982
1.010895
1.045465
1.156926
1.179576
1.454949
1.639724
9.272695
31.216741
98.910928
183.109641
344.694853
511.078835
735.046864
874.709487
982.221961
987.922549
905.636549
703.593493
532.726645
312.485695
187.362432
85.251927
49.994588
39.867759
50.914884
75.769424
96.452832
121.155977
134.007931
141.427517
135.709643
120.100975
103.578568
77.128410
58.198571
37.256479
25.949478
15.790462
11.503696
9.630919
8.857846
9.196997
9.749532
10.204911
10.482669
10.470748
11.274815
11.235476
11.465549
12.011528
12.786984
12.510419
13.378859
13.609529
14.103651
14.431477
15.403628
15.960932
16.135573
16.421676
16.539693
17.140508
17.193556
17.056465
17.426610
18.195510
17.632842
18.151999
18.388629
18.789768
18.500686
18.354654
17.859936
18.215775
18.366575
18.947721
18.876791
18.755794
19.185543
18.705726
##ZVALUE=285
0.550747
0.440478
0.586510
0.686646
0.581741
0.667572
0.657439
0.591874
0.645518
0.816584
0.788569
0.671744
0.717640
0.902414
0.851750
0.834465
0.846982
0.725985
1.166463
1.340508
0.922680
1.194477
1.212955
1.474619
4.685521
16.310811
55.180788
117.290616
257.987976
402.405858
562.589765
791.554451
927.986503
1006.165743
969.762802
813.819766
653.412938
414.390564
263.238549
124.763846
66.881776
34.034848
32.468438
48.917532
67.662001
95.838904
111.925602
129.803419
137.139559
133.438706
124.478936
100.909472
83.099604
56.931973
41.031837
25.983453
18.638968
13.208985
11.995435
11.773705
11.659861
11.637807
11.834502
12.428761
12.626648
13.266802
13.536811
13.733506
14.023781
15.183687
14.932752
15.747547
16.161799
16.480684
16.973615
16.792417
17.438531
17.683506
17.822981
18.057823
18.451810
18.186569
18.366575
18.671751
18.390417
18.985868
18.801689
18.824935
18.872619
18.250942
18.374920
18.805861
18.511415
18.752813
18.138885
18.067956
##ZVALUE=290
0.458956
0.453591
0.481606
0.664592
0.584722
0.457764
0.743866
0.516772
0.517964
0.729561
0.636578
0.638962
0.690818
0.723600
0.624657
0.708699
0.762939
0.714660
1.037717
0.807643
0.860691
1.098514
1.124740
1.200438
1.429915
1.525879
2.338886
6.458759
30.405521
70.608854
172.997713
305.423737
474.710464
719.723701
879.194736
1010.341644
1012.313962
899.405479
752.810836
518.522859
346.769691
177.235007
93.989968
37.354827
24.361610
30.733943
44.333935
66.644549
86.635947
110.558867
123.803616
135.312676
133.762956
119.833946
104.007721
77.815652
60.083866
39.887428
29.013753
20.134449
16.567707
14.163852
13.465881
13.580918
13.957620
14.280677
14.302731
15.112758
15.159845
16.307831
17.214417
16.737580
16.758442
17.246604
17.676950
18.110871
17.849803
18.011928
18.610954
18.897653
18.439889
19.057989
18.865466
19.287467
19.561648
19.216537
19.483566
19.407868
19.268990
18.634796
19.268990
18.812418
18.791556
19.250512
18.729568
18.574595
##ZVALUE=295
0.630617
0.594854
0.696778
0.560880
0.541806
0.539422
0.530481
0.565648
0.592470
0.532866
0.660419
0.754595
0.543594
0.623465
0.713468
0.702739
0.865459
0.751615
0.928640
0.928640
0.977516
0.831485
1.006722
1.133680
1.058578
1.162887
1.430511
1.387596
1.600981
2.625585
10.133982
44.100881
102.590919
246.387720
399.596691
641.713738
812.215805
979.565978
1015.843749
970.665812
854.300857
629.338026
450.154543
245.508552
137.662888
50.438643
25.863647
20.366907
28.167963
44.347644
61.453581
85.852742
103.309751
123.018622
130.677819
126.238465
118.685961
98.851919
81.622601
59.736967
45.021772
29.576421
23.412704
18.083453
16.241670
14.781952
15.429854
15.626550
15.991926
16.516447
16.941428
17.228723
18.243790
18.384457
18.545985
19.193888
19.084811
18.891692
19.500852
19.523501
18.944740
19.808412
19.804835
19.207597
20.198822
19.503832
20.095706
19.926429
19.451976
19.316673
19.396544
19.050837
19.315481
18.935800
19.128919
18.971562
##ZVALUE=300
0.502467
0.615716
0.505447
0.384450
0.400543
0.600815
0.530481
0.623465
0.668764
0.641942
0.724792
0.665784
0.586510
0.620484
0.483990
0.859499
0.520945
0.752807
0.780821
0.769496
0.874996
0.909567
0.951886
0.887513
0.916719
1.012683
1.143813
1.115799
1.434684
1.614690
1.609921
1.829863
6.610751
22.898912
79.995990
157.542825
331.067443
505.657792
745.024681
892.563462
1013.090611
1015.785933
923.050642
775.415897
537.506938
361.663699
188.415647
102.245808
39.397478
20.253658
19.209981
26.151538
41.168928
56.532621
81.202984
98.439455
116.364956
124.850869
122.818947
114.986897
97.807646
82.448721
60.289502
46.500564
31.393766
25.141835
19.757748
17.748475
17.013550
16.907454
17.833710
17.798543
18.259883
18.587708
19.048452
18.927455
19.270778
19.429922
20.409822
19.858479
19.902587
20.229816
20.500422
20.351410
20.330548
20.646453
20.775795
19.916892
20.387769
19.722581
19.394755
19.328594
19.264817
19.843578
18.570423
19.343495
##ZVALUE=305
0.469685
0.411868
0.504851
0.548959
0.762939
0.445843
0.618696
0.660419
0.533462
0.467896
0.554919
0.581741
0.490546
0.596642
0.636578
0.568628
0.480413
0.697970
0.704527
0.641942
0.660419
0.651479
0.790954
0.834465
0.737906
0.870824
0.837445
0.866652
1.049638
1.046658
1.129508
1.147985
1.319647
1.514554
3.420711
12.549758
51.191449
116.133690
266.333818
413.551927
653.374791
821.970701
990.327001
1015.785933
969.956517
844.433904
629.983544
460.362434
250.206590
144.649744
59.218407
27.073622
15.149713
18.273592
27.255416
38.385987
58.886409
75.858831
97.546577
110.638738
119.100809
120.035410
109.628439
97.071528
76.045990
61.108470
43.800473
34.009814
24.079680
20.334721
18.314719
18.159747
18.152595
18.899441
19.028783
19.076467
19.051433
19.274950
19.779801
19.808412
20.560622
20.655990
20.800829
20.700693
21.210909
21.132827
21.217465
21.078587
20.579696
20.239949
20.095706
19.822717
19.855499
18.821955
19.109845
19.243956
##ZVALUE=310
0.369549
0.585914
0.556707
0.497699
0.442863
0.662804
0.501871
0.503659
0.598431
0.518560
0.493526
0.460744
0.481606
0.643730
0.555515
0.677705
0.513792
0.555515
0.576973
0.595450
0.668764
0.718832
0.697970
0.759959
0.651479
0.790954
0.778437
0.783801
0.954866
1.017451
0.893474
1.113415
1.047850
1.133680
1.257658
1.441836
1.915693
6.637573
22.669435
78.584552
157.812834
330.308676
502.497554
739.369988
899.436474
1013.751030
1013.799906
908.930898
778.134465
547.207594
382.173657
203.954577
113.329887
43.002963
19.185543
13.758540
16.997457
25.310516
34.865737
53.354502
68.345666
89.663863
104.122758
112.638474
114.315748
106.534958
94.929934
76.645613
61.842799
43.113828
33.992529
25.931001
22.027493
19.446611
18.973947
19.024611
19.192696
19.665956
19.812584
20.320415
20.568967
20.554662
20.677447
21.046996
21.044612
21.429658
20.894408
21.090508
20.828843
20.524859
20.543933
20.000935
20.140409
20.142794
20.180941
19.380450
##ZVALUE=315
0.494719
0.430942
0.580549
0.398755
0.539422
0.689626
0.430942
0.466704
0.558496
0.556707
0.438690
0.553727
0.503659
0.485778
0.427961
0.542998
0.627637
0.457764
0.607967
0.741482
0.571609
0.541806
0.475645
0.667572
0.768900
0.652671
0.664592
0.771880
0.699759
0.657439
0.828505
0.937581
1.048446
0.988841
0.934601
1.244545
1.224875
1.438856
1.480579
2.853870
11.334419
50.048828
113.650560
259.771943
419.308543
671.054721
830.735564
978.300571
1015.785933
951.142907
831.778646
610.249639
445.384979
251.596570
142.969489
57.924986
26.202798
13.276935
13.108850
16.787648
22.299886
34.857988
47.245622
65.199733
81.211925
98.791718
105.632544
108.222961
103.675723
87.234974
75.467825
58.157444
46.123862
33.412576
26.448965
21.465421
20.202994
18.977523
19.295812
19.501448
19.589663
20.134449
20.325780
20.779967
20.545721
20.416975
21.173954
20.928979
20.926595
20.843744
21.028519
20.567775
20.659566
20.405650
20.211935
19.868612
##ZVALUE=320
0.536442
0.459552
0.425577
0.327826
0.389814
0.413656
0.367761
0.367761
0.356436
0.313520
0.338554
0.360608
0.420809
0.346899
0.448823
0.386834
0.459552
0.542998
0.361800
0.582933
0.532866
0.537634
0.555515
0.570416
0.645518
0.678897
0.723600
0.576973
0.630617
0.522733
0.780821
0.779629
0.720620
0.848770
0.910759
0.855923
0.963807
1.212955
1.069903
1.192689
1.363754
1.770854
5.214810
28.875470
75.473785
195.169449
323.801637
535.258651
711.098909
907.907486
994.812846
981.088877
892.082453
689.942837
515.758991
299.108624
177.174807
79.446435
38.525462
14.968514
10.972619
12.033582
14.868975
20.949841
29.202700
45.131445
58.333874
76.303482
90.461969
101.565719
104.036927
98.271966
88.931918
70.985556
57.929754
42.724609
33.606887
26.037693
22.855997
20.751953
20.167828
19.889474
20.142794
20.056963
20.203590
20.386577
20.441413
20.619631
20.774603
20.507574
20.468831
20.220876
20.271540
20.259619
20.329952
19.848943
##ZVALUE=325
0.306964
0.363588
0.474453
0.444651
0.454783
0.383854
0.394583
0.423789
0.448823
0.349879
0.488758
0.429749
0.590682
0.448823
0.434518
0.384450
0.551939
0.410676
0.646710
0.561476
0.601411
0.533462
0.588894
0.552535
0.521541
0.434518
0.451803
0.589490
0.564456
0.519753
0.664592
0.706911
0.737906
0.788569
0.663996
0.828505
0.679493
0.941753
0.900626
1.116991
1.076460
0.995994
1.337528
1.390576
2.828836
18.185973
49.127936
131.400824
239.696503
450.255871
623.480678
833.534002
939.193964
969.420671
898.139477
717.479587
556.844473
352.146626
222.125649
103.001595
51.998496
18.879771
10.481477
9.845495
10.781884
14.404655
19.584894
30.549765
41.862726
59.888959
74.390769
88.748932
96.235871
98.133683
92.793703
79.991817
68.034530
53.804517
42.572618
31.994581
26.406646
22.597909
20.913482
20.367503
19.846559
20.354986
20.172596
20.264983
20.231605
20.306706
20.312667
19.918680
19.994974
19.775629
19.810796
19.800663
##ZVALUE=330
0.399947
0.365973
0.280738
0.423789
0.341535
0.434518
0.328422
0.406504
0.431538
0.331998
0.552535
0.383854
0.541806
0.446439
0.440478
0.546575
0.260472
0.567436
0.447631
0.493526
0.422597
0.491738
0.500679
0.579953
0.489950
0.528693
0.527501
0.667572
0.654459
0.771880
0.797510
0.567436
0.718832
0.509620
0.722408
0.697970
0.770688
0.692606
0.679493
0.760555
0.838637
0.997782
0.978708
1.100898
1.260638
1.312494
1.762509
7.316470
23.748875
83.768964
164.957643
336.331725
496.354699
727.149844
868.265033
960.306525
932.767987
798.764825
648.697019
428.903699
284.154415
138.293505
72.743893
27.377605
12.923479
9.470582
9.530783
11.127591
13.704896
20.916462
28.125644
41.039586
54.153800
71.667433
82.559586
91.625452
93.432665
87.440610
78.518987
63.339472
52.642822
38.964748
32.772422
26.583672
24.006963
20.938516
19.816756
19.637942
19.900799
19.978881
19.583702
19.590855
19.052625
19.416809
18.992424
18.998981
##ZVALUE=335
0.354648
0.415444
0.471473
0.356436
0.455976
0.419617
0.335574
0.387430
0.356436
0.322461
0.425577
0.521541
0.371933
0.462532
0.578761
0.373721
0.439882
0.359416
0.496507
0.341535
0.433922
0.583529
0.405908
0.441670
0.572801
0.525713
0.657439
0.662804
0.520945
0.434518
0.691414
0.609756
0.560880
0.637770
0.567436
0.666976
0.639558
0.696778
0.742674
0.784993
0.757575
0.802875
0.736713
0.859499
1.037717
1.049638
1.288652
1.210570
1.527667
2.774596
15.720725
44.658780
129.317641
236.869454
440.608859
619.143844
831.390023
929.415822
950.168967
882.401466
703.759789
541.344881
336.048603
207.494497
92.188716
44.951439
16.489625
10.376573
9.551644
10.093451
11.779666
14.463663
20.506978
27.711987
40.717721
52.212477
67.899823
79.018474
87.383986
88.247657
82.399845
74.823499
62.896609
52.714944
41.256547
33.689737
26.725531
23.415685
20.343661
19.867420
19.090772
19.313693
18.986464
18.907785
18.578768
19.131899
##ZVALUE=340
0.393987
0.477433
0.434518
0.289679
0.441670
0.418425
0.468493
0.407696
0.521541
0.508428
0.331998
0.416636
0.392795
0.474453
0.485778
0.525713
0.427961
0.439882
0.521541
0.421405
0.643730
0.526905
0.447631
0.530481
0.503659
0.561476
0.684857
0.633597
0.531673
0.588894
0.458956
0.612736
0.541806
0.688434
0.631809
0.710487
0.623465
0.720620
0.732541
0.663996
0.634789
0.723600
0.905991
0.756979
0.800490
0.832677
1.023412
0.956655
1.094937
1.251698
1.301765
1.947880
5.873442
30.574799
76.661706
192.109942
331.828594
552.822948
710.293651
870.277882
919.203758
870.710015
763.636827
572.638512
411.116481
226.065516
131.660700
56.499839
25.362968
10.809898
9.630919
10.434985
10.914803
12.695789
15.265942
20.646453
26.691556
39.810538
51.261783
66.167712
75.709820
83.172917
83.207488
79.669952
73.615909
61.141849
51.337481
39.691925
32.800436
26.419759
22.162795
19.691586
18.507838
18.187761
17.980933
17.733574
##ZVALUE=345
0.289679
0.256896
0.328422
0.439882
0.400543
0.500679
0.401735
0.448823
0.423789
0.403523
0.421405
0.280738
0.332594
0.455976
0.512600
0.293851
0.365973
0.248551
0.361800
0.522733
0.447631
0.391603
0.624657
0.299811
0.561476
0.333786
0.623465
0.468493
0.532866
0.552535
0.502467
0.615716
0.583529
0.477433
0.564456
0.564456
0.691414
0.759959
0.597835
0.622869
0.561476
0.696778
0.694990
0.750422
0.817776
0.684857
0.692606
0.819564
0.894666
0.929832
1.003742
1.278520
1.215935
1.420975
2.692938
16.916990
48.989654
134.390593
240.966678
440.740585
604.058504
803.302526
893.581510
905.489922
825.564861
645.318627
485.949516
296.390653
174.880624
73.469877
35.333633
14.222860
10.246634
10.286570
10.632873
10.908842
12.169480
15.194416
18.736720
27.875900
35.652518
49.378872
58.729649
69.851875
74.990988
77.853799
76.435804
67.011714
59.465766
49.132705
39.802790
30.499697
25.588870
21.119714
18.857718
18.013716
##ZVALUE=350
0.382662
0.327826
0.442863
0.446439
0.256896
0.457764
0.414848
0.344515
0.426769
0.521541
0.417829
0.498891
0.443459
0.304580
0.308752
0.357628
0.324845
0.451803
0.252724
0.410676
0.349879
0.471473
0.357628
0.339746
0.350475
0.585914
0.491738
0.424981
0.495911
0.426769
0.485778
0.642538
0.474453
0.655651
0.482798
0.580549
0.625849
0.522733
0.532866
0.645518
0.625849
0.620484
0.638962
0.515580
0.657439
0.514984
0.743866
0.737906
0.653863
0.808835
0.812411
0.960827
1.007915
1.166463
1.277924
1.303554
1.657605
8.163452
28.017759
90.465546
174.384713
350.921750
511.305928
716.105700
841.130614
904.440880
857.339501
708.563924
545.392632
329.130888
207.569599
101.947784
50.388575
17.445683
10.906458
9.555817
9.770989
10.218620
10.565519
11.886954
14.127493
19.167662
24.584532
33.444762
41.188598
53.366423
62.254667
69.092512
71.909428
70.651770
64.848661
54.889917
47.186613
36.403537
30.723810
23.903847
##ZVALUE=355
0.489950
0.352859
0.485778
0.411868
0.409484
0.484586
0.606775
0.467896
0.419617
0.541806
0.468493
0.688434
0.603795
0.471473
0.480413
0.605583
0.515580
0.571609
0.391603
0.664592
0.554919
0.726581
0.617504
0.518560
0.527501
0.515580
0.660419
0.480413
0.484586
0.556707
0.698566
0.672936
0.724792
0.457764
0.673532
0.500679
0.603795
0.830889
0.771880
0.674725
0.620484
0.529885
0.822544
0.679493
0.773668
0.766516
0.726581
0.853539
0.685453
0.855923
0.894666
0.907779
0.984669
0.943542
1.082420
1.139641
1.257658
1.372695
1.487732
4.169941
14.988780
59.132576
123.577714
262.640715
418.389440
643.414855
784.668922
883.497596
875.035524
743.876100
601.727962
403.989553
263.913870
124.510527
65.242648
22.830963
11.737943
9.086728
9.092689
10.049939
9.983778
10.869503
11.672974
13.809800
16.480684
22.454858
28.689504
38.567781
46.245456
55.693984
61.813593
65.310001
64.446926
59.300661
53.694844
43.861866
##ZVALUE=360
0.402927
0.418425
0.326633
0.370741
0.281930
0.509620
0.449419
0.346899
0.364780
0.494719
0.279546
0.421405
0.377893
0.478625
0.389814
0.462532
0.413656
0.382662
0.354648
0.415444
0.449419
0.329614
0.462532
0.437498
0.487566
0.404716
0.487566
0.398755
0.500679
0.410676
0.554919
0.515580
0.616908
0.556707
0.496507
0.474453
0.554919
0.588894
0.755787
0.648499
0.658631
0.604987
0.554919
0.585914
0.499487
0.494719
0.692606
0.566840
0.660419
0.895858
0.713468
0.876784
0.770688
0.829697
0.824928
0.873804
1.081824
1.040697
1.109838
1.182556
1.265407
2.153516
6.311536
31.775832
80.544949
202.399492
338.284969
550.541878
721.348524
878.202915
901.368856
824.315548
691.190958
468.571782
314.534903
158.785582
88.416934
36.766529
16.635656
9.206533
9.075999
9.021759
9.193420
9.546876
9.618998
10.660887
12.022853
14.383793
17.956495
24.556518
31.001568
40.933490
48.806667
55.781603
58.714747
58.843493
##ZVALUE=365
0.363588
0.437498
0.358820
0.460744
0.370741
0.591874
0.447631
0.473857
0.418425
0.343919
0.389814
0.221729
0.500679
0.411868
0.286698
0.433922
0.585914
0.414848
0.442863
0.521541
0.447631
0.424981
0.489950
0.444651
0.546575
0.512600
0.434518
0.360608
0.430942
0.567436
0.494719
0.459552
0.518560
0.566840
0.500679
0.526905
0.565648
0.541806
0.470877
0.624657
0.640750
0.624657
0.541806
0.581741
0.630617
0.505447
0.525713
0.673532
0.641942
0.673532
0.702739
0.748634
0.775456
0.796914
0.812411
0.845790
0.994802
0.927448
0.990629
1.054406
1.061559
1.236796
1.329780
1.719594
3.100634
16.094446
47.062635
133.577585
242.895484
434.515476
599.817634
777.632594
860.763788
841.313601
739.771724
537.221432
384.890437
217.610002
123.986602
51.360726
23.288727
9.481907
8.208752
8.070469
8.481741
8.307695
8.702874
8.900762
9.582639
10.432601
12.328625
16.416907
20.422935
27.533770
33.463836
42.786598
##ZVALUE=370
0.382662
0.374913
0.414848
0.298619
0.541806
0.326633
0.381470
0.317693
0.399947
0.452995
0.429749
0.229478
0.409484
0.438690
0.476837
0.402927
0.562668
0.470877
0.320673
0.381470
0.294447
0.302792
0.310540
0.302792
0.405908
0.427961
0.502467
0.344515
0.569820
0.463724
0.369549
0.335574
0.549555
0.610948
0.511408
0.468493
0.408888
0.517964
0.421405
0.464916
0.557899
0.427961
0.674725
0.502467
0.367761
0.616908
0.650883
0.541806
0.384450
0.503659
0.557899
0.533462
0.568628
0.744462
0.547767
0.753999
0.649691
0.833869
1.010895
0.867844
0.917912
1.074672
0.942945
1.060963
1.113415
1.614690
1.797676
8.332729
29.001832
96.770525
184.716582
350.825787
516.174436
730.029941
832.507610
854.219794
773.604512
600.543618
442.500710
250.544548
143.888593
60.604811
30.228496
12.090802
7.978678
7.543564
7.535815
7.707477
7.718801
7.931590
8.061528
8.748770
9.274483
11.495948
13.804436
18.363595
##ZVALUE=375
0.407696
0.287890
0.391603
0.259876
0.226498
0.331998
0.484586
0.361800
0.349879
0.324845
0.334978
0.295639
0.223517
0.433922
0.378489
0.295639
0.357628
0.399947
0.401735
0.252724
0.141859
0.388622
0.336766
0.384450
0.276566
0.447631
0.325441
0.317693
0.368953
0.374913
0.294447
0.347495
0.461936
0.566840
0.539422
0.335574
0.415444
0.436902
0.376701
0.476837
0.477433
0.479817
0.503659
0.310540
0.461936
0.474453
0.399947
0.502467
0.502467
0.616908
0.534654
0.601411
0.584722
0.553727
0.574589
0.697970
0.520945
0.542998
0.594854
0.570416
0.718832
0.800490
0.653863
0.722408
0.739694
1.009703
1.027584
1.112819
1.318455
4.068613
14.716983
56.056976
120.944977
271.774530
422.837734
632.346869
756.272674
833.887458
809.016824
666.127801
515.037775
317.554474
201.056004
96.890926
51.005483
19.018650
9.467602
6.975532
6.671548
6.835461
7.070899
7.230639
7.101893
7.396936
7.639527
8.575916
##ZVALUE=380
0.426769
0.272989
0.291467
0.357628
0.377893
0.280738
0.490546
0.407696
0.375509
0.434518
0.283718
0.419617
0.436902
0.304580
0.331998
0.324845
0.387430
0.438690
0.388622
0.474453
0.331998
0.363588
0.426769
0.438690
0.414848
0.401735
0.370741
0.367761
0.371933
0.451803
0.448823
0.315905
0.293851
0.449419
0.425577
0.516772
0.430942
0.412464
0.379682
0.432730
0.393987
0.365973
0.413656
0.519753
0.374913
0.449419
0.491738
0.412464
0.439882
0.473857
0.463724
0.528693
0.412464
0.477433
0.555515
0.633597
0.459552
0.634789
0.478625
0.552535
0.674725
0.672936
0.669956
0.773668
0.740886
0.867844
0.895858
0.865459
1.166463
1.204610
1.555681
2.100468
9.894967
31.759739
99.264979
185.436606
358.257890
523.458719
722.827911
814.348459
822.728872
745.760798
585.872531
440.823436
257.467628
153.231621
67.118406
31.972528
11.419654
6.952882
6.279945
6.424785
6.563663
6.458759
6.928444
6.980896
##ZVALUE=385
0.279546
0.297427
0.426769
0.391603
0.337958
0.329614
0.363588
0.251532
0.246763
0.314713
0.468493
0.415444
0.306964
0.361800
0.282526
0.288486
0.385642
0.388622
0.418425
0.308752
0.363588
0.359416
0.316501
0.267625
0.519753
0.383854
0.420809
0.410676
0.417829
0.350475
0.405908
0.248551
0.365973
0.430942
0.384450
0.476837
0.452995
0.357628
0.389814
0.583529
0.456572
0.466704
0.319481
0.438690
0.464916
0.478625
0.593662
0.410676
0.551939
0.439882
0.502467
0.434518
0.507832
0.671744
0.436902
0.573993
0.505447
0.612736
0.521541
0.671744
0.453591
0.579953
0.654459
0.656843
0.754595
0.698566
0.739694
0.875592
0.925660
1.042485
1.156926
1.215935
1.301765
1.626611
3.929734
22.634864
59.740543
152.947903
271.318555
472.095013
624.612570
773.798823
815.418959
783.400536
686.047673
507.539511
359.176993
194.730759
112.451911
48.398972
21.593571
7.546544
5.936623
5.542636
5.737543
5.757809
##ZVALUE=390
0.336766
0.294447
0.267625
0.280738
0.402927
0.471473
0.362992
0.351667
0.456572
0.390410
0.367761
0.327826
0.266433
0.276566
0.360608
0.445843
0.361800
0.381470
0.322461
0.326633
0.455976
0.399947
0.341535
0.433922
0.453591
0.406504
0.454783
0.410676
0.473857
0.394583
0.310540
0.391603
0.415444
0.521541
0.384450
0.431538
0.527501
0.403523
0.325441
0.361800
0.323653
0.477433
0.535846
0.452995
0.391603
0.447631
0.447631
0.503659
0.573993
0.387430
0.532866
0.476837
0.380874
0.562668
0.453591
0.539422
0.462532
0.505447
0.605583
0.452995
0.672936
0.601411
0.627637
0.614524
0.638962
0.657439
0.815988
0.826716
0.866652
0.924468
1.025796
1.098514
0.888705
1.076460
1.289845
1.432896
1.838803
11.670589
36.341548
114.350915
215.457678
409.251451
569.720864
754.123926
848.226547
854.958892
787.633657
623.181462
473.535657
285.906792
167.514682
69.983602
33.780932
11.922717
6.293654
5.352497
##ZVALUE=395
0.275970
0.440478
0.376701
0.271797
0.401735
0.278950
0.325441
0.231862
0.322461
0.285506
0.334978
0.310540
0.366569
0.518560
0.416636
0.392795
0.396967
0.390410
0.334978
0.340939
0.321865
0.287890
0.408888
0.351667
0.480413
0.453591
0.433922
0.298619
0.413656
0.363588
0.368953
0.226498
0.318885
0.425577
0.455976
0.396967
0.335574
0.372529
0.393987
0.486970
0.297427
0.489950
0.550747
0.458956
0.333786
0.434518
0.492930
0.413656
0.320673
0.571609
0.556707
0.209808
0.438690
0.424981
0.509620
0.396967
0.599623
0.506639
0.509620
0.538826
0.519753
0.519753
0.583529
0.621676
0.611544
0.643730
0.660419
0.755787
1.018643
0.953674
0.950694
0.878572
0.912547
0.936985
0.980496
1.154542
1.171827
1.078844
1.409650
6.048679
22.350550
82.489848
158.051848
301.753879
449.578762
652.133822
772.172809
851.544738
828.423500
697.526932
544.052720
336.915851
212.834477
95.218420
46.471953
16.353726
##ZVALUE=400
0.337958
0.316501
0.308752
0.354648
0.303984
0.214577
0.319481
0.392795
0.461936
0.325441
0.383854
0.413656
0.264645
0.310540
0.268817
0.263453
0.326633
0.358820
0.292659
0.355840
0.449419
0.259876
0.358820
0.297427
0.325441
0.359416
0.470877
0.365973
0.453591
0.272989
0.383854
0.424981
0.372529
0.396967
0.473857
0.481606
0.412464
0.379682
0.441670
0.367761
0.477433
0.396967
0.457764
0.446439
0.459552
0.391603
0.477433
0.355840
0.477433
0.518560
0.441670
0.342727
0.543594
0.540614
0.399947
0.509620
0.531673
0.746846
0.566840
0.654459
0.536442
0.467896
0.600815
0.639558
0.642538
0.631809
0.641942
0.817776
0.801682
0.690818
0.879765
0.868440
0.932813
0.995994
0.878572
0.858903
0.959635
0.929832
0.967979
1.261830
1.224875
3.233552
11.351705
47.958493
104.834437
231.256485
366.773009
567.365885
700.143576
814.618468
829.222798
729.718804
601.741672
414.240956
274.024606
140.159726
##END
