##TITLE=DDW02
##FORMAT=SPECTACLE-ASCII V-1.2
##DATA TYPE=ULTRAVIOLET SPECTRUM
##SECOND TYPE=ULTRAVIOLET SPECTRUM
##DATE=05/24/18
##TIME=15:02:45
##SPECTROMETER/DATA SYSTEM=SPECTACLE
##XUNITS=NM EM
##YUNITS=ENERGY
##YFACTOR=1
##FIRSTX=220
##LASTX=410
##NPOINTS=96
##3DDATA=Equidistant
##ZUNITS=NM EX
##FIRSTZ=210
##LASTZ=400
##ZPOINTS=39
##XYDATA=(Y..Y)
##ZVALUE=210
34.406781
31.127930
29.054880
25.565624
21.758676
19.430518
19.422770
12.383461
11.110902
9.040833
6.755590
4.830956
3.971457
3.690720
4.401803
3.851652
3.722906
3.877878
3.817677
4.166961
4.671812
5.083680
5.711913
6.864667
7.352829
9.015799
9.862781
13.906956
16.637444
15.897751
18.735528
21.491647
25.293827
29.592514
32.435656
41.980743
45.717955
50.968528
52.327514
54.503679
56.426525
59.486628
62.041879
60.089827
61.500669
57.562590
56.416988
55.047870
50.941706
50.277710
49.184561
42.333603
41.878819
35.861731
36.998987
36.412477
31.851530
30.306578
28.798580
24.412870
22.403598
22.116899
22.585988
19.890666
19.368529
18.756986
20.904541
20.887852
21.141768
23.932457
25.312901
29.514432
28.717518
31.410456
31.149983
29.079914
24.739504
25.820732
24.522543
20.610690
18.406510
15.948415
13.072491
11.895895
11.340976
10.842681
8.882880
9.150505
12.869835
15.173554
20.307899
31.331778
40.007830
55.460930
72.246790
92.492700
##ZVALUE=215
89.314580
82.756877
70.720911
52.309632
44.621825
37.228465
36.284924
31.767488
29.252768
24.767518
19.912720
15.148520
10.442734
7.257462
5.352497
4.647970
4.468560
3.849864
4.842877
4.581809
5.374551
4.925728
5.136728
7.020831
7.398725
9.985566
11.820793
14.270544
18.074512
19.733906
20.427704
23.898482
28.432608
33.533573
35.180449
41.790605
46.936870
50.378442
52.835941
56.743622
56.369901
57.637691
59.676766
57.717562
56.148767
57.194829
51.864982
53.583980
52.040815
47.589540
46.888590
42.193532
41.413903
38.739443
37.570596
33.335686
31.009912
28.696656
27.537942
23.836493
23.296475
22.055507
21.870732
20.105839
19.468665
19.245744
18.139482
20.711422
20.332932
21.596551
22.782683
24.960637
25.542974
26.677847
26.330948
24.740696
24.641752
20.972490
19.523501
17.486811
15.516877
14.479756
12.608767
10.567904
10.158420
8.658767
8.903742
8.302927
8.144975
9.142756
8.748770
9.213686
9.947419
13.094544
16.818643
24.573803
##ZVALUE=220
184.343457
175.495744
170.334578
140.679479
112.480521
84.218979
65.816641
52.144527
47.936440
45.406818
42.189956
39.221644
32.288432
25.803447
20.105839
14.788508
8.821487
6.899834
5.203485
4.145503
5.062819
4.745722
5.013943
6.160736
6.530881
8.492470
9.691715
12.942553
14.570951
15.824437
18.412471
22.150874
25.551915
28.011799
32.535791
36.158562
42.568445
46.064854
47.199726
48.837662
52.977800
52.131414
52.378774
50.447583
51.625967
50.264597
47.857761
46.646595
44.847727
44.043660
42.093992
39.703846
37.693977
34.420490
33.559799
31.041503
29.199719
28.751493
24.750829
25.294423
21.031499
22.002459
20.306706
19.317865
18.731952
17.112494
17.035604
17.592907
18.347502
19.198656
20.152926
20.340681
21.535754
21.445751
21.343827
21.139979
17.955899
16.803741
15.626550
13.956428
12.921691
11.841655
10.714531
9.233952
8.891821
7.936954
7.886887
7.257462
7.555485
7.131696
8.462667
8.370876
8.417964
8.440614
8.952618
8.609891
##ZVALUE=225
215.736628
223.612785
251.324773
273.475647
255.100727
224.471688
181.309581
131.665468
98.327994
73.792934
61.163902
58.713555
58.954954
57.028532
51.780939
45.637488
35.106540
25.224686
18.824935
11.327863
7.685423
5.739927
4.742742
4.808903
5.445480
6.670952
8.015633
9.702444
10.976791
12.356639
14.240742
16.371608
19.941926
25.345683
30.620694
36.982894
41.164756
48.110485
50.787926
56.597590
59.505701
60.088634
60.181618
61.476827
61.002970
60.302615
58.389902
54.685473
52.936673
51.491857
49.888492
46.024919
43.109655
41.401982
37.583709
35.137534
35.170913
30.698776
29.978752
26.247501
24.478436
23.327470
22.497773
20.601749
19.078851
18.329620
16.992688
18.426776
19.114614
18.922687
17.777681
19.746423
19.042492
19.744635
18.925667
17.359853
16.600490
14.262795
12.841821
12.123585
11.704564
9.721518
9.419918
8.029938
8.057952
8.080602
8.139610
7.316470
7.876754
8.217692
7.539988
7.918477
7.624626
8.276701
8.036494
7.624626
##ZVALUE=230
127.137899
137.714744
200.001597
281.440616
336.197019
373.644829
375.985503
332.539678
276.070833
215.522647
144.484639
104.337931
79.018474
77.126622
76.148510
77.695847
72.948933
68.042874
58.811903
43.378472
31.171441
20.578504
13.173819
7.805824
5.733967
5.914569
5.713701
6.561875
7.360578
8.123517
8.652806
12.214780
17.121434
25.566816
33.573508
44.695735
56.572556
67.592859
71.995854
80.436468
84.717870
88.624954
91.673732
94.318986
90.985894
88.746548
87.181926
85.811615
83.875656
76.595545
75.794458
70.250630
64.500570
59.026480
55.222511
51.926970
47.835708
42.175651
39.346814
34.719706
31.618476
29.460788
27.420521
26.031733
22.777915
20.101666
19.833446
19.986629
18.993616
19.968748
18.753409
19.517541
18.645525
18.869638
17.448664
16.223788
15.333891
14.258623
13.747811
10.853410
10.619760
9.551644
9.572506
8.096695
7.927418
7.788539
7.800460
7.757545
8.033514
7.895827
8.337498
7.891655
8.338690
8.511543
8.273721
7.106662
##ZVALUE=235
26.582479
31.383634
62.183738
140.845776
218.603611
320.449471
404.413939
476.457477
491.753817
449.453592
380.770564
281.883478
205.951929
131.669641
102.617741
91.131926
88.554621
92.788935
95.126629
93.668699
79.793930
66.668987
46.439767
34.935474
19.981861
12.859702
8.324981
7.066727
5.503893
6.391406
7.226467
10.746717
17.420650
31.150579
43.705702
66.329837
78.922510
95.287561
104.755759
120.289922
127.067566
133.015513
138.696432
145.276785
141.716599
140.408874
135.912895
130.455494
123.845935
117.394924
112.443566
102.424622
94.242692
85.706711
78.667998
72.672963
66.092610
58.633685
54.256916
49.408674
44.118762
39.205551
35.843849
31.305552
29.501915
27.157664
24.649501
23.368597
21.880865
21.145940
21.053553
19.886494
18.681884
18.009543
17.246604
15.623569
15.195608
14.212728
13.359785
11.325479
9.943843
9.099841
8.606911
8.305907
8.338690
7.698536
6.902814
6.816983
7.018447
6.982684
6.904602
7.203817
7.713437
7.296801
7.267594
7.330775
##ZVALUE=240
1.450777
1.981854
6.016493
25.173426
54.017901
122.896433
203.886628
340.270996
435.633659
518.495440
581.172705
564.019680
481.674671
394.737720
276.815891
193.772912
122.419000
96.417665
89.117885
95.250607
104.775429
105.624795
100.633502
85.796714
70.812702
48.723817
36.923885
22.624731
15.599728
10.851622
9.556413
13.244748
21.815896
40.532947
56.276917
84.411502
102.808475
127.869844
143.714547
158.644915
168.301463
179.566741
184.725523
186.952949
187.307596
181.489587
176.124573
170.445442
162.059665
151.474476
144.343972
133.240819
124.969482
112.995505
103.262663
92.099905
85.572600
75.399876
68.433881
58.862567
55.367947
47.392845
44.429898
38.872957
34.922957
31.002760
28.836727
25.985837
24.110675
22.597909
21.292567
20.662546
19.672513
17.905831
16.578436
15.714765
14.604926
13.181567
12.044907
10.641813
9.911656
8.763671
7.837415
7.981658
8.317828
7.232428
6.705523
6.475449
6.392598
6.077886
6.285906
6.169677
5.871654
6.087422
6.111860
5.725622
##ZVALUE=245
1.333952
1.290441
1.357794
1.525879
4.066825
12.349486
41.816831
86.813569
192.773938
294.758677
451.931953
560.483932
627.738833
650.337934
607.334971
497.668982
392.483473
259.834528
176.197886
107.527971
85.372925
84.814429
100.945830
108.755827
109.815598
104.609728
89.640617
75.120926
56.342483
42.052865
31.777620
24.027824
28.176904
45.467615
64.974427
95.385909
115.228891
143.717527
157.415867
174.799562
189.083815
200.748444
209.586620
209.875703
211.702585
204.013586
198.845863
190.438628
182.326436
172.676444
163.475871
149.878860
141.759515
124.629736
115.119815
100.401640
93.057752
82.887411
74.319839
67.773461
60.320497
52.199960
46.956539
42.200685
37.181973
33.806562
29.949546
26.486516
24.969578
22.365451
20.914674
19.439459
18.631816
17.059445
15.754700
14.518499
12.877584
11.595488
10.193586
9.239912
8.715987
8.446574
7.126927
6.738901
6.514788
6.321669
5.900860
5.655885
5.930662
5.733967
5.107522
5.254745
5.373955
4.880428
4.636645
4.829764
##ZVALUE=250
0.972748
1.013875
1.259446
1.387596
1.317859
1.331568
1.914501
5.970001
29.020905
63.851476
155.295730
260.521770
377.359986
537.346005
638.915896
707.715750
699.544549
607.910752
503.351688
346.164703
229.642987
149.419904
88.674426
77.349544
84.802508
97.051859
107.500553
114.543438
107.106566
99.722743
82.919598
67.369938
59.779882
63.283443
73.191524
95.602870
113.291740
137.484670
150.672793
167.784691
179.533958
191.787481
197.694898
201.447606
201.257467
193.567872
190.666914
180.602670
172.944665
166.262984
156.667829
141.799450
130.086541
118.073821
108.829737
97.759962
88.703632
78.528523
72.226524
62.656999
57.647824
49.139857
45.058727
38.798451
34.724474
30.101538
27.857423
25.589466
23.293495
20.542741
18.695593
17.660856
16.655922
14.104843
13.626814
12.088418
10.852814
9.128451
9.383559
8.116961
7.321835
6.763935
6.243587
5.589724
5.642772
5.499721
4.983544
4.826784
4.759431
4.345775
4.499555
4.303455
4.579425
4.527569
4.259944
4.501939
##ZVALUE=255
1.034737
0.958443
0.925660
1.066923
1.069903
1.074672
1.311898
1.417994
1.608729
2.849698
15.264750
39.941669
110.303760
193.345547
335.921645
473.388433
631.829500
728.347898
760.462880
718.342662
619.252920
445.915461
317.457914
177.624822
111.404657
72.910786
69.223642
81.844926
98.840594
111.109614
118.111968
117.338896
112.996697
112.495422
108.123422
110.155940
114.649534
122.153759
129.887462
137.760639
143.998861
155.273676
159.071684
163.294673
163.072944
160.312653
153.123736
148.287416
143.106580
134.204626
124.445558
117.218494
106.615424
98.253489
87.439418
80.030560
70.380569
65.177679
58.172941
52.093863
45.368671
40.662885
36.252737
32.937527
28.332472
25.612712
22.471547
21.053553
18.918514
17.457604
15.328526
14.702678
13.045669
12.338758
11.353493
10.608435
8.973479
8.514524
7.725954
6.962419
5.979538
5.543828
5.555749
5.134940
4.695654
4.628897
4.211664
4.087687
4.154444
3.545880
3.669858
3.818870
3.910661
4.079938
3.714561
3.704429
##ZVALUE=260
0.782609
0.868440
0.965595
0.967979
0.964999
0.958443
0.919700
1.109838
1.401901
1.342893
1.231432
1.788735
5.554557
26.027560
61.320662
152.798891
255.540609
431.883931
573.508739
745.370984
826.908946
832.504630
727.107525
596.710443
396.747589
271.534920
152.040720
95.890760
64.436793
64.829588
78.460574
101.766586
121.441483
138.976574
146.453977
147.105455
142.868757
132.974982
124.454498
114.193559
110.855699
107.904673
109.393597
108.135939
106.179714
104.914904
100.972652
98.246932
92.781782
87.192655
82.968473
76.516867
70.946813
64.193606
58.648586
53.985715
48.603415
43.017864
38.747787
33.794641
30.879974
27.212501
25.353432
21.898746
19.779801
18.059611
15.976429
14.613867
13.917685
13.042688
12.090802
11.129975
10.517836
9.313822
9.292960
7.895827
6.814599
6.436706
6.214976
5.262494
5.055666
4.708767
4.274845
4.251599
3.763437
3.585815
3.844500
3.374815
3.492832
3.677607
3.545880
3.495812
3.362894
3.523827
3.304482
3.530979
##ZVALUE=265
0.656843
0.627637
0.908971
0.580549
0.883937
0.844598
0.794530
0.943542
1.004934
1.039505
1.016855
1.092553
1.216531
1.223683
2.908707
16.101599
42.093992
111.585855
200.735927
382.343531
545.845628
708.220601
863.574743
898.912549
828.985572
712.532997
525.874496
376.466513
212.965608
126.910806
79.685450
58.378577
66.893697
94.974637
114.932656
138.867497
148.740411
150.425434
144.248605
127.297640
114.145875
95.107555
82.093477
71.709752
65.236688
59.067607
57.068467
54.151416
52.504539
49.297810
46.460629
42.372942
40.315986
36.777854
33.173561
30.599833
27.879477
25.707483
22.968650
20.771623
18.952489
16.373992
15.588999
13.452768
12.732744
11.414886
10.942817
9.679794
9.563565
9.044409
8.722544
8.010864
8.323789
7.451773
6.809831
6.356835
5.683899
5.236864
4.964471
4.415512
3.748536
3.779531
3.679991
3.273487
3.243685
3.232956
3.128648
3.119707
3.049970
2.782941
3.213882
2.987981
3.014803
3.166795
3.229976
2.940893
##ZVALUE=270
0.683665
0.755787
0.648499
0.677705
0.632405
0.719428
0.770688
0.755787
0.731945
0.848770
0.853539
0.894666
0.925660
1.075864
1.077652
1.248717
1.427531
6.731749
20.911694
73.509812
150.129795
269.873738
486.308932
664.356947
857.177973
937.138796
934.852958
851.247907
668.847561
513.787866
379.492640
190.974474
109.232664
59.837699
56.852698
75.705647
95.152855
118.293762
133.056641
143.728852
142.749548
130.786896
116.731524
94.168782
76.898932
58.544874
47.672987
38.797855
34.834743
30.823946
28.937459
27.058721
25.562644
23.298860
21.680593
19.780993
18.122792
16.778708
15.798807
14.237761
13.580918
11.859536
11.184812
10.181665
9.508729
8.595586
8.532405
7.609725
7.229447
6.995797
7.248521
6.859899
6.724000
6.379485
6.205440
5.229712
4.896522
4.577637
4.193783
4.048944
3.877878
3.406405
3.256798
2.967715
3.117919
3.009439
2.797842
2.863407
2.845526
2.682805
3.124475
2.893806
2.950430
2.920628
2.949834
3.136992
##ZVALUE=275
0.746846
0.644922
0.550747
0.733733
0.717640
0.727773
0.842810
0.775456
0.750422
0.891685
0.884533
0.875592
0.794530
0.968575
1.005530
1.097918
1.144409
1.304746
1.356602
2.905726
11.732578
35.767555
112.308860
215.788484
419.147611
580.662489
787.604451
913.876891
986.099839
956.102014
855.768919
653.029680
474.592447
263.357759
154.842734
76.082945
54.290891
58.278441
72.726607
95.482469
113.329887
131.258965
137.104988
136.372447
126.588941
106.279850
90.081692
69.551468
54.979920
40.517449
32.628775
26.316643
23.100972
21.095872
19.878745
17.712712
16.826987
15.265942
14.095902
12.977719
12.171865
11.144876
10.369420
9.642839
8.734465
8.366704
7.615685
7.452965
7.085800
6.765723
6.889701
6.570816
6.469488
5.979538
5.880594
5.231500
4.871488
4.740953
4.393458
3.867745
3.950000
3.170967
3.397465
3.339648
3.072619
2.980828
2.889633
2.779961
2.839565
2.882481
2.997518
2.838969
2.835989
2.861619
3.175735
2.842546
##ZVALUE=280
0.518560
0.635982
0.652671
0.697970
0.670552
0.520945
0.716448
0.823736
0.728965
0.803471
0.726581
0.781417
0.645518
0.773668
0.869632
0.914931
0.911951
0.968575
1.118779
1.249909
1.336932
1.424551
6.827712
24.651885
85.085630
164.469481
322.827697
488.754511
721.168518
874.129534
925.639868
1001.020670
931.730866
734.543800
557.118654
331.095457
204.688907
98.612905
59.975982
46.457648
53.361654
72.344542
89.812875
111.816525
123.538971
130.369663
129.679441
116.785765
103.811622
81.697702
65.063834
45.971870
35.255551
25.177598
20.122528
16.605854
15.059710
13.728738
12.956858
11.225939
11.155605
9.760857
9.422898
8.673668
8.157492
7.684827
7.263422
6.941557
6.785989
6.418824
5.989671
5.943775
5.477667
5.385876
5.486608
4.819632
4.624724
4.037619
3.872514
3.446937
3.390908
3.116727
3.219843
2.980828
2.700686
2.803802
2.798438
2.821684
2.732873
2.919436
2.736449
2.791882
2.838969
2.861619
2.840757
2.849698
##ZVALUE=285
0.575781
0.625849
0.710487
0.538826
0.612736
0.687838
0.593662
0.786781
0.637770
0.551939
0.772476
0.638962
0.748634
0.784993
0.672936
0.809431
0.720620
0.763535
0.898838
1.054406
0.990629
1.106858
1.302958
1.490712
3.273487
11.500716
44.842958
98.713636
222.828984
368.095040
541.398525
785.588026
941.783786
1015.794873
1015.794873
868.903995
703.039765
454.762578
292.692780
146.355629
79.640746
41.273832
36.906600
48.131943
61.061978
82.700849
97.050667
112.451911
118.921995
118.003488
110.043883
94.558001
79.453588
57.862997
41.973591
27.006865
19.497871
13.793707
11.343956
9.637475
8.780956
7.931590
7.583499
6.667972
6.759763
6.292462
5.869865
5.690455
5.778670
5.772710
5.389452
5.306602
4.886985
4.812479
4.655719
4.188418
3.918409
3.644824
3.613830
3.244877
3.324747
3.208518
3.119707
2.958775
2.822876
2.782941
2.973676
2.876520
2.631545
2.719760
2.507567
2.716780
2.624989
2.661943
2.809763
2.555847
##ZVALUE=290
0.551939
0.454783
0.632405
0.541806
0.614524
0.586510
0.542998
0.639558
0.588894
0.651479
0.535846
0.723600
0.691414
0.648499
0.691414
0.793934
0.667572
0.769496
0.807643
0.953674
0.821948
0.852942
0.997782
1.228452
1.376867
1.416802
1.662970
4.674792
23.364425
60.172677
153.411627
270.806551
496.307611
692.727566
928.250551
1015.794873
1015.794873
997.229815
792.611837
610.275865
368.073583
224.910975
100.960732
51.278472
27.006865
27.543902
38.086772
50.369501
69.948435
84.620714
101.326704
107.674599
109.020472
102.405548
87.849498
71.383715
49.787760
36.212802
22.895932
15.712976
9.784698
7.745624
5.950928
5.436540
5.143881
4.754663
4.610419
4.561543
4.582405
4.473925
4.518628
4.430413
4.215837
4.347563
3.951788
3.710985
3.449917
3.554821
3.070831
3.150702
2.688766
2.917647
2.738833
2.727509
2.857447
2.599955
2.592802
2.583861
2.658963
2.612472
2.455711
2.662539
2.543926
2.658963
2.737641
2.677441
##ZVALUE=295
0.407696
0.522733
0.585914
0.632405
0.505447
0.571609
0.519753
0.496507
0.550747
0.491738
0.675917
0.638962
0.543594
0.747442
0.675917
0.619888
0.665784
0.759959
0.650883
0.805855
0.947714
0.711679
0.888705
0.928640
1.117587
1.043677
1.113415
1.259446
1.570582
1.893640
9.704828
30.410886
97.316504
197.002888
397.211909
582.382679
837.436914
994.364023
1015.794873
1015.794873
950.515866
717.650652
515.336990
285.309553
159.841776
60.247779
28.272867
16.597509
20.031929
27.963519
42.576790
57.493448
76.212883
88.709593
99.058747
101.052523
92.837811
81.889629
63.692927
49.268603
32.480955
21.824837
12.635589
8.056760
4.932880
4.333854
3.816485
3.566742
3.649592
3.617406
3.771782
3.696680
3.721714
3.735423
3.357530
3.254414
3.234744
3.100634
2.703667
2.752542
2.614856
2.759695
2.652407
2.524853
2.441406
2.542734
2.444983
2.567768
2.454519
2.520680
2.437830
2.439618
2.346635
2.610683
2.530813
2.459884
##ZVALUE=300
0.467896
0.452995
0.463724
0.483990
0.512600
0.428557
0.382662
0.615716
0.548959
0.558496
0.508428
0.717640
0.576973
0.612736
0.730753
0.475645
0.687838
0.737906
0.553727
0.692606
0.687838
0.686646
0.679493
0.729561
0.746846
0.887513
1.061559
0.896454
1.075864
1.231432
1.146793
1.607537
4.311800
15.927553
61.678886
129.495859
289.127827
463.430882
725.159645
903.861523
1015.794873
1015.794873
1001.021862
858.033895
601.252913
407.992601
211.649537
115.794539
42.290688
17.544627
11.744499
15.189648
24.700761
35.259724
52.318573
66.895485
83.390474
90.810657
93.844533
90.297461
77.080727
65.703988
46.505928
34.201741
19.820929
12.994409
7.187724
4.906654
3.615618
3.540516
3.355742
3.326535
3.315806
3.251433
2.916455
2.843738
2.695918
2.511740
2.462864
2.494454
2.392530
2.317429
2.447963
2.508759
2.370477
2.401471
2.476573
2.397895
2.327561
2.365708
2.396703
2.322793
2.458692
2.449751
2.416968
2.454519
##ZVALUE=305
0.509620
0.379682
0.440478
0.358820
0.540614
0.544786
0.543594
0.490546
0.411868
0.544786
0.529885
0.447631
0.618696
0.513792
0.523925
0.606775
0.609756
0.593662
0.650883
0.589490
0.716448
0.615716
0.652671
0.762939
0.681877
0.777841
0.924468
0.971556
0.837445
1.025796
1.095533
1.234412
1.453757
1.259446
1.932979
9.987950
30.979514
100.842714
194.859505
389.460921
577.229857
837.167501
999.559760
1015.794873
1015.794873
915.463567
737.354755
483.809710
311.198831
147.166848
71.629882
22.663474
10.730624
9.955764
13.939738
22.930503
33.824444
50.229430
62.685609
77.562928
85.238814
88.897943
84.888935
73.677897
61.538815
43.708682
31.176805
19.281507
12.222528
6.744862
4.953742
3.775954
3.327727
3.038645
2.895594
2.546906
2.681613
2.564788
2.447963
2.462864
2.533793
2.169609
2.290606
2.279878
2.396703
2.291799
2.275705
2.222657
2.145767
2.252460
2.265573
2.291799
2.323985
2.370477
2.137423
2.324581
##ZVALUE=310
0.441670
0.455976
0.446439
0.451803
0.380874
0.489950
0.469685
0.389814
0.454783
0.604987
0.522733
0.526905
0.401735
0.531673
0.435710
0.544786
0.493526
0.446439
0.520945
0.674725
0.722408
0.598431
0.672936
0.674725
0.782609
0.670552
0.842810
0.755787
0.909567
0.965595
1.047850
0.905991
1.016855
1.055598
1.234412
1.369715
1.631975
4.187822
14.718771
56.317449
122.105479
276.312828
444.082618
705.112815
898.334980
1015.805602
1015.805602
1015.805602
891.273022
630.348921
434.522629
225.758553
121.764541
42.441487
15.952587
7.974505
8.881688
12.679696
18.499494
30.017495
40.736794
57.887435
68.974495
79.408884
83.429813
80.611706
73.140860
58.820844
46.070814
30.244589
21.265745
12.373924
8.074641
4.600883
3.433824
2.905726
2.616644
2.302527
2.211928
2.266765
2.190471
2.085567
2.213717
2.112985
2.076626
2.201796
2.147555
2.110600
1.920462
2.105832
2.128482
2.186894
2.071857
2.235770
2.333522
2.284646
##ZVALUE=315
0.468493
0.369549
0.440478
0.363588
0.462532
0.502467
0.509620
0.400543
0.488758
0.447631
0.530481
0.524521
0.605583
0.571609
0.501871
0.614524
0.625849
0.378489
0.527501
0.662804
0.557899
0.666976
0.489950
0.677705
0.518560
0.638962
0.615716
0.683665
0.533462
0.701547
0.751615
0.901818
0.771880
0.930429
1.007915
1.024604
1.009703
1.260638
1.472831
2.143979
6.987453
33.146739
80.667734
202.578902
351.863503
613.802671
799.788833
999.770761
1015.794873
1015.794873
976.549983
742.067695
546.348691
305.216908
170.049667
62.438846
24.516582
8.238554
6.420612
7.962584
10.808706
17.850995
25.442839
38.868785
50.104856
65.271854
73.585510
78.991652
77.002645
68.305731
57.835579
42.782426
31.457543
18.440485
11.901855
6.357431
4.398823
2.921820
2.386570
2.122521
2.129674
1.899600
2.031922
1.930594
2.044439
2.032518
1.911521
1.862645
2.156496
2.175570
2.154708
2.031922
2.058744
2.069473
2.432466
2.099872
##ZVALUE=320
0.334978
0.337958
0.449419
0.328422
0.440478
0.463724
0.476837
0.375509
0.389814
0.380874
0.463724
0.518560
0.558496
0.470877
0.560880
0.421405
0.390410
0.634789
0.504851
0.545979
0.467896
0.654459
0.603795
0.575781
0.558496
0.630617
0.555515
0.616908
0.726581
0.724792
0.634789
0.636578
0.720620
0.688434
0.745654
0.809431
0.894666
0.976920
1.116991
1.179576
1.354814
1.520514
2.980828
17.242432
49.292445
145.579576
257.808566
466.575623
655.998588
905.665755
1015.790701
1015.790701
1015.790701
859.227777
659.904480
391.075015
231.403708
99.199414
43.332577
11.980534
6.370544
6.068945
6.791949
9.749532
14.288425
24.180412
33.658743
48.104525
59.523582
70.061684
74.338913
72.857738
66.266656
53.219795
41.994452
27.746558
19.298792
10.906458
6.928444
3.982782
2.829432
2.199411
2.034903
1.805425
1.984835
1.872778
1.818538
1.801848
1.826882
1.918674
1.923442
2.053976
2.053976
2.186894
2.199411
2.065897
##ZVALUE=325
0.312924
0.278950
0.305772
0.314713
0.204444
0.384450
0.304580
0.208616
0.242591
0.295639
0.179410
0.232458
0.280738
0.452995
0.345707
0.277758
0.469685
0.519753
0.455976
0.367761
0.405908
0.514984
0.414848
0.410676
0.338554
0.377893
0.459552
0.534654
0.604987
0.429749
0.637770
0.435710
0.522733
0.569820
0.705719
0.623465
0.759959
0.737906
0.732541
0.869632
0.737906
0.864863
1.064539
1.240969
1.793504
10.214448
30.774474
94.046593
183.949471
377.069712
560.064912
817.177892
976.625681
1015.612483
1015.612483
919.010639
734.961033
475.072861
301.823616
137.653947
65.130591
18.532872
7.442832
5.105734
5.156994
6.223917
8.645654
14.396906
21.420717
34.341812
44.358969
56.684613
64.148903
69.447756
68.230629
59.458613
50.509572
37.431717
27.346611
16.263723
10.289550
5.447865
3.618598
2.403855
2.015829
1.797676
1.789927
1.619458
1.608729
1.693964
1.714826
1.691580
1.768470
1.910925
1.899600
1.757741
##ZVALUE=330
0.314713
0.293851
0.272989
0.449419
0.291467
0.453591
0.566840
0.333786
0.414848
0.259876
0.389814
0.284910
0.428557
0.426769
0.431538
0.376701
0.385642
0.275970
0.507832
0.452995
0.360608
0.334978
0.577569
0.415444
0.606775
0.699759
0.581741
0.577569
0.582933
0.552535
0.342727
0.520945
0.524521
0.477433
0.427961
0.749826
0.654459
0.786781
0.654459
0.795722
0.879765
1.010895
1.064539
1.013875
1.002550
1.205802
1.441836
4.038811
15.031695
58.420897
124.246478
278.003812
439.537764
700.082779
890.792608
1015.794873
1015.794873
991.151929
835.632682
576.182604
387.613773
188.616514
96.845627
32.402873
11.438727
5.196929
4.774928
5.031824
5.962849
8.965731
12.971759
21.165609
29.804707
42.879581
52.019954
61.681867
64.179897
62.908530
57.022572
45.625567
36.473870
23.788810
17.311573
10.399818
6.803870
3.943443
2.728701
2.267957
2.056956
1.891851
1.939535
2.008677
1.957417
2.044439
1.861453
2.065897
##ZVALUE=335
0.297427
0.294447
0.401735
0.237823
0.216961
0.329614
0.402927
0.402927
0.512600
0.373721
0.380874
0.302792
0.280738
0.404716
0.415444
0.468493
0.235438
0.293851
0.407696
0.447631
0.379682
0.274777
0.608563
0.488758
0.559688
0.479817
0.522733
0.497699
0.579953
0.396967
0.342727
0.553727
0.597835
0.621676
0.696778
0.668764
0.699759
0.683665
0.761747
0.896454
0.759959
0.744462
0.978708
0.914931
1.002550
1.009703
1.119971
0.981688
1.369715
1.682639
8.839965
28.407574
93.051791
181.960464
372.647643
567.344427
835.070610
988.610983
1015.794873
1015.794873
904.497504
724.622011
462.476015
291.289687
126.435757
58.247447
16.093850
6.771684
4.890561
4.610419
5.087852
5.873442
8.305907
12.131929
19.303560
27.068853
39.129853
48.075914
57.138801
59.931874
58.405995
53.710938
44.360757
35.760999
25.251508
17.801523
10.724664
7.234812
4.170537
3.019571
2.427697
2.448559
2.184510
2.237558
2.211928
2.153516
##ZVALUE=340
0.301600
0.326633
0.363588
0.341535
0.316501
0.338554
0.408888
0.462532
0.319481
0.384450
0.288486
0.447631
0.324845
0.379682
0.456572
0.308752
0.410676
0.418425
0.416636
0.464916
0.446439
0.427961
0.546575
0.535846
0.444651
0.570416
0.406504
0.618696
0.491738
0.500679
0.690818
0.583529
0.493526
0.753999
0.455976
0.629425
0.583529
0.588894
0.769496
0.669956
0.753999
0.737906
0.759959
0.869632
0.786781
0.820756
0.839829
0.965595
1.058578
1.043677
1.240969
1.416802
3.537536
19.026995
52.730441
151.738524
278.157592
502.623916
699.446797
934.223533
1015.794873
1015.794873
988.634825
780.686736
588.976741
341.667533
191.712976
72.604418
27.991533
7.619858
5.205870
4.672408
4.458427
4.668832
5.197525
7.832646
11.008978
18.554926
25.839806
37.549734
45.605898
53.724647
55.981874
54.678917
50.872564
42.360425
34.095645
24.451613
17.727613
11.018515
7.330775
4.494786
3.422499
2.863407
2.597570
2.556443
##ZVALUE=345
0.343919
0.363588
0.425577
0.322461
0.439882
0.259876
0.478625
0.441670
0.415444
0.426769
0.350475
0.388622
0.334978
0.371933
0.324845
0.456572
0.316501
0.549555
0.327826
0.361800
0.369549
0.570416
0.519753
0.340939
0.301600
0.267625
0.512600
0.428557
0.413656
0.460744
0.345707
0.424981
0.664592
0.514984
0.362992
0.555515
0.575781
0.548959
0.415444
0.503659
0.574589
0.710487
0.683665
0.661612
0.705719
0.691414
0.626445
0.924468
0.836849
0.849962
1.040697
1.013875
1.121759
1.261830
1.940727
10.298491
32.692552
100.260973
195.979476
394.499898
580.740571
840.783715
995.473862
1015.794873
1015.794873
879.846811
686.875582
432.244539
256.874561
106.798410
47.553778
13.346672
6.147623
4.802942
4.372597
4.042983
4.067421
4.718900
6.223917
10.645986
15.787482
24.945736
32.223463
42.091608
47.220588
51.703453
52.140951
47.668815
42.697787
33.440590
25.921464
16.756654
12.061000
7.581711
5.251765
3.637671
##ZVALUE=350
0.356436
0.380874
0.386834
0.353456
0.372529
0.315905
0.392795
0.503659
0.416636
0.294447
0.358820
0.354648
0.391603
0.321865
0.360608
0.306964
0.360608
0.398755
0.461936
0.424981
0.415444
0.371933
0.279546
0.443459
0.479817
0.428557
0.465512
0.527501
0.489950
0.388622
0.480413
0.428557
0.444651
0.581741
0.471473
0.583529
0.591874
0.419617
0.620484
0.523925
0.635982
0.623465
0.620484
0.545979
0.667572
0.629425
0.783801
0.711679
0.682473
0.764728
0.731945
0.830889
0.880957
0.970960
1.092553
1.182556
1.479983
5.153418
17.447472
62.858462
133.454800
299.421549
465.450883
716.533661
901.986957
1015.794873
1015.794873
952.011943
771.940947
495.088696
310.606956
138.074756
61.092973
15.909672
6.756783
4.483461
3.982782
3.525615
3.478527
3.636479
4.057884
6.295443
8.947849
14.372468
19.826889
29.037595
36.081672
43.571591
46.858788
48.448443
45.919418
39.355755
32.802820
24.042726
17.952919
11.660457
##ZVALUE=355
0.403523
0.395775
0.226498
0.372529
0.331998
0.390410
0.365973
0.386834
0.438690
0.389814
0.283718
0.224710
0.327826
0.374913
0.340939
0.466704
0.427961
0.386834
0.379682
0.204444
0.551939
0.484586
0.312924
0.423789
0.418425
0.596642
0.469685
0.551939
0.355840
0.571609
0.491738
0.373721
0.482798
0.499487
0.482798
0.727773
0.698566
0.573993
0.620484
0.669956
0.533462
0.477433
0.539422
0.698566
0.766516
0.579953
0.760555
0.744462
0.752807
0.735521
0.931621
0.793934
0.896454
0.984669
1.130700
0.979900
1.028776
1.132488
1.335740
2.505779
8.476973
39.181709
89.016557
211.337805
361.007452
614.130497
802.080035
987.752676
1015.794873
980.302691
839.399695
595.253706
393.761992
184.340477
89.893937
25.713444
8.897781
4.333854
3.746748
3.511906
3.337860
3.163815
3.017783
3.849864
5.020499
7.983446
11.607409
18.202662
24.232864
31.924844
38.207769
43.125749
44.377446
42.691827
38.600564
31.696558
##ZVALUE=360
0.326633
0.376701
0.446439
0.486970
0.456572
0.459552
0.337958
0.382662
0.451803
0.372529
0.346899
0.469685
0.403523
0.456572
0.503659
0.267625
0.451803
0.377893
0.356436
0.437498
0.363588
0.398755
0.310540
0.582933
0.516772
0.591874
0.435710
0.484586
0.433922
0.505447
0.608563
0.382662
0.365973
0.620484
0.466704
0.651479
0.462532
0.542998
0.649691
0.567436
0.491738
0.527501
0.445843
0.513792
0.623465
0.542998
0.533462
0.593662
0.847578
0.654459
0.704527
0.713468
0.755787
0.728965
0.942945
0.931621
0.922680
0.949502
1.035929
1.118779
1.355410
1.775622
3.808737
18.371940
50.429702
143.586993
259.107947
467.385650
664.407611
895.019770
997.328758
1004.195809
904.499888
671.904683
477.224588
249.638557
133.957863
48.133731
16.585588
4.896522
4.109740
3.569722
3.360510
3.117919
2.990961
3.093481
3.238916
4.565716
6.331801
9.856820
14.325976
21.709800
27.581453
34.986734
38.508773
40.427446
##ZVALUE=365
0.371933
0.377893
0.484586
0.332594
0.412464
0.363588
0.376701
0.357628
0.553727
0.325441
0.382662
0.398755
0.273585
0.312924
0.374913
0.384450
0.374913
0.319481
0.339746
0.343919
0.280738
0.378489
0.390410
0.379682
0.383854
0.422597
0.425577
0.369549
0.535846
0.489950
0.340939
0.432730
0.520945
0.470877
0.458956
0.572801
0.541806
0.532866
0.493526
0.389814
0.542998
0.622869
0.521541
0.520945
0.520945
0.675917
0.647902
0.664592
0.664592
0.725985
0.798702
0.694990
0.768900
0.679493
0.763535
0.766516
0.873804
0.788569
0.902414
0.940561
1.040697
1.190901
1.255870
1.519918
2.057552
9.451509
28.892756
90.487003
182.700753
377.569795
550.410748
773.416758
919.203758
990.522504
934.374928
747.805834
567.179918
336.005688
193.173885
73.900819
28.026700
6.538630
4.104972
3.579855
3.237724
3.064871
2.851486
2.791882
2.817512
3.269911
4.080534
6.012917
8.641481
13.332963
17.706752
24.172664
##ZVALUE=370
0.490546
0.513792
0.469685
0.554919
0.486970
0.485778
0.425577
0.444651
0.381470
0.412464
0.494719
0.378489
0.530481
0.665784
0.588894
0.584722
0.466704
0.426769
0.377893
0.529885
0.581741
0.467896
0.498891
0.435710
0.424981
0.424981
0.600815
0.538826
0.496507
0.583529
0.501871
0.557899
0.482798
0.619888
0.518560
0.651479
0.799894
0.590682
0.701547
0.628829
0.727773
0.497699
0.712872
0.719428
0.517964
0.807643
0.599623
0.612736
0.830889
0.598431
0.720620
0.727773
0.901818
0.729561
0.847578
0.827909
0.828505
0.874996
0.758767
0.910759
1.087785
0.951886
1.096725
1.132488
1.335740
1.283884
1.592636
4.715919
16.916990
64.663887
132.635832
280.414820
446.326733
691.972971
847.300887
957.224965
942.511559
804.033875
632.066727
384.874940
230.863690
95.660686
43.312907
12.897849
5.309582
3.472567
3.295541
2.887845
3.095865
3.112555
3.074408
3.306866
3.688931
4.575849
5.692840
8.089542
##ZVALUE=375
0.284910
0.264645
0.421405
0.347495
0.331998
0.273585
0.301600
0.290871
0.349879
0.300407
0.270605
0.304580
0.339746
0.164509
0.259876
0.425577
0.218749
0.224710
0.238419
0.271797
0.341535
0.304580
0.190735
0.211596
0.446439
0.432730
0.285506
0.376701
0.352859
0.430942
0.354648
0.149608
0.354648
0.403523
0.477433
0.516772
0.450611
0.647902
0.322461
0.363588
0.488758
0.591874
0.365973
0.498891
0.634789
0.600815
0.587702
0.542998
0.506639
0.474453
0.462532
0.595450
0.584722
0.647902
0.552535
0.732541
0.626445
0.644922
0.657439
0.502467
0.567436
0.715852
0.834465
0.798702
0.750422
0.898838
1.007915
1.250505
1.481771
2.563596
8.315444
34.747720
84.709525
213.442445
355.962515
585.396886
749.022961
901.106596
936.893821
845.518708
700.434446
465.402603
310.214758
158.229470
80.420971
24.338961
8.336902
3.697872
3.435612
3.253818
3.278852
3.379583
3.409982
3.520846
3.598928
3.664494
##ZVALUE=380
0.344515
0.398755
0.436902
0.340939
0.346899
0.362992
0.378489
0.349879
0.421405
0.420809
0.301600
0.283718
0.236630
0.467896
0.417829
0.335574
0.237823
0.383854
0.330806
0.333786
0.280738
0.330806
0.398755
0.409484
0.333786
0.322461
0.291467
0.536442
0.296831
0.414848
0.408888
0.543594
0.660419
0.408888
0.444651
0.515580
0.534654
0.535846
0.495911
0.572801
0.524521
0.528693
0.547767
0.477433
0.620484
0.551939
0.644922
0.691414
0.552535
0.593662
0.523925
0.523925
0.501871
0.537634
0.566840
0.723600
0.575781
0.523925
0.680685
0.622869
0.519753
0.577569
0.741482
0.734925
0.797510
0.722408
0.849962
0.960827
1.126528
1.352429
1.379848
1.739860
4.450679
23.133755
61.024427
162.041783
283.643007
489.105582
666.149855
854.721665
919.960737
871.484876
763.272643
568.124652
402.586460
212.097764
114.059448
40.458441
15.340447
4.713535
3.625751
3.797412
3.779531
3.791451
3.659725
3.468990
##ZVALUE=385
0.297427
0.304580
0.354648
0.468493
0.315905
0.502467
0.395775
0.269413
0.310540
0.324845
0.409484
0.450611
0.403523
0.402927
0.302792
0.344515
0.508428
0.399947
0.313520
0.281930
0.339746
0.365973
0.392795
0.429749
0.387430
0.336766
0.444651
0.440478
0.558496
0.598431
0.622869
0.537634
0.746846
0.658631
0.754595
0.533462
0.581741
0.829697
0.874996
0.762939
0.651479
0.703931
0.816584
0.810623
0.679493
0.757575
0.728965
0.626445
0.631809
0.627637
0.660419
0.686646
0.696778
0.646710
0.579953
0.666976
0.552535
0.705719
0.585914
0.511408
0.643730
0.705719
0.660419
0.817776
0.639558
0.691414
0.960827
1.032948
1.078844
1.099706
1.157522
1.212955
1.199841
1.427531
2.306700
11.742711
35.124421
103.465915
201.922655
396.037698
568.271875
777.029991
872.175694
900.687575
841.345787
672.397614
508.304834
300.422907
179.288983
75.978637
30.368567
7.775426
4.477501
3.950596
3.670454
3.586411
##ZVALUE=390
0.370741
0.400543
0.278950
0.245571
0.358820
0.332594
0.396967
0.316501
0.302792
0.369549
0.443459
0.313520
0.321865
0.303984
0.432730
0.282526
0.500679
0.523925
0.508428
0.415444
0.476837
0.412464
0.479817
0.359416
0.487566
0.426769
0.461936
0.561476
0.629425
0.484586
0.683665
0.799894
0.804663
0.724792
0.710487
0.793934
0.853539
0.833869
0.994802
1.031756
0.999570
1.057982
0.946522
0.886917
0.992417
1.097918
1.037717
0.990629
1.006722
0.913739
0.778437
0.871420
0.943542
0.648499
0.736713
0.776649
0.711679
0.820756
0.837445
0.715852
0.777841
0.685453
0.824928
0.709891
0.701547
0.810623
0.834465
1.055598
1.091957
1.114607
1.012683
1.053810
1.202822
1.127720
1.101494
1.275539
1.500845
5.717874
20.684600
75.321794
156.468749
326.852798
477.561951
679.382682
817.113519
917.544961
902.702808
776.974559
628.898740
411.468744
252.484679
109.787583
52.328706
16.018748
6.389618
4.039407
##ZVALUE=395
0.229478
0.252724
0.018477
0.067949
0.208616
0.197887
0.096560
0.061989
0.194907
0.164509
0.086427
0.094771
0.240803
0.033975
0.125766
0.173450
0.055432
0.111461
0.113845
0.204444
0.085831
0.198483
0.168681
0.057817
0.319481
0.177622
0.199676
0.279546
0.337958
0.451803
0.395775
0.485778
0.481606
0.608563
0.590682
0.614524
0.725985
0.778437
0.909567
1.005530
0.849962
0.791550
0.772476
0.893474
0.950694
0.814795
0.981688
0.793934
0.782609
0.760555
0.711679
0.711679
0.555515
0.542998
0.519753
0.702739
0.697970
0.539422
0.535846
0.489950
0.501871
0.633597
0.451803
0.684857
0.456572
0.570416
0.771880
0.708699
0.888705
0.789762
0.837445
0.722408
0.736713
0.557899
0.748634
0.795722
0.783801
0.934601
1.139641
2.406836
14.538765
41.558743
115.278959
212.354660
395.993590
561.802983
773.044825
886.813998
930.910707
873.094797
699.554682
525.871515
307.017565
175.159574
69.026947
29.932857
##ZVALUE=400
0.326633
0.462532
0.408888
0.306964
0.411868
0.218749
0.284910
0.274777
0.263453
0.266433
0.311732
0.244975
0.357628
0.170469
0.358820
0.160933
0.233650
0.374913
0.302792
0.340939
0.248551
0.413656
0.236630
0.218749
0.380874
0.449419
0.337958
0.534654
0.437498
0.562668
0.439882
0.584722
0.720620
0.658631
0.733733
0.896454
0.998974
1.098514
1.121759
1.131892
1.245737
1.130700
1.179576
1.071692
1.192689
1.147985
1.036525
1.054406
1.040697
1.023412
0.955462
0.877976
0.878572
0.663996
0.884533
0.723600
0.819564
0.857711
0.697970
0.774860
0.712872
0.699759
0.740886
0.859499
0.854731
0.803471
0.770688
0.863671
0.863671
0.951886
0.774860
0.734925
0.880957
0.796914
0.721812
0.776649
0.812411
0.964999
0.865459
1.083612
1.143813
1.958609
5.946755
26.480556
65.062642
167.012811
288.022757
490.817428
652.080774
829.019547
906.507969
880.748034
775.090456
567.999482
402.022600
221.031904
##END
