##TITLE=FDDW02
##FORMAT=SPECTACLE-ASCII V-1.2
##DATA TYPE=ULTRAVIOLET SPECTRUM
##SECOND TYPE=ULTRAVIOLET SPECTRUM
##DATE=05/24/18
##TIME=15:13:14
##SPECTROMETER/DATA SYSTEM=SPECTACLE
##XUNITS=NM EM
##YUNITS=ENERGY
##YFACTOR=1
##FIRSTX=220
##LASTX=410
##NPOINTS=96
##3DDATA=Equidistant
##ZUNITS=NM EX
##FIRSTZ=210
##LASTZ=400
##ZPOINTS=39
##XYDATA=(Y..Y)
##ZVALUE=210
29.851794
29.784441
26.315451
23.574829
21.574497
20.186901
16.952753
13.064742
11.573434
8.215904
5.499721
3.921986
4.051924
3.644824
3.282428
3.675818
4.107952
3.706813
4.258752
4.611611
4.011989
4.692674
5.635619
8.000731
10.350943
16.567707
21.574497
29.031634
34.471750
42.761564
51.513910
59.265494
67.782998
73.865652
84.473491
86.031556
90.842843
92.334747
95.856786
94.582438
92.996955
90.214610
92.665553
84.297657
86.631775
81.380606
72.814822
71.424842
67.701936
66.380501
60.045719
57.629943
54.045916
49.084425
42.842627
41.320920
38.902760
34.633875
35.686493
33.547878
29.143691
25.679469
25.031567
23.877621
22.116899
22.489429
21.412969
22.823811
22.953749
23.940802
25.280714
26.987791
25.867820
26.084781
27.894974
28.527975
24.654865
22.094846
20.858645
17.675757
16.846657
13.522506
13.738871
11.410713
10.664463
10.239482
8.196831
8.392930
11.040568
13.563633
20.824671
25.407672
38.841963
49.489737
64.049959
76.720715
##ZVALUE=215
80.601573
85.652471
61.330795
48.728585
42.194724
35.373569
33.206940
33.203959
30.014515
22.363663
19.857883
14.420748
11.133552
7.379651
5.848408
4.233718
4.469752
4.529953
3.884435
4.754663
4.687905
5.216599
6.098747
7.600784
12.219548
16.078949
24.401546
30.750632
40.501952
49.863458
60.074925
67.443848
77.904463
84.268451
91.996789
98.070502
103.460550
106.422901
103.435516
104.841590
101.861954
99.774003
97.124577
92.811584
88.557601
83.868504
77.805519
77.816844
69.830418
68.932772
61.924458
60.098767
52.943826
50.486922
45.994520
43.498874
40.232539
37.624836
36.423802
33.570528
31.234622
28.290749
26.677847
24.240613
23.959875
23.687482
22.883415
22.681952
22.911429
22.308826
23.517609
22.210479
23.704767
23.599863
24.049878
23.330450
20.901561
20.971894
17.416477
16.952753
15.928745
11.422634
11.500716
11.112690
10.023713
9.270906
9.246469
8.589625
8.012652
7.787943
7.850528
8.429885
8.621812
10.536909
15.379786
22.567511
##ZVALUE=220
178.703666
183.599591
167.755485
139.627457
108.558536
78.154802
63.092709
52.028894
47.308803
43.123960
44.745803
39.415956
33.622980
27.259588
20.629764
13.588667
8.155704
6.923676
4.932880
3.987551
4.186630
4.690886
5.424619
6.437898
10.410547
17.679930
21.811724
33.959746
39.801002
49.887896
59.142709
70.420504
79.642534
87.339878
91.755986
100.893974
104.209781
99.387765
103.869438
99.669695
99.682808
96.509457
97.948909
91.171861
83.185434
80.263615
78.781843
70.453882
68.616867
65.476894
61.667562
55.374503
51.893592
49.255490
46.250820
40.275455
40.290952
38.806796
34.664869
30.204654
30.988455
25.884509
26.402473
24.070740
21.735430
24.023652
21.841526
21.635890
20.296574
20.759702
20.863414
21.216869
21.087527
21.268725
20.935535
19.691586
17.920732
18.299818
16.298890
14.458895
13.742447
12.199879
10.529757
10.693669
9.105802
8.162856
8.903742
7.392764
7.187724
7.251501
8.010864
6.962419
6.873608
6.807446
6.734729
6.994605
##ZVALUE=225
215.784907
221.159458
248.418450
265.250802
251.621008
219.424963
178.289413
120.507479
88.571906
71.226954
61.087608
57.274699
60.103536
56.826472
54.299831
46.083927
33.083558
25.481582
17.254949
10.598898
7.179976
5.299449
4.663467
6.475449
7.944703
13.175607
17.354488
25.442839
32.442808
37.544966
50.096512
58.107972
65.623522
70.975423
82.781911
85.664988
92.595816
94.183683
95.233917
96.659660
94.211698
95.240474
92.220902
90.087652
86.118579
81.675649
77.541471
75.653791
68.993568
66.300631
61.296821
58.716536
52.880645
50.828457
46.051741
43.510795
40.656924
36.597848
34.022927
33.676624
29.436946
28.299689
25.159717
24.418831
22.573471
20.802617
20.458698
20.615458
21.242499
19.814968
19.245744
19.216537
20.615458
19.368529
19.642711
17.493963
15.595555
15.457869
14.282465
13.281703
11.375546
10.405779
10.954738
9.647608
8.533597
8.848906
7.889867
7.869601
7.580519
7.661581
7.280707
7.382631
6.785989
7.389784
7.146597
7.228851
##ZVALUE=230
123.078823
133.052468
195.237994
279.573798
331.581831
369.328856
364.693999
321.805477
264.189839
206.531882
133.489966
98.847747
77.833533
74.365735
77.670813
79.906583
75.943470
69.073439
56.344867
43.797493
32.440424
20.886660
13.267994
8.778572
7.794499
9.980798
11.222959
15.876889
20.455718
25.291443
31.339526
36.541820
41.504502
49.725771
60.696602
70.656538
76.703429
84.195733
88.718534
93.936920
96.063614
96.775889
98.248720
98.757744
95.355511
91.309547
89.712739
84.896684
81.041455
76.650977
72.090626
66.231489
65.446496
61.083436
52.907467
48.805475
48.282743
42.582750
38.200617
36.446452
33.963919
30.367970
28.823614
26.220679
25.200844
22.991896
23.164749
20.982623
21.274686
20.873547
19.229650
20.291805
18.739700
19.791722
17.578602
16.682744
15.710592
14.589429
13.356805
11.956692
11.429787
10.352731
10.445714
9.498596
9.748936
8.474588
8.127689
7.788539
7.959604
7.142425
7.282495
7.633567
7.656813
7.074475
7.589459
6.977916
##ZVALUE=235
26.497841
30.303597
64.438581
138.502717
215.231776
314.463973
390.809774
456.312895
466.117859
445.046425
362.934470
282.123685
180.574656
128.959417
94.331503
86.628795
89.742541
90.103745
94.869733
91.441870
84.491968
65.022707
50.323606
32.829642
22.966862
14.936924
11.246800
9.795427
11.398792
12.771487
15.259981
19.451976
25.372505
37.227869
47.208667
62.873960
76.802969
88.907480
95.403790
103.666782
110.936761
113.936663
120.441914
118.839741
120.444894
116.313696
112.285614
110.232830
102.477670
98.493695
91.784596
85.946918
80.333948
75.484514
68.398714
62.662959
57.543516
53.318739
48.852563
44.853687
40.413737
36.559701
33.668876
30.416846
28.683543
25.724769
23.510456
22.681952
22.256970
20.572543
20.330548
19.731522
18.966794
17.920732
17.548800
16.867518
15.969872
14.234781
13.422966
11.784434
11.768937
9.860992
9.846687
9.441972
8.272529
8.871555
8.345842
8.968711
7.654428
8.184910
7.369518
7.430911
7.265806
6.701946
6.968975
7.316470
##ZVALUE=240
1.747608
1.978874
7.487535
21.422505
59.992671
108.909011
210.394859
309.984684
433.914661
501.922965
547.605753
529.825687
471.797585
360.618830
269.137621
165.383816
119.815469
91.716647
88.331699
94.877481
104.993582
107.636452
100.209713
87.648630
69.848895
54.415464
37.035942
26.344657
16.769767
11.597872
11.603832
14.495850
20.662546
35.525560
49.812794
69.752932
84.185004
102.597475
114.959478
125.668645
133.019686
142.726898
149.848461
149.792433
150.971413
146.535635
144.486427
136.029720
131.163597
122.676492
117.669702
107.791424
100.720525
92.623830
85.342526
75.967908
70.170760
62.686801
58.041811
49.991608
47.201514
41.423440
38.773417
33.495426
31.538606
28.497577
26.501417
24.191737
22.459626
21.478534
20.480752
19.858479
19.081831
17.816424
17.260909
15.350580
14.467835
13.393760
12.591481
11.413693
10.887980
10.825992
9.438992
8.637905
8.347631
7.923841
8.260608
7.443428
8.109808
7.249713
6.605983
7.144809
7.195473
6.332994
6.446838
6.346703
##ZVALUE=245
1.310706
1.241565
1.283884
1.449585
3.708601
11.618733
41.298866
85.947514
183.953643
277.016759
423.530936
513.159633
581.907630
598.226786
554.454923
450.399518
353.479981
224.953890
156.989694
100.244880
83.510876
83.649755
99.071860
107.383728
111.717582
105.757713
91.101527
77.280998
57.536960
44.372678
33.695698
26.114583
28.190613
39.778948
54.437518
77.787638
95.398426
115.061998
125.497580
140.963793
147.721767
157.771707
163.971782
168.973804
167.493820
163.893700
159.934759
151.036978
147.049427
138.066411
130.563974
121.709704
110.860467
99.992752
94.016790
82.238913
76.415539
69.729686
62.696934
55.490732
48.734546
43.686628
41.239858
35.511851
32.002926
29.642582
26.889443
24.804473
22.300482
20.341873
19.731522
18.180609
17.356873
16.609430
14.752746
14.324784
12.784600
11.918545
10.739565
10.215640
9.382963
8.987784
8.382797
7.827878
7.703900
7.328987
7.060766
6.561875
6.614923
6.326437
5.975962
6.118417
5.839467
5.716681
5.606413
5.366802
##ZVALUE=250
0.998974
0.958443
1.164675
1.080632
1.310706
1.326799
1.973510
8.091927
22.314787
66.675544
128.296614
250.459909
354.470611
498.195887
587.100983
638.715029
626.447797
545.334816
445.963740
292.407870
197.474957
134.739876
85.032582
75.088739
86.213946
99.070668
110.776424
115.017891
111.377835
101.586580
84.971786
71.480870
62.825680
60.126781
66.083670
81.343651
94.505548
112.264752
122.947693
137.492418
145.948529
154.966712
159.369707
161.809921
161.158442
158.062577
151.352882
147.093534
141.154528
131.670833
124.993920
114.312768
106.378794
97.671747
88.952780
80.735683
73.198676
65.497756
60.458779
51.493645
48.477650
41.686893
38.177967
34.082532
31.072497
26.691556
24.733543
22.493601
20.839572
18.418431
17.276406
16.547441
15.274882
14.377832
13.608932
12.288690
11.709929
10.057688
9.460449
9.019971
7.825494
7.229447
7.057786
6.624460
6.281734
5.980730
6.537437
5.678535
5.638599
5.434752
5.341768
5.271435
5.386472
5.020499
4.717708
4.743934
##ZVALUE=255
0.925660
0.981688
0.989437
0.996590
1.012683
1.112819
1.133680
1.368523
1.431704
3.228784
16.889572
42.818785
85.768700
189.229846
291.028619
450.792909
560.703874
668.265820
688.613653
641.561747
545.889735
424.414873
258.865952
163.183808
91.808438
71.031451
71.002841
82.980990
104.464889
117.111802
124.030709
125.589967
124.167800
113.413930
109.063983
104.772449
104.822516
108.825564
110.379457
118.334889
123.448968
131.157637
133.520961
135.493875
135.852695
133.261681
128.274560
123.131871
118.081570
109.805465
105.793476
96.769929
89.960694
81.491470
74.699521
68.055987
61.179996
55.143833
50.233603
44.197440
39.924979
34.580827
31.987429
28.368831
25.996566
23.140907
20.984411
18.984675
17.642975
15.968680
15.104413
14.041662
13.501644
11.681914
11.441708
10.118484
9.265542
8.988976
8.022785
7.504821
6.961823
7.106662
6.129742
5.524755
5.496740
5.543828
4.865527
4.868507
4.646778
4.611611
4.702806
4.402995
4.389882
4.547834
4.375577
4.057884
##ZVALUE=260
0.845790
1.008511
0.927448
0.962615
0.923872
0.957847
1.038909
1.100898
1.008511
1.249909
1.452565
1.781583
5.513430
25.120974
57.950616
140.173435
231.073499
386.501551
514.490008
664.252639
732.266903
737.957954
641.285777
516.107678
338.348746
228.433609
133.284926
87.217689
66.786408
72.015524
87.819695
113.334656
131.083727
149.184465
154.814720
154.209733
145.119429
131.523609
122.788548
112.310648
105.213523
101.939440
101.341605
101.438761
99.149942
95.436573
91.696978
88.868737
85.469484
78.816414
76.386929
69.295764
64.285994
58.069825
54.192543
49.364567
44.355989
40.276647
36.739707
32.288432
29.747486
26.688576
23.892522
21.243691
19.922853
18.109679
16.885996
15.165806
14.086962
13.200641
12.139678
11.451840
11.316538
9.745955
9.442568
9.002686
7.930994
7.941723
6.745458
6.195903
6.141663
5.484819
5.098581
5.167723
4.884601
4.798770
4.262924
4.498959
4.265904
4.364848
4.209876
4.036427
3.882647
3.780723
4.021525
3.623962
##ZVALUE=265
0.793934
0.828505
0.977516
0.618696
0.914931
0.995994
0.966787
1.071692
1.099706
1.047850
1.065731
1.123548
1.231432
1.479983
2.802610
15.832782
40.645599
104.863644
186.010599
345.407724
488.803983
629.877448
762.767792
787.606835
717.756748
611.224771
447.416902
318.733454
184.299946
116.890669
80.625415
69.325566
80.575943
107.862949
130.085945
154.523849
162.814856
163.210630
156.356692
140.415430
123.866796
103.708506
90.606809
78.740716
70.499778
63.683987
60.745478
57.312846
55.548549
51.754713
49.325824
44.858456
42.660832
38.587451
36.274791
32.909513
29.607415
27.066469
24.728775
22.357702
21.046996
18.872619
17.213821
16.190410
14.636517
13.291836
12.470484
11.594892
11.102557
10.563731
9.805560
9.217858
8.796453
8.555651
8.074641
7.117987
6.876588
6.496906
6.200671
5.415678
5.460978
4.558563
4.855990
4.492998
4.225969
4.156828
4.083514
4.047751
3.794432
3.941655
3.664494
3.805757
3.611445
3.531575
3.523827
3.438592
##ZVALUE=270
0.702739
0.827909
0.736713
0.689626
0.800490
0.815988
0.669956
0.713468
0.949502
0.961423
0.917912
1.042485
1.132488
1.106858
1.280904
1.334548
1.613498
7.276535
22.364855
72.088838
142.962933
249.164701
439.373851
592.416525
754.029751
814.270973
803.875923
731.197596
571.926832
432.927608
303.167701
167.551637
105.796456
70.673823
70.569515
91.170669
111.480951
135.572553
150.972605
158.980489
156.947970
144.314766
130.739808
106.753707
89.655519
68.015456
58.548450
48.135519
43.259859
38.406849
36.499500
33.523440
31.329989
29.168725
26.804805
23.731589
22.898912
20.620823
19.495487
17.895699
16.341805
14.823675
13.750792
13.047457
12.138486
10.807514
9.844899
9.353757
9.327531
9.041429
8.468628
8.244514
7.798672
7.113814
7.228851
6.456971
6.075501
6.026626
5.377531
4.999638
4.806519
4.486442
4.374981
4.318953
4.436970
4.003644
3.987551
3.892779
3.718734
3.774762
3.479719
3.645420
3.680587
3.366470
3.204942
3.202558
##ZVALUE=275
0.709891
0.815988
0.551939
0.697970
0.682473
0.799894
0.826716
0.705719
0.829697
0.717640
0.808835
0.738502
0.886917
0.953674
0.890493
1.029968
1.099706
1.356602
1.352429
3.524423
13.096929
36.491752
107.830763
203.087926
379.046798
518.345833
691.114664
798.332691
845.111609
804.146528
679.809451
540.888906
389.990807
218.578577
135.957003
76.260567
61.482787
68.786740
83.821416
107.395649
125.550628
143.586993
149.472952
146.991611
138.174891
115.977526
99.296570
77.857971
61.663985
46.485662
38.614869
31.672716
28.464794
25.353432
23.282766
21.463633
19.933581
18.086433
17.367601
16.078949
14.496446
13.212562
12.897849
11.615753
10.824800
9.906888
9.611845
9.102821
8.928776
8.283854
7.885695
8.019805
7.934570
7.550716
6.688833
6.350875
6.249547
5.650520
5.445480
5.194545
4.749894
4.573464
4.550815
4.219413
4.010797
4.050732
3.786683
3.776550
3.891587
3.707409
3.485680
3.529787
3.618598
3.342628
3.473759
3.366470
##ZVALUE=280
0.647902
0.583529
0.636578
0.729561
0.715852
0.673532
0.611544
0.709891
0.844598
0.796914
0.908971
0.854731
0.833869
0.792742
1.010895
1.011491
0.951886
0.955462
1.114607
1.201630
1.111627
1.645684
8.058548
27.347803
85.116625
158.108473
296.792984
434.494615
623.152852
752.481818
835.044980
849.422812
779.186487
609.975457
458.787680
271.464586
169.418454
86.790919
56.935549
49.620867
58.390498
78.093410
96.065998
117.077827
129.546523
137.437582
134.306550
122.137666
107.865930
84.965825
68.755746
48.807859
38.085580
27.563572
22.287965
18.560886
17.180443
14.957786
14.755726
13.546944
12.859702
11.470914
11.338592
10.266900
9.945631
8.911490
8.706450
8.284450
7.619858
7.335544
7.425547
7.196665
6.823540
6.614923
6.256700
5.863905
5.576611
5.352497
5.190969
4.601479
4.548430
4.461408
4.368424
4.296899
4.103780
3.962517
3.880858
3.757477
3.919601
3.646612
3.506541
3.536940
3.587604
3.506541
3.306866
3.130436
##ZVALUE=285
0.658631
0.642538
0.541806
0.709891
0.635982
0.537634
0.615716
0.663996
0.634789
0.663996
0.517964
0.625849
0.746846
0.761747
0.913739
0.813603
0.849962
0.817776
0.861883
0.936985
0.913739
1.066923
1.308918
1.308918
3.523827
12.615919
46.812892
97.654462
214.954615
336.527824
523.190498
676.273704
797.294974
873.343945
843.364596
707.435608
564.731956
363.954902
235.009789
119.200945
67.263842
38.693547
36.677718
49.884915
63.508749
84.502697
99.739432
115.580559
121.481419
120.928884
113.264918
96.662641
80.465674
58.466792
43.795705
28.498769
20.944476
14.065504
11.985898
10.735989
10.164976
9.124875
8.738637
8.107424
7.921457
7.330775
7.247925
7.145405
6.838441
6.569624
6.645918
6.513596
6.015897
6.054640
5.552769
5.370975
4.965663
4.826784
4.769564
4.482865
4.528761
4.290938
4.125834
4.072785
3.953576
3.898740
3.573895
3.700852
3.931522
3.572702
3.548861
3.479719
3.300905
3.162622
3.161430
3.419518
##ZVALUE=290
0.381470
0.656843
0.498891
0.437498
0.584722
0.593662
0.556707
0.548959
0.608563
0.591874
0.799894
0.667572
0.646710
0.706911
0.711679
0.781417
0.733733
0.649691
0.956655
0.861883
1.145601
0.974536
0.878572
1.091957
1.326799
1.304746
1.621842
4.973412
23.729801
59.416890
118.626952
252.738595
393.573642
608.021617
749.793649
867.781639
879.436731
785.991549
660.566688
458.231568
310.584903
160.355568
88.346601
39.388537
25.839806
29.323697
37.796497
52.680969
68.493485
88.268518
100.913644
111.360550
111.024976
103.263855
91.582537
69.513917
53.530931
36.004782
24.585724
15.455484
11.150837
7.929802
6.728768
6.378889
5.891919
5.786419
5.542636
5.840659
5.621910
5.381703
5.441904
5.432963
5.449653
5.118847
4.934669
4.756451
4.525781
4.471540
4.473925
4.254580
4.065633
3.934503
3.821850
3.823638
3.905892
3.787875
3.823638
3.606677
3.704429
3.568530
3.576875
3.441572
3.383756
3.347993
3.134608
3.215671
##ZVALUE=295
0.514984
0.541806
0.604987
0.593662
0.691414
0.475645
0.551939
0.571609
0.663996
0.684857
0.576973
0.592470
0.663996
0.616908
0.711679
0.660419
0.728965
0.705719
0.653863
0.681877
0.665784
0.793934
0.895858
0.919700
0.923872
1.031756
1.248717
1.253486
1.405478
2.287626
11.851788
33.597946
98.386407
184.328556
348.397493
500.086546
697.118640
816.192031
882.260799
851.482749
719.779730
574.302673
369.086862
235.032439
108.605623
54.036975
21.912456
16.323924
21.150708
29.924512
45.450926
59.050918
78.523755
91.042519
101.239681
102.313757
95.428824
83.942413
65.522790
51.128864
33.134818
23.138523
13.257861
9.017587
6.022453
5.064607
4.896522
4.500747
4.377961
4.380941
4.633665
4.710555
4.613996
4.582405
4.365444
4.344583
4.311800
4.091859
3.908873
3.937483
3.789663
3.634691
3.684759
3.608465
3.573895
3.569722
3.375411
3.429651
3.350973
3.547668
3.295541
3.142953
3.176928
3.321767
3.208518
3.201962
##ZVALUE=300
0.532866
0.649691
0.626445
0.492930
0.541806
0.425577
0.594854
0.502467
0.540614
0.519753
0.699759
0.451803
0.649691
0.514984
0.617504
0.681877
0.601411
0.633597
0.587702
0.777841
0.632405
0.575781
0.742674
0.774860
0.884533
0.855923
0.832677
0.872612
0.989437
1.150966
1.224875
1.314878
4.939437
17.749667
61.867833
123.268962
259.833932
400.289893
605.366826
741.686821
859.632492
880.841017
798.072815
672.402978
462.554693
310.346484
159.754753
84.676743
29.912591
14.692545
11.845827
15.873909
25.619864
35.864711
53.917766
68.832636
85.758567
93.033910
95.939636
92.016459
78.271627
65.515637
47.202706
34.246445
20.738840
13.855696
8.084774
5.437732
4.417896
4.042983
4.021525
4.110932
4.085898
3.848672
3.822446
4.008412
3.705621
3.634691
3.639460
3.725886
3.862977
3.799796
3.420711
3.533959
3.536940
3.350973
3.348589
3.552437
3.220439
3.374815
3.264546
3.209710
3.371835
3.140569
2.961755
3.208518
##ZVALUE=305
0.514984
0.395775
0.387430
0.601411
0.600815
0.468493
0.487566
0.685453
0.592470
0.486970
0.472665
0.534654
0.706911
0.632405
0.546575
0.334978
0.499487
0.650883
0.722408
0.608563
0.735521
0.686646
0.771880
0.793934
0.832677
0.808835
0.744462
0.875592
1.037717
0.779629
0.728965
0.939965
1.096725
1.286864
1.979470
11.386871
32.855868
97.943544
180.330873
341.567397
489.412546
693.453550
812.991858
886.354446
854.671001
711.673498
568.567514
372.179747
239.034891
109.447837
53.921938
17.735958
9.596944
10.202527
14.371872
24.131536
34.631491
50.616860
64.323545
79.947710
87.720752
90.364814
87.482929
74.962974
63.640475
45.467615
32.795668
19.400716
12.718439
7.633567
5.419850
4.379749
3.990531
3.628731
3.876686
3.495812
3.383756
3.356934
3.319979
3.388524
3.343821
3.325939
3.336668
3.228784
3.313422
3.233552
3.360510
3.175735
3.196597
3.249645
3.177524
2.834797
3.006458
3.210902
3.117919
3.007650
##ZVALUE=310
0.449419
0.392795
0.490546
0.443459
0.409484
0.450611
0.534654
0.527501
0.574589
0.524521
0.587702
0.596642
0.701547
0.584722
0.520945
0.627637
0.712872
0.602603
0.817776
0.731945
0.563860
0.541806
0.606775
0.568628
0.539422
0.637770
0.766516
0.772476
0.676513
0.775456
0.904799
0.927448
0.718832
1.016855
1.160502
1.240969
1.356602
4.695654
15.725493
56.235790
115.509629
246.770978
384.190679
588.592887
739.067793
872.831941
891.324878
813.505650
692.435503
483.375788
332.774520
170.436502
90.869665
31.611919
12.932420
7.536411
8.728504
12.825727
18.608570
30.522943
42.323470
59.023499
70.642829
81.686974
85.537434
81.673861
74.320436
60.672760
47.186613
31.069517
21.524429
13.096929
8.703470
5.239844
4.072785
3.490448
3.393888
3.156662
3.043413
3.089905
3.118515
3.128648
3.205538
3.049970
3.208518
3.151894
3.259778
3.089905
3.186464
3.054738
3.073812
3.026724
2.930760
2.906919
2.803802
2.839565
##ZVALUE=315
0.388622
0.545979
0.455976
0.475645
0.343919
0.383854
0.523925
0.441670
0.551939
0.389814
0.552535
0.515580
0.703931
0.590682
0.464916
0.487566
0.545979
0.537634
0.494719
0.672936
0.510812
0.716448
0.614524
0.615716
0.695586
0.582933
0.684857
0.681877
0.658631
0.741482
0.642538
0.897646
0.777841
0.790954
0.901818
0.921488
1.091957
1.049638
1.203418
2.189875
7.462502
33.351779
76.677799
182.296634
307.077765
515.854955
663.038492
822.435021
888.092518
864.453912
771.386623
581.032634
423.057675
232.376456
128.567815
46.880841
18.784404
7.672906
6.578565
8.033514
11.048913
18.141866
26.328564
40.001869
52.323937
67.462921
75.682998
80.317855
78.404546
69.154501
59.139729
43.887496
32.084584
19.594431
12.513995
7.208586
5.012751
3.832579
3.384948
3.138781
3.114939
2.921820
2.937913
3.196597
3.040433
2.974868
2.923608
2.892613
3.072619
3.037453
2.915859
2.968907
2.795458
2.752542
2.644658
2.867579
##ZVALUE=320
0.356436
0.418425
0.457764
0.435710
0.414848
0.392795
0.289679
0.610948
0.501871
0.447631
0.475645
0.496507
0.464916
0.454783
0.433922
0.397563
0.378489
0.583529
0.582933
0.411868
0.491738
0.617504
0.648499
0.660419
0.653863
0.464916
0.581741
0.681877
0.770688
0.737906
0.781417
0.662804
0.716448
0.683665
0.680685
0.630617
0.785589
0.751615
0.876784
1.199841
1.207590
1.395941
3.285408
18.494725
48.675537
130.737424
226.648450
401.523709
554.624796
752.486587
854.521990
893.993974
840.027928
678.693652
516.365767
302.314758
174.712539
71.654916
31.980872
10.237694
6.013513
5.999804
6.765723
10.142922
14.597774
25.003552
34.599900
49.188733
60.224533
71.982741
75.563788
72.909594
66.533685
53.505898
41.929483
29.264688
20.133853
11.690855
7.372499
4.504919
3.616810
3.095865
2.919436
2.912879
2.999902
2.674460
2.769828
2.751946
2.796650
2.828836
2.684593
2.723932
2.768636
2.625585
2.785921
2.635717
##ZVALUE=325
0.440478
0.451803
0.409484
0.432730
0.258684
0.480413
0.409484
0.372529
0.513792
0.477433
0.493526
0.433922
0.491738
0.430942
0.665784
0.550747
0.480413
0.460744
0.544786
0.355840
0.387430
0.441670
0.577569
0.627637
0.634789
0.525713
0.542998
0.546575
0.555515
0.620484
0.743866
0.724792
0.650883
0.714660
0.695586
0.646710
0.656843
0.841618
0.855923
0.891685
0.922680
0.912547
1.060963
1.344681
1.996756
10.383725
29.699802
86.508989
162.701607
321.979523
469.125509
674.765706
800.307989
886.300802
866.534710
731.049776
577.692986
368.355513
229.509473
104.453564
49.916506
14.675856
6.998777
5.371571
5.353689
6.625652
8.884668
14.844537
22.215843
35.033822
45.913458
57.938695
66.460967
70.846677
69.441795
60.940981
51.380992
38.680434
28.341413
17.269850
11.288524
6.621480
4.674792
3.592968
3.261566
2.916455
2.827644
2.895594
2.727509
2.591610
2.609491
2.725720
2.605915
2.628565
2.614856
2.503991
##ZVALUE=330
0.417829
0.405908
0.459552
0.383854
0.487566
0.374913
0.291467
0.425577
0.468493
0.444651
0.515580
0.481606
0.463724
0.425577
0.518560
0.376701
0.330806
0.367761
0.547767
0.618696
0.573993
0.546575
0.610948
0.703931
0.484586
0.628829
0.602603
0.574589
0.655651
0.584722
0.833869
0.694990
0.836849
0.584722
0.645518
0.651479
0.884533
0.678897
0.856519
0.997782
0.981688
0.791550
0.865459
0.931621
1.059771
1.064539
1.422763
4.265904
14.415979
53.982735
110.729933
239.529610
370.267630
579.382777
729.161501
861.006975
876.922011
788.555741
657.043457
449.966788
300.450921
146.078467
74.158907
25.312901
9.728670
5.097985
4.887581
5.173683
6.039739
9.265542
13.096929
21.288991
30.047894
43.682456
53.264499
62.290430
65.914989
63.967705
58.726668
47.178864
37.249923
24.918914
17.861724
11.320710
7.802844
4.799962
3.618598
2.913475
2.841949
2.642870
2.508759
2.700686
2.626777
2.717972
2.521873
2.514720
##ZVALUE=335
0.416636
0.434518
0.440478
0.368953
0.356436
0.417829
0.369549
0.166893
0.333786
0.391603
0.523925
0.407696
0.566840
0.216961
0.421405
0.281930
0.236630
0.466704
0.465512
0.367761
0.482798
0.416636
0.474453
0.487566
0.475645
0.545979
0.516772
0.349879
0.501871
0.595450
0.593662
0.575781
0.691414
0.553727
0.511408
0.593662
0.646710
0.672936
0.564456
0.686646
0.718832
0.839829
0.791550
0.850558
0.900626
0.919700
0.947714
1.019835
1.169443
2.032518
6.960630
31.469464
71.220994
174.412727
295.177698
500.914454
657.424927
811.333656
868.587494
828.038454
727.641582
526.367426
374.261737
202.363729
107.044578
36.519766
14.427900
5.814433
4.748702
4.665852
4.802942
5.721450
7.632971
13.297796
19.167662
30.006766
39.426684
50.590634
57.344437
61.491728
60.544610
53.500533
46.357512
35.625696
27.395487
17.660856
12.030602
7.372499
5.090833
3.691912
2.967715
2.683997
2.598763
2.583861
2.602935
2.495646
##ZVALUE=340
0.181794
0.261664
0.173450
0.070930
0.107884
0.207424
0.250936
0.169873
0.231862
0.204444
0.211596
0.327826
0.288486
0.247955
0.185966
0.392795
0.106692
0.280738
0.305772
0.204444
0.143647
0.388622
0.253916
0.235438
0.230670
0.230670
0.314713
0.260472
0.339746
0.327826
0.380874
0.524521
0.419617
0.371933
0.422597
0.403523
0.346899
0.280738
0.466704
0.579953
0.383854
0.563860
0.613928
0.538826
0.665784
0.599623
0.713468
0.680685
0.791550
0.944734
0.811815
1.091957
3.093481
17.832518
48.688650
133.328438
236.648917
418.630838
572.623610
750.588775
837.121010
845.179558
773.381591
605.487823
443.498492
245.999694
137.692690
55.008531
20.587444
6.569624
4.727840
4.262924
4.271865
4.457831
5.170703
7.882714
11.293888
18.777847
26.288629
37.855506
46.052933
54.589510
57.655573
56.267977
51.880479
43.178797
34.848452
24.674535
18.321872
11.154413
7.704496
4.470944
3.416538
2.629757
2.353787
2.427697
##ZVALUE=345
0.299811
0.396967
0.357628
0.413656
0.316501
0.381470
0.282526
0.262856
0.371933
0.437498
0.464916
0.465512
0.450611
0.427961
0.368953
0.380874
0.325441
0.364780
0.422597
0.517964
0.377893
0.403523
0.337958
0.455976
0.525713
0.428557
0.584722
0.615716
0.366569
0.480413
0.513792
0.523925
0.540614
0.478625
0.336766
0.486970
0.544786
0.384450
0.574589
0.574589
0.607967
0.697970
0.599623
0.600815
0.694990
0.563860
0.741482
0.691414
0.720620
0.760555
0.796914
1.043677
1.007915
1.014471
1.886487
9.258389
30.092597
91.725588
170.011520
327.838659
473.588705
672.765970
786.285996
849.355459
813.911557
667.309761
517.843962
319.762826
186.048746
74.962974
31.770468
9.070635
5.203485
4.512668
4.206896
4.070997
4.100800
4.720688
6.675720
11.275411
16.602874
26.065707
33.542514
42.321682
48.683882
53.163767
52.913427
48.754811
43.160915
33.939481
25.928617
17.004609
11.878610
7.138848
4.968643
3.461838
##ZVALUE=350
0.380874
0.306964
0.404716
0.311732
0.426769
0.300407
0.345707
0.353456
0.371933
0.406504
0.367761
0.442863
0.450611
0.371933
0.268817
0.382662
0.125766
0.442863
0.475645
0.331998
0.395775
0.457764
0.336766
0.350475
0.422597
0.355840
0.517964
0.473857
0.439882
0.381470
0.373721
0.399947
0.465512
0.516772
0.441670
0.511408
0.451803
0.439882
0.548959
0.648499
0.610948
0.503659
0.465512
0.581741
0.787973
0.582933
0.691414
0.619888
0.661612
0.700951
0.673532
0.653863
0.809431
0.876784
0.961423
1.018643
1.322627
4.484653
15.880466
56.711435
116.348863
253.726840
387.221575
582.038760
720.184445
830.045938
829.752684
728.649497
586.598516
371.233821
236.033797
110.595822
50.225854
13.556480
5.913973
4.303455
4.053712
3.639460
3.472567
3.672838
4.576445
6.566644
9.562969
14.596581
20.400882
29.508471
36.616921
44.312477
48.134923
48.576593
45.947433
39.317608
32.911897
24.377704
18.427968
11.681914
##ZVALUE=355
0.448823
0.306964
0.383854
0.393987
0.302792
0.379682
0.475645
0.412464
0.412464
0.474453
0.591874
0.393987
0.434518
0.434518
0.512600
0.262856
0.380874
0.294447
0.317693
0.450611
0.470877
0.446439
0.432730
0.536442
0.370741
0.318885
0.557899
0.470877
0.521541
0.555515
0.536442
0.387430
0.456572
0.468493
0.450611
0.368953
0.480413
0.607967
0.664592
0.605583
0.472665
0.499487
0.733733
0.583529
0.527501
0.694990
0.550747
0.570416
0.700951
0.650883
0.579953
0.578761
0.773668
0.746846
0.847578
0.734925
0.936985
1.027584
1.157522
1.672506
9.375811
28.409958
86.837411
164.702535
326.114893
471.468568
662.964582
773.418546
823.909640
770.322680
608.031750
464.316607
274.591446
155.803561
60.711503
25.101900
7.194877
4.596710
3.858805
3.597736
3.472567
3.225803
3.280640
3.838539
5.447865
7.855892
12.565851
17.702579
25.652647
32.249689
39.304495
42.705536
44.140816
42.770505
36.785603
31.634569
##ZVALUE=360
0.387430
0.266433
0.493526
0.384450
0.387430
0.514984
0.441670
0.410676
0.408888
0.368953
0.465512
0.381470
0.444651
0.372529
0.304580
0.345707
0.512600
0.493526
0.417829
0.363588
0.450611
0.538826
0.490546
0.585914
0.399947
0.473857
0.501871
0.537634
0.461936
0.467896
0.429749
0.639558
0.465512
0.473857
0.584722
0.415444
0.569820
0.336766
0.633597
0.585914
0.528693
0.580549
0.576973
0.697970
0.606775
0.564456
0.498891
0.602603
0.683665
0.685453
0.687838
0.673532
0.754595
0.715852
0.780821
0.793934
0.866652
0.826716
0.948906
1.093745
1.087785
1.439452
3.416538
16.737580
45.384765
125.985742
222.728848
393.342972
547.956824
726.749897
797.811747
792.462826
708.301663
519.784689
365.178585
187.741518
100.156665
35.555959
12.755990
4.688501
3.965497
3.523827
3.395677
3.154874
3.037453
3.131628
3.586411
4.635453
6.142855
9.715557
14.259815
21.486878
26.643872
34.044981
37.756562
40.366650
##ZVALUE=365
0.299811
0.372529
0.472665
0.317693
0.341535
0.306964
0.127554
0.300407
0.360608
0.507832
0.361800
0.232458
0.421405
0.245571
0.506639
0.433922
0.308752
0.349879
0.395775
0.310540
0.219941
0.329614
0.336766
0.408888
0.276566
0.494719
0.501871
0.367761
0.379682
0.513792
0.554919
0.475645
0.508428
0.422597
0.455976
0.456572
0.523925
0.623465
0.451803
0.482798
0.542998
0.564456
0.538826
0.445843
0.599623
0.538826
0.448823
0.517964
0.533462
0.586510
0.652671
0.660419
0.677705
0.686646
0.627637
0.749826
0.618696
0.666976
0.841618
0.857711
0.792742
0.884533
0.944734
1.028776
1.796484
8.740425
26.415586
80.342889
159.524679
321.325660
460.579991
637.619495
745.779872
794.397593
740.526915
583.371520
435.830951
254.052877
141.727924
51.949620
19.942522
5.423427
3.785491
3.535748
3.123879
3.031492
2.759695
2.846718
2.623796
2.912879
3.546476
5.364418
7.699728
12.616515
17.243624
23.750663
##ZVALUE=370
0.344515
0.280738
0.417829
0.430942
0.300407
0.353456
0.155568
0.306964
0.419617
0.256896
0.516772
0.396967
0.367761
0.409484
0.362992
0.416636
0.649691
0.311732
0.399947
0.534654
0.481606
0.604987
0.360608
0.407696
0.382662
0.378489
0.437498
0.380874
0.357628
0.344515
0.413656
0.409484
0.332594
0.413656
0.506639
0.288486
0.428557
0.391603
0.438690
0.296831
0.447631
0.448823
0.398755
0.523925
0.484586
0.441670
0.579953
0.458956
0.524521
0.676513
0.575781
0.529885
0.590682
0.554919
0.605583
0.628829
0.706911
0.676513
0.568628
0.603795
0.832677
0.701547
0.662804
0.926852
0.907779
1.126528
1.273751
4.314780
15.264750
57.825446
117.390752
243.374705
380.309820
577.958822
700.223446
781.560540
761.539936
643.180609
500.130653
300.361514
177.762508
71.675777
31.918883
10.010600
4.505515
3.396869
3.136992
2.777576
2.656579
2.613664
2.389550
2.434850
2.742410
3.351569
4.533529
6.926656
##ZVALUE=375
0.449419
0.258684
0.376701
0.342727
0.327826
0.230670
0.347495
0.328422
0.478625
0.421405
0.386834
0.284910
0.438690
0.300407
0.319481
0.325441
0.355840
0.261664
0.336766
0.379682
0.336766
0.465512
0.446439
0.239611
0.407696
0.343919
0.393987
0.422597
0.518560
0.383854
0.425577
0.474453
0.491738
0.529885
0.626445
0.476837
0.531673
0.506639
0.431538
0.582933
0.511408
0.452995
0.592470
0.551939
0.572801
0.503659
0.546575
0.532866
0.397563
0.536442
0.637770
0.630617
0.701547
0.561476
0.528693
0.510812
0.762939
0.645518
0.481606
0.651479
0.735521
0.593662
0.805855
0.617504
0.820756
0.778437
1.050830
0.949502
1.269579
2.122521
10.133982
28.373599
84.770918
163.348913
318.759680
457.303524
635.031462
736.393929
768.305659
706.776977
545.284748
403.949618
238.090754
137.929916
54.814816
22.723675
6.015897
3.490448
2.895594
2.684593
2.660751
2.548695
2.314448
2.254844
2.123713
2.366900
##ZVALUE=380
0.337958
0.432730
0.302792
0.276566
0.283718
0.204444
0.270605
0.274777
0.310540
0.294447
0.447631
0.266433
0.319481
0.256896
0.296831
0.450611
0.336766
0.347495
0.275970
0.508428
0.335574
0.242591
0.219941
0.361800
0.481606
0.499487
0.470877
0.509620
0.570416
0.625849
0.647902
0.739694
0.756979
0.653863
0.627637
0.815988
0.737906
0.809431
0.689626
0.734925
0.654459
0.851750
0.748634
0.757575
0.753999
0.604987
0.634789
0.539422
0.687838
0.720620
0.503659
0.572801
0.627637
0.508428
0.728965
0.565648
0.489950
0.676513
0.593662
0.580549
0.636578
0.584722
0.694990
0.662804
0.818968
0.896454
0.795722
0.848770
0.977516
1.130700
1.084805
1.595616
5.070567
16.945004
58.502555
120.281577
252.431631
392.653942
581.344962
695.667863
762.512684
733.066797
613.835454
484.432578
302.843451
186.970830
80.571771
36.809444
9.687543
4.036427
2.897978
2.787709
2.398491
2.485514
2.160668
2.156496
##ZVALUE=385
0.284910
0.233650
0.333786
0.338554
0.186563
0.318885
0.347495
0.306964
0.270605
0.285506
0.373721
0.314713
0.261664
0.242591
0.306964
0.227690
0.354648
0.391603
0.401735
0.353456
0.356436
0.395775
0.436902
0.277758
0.387430
0.477433
0.654459
0.642538
0.771880
0.759959
0.972748
1.046658
0.978708
0.967979
1.216531
1.248717
1.323819
1.046658
1.165867
1.077652
1.033545
1.061559
0.963807
1.089573
0.995994
0.921488
1.060963
0.817776
0.873804
0.769496
0.817776
0.913739
0.718832
0.820756
0.632405
0.660419
0.815988
0.702739
0.721812
0.720620
0.608563
0.650883
0.689626
0.536442
0.600815
0.747442
0.913739
0.869632
0.779629
0.860691
1.003742
1.018643
1.135468
1.616478
1.883507
9.367466
53.665638
90.283751
165.604949
322.919488
468.025804
643.573999
722.704530
745.905638
697.658658
554.989576
417.517424
245.765448
146.193504
61.351657
24.337769
5.934834
3.087521
2.548695
2.445579
2.315640
##ZVALUE=390
0.274777
0.258684
0.231862
0.197887
0.160933
0.396967
0.269413
0.377893
0.360608
0.260472
0.247955
0.298619
0.319481
0.166893
0.274777
0.128746
0.209808
0.287890
0.270605
0.243783
0.240803
0.338554
0.400543
0.301600
0.436902
0.414848
0.709891
0.611544
0.969768
0.972748
1.074672
1.295805
1.261830
1.460910
1.498461
1.619458
1.648664
1.576543
1.555681
1.700521
1.573563
1.486540
1.473427
1.451969
1.327991
1.253486
1.278520
1.154542
1.212955
0.979900
0.862479
0.956655
0.761747
0.777841
0.829697
0.850558
0.764728
0.679493
0.673532
0.593662
0.668764
0.735521
0.729561
0.738502
0.656843
0.661612
0.794530
0.685453
0.813603
0.908971
0.905991
1.017451
1.014471
0.892878
0.865459
1.032948
1.110435
5.047917
17.716885
64.252615
131.993890
275.136828
400.223732
563.745499
675.507784
756.259561
741.347671
634.680986
511.500835
334.062576
204.164982
87.868571
39.625764
10.438561
4.022717
2.549887
##ZVALUE=395
0.381470
0.381470
0.198483
0.169873
0.312924
0.339746
0.287890
0.250936
0.321865
0.234842
0.278950
0.282526
0.175834
0.261664
0.369549
0.295639
0.331998
0.355840
0.298619
0.328422
0.303984
0.281930
0.391603
0.409484
0.386834
0.696778
0.648499
0.668764
0.875592
1.186728
1.554489
1.509786
1.748800
1.793504
1.933575
2.036691
2.114773
2.172589
2.116561
2.057552
2.075434
1.917481
1.773834
1.704693
1.661777
1.537800
1.664758
1.555681
1.378655
1.304746
1.397729
1.059771
1.106858
1.024604
0.977516
0.972748
0.967979
0.832677
0.853539
0.879765
0.806451
0.772476
0.818968
0.695586
0.736713
0.855923
0.766516
1.006722
0.884533
0.967979
0.961423
0.924468
1.007915
0.856519
0.950694
1.073480
0.998974
0.832677
1.114607
3.052950
10.889769
43.672919
91.558695
193.194747
307.122469
489.564538
620.093942
736.286640
762.292743
699.329972
584.490895
394.822955
261.725783
122.084618
59.728622
19.005537
##ZVALUE=400
0.544786
0.416636
0.443459
0.335574
0.318885
0.379682
0.438690
0.417829
0.261664
0.217557
0.358820
0.311732
0.381470
0.346899
0.306964
0.391603
0.372529
0.261664
0.463724
0.317693
0.187755
0.222921
0.348687
0.297427
0.448823
0.499487
0.613928
0.734925
0.914931
1.156926
1.282692
1.679659
1.675487
2.069473
2.043843
2.072453
2.062917
2.173781
2.160668
2.106428
2.267957
1.839995
2.048612
2.091527
1.841784
1.880527
1.677871
1.600981
1.491904
1.489520
1.498461
1.404881
1.236796
1.176000
1.118779
1.005530
0.946522
0.949502
0.800490
0.900626
0.758767
0.897646
0.777841
0.827909
0.802875
0.899434
0.898838
0.830889
0.940561
0.980496
0.948906
0.904799
0.710487
0.883937
0.810623
0.641942
0.847578
0.768900
0.973940
0.882745
1.074672
1.637936
5.154610
23.623705
56.353807
139.984488
238.948464
404.320955
532.536507
670.473576
729.007721
705.295801
622.803569
466.269851
331.019759
179.111958
##END
