##TITLE=FQP00301
##FORMAT=SPECTACLE-ASCII V-1.2
##DATA TYPE=ULTRAVIOLET SPECTRUM
##SECOND TYPE=ULTRAVIOLET SPECTRUM
##DATE=03/27/18
##TIME=18:06:54
##SPECTROMETER/DATA SYSTEM=SPECTACLE
##XUNITS=NM EM
##YUNITS=ENERGY
##YFACTOR=1
##FIRSTX=220
##LASTX=410
##NPOINTS=96
##3DDATA=Equidistant
##ZUNITS=NM EX
##FIRSTZ=210
##LASTZ=400
##ZPOINTS=39
##XYDATA=(Y..Y)
##ZVALUE=210
3.456473
2.924800
3.422499
4.272461
3.144741
3.977418
3.518462
4.119873
4.133582
4.057884
3.813505
3.389716
3.765821
3.824830
3.753901
3.863573
4.588962
4.067421
4.039407
5.259514
4.745722
4.837513
4.474521
4.866719
5.569458
5.800724
6.351471
6.116629
6.443858
7.352829
7.551908
7.287860
7.599592
8.290410
6.690621
7.189512
8.388758
7.339716
7.761717
7.961988
9.928942
7.914901
7.738471
8.057952
7.779598
7.928610
8.377433
7.480979
7.769465
7.670522
8.126497
7.879734
8.442998
7.700920
8.474588
7.202625
6.878972
8.065701
7.328987
7.125735
8.073449
8.751750
8.441806
9.018779
8.898973
8.233786
8.724928
9.030700
10.520816
11.665821
13.126731
15.539527
18.647909
20.115972
21.184683
20.555854
20.420551
21.487474
20.690560
19.812584
18.316507
16.775727
16.199946
13.207793
13.339520
11.767745
8.416772
7.403493
7.437468
7.250905
8.946657
7.648468
8.278489
7.978678
9.407997
9.406805
##ZVALUE=215
10.636449
9.644628
8.015633
7.624626
5.920529
5.032420
5.748868
6.379485
6.486773
6.294847
6.711483
5.848408
5.278587
4.351735
4.404783
4.094839
4.150867
4.462600
4.880428
4.640818
4.593730
5.419850
5.096793
5.531907
5.850792
6.699562
7.626414
6.960630
7.357597
8.696914
9.149909
9.266734
9.532571
9.308457
10.990500
10.843873
10.163784
9.896755
9.447932
9.724498
10.003448
10.519624
10.915995
9.925961
9.745955
8.967519
9.476542
10.094643
8.844733
8.677840
7.570982
9.950995
9.038448
9.445548
7.654428
8.317828
9.370446
8.633733
8.590817
8.263588
8.599758
9.628534
8.062720
8.713603
9.289980
9.289980
8.933544
10.819435
10.746717
11.381507
14.062524
15.219450
16.296506
20.044446
19.506812
20.157695
18.450618
19.609928
19.778609
18.646717
17.458797
18.268824
15.186667
14.080405
12.125969
10.815859
9.435415
9.472966
8.582473
8.456707
8.320808
7.327795
7.999539
7.983446
8.054972
7.918477
##ZVALUE=220
32.938719
31.416416
32.739639
30.853748
26.855469
20.238757
17.361641
12.928843
12.219548
11.510849
11.972785
13.349652
12.345910
11.894703
8.910894
8.973479
6.763935
5.856752
5.068779
4.734993
4.794598
5.139709
4.863739
5.956888
8.103848
7.897615
7.581711
8.645654
9.828806
10.611415
11.283755
12.956858
11.940598
13.468862
13.911724
13.841987
14.748573
14.851689
13.873577
14.106631
15.160441
12.537837
12.839437
12.433529
11.859536
10.864735
11.692643
12.336969
10.071993
10.815859
11.018515
10.352731
11.541843
10.524988
10.057688
10.432601
9.066463
10.057688
9.368658
10.202527
9.870529
10.151863
9.945631
10.766983
9.668469
10.120869
9.365678
11.105537
12.859702
14.144778
14.533997
16.065836
18.010736
17.630458
20.577908
19.811988
20.380616
21.927953
20.094514
19.366741
19.843578
17.408729
16.209483
15.658736
14.274716
13.029575
11.293888
10.659695
9.870529
10.260940
9.913445
9.729862
9.253621
8.708835
9.207726
8.918643
##ZVALUE=225
58.907866
59.856772
72.935820
89.809895
88.749528
86.236596
78.747869
63.655972
46.650767
38.782954
26.103854
23.393631
24.832487
26.896000
25.197864
25.366545
20.139813
18.680692
13.413429
10.665655
8.014441
6.288886
6.738901
6.331801
6.989837
7.842779
8.413792
9.097457
11.722445
12.330413
14.131665
15.900731
15.877485
17.491579
16.480684
17.542839
18.019676
16.064644
17.596483
16.385913
16.622543
15.961528
14.995933
14.024973
15.123487
13.543963
13.806820
13.303757
13.681650
12.851954
11.203885
12.418628
11.614561
12.676716
12.052655
10.055900
12.443662
11.679530
11.631846
12.183785
10.490417
11.402965
12.273788
11.483431
11.819601
12.275577
13.536811
13.383627
14.935732
14.673471
16.675591
18.643737
20.097494
21.340847
20.668507
21.747947
24.233460
21.978617
20.676851
20.590425
19.941926
18.294454
17.898679
16.710758
15.216470
16.412735
13.547540
13.530850
13.085604
13.330579
12.243986
13.480783
12.281537
12.225509
11.829734
13.101697
##ZVALUE=230
51.995516
59.308410
86.647868
142.879486
170.942545
208.773613
213.946700
210.610628
193.498731
160.404444
107.988715
81.368685
55.721998
45.758486
46.127439
47.419667
51.506758
48.007965
45.417547
36.883950
29.247999
20.192862
13.519526
10.498762
8.520484
8.249879
9.183884
10.738969
11.790991
12.203455
14.600754
14.145970
15.783906
16.463995
16.950965
15.643835
17.226934
16.568899
15.997887
16.753674
16.154647
17.010570
15.070438
15.554428
15.174747
15.222430
14.770627
13.315678
13.823509
14.203787
12.732744
13.012886
13.055801
14.023781
13.137460
12.938976
13.217926
12.889504
15.447736
14.866590
14.491677
14.320612
13.952851
15.430450
14.873743
16.098619
14.624596
16.383529
17.138720
19.099712
19.555688
21.759868
24.157763
23.741722
25.248528
26.652813
26.729703
27.986765
26.352406
24.487972
23.668408
23.834705
21.560788
19.738674
21.258593
19.566417
20.697713
19.854903
19.225478
18.807650
19.151568
18.689632
19.758940
19.140840
18.773675
17.157793
##ZVALUE=235
20.962954
24.371743
46.800971
102.989674
161.637664
254.290700
321.561694
400.884748
429.290533
430.347919
379.009843
313.555598
213.885903
156.031847
105.086565
80.567002
71.896911
75.353980
80.502629
81.670880
74.498653
63.195825
49.803853
36.647916
27.485490
18.397570
14.809966
10.577440
10.030866
10.957718
11.418462
13.079643
12.986660
13.580918
14.092922
13.013482
14.341474
14.444590
15.049577
15.191436
15.835762
15.528798
14.141798
14.497638
14.505982
14.984608
15.589595
14.132857
14.998913
14.294982
14.466643
14.208555
13.618469
14.291406
14.567971
13.559461
15.329719
15.180707
15.006661
16.692877
15.786886
16.453862
15.947819
16.254783
16.387701
18.144846
19.952655
18.837452
21.329522
23.302436
25.174618
26.187897
28.730631
30.032992
29.982924
33.532977
32.734871
32.195449
31.261444
31.644702
29.267669
30.761957
29.702783
29.773712
28.338432
28.664470
27.284622
27.995706
24.970770
26.845932
24.895668
28.452873
27.390718
28.190613
26.609898
27.471781
##ZVALUE=240
3.891587
3.427863
11.265874
26.419759
70.573688
127.569437
240.479708
352.294445
515.516996
615.242720
685.580969
677.703619
628.062487
505.259633
398.684740
256.862640
187.573433
122.452974
99.552870
99.960566
107.599497
114.231706
107.749701
102.528930
83.872676
67.333579
45.562983
34.162998
22.838712
16.993880
15.761852
12.555718
11.573434
12.390614
12.839437
13.526678
13.467669
13.446808
11.969805
13.359785
13.553500
13.961792
15.506744
14.287829
14.345646
13.723969
13.573766
14.319420
14.003515
14.050603
14.237761
14.512539
14.520884
14.762878
14.990568
15.206933
15.030503
15.126467
16.765594
17.049909
17.670989
17.766953
16.822815
18.510818
18.366575
19.349456
21.665692
21.555424
23.569465
25.884509
27.321577
30.137897
32.378435
32.035708
35.028458
35.184622
36.161542
36.355853
36.562681
35.703778
35.444498
33.106804
33.944845
34.287572
33.193827
32.825470
33.017993
32.412410
34.802556
30.482411
33.418536
32.795668
32.971501
32.126904
32.419562
31.008720
##ZVALUE=245
2.848506
2.701879
2.868772
3.090501
6.207824
23.901463
56.105852
132.041574
229.294896
402.774811
558.147430
694.978833
812.940598
841.409564
775.800943
676.072836
484.676957
347.981453
214.203596
146.281719
101.311803
100.834966
113.867521
127.057433
66.172481
121.962428
113.817453
94.512701
73.443651
54.645538
38.839579
26.371479
18.274784
13.457537
13.955832
11.842847
12.757778
12.340546
13.768673
13.438463
13.803840
12.965798
14.170408
13.807416
13.703704
14.052987
14.374852
15.043616
13.959408
14.082789
13.972521
13.579726
14.635921
13.108850
14.286637
13.813972
14.697909
14.372468
14.209747
15.429854
14.074445
15.854836
16.501546
16.540885
17.130971
18.437505
18.636584
20.722747
20.782948
24.096966
24.271607
25.917888
28.411746
30.900836
30.759573
32.545924
33.174753
31.843781
33.951998
33.112764
32.966733
34.735799
32.767653
33.215880
32.191873
33.586621
30.728579
32.813549
31.594634
33.684969
33.597946
32.457709
32.179952
33.017993
32.489896
34.253597
##ZVALUE=250
2.273917
2.577901
2.455711
2.571940
2.375841
3.000498
4.672408
13.373494
49.967766
101.731420
232.026577
374.587774
525.804758
747.540593
861.575603
939.842463
925.097466
803.918839
667.394996
447.466969
300.394893
198.744535
117.859840
95.914602
102.389455
121.102929
134.754777
138.310790
133.791566
125.605464
110.121965
83.212852
64.178705
41.593909
29.476881
20.376444
16.898513
15.763640
15.384555
14.759898
14.804602
14.823675
14.464855
15.344620
14.858842
14.527440
15.601516
14.520884
13.991594
13.900995
14.614463
13.731718
14.147758
13.541579
14.692545
12.378693
13.335943
13.493896
13.832450
14.084578
13.948679
14.615655
14.863610
15.402436
15.370846
15.707612
17.019510
18.437505
19.187927
21.262765
19.831657
23.239851
25.562644
26.893616
28.626919
27.803779
28.641820
29.498935
30.214787
30.533671
29.338598
29.420853
29.145479
31.914711
31.688809
30.453801
30.614734
30.274987
30.229688
31.938553
31.700730
31.769872
30.946732
33.494830
30.032992
31.364560
##ZVALUE=255
1.849532
2.210736
2.472997
2.409816
2.431870
2.079606
2.768636
2.845526
3.209710
7.464886
35.047531
83.473921
165.289640
334.873796
495.787859
737.074614
900.095701
1015.605927
1015.605927
970.236659
826.794505
643.254519
404.095650
252.884626
136.576891
99.442601
89.776516
104.328990
130.733848
146.012902
149.590969
146.234632
138.180852
111.996531
88.848472
64.261556
48.278570
32.002926
24.207830
19.170642
19.298792
17.319918
17.391443
18.465519
16.693473
16.280413
15.733838
15.557408
15.734434
15.933514
15.287995
15.821457
14.175773
13.549924
13.372898
13.801455
13.097525
13.885498
14.284849
13.424754
14.091730
13.912916
13.426542
14.379621
14.847517
15.691519
15.270710
16.024709
17.802715
19.086599
19.481778
22.572875
23.715496
23.166537
24.569631
26.650429
25.097728
26.163459
27.123690
27.201772
27.759671
27.755499
27.904510
26.550889
27.338862
29.083490
29.045939
29.212832
29.165745
27.729869
30.294657
29.253960
30.536652
30.609965
29.713511
28.739572
##ZVALUE=260
2.029538
2.169609
2.133846
1.873970
2.281666
2.322793
2.249479
2.385974
2.515912
2.657771
2.766848
4.624724
15.166402
60.496926
125.652552
280.639529
445.462465
704.124570
902.845860
1015.596986
1015.596986
1015.596986
993.455648
809.687972
530.167818
362.946987
204.089880
127.107501
88.058710
90.494752
113.287568
135.790706
149.747729
162.338614
158.883929
142.303705
124.314427
96.792579
75.205564
51.285625
37.595630
27.741790
23.498535
20.222664
18.540621
18.145442
18.864870
17.679930
17.357469
17.378926
15.620589
16.413927
15.467405
15.762448
15.434623
14.943480
13.882518
14.535785
14.596581
12.499690
14.206767
13.576746
13.937950
13.700724
14.996529
15.171766
14.336705
16.012788
17.102957
17.773509
18.148422
19.329786
21.674633
22.501945
23.440719
24.056435
23.561716
23.913980
25.298595
23.768544
25.827885
25.780797
25.448799
25.105476
26.894808
27.002692
27.251840
27.567744
26.764870
26.762486
26.999712
27.608871
28.621554
28.608441
28.147697
29.072762
##ZVALUE=265
2.006888
2.100468
1.933575
2.103448
1.945496
2.233982
2.086759
2.270937
2.262592
2.187490
2.773404
2.755523
3.008842
3.360510
7.603765
37.777424
86.522698
215.867758
367.696881
663.879514
912.901759
1015.605927
1015.605927
1015.605927
1015.605927
967.483521
705.379844
485.678911
269.000530
169.082880
109.457970
82.202554
93.813539
123.817921
146.817565
161.954761
171.465874
162.367821
149.694681
120.954514
99.059939
73.547959
53.796768
36.361814
28.188825
22.076964
20.497441
19.778609
18.623471
18.446445
17.176867
17.371774
16.191602
15.816689
15.268922
15.020967
15.183687
13.707876
14.553666
13.264418
13.879538
14.379621
14.281869
13.547540
14.318824
14.337897
15.296936
15.952587
16.255975
17.526746
18.166900
19.460917
19.606948
20.959973
20.266771
22.033453
22.997856
22.007823
22.989511
23.746490
23.302436
24.605989
23.226738
24.825931
24.340749
25.743842
25.399923
25.834441
26.786923
24.985671
26.366711
26.213527
26.164651
26.994944
27.426481
26.862621
##ZVALUE=270
1.745820
1.976490
1.963973
2.087951
1.884699
1.944900
2.074838
2.149940
2.029538
2.247691
2.166629
2.293587
2.368689
2.687573
2.906919
2.747774
3.720522
17.711520
52.163601
152.465701
294.435620
501.630902
853.877664
1015.605927
1015.605927
1015.605927
1015.605927
1015.605927
920.968652
675.777793
455.194712
240.024924
141.514540
80.519915
78.216791
99.456906
120.695829
150.952935
164.716840
171.026587
167.630911
152.002573
129.315853
97.004771
75.630546
50.130486
36.928654
26.505589
22.249818
19.416809
18.044710
17.594695
16.495585
16.629696
16.126633
15.014410
14.992952
14.580488
14.455914
14.637709
14.288425
13.018847
13.994575
13.883710
14.483929
14.717579
14.799833
14.991760
16.272664
16.511679
17.095804
18.282533
19.892454
19.848943
20.044446
20.695925
21.527410
21.633506
22.343993
22.233725
21.967888
22.375584
22.319555
23.215413
23.361444
24.374723
24.107695
24.521947
24.774671
25.526881
25.217533
25.917888
25.223494
25.126934
24.429560
24.571419
##ZVALUE=275
1.903772
1.941919
1.728535
1.933575
1.874566
1.758933
1.962781
1.834631
1.849532
2.098680
2.289414
2.132654
2.204776
2.166629
2.254844
2.496839
2.494454
2.663732
3.177524
8.246899
29.912591
83.766580
236.186981
419.571996
743.337870
982.185006
1015.598774
1015.598774
1015.598774
1015.598774
1015.598774
830.898881
585.151911
310.613513
182.161927
88.936687
64.406991
73.219538
92.120767
121.421814
141.681433
161.085725
167.377591
158.450603
142.418742
118.986964
96.461773
70.584416
52.527785
34.661889
25.880933
19.277930
16.212463
15.532970
14.835596
14.738441
14.251471
14.352798
14.473796
14.421940
13.903975
13.302565
13.943911
13.972521
13.818741
14.596581
14.369488
14.879704
15.335679
16.842484
17.204881
18.100739
18.748641
19.948483
20.219684
20.541549
20.456910
21.259785
21.738410
21.263957
21.863580
22.662878
22.488832
22.526979
23.068786
22.733808
22.936463
23.035407
23.526549
23.165941
24.081469
23.423433
23.531914
23.567677
23.756623
24.048686
##ZVALUE=280
1.734495
1.765490
1.569986
1.681447
1.469851
1.534820
1.801848
1.711845
1.800656
2.045631
1.696944
1.882911
1.898408
1.939535
2.131462
1.894832
2.082586
2.301931
2.396703
2.663732
2.929568
4.425645
16.146898
73.653460
167.464614
370.934010
579.090714
900.593996
1015.605927
1015.605927
1015.605927
1015.605927
1015.605927
937.531590
686.350465
396.643877
231.684446
102.570653
60.478449
50.020814
64.230561
88.382959
112.606883
138.433576
151.431561
157.880783
152.762532
133.594871
115.850568
86.570978
68.472624
45.256615
32.381415
22.230744
16.543865
14.738441
13.439655
13.456941
13.088584
12.582541
13.604760
13.625622
14.049411
14.494658
14.148951
15.359521
15.179515
15.254617
16.746521
16.992688
17.285943
18.096566
19.023418
19.588470
19.581914
20.966530
20.917654
21.589994
20.706654
22.060871
22.019744
21.760464
21.680593
23.069978
22.278428
22.832751
22.470951
22.122860
23.354888
22.505522
22.368431
22.769570
22.770762
22.840500
22.713542
23.079515
##ZVALUE=285
1.330972
1.347661
1.247525
1.229644
1.397729
1.345873
1.387596
1.494884
1.456738
1.557469
1.529455
1.520514
1.629591
1.672506
1.809597
1.724958
1.780987
1.778603
1.911521
2.075434
2.041459
2.342463
2.378821
2.962947
9.134412
31.089783
107.048750
217.576623
455.046892
685.650706
928.087831
1015.363932
1015.363932
1015.363932
1015.363932
1015.363932
858.281851
530.562401
330.976844
153.799653
79.861879
40.288568
40.051937
59.432983
79.079866
107.515454
126.049519
145.473480
149.943829
146.004558
137.388706
111.831427
92.318654
65.382719
47.160983
29.092431
21.005869
15.467405
13.900995
12.326837
12.823939
12.703538
13.016462
13.190508
14.338493
14.232993
14.451742
16.056895
15.994906
16.869903
17.330647
18.054843
18.139482
19.013882
19.140840
20.022988
20.317435
21.483898
21.263957
21.332502
21.843910
22.360682
21.806955
21.899939
22.706985
22.668839
22.644997
22.328496
22.740960
23.079515
22.594929
22.146702
21.684766
22.226572
22.484660
22.650957
##ZVALUE=290
1.514554
1.375675
1.398921
1.507998
1.324415
1.428723
1.433492
1.410842
1.375675
1.602769
1.790524
1.615882
1.641512
1.538992
1.597404
1.773834
1.844764
1.991987
1.883507
1.852512
2.178550
2.305508
2.547503
2.639890
3.026724
2.886653
4.434586
14.047623
63.569546
143.262744
268.758535
534.417629
796.269774
1015.605927
1015.605927
1015.605927
1015.605927
1015.605927
994.614959
673.789978
439.815521
221.081972
114.276409
45.651793
29.914975
37.495494
50.903559
75.091720
93.411803
120.111704
136.214495
147.004724
143.139958
130.355954
112.886429
84.910989
63.069463
42.518973
31.433702
20.615458
16.328692
13.993979
13.293624
14.025569
13.869405
14.584661
15.535951
15.764832
16.349554
17.293692
17.798543
18.552542
19.304752
20.188689
19.226670
20.570755
20.785928
20.869970
21.500587
21.267533
21.867752
22.389889
22.201538
22.627711
21.932721
22.382736
22.660494
22.440553
22.572875
22.250414
22.740960
22.435784
22.346973
22.450686
21.996498
22.237897
##ZVALUE=295
1.407862
1.346469
1.488924
1.388788
1.408458
1.326799
1.309514
1.487732
1.542568
1.343489
1.461506
1.583695
1.356602
1.482964
1.535416
1.552701
1.560450
1.609921
1.699924
1.918674
1.812577
2.111793
2.037883
2.142787
2.138615
2.376437
2.718568
2.840757
3.246665
5.739927
20.639896
88.923573
193.091631
435.896516
674.856901
1005.674601
1015.536785
1015.536785
1015.536785
1015.536785
1015.536785
807.980895
556.842685
298.531651
162.001848
60.274601
31.561852
23.659468
30.808449
48.444867
66.803694
92.427731
112.203956
131.629705
139.296651
135.621428
126.222968
104.144812
84.485412
60.153604
44.278502
29.434562
23.153424
17.732978
15.064478
14.288425
14.941692
15.075803
16.132593
16.862750
17.582774
18.658638
18.775463
20.159483
20.156503
20.945668
20.638704
21.459460
21.551847
21.411777
22.381544
22.430420
22.475719
22.798777
22.463799
22.662878
22.548437
23.053885
23.093820
22.628903
22.320747
22.325516
22.130609
22.490621
22.013783
22.108555
##ZVALUE=300
1.424551
1.214743
1.377463
1.368523
1.560450
1.342893
1.392961
1.376867
1.361966
1.458526
1.311898
1.571774
1.462698
1.461506
1.575947
1.475811
1.574755
1.522899
1.895428
1.683831
1.718998
2.020597
1.875758
1.892447
1.995564
2.021790
2.093911
2.309680
2.449751
2.866983
2.789497
3.470778
13.822913
47.406554
151.350498
285.475850
566.324592
831.079483
1015.605927
1015.605927
1015.605927
1015.605927
1015.605927
993.468761
658.231974
427.810550
212.992430
114.491582
42.528510
21.844506
20.552874
27.682781
44.613481
60.288906
85.081458
104.041696
125.338435
131.259561
130.738616
122.847557
103.525519
86.225867
62.053800
47.839880
31.710863
24.814606
18.785596
16.791821
16.394854
16.897917
17.868876
18.517971
18.898845
19.491911
19.794703
20.748973
20.579696
20.809770
21.455884
22.588968
22.622943
23.494959
23.174882
23.781657
23.697615
23.792982
23.520589
23.310781
23.010969
23.747683
23.393631
22.570491
22.822618
22.457838
22.935867
22.558570
##ZVALUE=305
1.309514
1.214743
1.337528
1.310706
1.183748
1.271963
1.426935
1.370907
1.611710
1.399517
1.349449
1.375675
1.547933
1.491904
1.548529
1.517534
1.344681
1.481771
1.669526
1.624823
1.439452
1.579523
1.770854
1.759529
1.871586
2.024770
1.889467
1.902580
2.071857
2.307892
2.404451
2.465844
2.686977
3.020763
5.579591
31.133890
84.998608
235.500932
409.657955
731.094480
985.151529
1015.605927
1015.605927
1015.605927
1015.605927
1015.605927
819.906592
498.318672
307.972431
141.899586
69.010854
24.912953
16.200542
19.153953
27.124882
42.502880
59.301853
82.253814
100.138783
117.509961
124.070644
125.513673
116.864443
99.386573
84.108710
61.620474
46.511889
32.636523
25.911927
20.698905
19.185543
18.785000
19.137859
20.036697
20.281672
20.612478
20.670891
21.654963
21.981597
22.284985
22.562742
23.286939
23.933649
24.106503
23.720860
24.448633
24.445653
23.850799
24.431944
24.662614
23.441911
23.645759
23.029447
23.064613
22.887588
22.969842
##ZVALUE=310
1.253486
1.306534
1.235604
1.372695
1.231432
1.226664
1.430511
1.148582
1.370907
1.299977
1.291633
1.294613
1.415610
1.354814
1.264811
1.408458
1.404881
1.298785
1.412630
1.697540
1.617670
1.621842
1.559854
1.599789
1.635551
1.782775
1.823902
1.819730
1.900792
2.073646
1.932979
2.033710
2.187490
2.378821
2.754927
2.775788
3.351569
13.457537
42.951703
140.242577
273.066759
550.101995
819.358826
1015.605927
1015.605927
1015.605927
1015.605927
1015.605927
1001.887918
682.569742
444.446802
218.205452
114.134550
40.006638
18.730760
14.053583
17.250776
26.170611
36.530495
54.355860
72.003603
94.871521
108.749866
119.765997
121.227503
112.281442
100.047588
82.982779
65.819621
46.539903
36.818981
27.358532
23.159981
20.981431
20.711422
20.607710
21.479726
22.287965
22.343993
22.822618
23.393631
23.507476
23.511648
24.044514
24.171472
24.268627
24.930835
24.383664
24.780631
24.924874
24.506450
23.439527
23.441911
23.203492
23.591518
23.128986
##ZVALUE=315
1.333952
1.229644
1.220703
1.103878
1.240969
1.094937
1.222491
1.338720
1.248717
1.420975
1.359582
1.314878
1.288652
1.307726
1.110435
1.331568
1.212955
1.182556
1.488924
1.412630
1.547933
1.597404
1.545548
1.495481
1.515746
1.698732
1.358986
1.513958
1.724958
1.821518
1.772642
2.031922
1.979470
1.825690
2.203584
2.104640
2.476573
2.772808
3.038645
6.481409
22.196770
89.265704
189.806819
415.581465
661.836863
1004.387736
1015.605927
1015.605927
1015.605927
1015.605927
1015.605927
815.238953
567.878485
298.020840
161.366463
58.667660
25.406480
13.374686
13.197660
17.057657
22.927523
36.200881
50.294995
68.982840
87.272525
106.065869
113.662481
116.683841
110.785961
96.670985
82.058907
63.386559
50.165653
36.242604
29.109716
24.910569
23.032427
22.449493
22.142529
22.820830
22.647977
23.796558
23.630857
23.989677
24.380684
24.616718
24.647713
24.949908
25.037527
24.394989
24.639964
23.584962
23.833513
23.740530
23.811460
23.353696
##ZVALUE=320
1.128912
1.215935
1.123548
1.221895
1.299977
1.233816
1.201630
1.206994
1.398921
1.293421
1.311898
1.354814
1.358986
1.260638
1.345873
1.337528
1.275539
1.362562
1.288652
1.311898
1.405478
1.284480
1.288652
1.410842
1.432896
1.345873
1.518726
1.516938
1.659989
1.776814
1.692772
1.732707
1.565814
1.824498
1.885891
2.101660
2.006888
2.011657
2.161860
2.540946
2.526641
3.497601
10.077953
52.209496
124.112964
311.258435
509.912968
842.067599
1015.605927
1015.605927
1015.605927
1015.605927
1015.605927
982.719660
726.502538
408.780575
229.919553
91.136694
41.597486
16.476512
12.127757
12.747645
16.172528
22.726655
32.008886
48.547983
63.988566
83.730817
98.277926
109.836459
113.233924
105.912685
96.181631
78.066587
63.826442
47.444701
38.190484
30.359626
26.555657
24.552941
23.216605
24.090409
23.728609
24.560690
24.256706
24.247766
24.414659
24.921894
24.404526
24.784803
24.649501
24.325848
23.863912
23.916960
23.762584
24.024844
##ZVALUE=325
1.112819
1.077652
1.185536
1.246929
1.112819
1.122952
1.250505
1.134872
1.089573
1.142621
1.282692
1.228452
1.434684
1.275539
1.233816
1.194477
1.281500
1.429915
1.233816
1.214743
1.346469
1.330972
1.388788
1.356602
1.437664
1.420975
1.353621
1.356602
1.612902
1.555681
1.297593
1.482964
1.391768
1.565814
1.768470
1.812577
1.831651
1.914501
2.021790
2.164841
2.212524
2.395511
2.691746
3.022552
5.449653
32.209754
82.996488
214.330554
382.879972
706.455708
972.411633
1015.605927
1015.605927
1015.605927
1015.605927
1013.181806
795.561671
479.195714
286.450982
124.191642
59.459805
20.572543
12.786984
11.763573
13.006926
16.864538
22.491813
33.609867
46.076775
65.835714
80.850720
97.858906
104.861856
107.965469
102.984905
88.327527
76.200962
59.666634
49.019456
37.262440
30.787587
26.388764
24.355650
24.311543
23.861527
23.683906
24.122596
24.215579
24.633408
23.949742
24.266839
23.718476
23.789406
24.003983
23.404956
23.865700
##ZVALUE=330
1.114607
1.176596
1.067519
1.005530
1.021624
1.097918
1.136661
1.318455
1.212955
1.089573
1.001954
1.205802
1.283884
1.142621
1.256466
1.197457
1.108646
1.182556
1.185536
1.241565
1.157522
1.267791
1.462698
1.296997
1.552701
1.505613
1.455545
1.337528
1.322627
1.567602
1.304746
1.514554
1.469851
1.541972
1.615882
1.581907
1.631975
1.683831
1.766682
1.855493
2.082586
2.090931
2.119541
2.467632
2.409816
2.583861
3.372431
14.359951
43.942928
142.923594
274.408460
545.578599
792.859793
1015.605927
1015.605927
1015.605927
1015.605927
1015.605927
919.453502
583.577752
371.038914
170.804858
86.523890
31.842589
15.594959
11.614561
12.040734
13.773441
16.760826
23.830533
32.421947
46.866536
61.176419
79.904795
92.095733
100.754499
103.343725
97.603798
87.421536
71.834922
60.584545
45.280457
37.452579
30.066967
27.354956
24.877787
24.556518
23.514628
23.445487
23.605824
23.634434
23.608804
23.459792
22.872686
23.306608
22.843480
##ZVALUE=335
1.072884
1.209974
1.102686
1.157522
1.163483
1.262426
1.182556
1.008511
0.956655
1.122952
1.148582
1.105666
1.027584
1.223683
1.031756
1.106858
1.301765
1.140833
1.177788
1.178980
1.194477
1.211762
1.251698
1.275539
1.273751
1.304746
1.354814
1.289845
1.194477
1.345873
1.471639
1.369715
1.514554
1.279712
1.349449
1.469851
1.519918
1.566410
1.712441
1.784563
1.662970
1.883507
1.869798
2.063513
1.997948
2.207756
2.202988
2.270937
2.767444
6.410480
22.609830
86.694956
182.060599
400.452614
636.333823
978.241563
1015.605927
1015.605927
1015.605927
1015.605927
1008.293629
702.515841
471.472740
243.224502
125.823617
43.650866
20.577908
12.470484
12.108684
12.874603
14.496446
17.875433
22.703409
33.041835
43.668747
61.313510
72.855949
87.946653
95.398426
98.117590
94.191432
81.358552
71.567893
57.807565
48.433542
37.502646
32.313466
27.196407
24.873614
23.523569
22.754669
22.393465
22.228956
22.169948
22.199750
22.363663
##ZVALUE=340
0.940561
0.984669
1.034737
0.910759
1.129508
1.289845
0.920892
1.162887
1.075864
1.092553
1.062751
1.077652
1.129508
1.039505
1.082420
1.123548
1.107454
0.984669
1.084805
1.318455
1.198649
1.236796
1.079440
1.307726
1.200438
1.135468
1.330972
1.355410
1.311898
1.282692
1.265407
1.258850
1.357794
1.415610
1.571774
1.430511
1.450777
1.544952
1.537800
1.515746
1.430511
1.606941
1.426935
1.714826
1.669526
1.849532
1.951456
1.977682
2.273917
2.329946
2.542734
3.973842
10.988712
53.375959
129.300952
316.514969
536.399484
872.362852
1015.584469
1015.584469
1015.584469
1015.584469
1015.584469
822.712779
569.701791
294.458866
159.741640
66.020489
28.331876
13.499856
12.534857
12.699962
13.596416
15.279651
18.182993
23.613572
31.063557
44.222474
56.518912
72.740912
82.743764
90.135932
91.629624
87.799430
81.145763
68.223476
57.728887
45.162439
38.171411
30.058622
26.219487
23.285747
22.257566
21.232963
21.172762
21.117926
##ZVALUE=345
1.117587
0.936985
1.077652
0.995994
1.041889
0.987649
1.023412
1.111627
1.095533
1.078844
1.111627
1.150966
1.126528
1.028776
1.123548
1.107454
1.075864
1.157522
1.137853
1.127720
1.182556
1.094937
1.010895
1.255870
1.197457
1.277924
1.218915
1.193881
1.155734
1.246929
1.331568
1.261830
1.306534
1.325607
1.464486
1.369715
1.350641
1.512766
1.441836
1.428723
1.431704
1.376867
1.553893
1.647472
1.611710
1.633763
1.712441
1.766682
2.001524
2.009869
2.127886
2.322793
2.475977
2.914667
5.298853
30.090809
82.315803
216.001868
386.621952
689.322948
938.684940
1015.606523
1015.606523
1015.606523
1015.606523
929.953456
684.619546
395.734906
220.684409
86.243749
40.172935
16.901493
12.948513
12.698770
13.023615
13.387799
14.631748
17.356873
22.159815
30.882955
40.186644
55.678487
66.093802
77.251792
83.078742
86.837411
83.422661
75.640678
66.885948
54.865479
45.300722
34.823418
29.256940
23.960471
22.330880
21.164417
##ZVALUE=350
1.110435
1.036525
0.987649
0.945926
1.133680
1.128912
0.922680
1.077652
1.009703
1.068711
1.126528
1.079440
1.006722
1.039505
0.966787
1.050830
1.085997
1.150966
1.094937
1.019835
0.961423
1.042485
1.106858
1.073480
1.094937
1.203418
1.216531
1.086593
1.140833
1.102686
1.186728
1.148582
1.255870
1.191497
1.170635
1.258850
1.253486
1.421571
1.401901
1.504421
1.311898
1.498461
1.478791
1.306534
1.395941
1.441836
1.660585
1.507998
1.779795
1.666546
1.719594
1.941919
2.065897
2.048612
2.382994
2.438426
3.328919
15.450716
47.643781
148.929954
283.803940
554.181933
792.138577
1015.605927
1015.605927
1015.605927
1015.605927
1008.378863
787.582994
463.488698
280.425549
126.064420
58.664680
19.877553
12.790561
12.061000
11.925697
12.698770
13.178587
14.386773
16.707778
22.038817
27.663708
38.271546
47.038794
59.276819
67.688823
75.857639
78.034997
76.619983
70.987940
60.479641
52.848458
41.906834
34.740567
27.954578
##ZVALUE=355
0.968575
1.023412
1.187921
1.041889
1.033545
1.029968
1.079440
1.087785
0.979900
1.017451
1.118779
1.079440
1.061559
1.128912
1.110435
1.164675
1.129508
1.134872
1.253486
1.155734
1.059771
1.056790
1.066923
1.161695
1.103878
1.122952
1.214743
1.120567
1.062751
1.296997
1.212955
1.266599
1.245737
1.181960
1.219511
1.369715
1.318455
1.417994
1.469851
1.300573
1.508594
1.546741
1.393557
1.464486
1.518726
1.333952
1.446605
1.503825
1.497865
1.584888
1.725554
1.702905
1.764894
1.937747
1.864433
2.020597
2.235770
2.429485
2.602935
7.322431
25.305748
96.791983
196.726918
411.804914
643.214583
980.378985
1015.606523
1015.606523
1015.606523
1015.606523
872.513652
572.529435
357.049704
154.093504
75.218678
25.494695
13.777614
11.342764
11.403561
11.901855
12.070537
12.743473
13.914704
15.939474
18.812418
25.271773
32.346845
42.559505
51.397681
61.332583
67.648888
71.286559
70.719719
64.971447
58.024526
48.296452
##ZVALUE=360
1.034737
0.908971
1.121759
0.961423
1.029968
0.986457
0.873804
1.004934
0.912547
1.009703
1.035929
1.118779
1.042485
1.121759
1.245737
1.170635
1.130700
1.164675
1.021624
1.018643
1.174808
1.026988
1.047850
0.964999
1.190901
1.114607
1.320839
1.328588
1.250505
1.260638
1.134872
1.339912
1.404881
1.188517
1.183748
1.204610
1.162887
1.282692
1.297593
1.119971
1.403689
1.425743
1.443624
1.352429
1.359582
1.261830
1.476407
1.533628
1.439452
1.540780
1.523495
1.520514
1.743436
1.813769
1.780987
1.801848
1.939535
2.018809
2.170801
2.371669
2.455711
3.954768
11.553764
51.566958
125.594735
309.920907
505.367517
806.072950
1010.907888
1015.601754
1015.601754
1015.601754
984.280705
667.444468
439.413786
211.490989
108.547807
40.590763
18.271804
11.138916
10.794997
10.812879
11.409521
11.501908
11.608601
12.687445
14.054775
16.974807
20.522475
27.997494
34.610629
45.354962
53.282976
60.191751
64.372420
64.396858
##ZVALUE=365
0.980496
0.825524
1.047850
1.000762
1.138449
0.992417
0.955462
1.142621
1.022816
1.055598
0.981688
1.099706
1.131892
0.995994
0.980496
1.019835
0.902414
1.083612
1.128912
1.188517
1.141429
1.081824
0.943542
0.966787
1.031756
1.189709
1.150966
1.223683
1.243949
1.158714
1.215935
1.151562
1.182556
1.188517
1.190901
1.091957
1.239777
1.160502
1.388788
1.184940
1.457930
1.388788
1.309514
1.368523
1.416802
1.294613
1.385808
1.241565
1.356602
1.527667
1.506805
1.417994
1.624823
1.633763
1.490712
1.664758
1.819730
2.084970
1.958609
2.044439
2.280474
2.294779
2.460480
2.997518
5.572438
28.995872
77.389479
204.092860
374.508500
679.485798
909.265876
1015.605927
1015.605927
1015.605927
1015.605927
766.307712
538.192987
290.611982
156.495571
56.658983
24.431944
10.955930
10.046959
9.982586
10.018945
10.463595
10.405779
10.952950
11.247993
12.473464
14.368892
18.202662
23.176670
30.941963
38.048625
47.290921
##ZVALUE=370
0.984669
0.888705
1.108646
1.034737
1.013875
1.047850
1.059771
1.075864
1.082420
1.079440
1.031756
1.084805
1.189709
1.033545
1.089573
0.920892
1.124740
1.063943
1.098514
1.326799
1.159906
1.108646
1.134872
1.164675
1.052618
0.940561
1.059771
1.019835
1.180768
1.143813
0.951886
1.048446
1.247525
1.332760
1.279712
1.164675
1.164675
1.313686
1.349449
1.354814
1.317859
1.049638
1.183748
1.332760
1.169443
1.480579
1.377463
1.181960
1.371503
1.397729
1.526475
1.349449
1.545548
1.447797
1.280904
1.512766
1.595616
1.581907
1.761913
1.612902
1.825690
1.989603
1.996756
2.160668
2.132654
2.454519
3.478527
14.641881
48.142672
153.635740
286.583900
537.273884
776.324868
1015.616655
1015.616655
1015.616655
1015.616655
885.352492
647.961497
353.989005
199.225545
76.891780
36.301613
14.348626
9.861588
9.380579
9.239912
9.645820
9.510517
9.596944
9.955764
10.493994
10.998845
13.045669
16.069412
20.828843
##ZVALUE=375
0.960827
0.884533
1.027584
0.961423
1.079440
1.160502
0.993609
0.987649
0.989437
1.087785
0.888705
0.860691
0.967979
1.028776
1.043677
1.103878
1.088977
1.128912
1.085997
1.028776
0.949502
1.051426
0.828505
0.903606
0.943542
1.151562
1.052618
0.993609
1.088977
1.119971
1.043677
1.136661
1.194477
1.150966
1.070499
1.051426
1.130700
1.117587
1.083612
1.237988
1.141429
1.261830
1.092553
1.234412
1.165867
1.241565
1.211762
1.376867
1.130700
1.199841
1.293421
1.301765
1.311898
1.426935
1.468658
1.347661
1.559854
1.476407
1.580715
1.499653
1.655817
1.738667
1.561642
1.696944
1.683831
2.016425
2.102852
2.277493
2.652407
7.740855
26.215911
92.819929
197.134018
431.631804
659.409761
967.961550
1015.601754
1015.601754
1015.601754
976.185799
743.450522
444.988608
277.293921
134.366751
67.496896
22.910833
11.408925
8.625984
8.486509
8.435845
8.634925
8.667707
8.966923
9.118915
9.462833
10.390878
##ZVALUE=380
0.997782
1.042485
0.980496
1.010895
1.061559
0.916719
1.066923
0.959635
0.958443
1.017451
1.074672
0.977516
0.857711
0.982881
1.124740
1.063943
1.031756
1.123548
1.030564
0.866652
0.957847
1.091957
0.942945
1.031756
0.956655
0.933409
1.009703
1.007915
1.095533
1.067519
0.927448
1.119971
1.158714
1.093745
1.195669
1.102686
1.148582
1.138449
1.122952
1.139641
1.090765
1.049638
1.040697
1.101494
1.154542
1.185536
1.234412
1.141429
1.009703
1.076460
1.143813
1.199841
1.363754
1.337528
1.280904
1.354814
1.419783
1.477599
1.364946
1.338720
1.343489
1.573563
1.508594
1.594424
1.655817
1.781583
1.887679
2.014637
2.136827
2.470613
2.763867
4.561543
16.754866
73.186755
159.935951
347.028971
557.121634
879.080892
1015.605927
1015.605927
1015.605927
1015.605927
866.876841
593.613982
391.352773
187.748671
95.545650
34.110546
15.456676
8.649826
7.740855
7.871985
8.003712
8.112788
8.045435
8.240938
##ZVALUE=385
0.984669
0.944734
0.817776
0.917912
0.987649
0.917912
1.015663
0.872612
0.979900
0.996590
0.941753
0.983477
0.805855
0.867844
0.956655
0.940561
0.814795
0.870824
0.897646
0.948906
0.946522
0.990629
0.999570
0.985861
0.941753
0.989437
1.050830
1.085997
1.053810
1.015663
1.059771
0.987649
1.039505
0.962615
1.074672
1.151562
1.045465
1.087785
1.171827
1.031756
1.025796
1.028776
1.033545
1.074672
1.144409
1.082420
1.098514
1.273751
1.113415
1.178980
1.139641
1.338720
1.192689
1.125932
1.259446
1.254678
1.311898
1.278520
1.284480
1.289845
1.318455
1.366735
1.528859
1.393557
1.521707
1.543760
1.466870
1.620650
1.859665
2.010465
2.007484
2.450943
2.512932
3.081560
7.016659
37.198663
95.414519
241.569877
426.452756
821.126699
1015.610695
1015.610695
1015.610695
1015.610695
994.767547
588.760972
400.264859
273.743868
99.613667
58.679581
26.267767
9.679794
7.328987
7.396936
7.163882
7.360578
##ZVALUE=390
1.044869
0.986457
0.775456
0.857711
0.882745
1.050830
0.818968
0.859499
1.059771
0.971556
1.030564
0.903606
0.843406
0.870824
0.857711
0.855923
1.007915
1.029968
0.891685
1.061559
0.968575
1.011491
0.967979
1.108646
1.082420
0.859499
1.012683
0.961423
1.064539
1.099706
1.099706
1.200438
1.043677
1.077652
0.864863
1.084805
1.016855
1.123548
1.059771
0.983477
1.196861
1.088977
1.209974
1.291633
1.137853
1.159906
1.176596
1.106858
1.106858
1.070499
1.141429
1.221895
1.193881
1.254678
1.225471
1.223683
1.259446
1.186728
1.171827
1.265407
1.301765
1.134872
1.355410
1.414418
1.464486
1.467466
1.294613
1.587868
1.686811
2.016425
2.007484
2.084970
2.294779
2.079606
2.274513
2.463460
4.422665
15.793443
70.337653
160.178542
368.824601
573.795438
862.605572
1015.605927
1015.605927
1015.605927
1015.605927
930.683017
629.627705
417.300463
208.257437
104.878545
35.996437
15.234947
7.558465
6.859899
##ZVALUE=395
0.968575
0.893474
0.917912
0.932813
0.897646
1.013875
1.066923
0.976920
0.810623
0.900626
0.947714
0.932813
1.036525
0.827909
0.852942
0.839829
0.944734
0.852942
1.030564
0.865459
1.114607
0.891685
0.978708
1.147985
1.030564
0.939965
1.008511
0.952482
1.089573
0.990629
0.914931
1.083612
1.039505
1.178980
1.105666
1.090765
1.168847
1.232624
1.229644
1.020432
1.313686
1.142621
1.207590
1.037717
1.103878
1.110435
1.218915
1.093745
1.277924
1.309514
1.036525
1.150966
1.334548
1.254678
1.041889
1.165867
1.241565
1.176000
1.205802
1.270771
1.187921
1.180768
1.515746
1.380444
1.373887
1.198649
1.378655
1.646876
1.673698
1.789927
1.755953
1.735687
2.087951
2.029538
1.876950
1.997948
2.198815
2.288818
2.886653
8.787513
45.247674
109.947920
255.954862
428.488851
717.176795
939.414501
1015.605927
1015.605927
1015.605927
1015.605927
789.884925
546.478629
281.036496
146.117806
52.355528
22.963881
##ZVALUE=400
1.034737
0.833869
0.863671
0.922680
0.902414
0.971556
0.981688
0.888705
1.062751
1.154542
0.930429
0.915527
0.999570
1.025796
0.819564
0.823736
0.922680
0.821948
0.804663
0.973940
1.134872
0.962615
0.955462
1.095533
1.053810
0.843406
0.937581
1.046658
1.087785
1.028776
0.947714
1.235604
1.096725
1.133680
1.005530
1.065731
1.173615
0.932813
1.012683
1.134872
0.945926
1.199841
0.992417
1.168847
1.113415
1.079440
1.204610
1.112819
1.212955
1.130700
1.061559
0.984669
1.035929
1.242757
1.082420
1.280904
1.170635
1.152754
1.167655
1.153946
1.182556
1.107454
1.234412
1.216531
1.290441
1.346469
1.478791
1.589656
1.605749
1.800656
1.727939
1.850724
1.795888
1.802444
1.615882
1.781583
1.973510
1.966953
2.002716
2.229810
2.471805
5.631447
20.497441
77.183843
163.885951
355.286598
550.788641
823.717713
1004.800797
1015.605927
1015.605927
1015.605927
875.000954
598.116517
392.105579
193.413496
##END
