##TITLE=FQP00352
##FORMAT=SPECTACLE-ASCII V-1.2
##DATA TYPE=ULTRAVIOLET SPECTRUM
##SECOND TYPE=ULTRAVIOLET SPECTRUM
##DATE=03/27/18
##TIME=18:30:12
##SPECTROMETER/DATA SYSTEM=SPECTACLE
##XUNITS=NM EM
##YUNITS=ENERGY
##YFACTOR=1
##FIRSTX=220
##LASTX=410
##NPOINTS=96
##3DDATA=Equidistant
##ZUNITS=NM EX
##FIRSTZ=210
##LASTZ=400
##ZPOINTS=39
##XYDATA=(Y..Y)
##ZVALUE=210
3.848672
3.897548
3.347993
3.717542
3.830791
4.454851
5.334616
3.663898
4.783869
4.381537
3.922582
3.909469
4.401803
4.031658
4.280806
4.549623
5.085468
5.005598
4.747510
5.424619
4.893541
5.743504
5.900860
5.611777
7.333755
5.986691
6.958842
8.255839
7.885695
8.232594
9.085536
10.077953
10.903478
10.382533
10.074973
11.030436
11.773705
10.163784
10.433793
9.894967
10.934472
11.190772
11.506677
10.836720
11.115670
10.860562
9.573698
10.370612
11.115670
10.697842
10.134578
9.262562
9.519458
10.462999
9.686947
9.127855
8.404851
9.678602
9.512901
9.423494
9.119511
10.183454
9.682775
10.054708
10.558963
10.851622
10.323524
10.018945
11.544824
15.401840
15.369654
18.431544
23.442507
26.521683
28.925538
29.727817
31.217933
30.257702
31.258464
31.072497
27.095675
26.924610
23.195744
19.226670
16.151667
13.303757
10.429621
9.981990
8.906722
9.083748
9.630919
9.798408
8.510947
9.063482
9.686947
9.908676
##ZVALUE=215
10.030866
9.661913
8.551478
6.863475
5.824566
5.284548
5.992651
5.744696
7.230639
6.577969
5.942583
6.325841
5.316734
6.692410
4.301667
4.581809
5.572438
5.130768
4.262924
5.275607
5.890727
5.574822
6.405711
6.078482
6.480813
7.097721
8.092523
9.344816
10.476708
9.996891
13.097525
12.536645
14.545918
13.816953
15.785694
16.032457
14.534593
14.550686
15.482903
13.897419
13.670921
13.762712
13.016462
12.360811
13.119578
11.282563
12.226701
11.947751
11.246800
10.685921
10.560751
10.722876
9.678602
10.234714
9.701848
11.109710
9.469986
10.485649
9.444952
9.564757
9.611845
9.170771
9.931922
8.907914
10.017753
9.951591
10.570884
10.578632
12.514591
13.018847
15.762448
16.549826
19.085407
18.930435
22.932887
24.698973
25.650859
23.766756
23.189783
22.882819
20.212531
17.825961
16.703606
13.542771
12.072921
11.383891
10.190606
8.831620
8.299947
8.712411
8.445978
7.459521
8.113980
8.273721
7.308722
8.107424
##ZVALUE=220
31.618476
33.779740
31.989813
28.750896
25.067925
19.921660
15.859604
13.873577
11.380911
10.674000
13.620853
13.361573
12.820959
12.347698
11.069775
8.278489
6.912947
7.332563
5.763769
5.852580
5.800724
5.493760
5.469918
6.931424
6.607771
9.192824
8.851886
11.037588
12.722611
14.443994
16.156435
17.959476
19.613504
21.188855
21.295547
23.050904
20.684600
23.374557
21.051764
19.932985
20.203590
19.494891
18.539429
16.635656
18.037558
16.497970
14.273524
14.858842
14.439821
13.579726
14.207959
11.971593
12.807846
11.998415
12.727976
11.912584
11.384487
11.531711
10.506511
11.110902
10.155439
9.985566
10.782480
10.164976
10.791421
11.185408
10.831952
11.353493
13.212562
13.093948
13.801455
16.059875
17.863512
19.663572
21.759868
22.808909
22.238493
21.901727
21.078587
21.492839
18.768907
16.598701
17.170906
13.399720
11.983514
10.630488
10.229945
10.260940
8.497834
8.696914
9.078979
8.819699
8.084774
9.634495
8.625984
8.424520
##ZVALUE=225
55.540800
57.663918
68.685412
84.218979
88.121891
88.676810
77.601671
59.104562
44.275522
31.165481
25.765896
24.254918
25.342703
27.546883
25.525689
26.878715
21.643639
18.927455
14.325976
11.478662
8.092523
6.807446
6.760955
7.429719
7.808805
8.728504
11.076927
13.038516
15.907884
17.916560
20.592809
21.187663
23.439527
24.942756
25.385618
26.172996
26.821494
26.485920
26.679635
24.802685
24.773479
22.544861
22.312999
20.647645
20.724535
19.956827
18.566847
15.709996
15.975833
15.213490
15.119910
15.862584
14.655590
14.232993
14.772415
14.082789
12.405515
13.468862
12.034774
12.804866
13.145804
12.248755
11.754632
11.736751
12.318492
13.292432
14.929771
13.652444
13.993979
14.647841
16.280413
17.926693
19.217730
20.925999
20.345449
20.645857
21.293759
20.972490
19.704700
19.357800
18.708706
16.886592
16.357899
12.653470
13.149977
12.921691
12.791753
11.022687
10.045767
10.180473
10.079741
11.367798
9.862781
9.291768
9.866953
10.916591
##ZVALUE=230
54.832697
59.640408
90.699792
132.824779
172.511935
206.449628
214.662552
202.147961
188.333988
156.365633
105.042458
74.234605
51.562786
43.526888
43.022633
49.287677
49.299002
48.820972
44.218898
36.014915
27.222633
19.690990
14.099479
11.463761
9.498596
9.290576
10.268688
12.549758
13.484955
15.826821
18.279552
19.479990
19.678473
22.715926
21.818876
21.923780
23.172498
24.097562
24.178624
22.885799
21.257997
21.969676
21.808743
22.024512
19.190907
19.401908
17.170906
16.924739
17.598867
15.996695
16.740561
16.203523
16.647577
16.498566
14.719963
14.266968
14.504790
14.789701
15.477538
15.655756
13.956428
13.920665
13.519526
14.157891
13.707876
14.912486
16.056895
15.378594
16.401410
18.008947
20.035505
21.060705
21.936893
22.963881
22.815466
25.369525
24.384856
24.548769
22.608638
22.457838
21.082759
19.072890
18.114448
16.580820
17.325878
15.861988
15.751719
15.679598
15.503764
14.727712
14.701486
14.193654
14.118552
14.288425
14.017820
13.112426
##ZVALUE=235
20.565987
24.697781
45.238733
104.997754
165.028572
250.823498
323.488712
406.547785
426.147580
430.322886
377.197862
302.314758
200.288892
148.014426
96.313953
74.486732
70.132613
78.559518
81.533790
83.359480
77.026486
63.515902
53.196549
35.464764
27.454495
17.348528
14.569759
10.674000
12.326837
12.865663
13.874769
14.659762
15.796423
16.997457
18.104911
17.322898
17.180443
19.498467
19.159913
19.170642
20.271540
20.354986
18.109679
19.266605
19.396544
17.228723
17.747879
18.778443
16.254783
16.942620
17.628670
15.269518
17.390847
17.800927
16.476512
15.994906
15.974641
15.546679
15.286803
14.709830
16.449690
17.082691
17.538667
16.663671
17.168522
18.420815
17.872453
16.636848
18.832684
21.573901
23.768544
24.215579
24.640560
27.011633
28.649569
27.016997
31.166673
25.477409
26.255846
25.994778
24.954677
23.973584
23.106933
21.673441
22.460818
21.648407
19.918680
20.269752
20.197630
18.255711
18.486977
19.383430
19.022822
19.550920
18.032789
18.220544
##ZVALUE=240
3.513694
4.499555
10.682940
26.792884
72.525740
134.388804
257.108808
373.277664
541.567802
625.416636
704.103708
697.185993
638.357997
492.119789
384.312868
236.559510
165.229440
112.694502
101.538897
100.595951
104.954839
112.242699
111.575723
103.544593
82.467794
67.175627
49.523711
36.388636
23.838878
18.321872
15.807748
15.401840
15.591979
15.382767
16.850829
17.646551
18.573999
17.895699
18.168688
20.160675
18.596649
21.358728
20.207763
20.164847
19.842982
19.679666
21.495819
18.437505
18.561482
20.413995
19.444823
17.710924
17.920732
18.657446
17.591715
16.412735
17.284751
17.900467
18.618703
18.085837
17.760992
16.887784
17.992854
18.016696
18.336773
19.149780
18.966794
21.116734
21.306872
24.480820
26.687980
26.096702
27.629733
31.638741
30.746460
29.803514
31.857491
28.985739
31.225681
29.065609
27.894974
27.600527
27.655959
24.289489
23.406744
24.061799
24.224520
22.292733
24.093986
23.504496
22.280812
22.653937
22.830963
21.309853
22.164583
23.430586
##ZVALUE=245
3.076792
3.139973
3.406405
3.785491
7.001758
24.785995
58.413744
143.502951
256.927609
393.226743
605.410933
764.838457
889.552832
898.081660
827.649832
705.932975
509.368777
381.433964
294.086933
153.798461
119.922757
101.496577
113.140941
128.452778
127.341747
124.433637
111.429691
95.514655
76.309443
55.260658
41.871667
29.170513
22.181869
20.415783
18.099546
18.163919
20.039678
21.001697
21.717548
22.154450
22.952557
23.545623
23.334622
22.647977
23.836493
22.658706
20.488501
23.243427
21.161437
21.012425
20.136833
18.983483
18.452406
17.154813
17.366409
17.503500
17.854571
18.111467
17.335415
16.081929
16.538501
15.650988
16.154647
16.912818
17.755628
17.459989
17.331839
18.811822
20.241737
22.442937
23.618937
24.343729
24.594665
28.923750
28.428435
29.435754
30.008554
28.869510
30.502677
27.593970
27.673841
25.563836
25.589466
26.877522
26.323795
24.048686
23.524761
23.990870
22.887588
24.319887
22.611618
22.426844
22.815466
22.532940
21.551847
22.122860
##ZVALUE=250
2.900958
2.864599
2.969503
2.860427
3.473759
3.815889
4.914999
14.086962
52.693486
115.129948
269.427896
431.794524
626.387000
875.250697
1003.548503
1015.685797
1015.685797
916.891694
756.937861
514.296889
342.948437
221.204758
123.667717
101.630688
107.177496
120.035410
138.815641
146.375895
138.826966
127.575994
113.462806
87.792873
70.680976
50.066710
39.349794
29.423833
28.219819
25.521517
25.402904
25.327802
26.740432
25.724769
25.632977
26.366711
26.099682
25.272965
24.868846
23.661852
23.176670
21.933913
21.299720
20.500422
20.152926
18.462539
18.392801
17.735958
16.452670
15.988946
16.730428
16.493797
16.452670
16.195774
15.874505
14.996529
15.811920
15.555620
16.619563
17.798543
18.958449
18.042922
20.870566
21.875501
22.569895
25.734901
26.447773
26.424527
26.254654
24.559498
26.052594
25.086999
24.181604
24.056435
23.226738
23.377538
22.410750
22.479892
22.859573
22.009611
22.225976
21.881461
21.806955
22.536516
21.629930
21.795630
21.939874
20.545721
##ZVALUE=255
2.920628
2.704859
2.678633
2.715588
2.732873
2.944469
3.528595
3.126860
3.373623
6.585717
30.797720
82.572699
220.928788
378.068686
630.463958
875.594020
1015.605927
1015.605927
1015.605927
1015.605927
992.040634
708.065629
492.104888
269.230008
165.479779
106.543899
96.302629
113.865733
131.059885
150.860548
156.490803
158.014894
144.400001
123.708844
104.824901
77.063441
63.326955
43.687820
37.245750
33.549666
31.666756
31.828880
31.268597
30.422807
29.207468
28.184652
27.407408
24.367571
24.793744
22.931695
21.804571
22.100806
20.683408
19.106865
18.823743
17.856956
16.333461
16.593933
16.265512
14.617443
14.837980
15.208721
15.415549
14.818907
14.993548
14.413595
15.177727
16.843677
16.885996
17.306805
18.469691
19.509792
20.242929
21.946430
22.609830
22.679567
23.211837
22.173524
22.790432
20.918846
21.448731
21.105409
20.606518
20.510554
19.991994
19.999743
18.532872
20.398498
19.882917
21.156669
20.538568
20.977855
20.856857
20.373464
21.143556
21.128654
##ZVALUE=260
2.195835
2.527833
2.335906
2.521873
2.631545
3.099442
2.780557
2.837777
2.867579
2.759695
3.301501
5.306602
16.357899
63.820481
141.945481
270.763636
554.852486
811.436772
1015.605927
1015.605927
1015.605927
1015.605927
1015.605927
952.279568
685.775876
411.140919
261.069536
138.192773
104.933977
102.849603
120.537877
152.254701
168.907642
176.724792
174.117684
158.816576
140.139461
111.281872
89.946985
68.665743
54.798722
42.289495
38.659573
33.802986
32.427907
30.066967
29.445887
28.418899
27.272701
23.987889
23.858547
21.862984
22.388697
19.793510
18.982887
19.044876
17.110705
16.280413
16.558766
16.455650
16.104579
14.786720
13.659000
14.519691
14.260411
14.090538
14.808774
14.485717
14.895797
15.847683
16.938448
18.815994
17.940998
19.396544
20.577908
19.844770
20.542741
21.399856
20.599961
20.054579
21.156669
19.256473
18.880963
18.790960
18.672943
18.291473
19.875765
18.042922
19.159913
18.684864
19.101501
19.646883
18.544793
18.188953
19.444823
19.242764
##ZVALUE=265
2.347827
2.079606
2.098680
2.290606
2.109408
2.499819
2.252460
2.253652
2.639890
3.056526
2.442598
2.999902
3.102422
3.449917
8.580685
39.905906
95.914602
256.537795
455.278754
833.140612
1015.605927
1015.605927
1015.605927
1015.605927
1015.605927
1015.605927
856.555104
594.615936
336.267948
206.670761
134.078860
101.573467
111.443996
142.822862
162.716508
184.935927
192.576647
184.258819
168.878436
140.277743
117.457509
87.779760
70.071816
51.327944
42.150617
35.248995
31.951666
29.377937
26.847720
26.652813
24.297833
23.612976
22.659898
21.876693
20.041466
18.089414
18.376708
16.608834
16.568899
15.995502
15.419722
14.932752
14.483929
14.210939
14.531612
13.929605
13.880730
15.110970
14.184713
15.951991
15.895963
16.283989
17.328858
18.148422
18.337965
18.553734
17.468929
17.567873
17.993450
17.922521
17.632842
16.523600
17.553568
16.531944
17.388463
17.132759
17.389655
17.004609
16.739964
17.411709
17.722845
16.931891
18.104911
17.163754
18.341541
18.467903
##ZVALUE=270
2.155900
2.271533
2.210736
2.314448
2.200603
2.100468
2.143979
2.354980
2.235770
2.659559
2.526641
2.639890
2.874732
2.882481
2.979636
3.763437
4.250407
18.505454
54.496527
172.610879
345.847011
605.504513
1005.035639
1015.598774
1015.598774
1015.598774
1015.598774
1015.598774
1015.598774
835.616589
575.882792
307.523608
182.527900
106.479526
99.244714
121.033788
143.134594
170.411468
180.865526
188.007951
183.051825
164.010525
142.016411
111.677647
87.104440
60.856938
46.347976
36.919713
30.568838
26.820898
24.996996
23.917556
21.778941
22.303462
19.459724
19.028783
18.353462
17.416477
16.843677
15.722513
15.632510
14.988780
14.594793
14.485717
13.834834
13.656616
14.220476
14.938712
14.290810
16.302466
16.073585
16.319752
17.462969
17.454624
18.272996
17.431974
18.146634
17.892718
17.359853
16.465783
16.705990
16.068816
17.152429
16.431808
16.051531
16.468763
16.236901
16.510487
16.168952
16.299486
17.644763
15.841722
16.600490
16.088486
16.332865
16.570687
##ZVALUE=275
1.969934
2.069473
2.027750
1.855493
1.908541
2.041459
2.113581
2.067685
2.188683
2.221465
2.298951
2.361536
2.485514
2.712607
2.698898
2.716780
3.067851
2.982616
4.029870
7.398725
38.491488
100.345612
283.936858
514.357686
804.838538
1015.605927
1015.605927
1015.605927
1015.605927
1015.605927
1015.605927
984.749794
707.739592
383.997560
225.743651
113.231540
81.572533
85.983872
106.018782
132.651925
152.672529
174.283981
179.776549
170.595646
154.989958
127.972960
102.384686
75.836778
57.872534
39.122701
30.234456
23.357868
20.205975
18.851757
18.157959
17.781854
16.182661
16.718507
15.681982
15.630722
15.076995
15.051961
14.960766
14.558434
14.432669
14.595985
14.571548
14.922619
14.988780
14.908910
15.437603
16.256571
16.851425
17.088652
17.687678
17.585754
17.858744
17.751455
17.661452
17.406940
16.258955
16.267896
16.910434
16.577840
15.848875
16.174912
16.188622
16.066432
15.313625
15.956759
15.813708
15.852451
15.297532
15.815496
15.513897
16.050935
##ZVALUE=280
1.856685
1.744628
1.659989
1.894832
2.038479
1.806617
2.126694
2.096891
2.008677
2.038479
2.049804
2.259612
2.224445
2.218485
2.086759
2.061725
2.432466
2.631545
2.925992
3.006458
3.340840
4.101992
20.688772
67.717433
204.646587
374.399424
701.605678
986.594558
1015.605927
1015.605927
1015.605927
1015.605927
1015.605927
1015.605927
863.397717
482.923985
286.956429
127.846599
71.926713
56.650639
69.907904
95.576644
116.172433
142.582655
157.731771
163.538456
158.297420
137.660503
120.582581
92.191696
70.722699
46.846867
35.193563
23.899674
19.556880
15.567541
15.260577
15.304685
14.818907
13.884902
14.232993
14.568567
14.435649
14.879704
14.213920
14.556646
15.015602
15.134811
15.098453
15.719533
15.702844
16.715527
16.336441
17.341971
17.240644
17.323494
17.331839
16.599894
17.172694
16.431808
16.462803
15.886426
15.922785
15.836954
15.485883
15.621781
15.876889
15.482903
15.767813
15.176535
15.921593
15.209913
14.963746
14.883876
15.094876
15.184879
##ZVALUE=285
1.799464
1.861453
1.789927
1.740456
1.756549
1.775622
1.852512
1.846552
1.855493
2.011657
1.690984
1.880527
1.941919
1.989603
2.064705
1.973510
2.241731
2.188683
2.308488
2.431870
2.889633
2.883673
3.403425
3.612638
11.509657
39.064884
98.516941
266.619921
458.824635
818.156600
1015.605927
1015.605927
1015.605927
1015.605927
1015.605927
1015.605927
1007.964015
637.668967
393.589735
183.711648
93.921423
45.314431
42.332411
60.277581
80.184937
111.029744
129.663944
147.974491
153.247714
148.332715
136.598945
112.193823
91.948509
64.500570
47.568679
31.079650
22.943616
16.952753
15.489459
14.524460
14.356971
14.276505
13.979673
14.257431
14.378428
14.544725
15.084743
15.522838
15.124679
15.549660
16.530752
16.824603
17.275810
17.324686
17.837882
18.208623
17.178655
16.794801
17.021894
16.439557
17.270446
16.280413
15.843511
15.554428
16.026497
16.067624
16.088486
15.579462
15.604496
15.180707
15.115738
14.809966
14.853477
15.047789
15.433431
15.197992
##ZVALUE=290
1.755953
1.664758
1.664758
1.636744
1.604557
1.753569
1.669526
1.665950
1.776814
1.729727
1.829863
1.806617
1.731515
1.829863
1.935959
1.876950
2.106428
2.136827
2.092719
2.188683
2.137423
2.447963
2.569556
2.688766
3.258586
3.222823
4.999638
14.691949
67.307949
154.447556
286.648870
600.156784
909.472704
1015.605927
1015.605927
1015.605927
1015.605927
1015.605927
1015.605927
816.519856
534.127951
262.483954
135.335922
50.084591
31.649470
39.624572
52.104592
77.439547
97.122788
121.300817
139.025450
146.456957
146.162510
132.505894
111.972690
88.191628
65.890551
44.944882
32.500625
22.229552
17.764568
16.016960
15.195608
14.883876
14.640689
15.231967
15.496612
15.382767
15.904903
15.869737
16.424656
16.964674
17.018914
17.738938
17.906427
17.817616
16.994476
16.961694
17.399788
16.851425
16.680956
16.497970
16.303658
16.582608
16.210675
16.684532
15.582442
16.055703
15.754700
15.312433
15.830994
15.118718
14.569759
15.056729
15.008450
14.019608
##ZVALUE=295
1.505613
1.407862
1.557469
1.556873
1.644492
1.652837
1.609921
1.579523
1.598597
1.657605
1.709461
1.703501
1.720786
1.842976
1.679659
1.871586
1.847744
1.945496
1.941919
2.041459
2.083778
2.018809
2.472997
2.421737
2.430677
2.699494
2.907515
3.201962
3.477931
6.564856
22.497773
93.836784
211.299062
486.576557
769.171715
1015.605927
1015.605927
1015.605927
1015.605927
1015.605927
1015.605927
976.707935
680.623651
349.745750
189.020634
71.172714
34.943819
26.608706
32.814741
51.076412
67.895651
95.109940
114.037991
132.661462
141.311884
139.619708
129.601955
107.816458
86.992979
63.004494
47.462583
31.238794
23.685694
18.145442
16.240478
14.717579
14.573932
15.208721
15.058517
16.138554
16.166568
16.970634
17.228723
16.456842
17.750859
17.333627
17.483830
17.185807
16.707778
17.013550
16.295910
16.251802
16.222000
16.193986
15.932918
16.307831
15.104413
15.505552
15.920997
14.991760
15.174747
15.303493
14.241934
14.312863
14.612675
14.564991
##ZVALUE=300
1.527667
1.491904
1.618862
1.525879
1.547933
1.580715
1.471639
1.344681
1.519918
1.329780
1.585484
1.563430
1.574755
1.611710
1.556873
1.757741
1.662970
1.759529
1.737475
1.803637
1.927614
1.877546
1.951456
2.269745
2.122521
2.382994
2.322793
2.362728
2.690554
2.866983
3.398657
3.937483
10.617971
56.892633
142.188668
355.523825
595.993400
984.642506
1015.605927
1015.605927
1015.605927
1015.605927
1015.605927
1015.605927
878.720880
488.701463
284.079909
122.639537
56.329966
22.597909
21.370649
30.791759
42.862892
63.852668
83.467960
109.227896
125.838518
135.419965
134.908557
122.562647
107.491612
82.976818
65.978765
46.463609
33.296943
23.167729
18.416643
15.461445
15.091896
14.877915
15.372634
15.904903
16.460419
16.939640
16.367435
16.690493
17.122626
16.524792
16.491413
16.404986
16.933680
16.100407
16.070604
16.451478
15.752912
15.664697
15.957952
15.190840
15.860796
15.541911
15.274882
14.510751
15.074611
14.646649
14.281869
14.699697
##ZVALUE=305
1.422763
1.552701
1.386404
1.389980
1.367927
1.352429
1.676679
1.490712
1.485944
1.620650
1.633763
1.426935
1.653433
1.467466
1.473427
1.495481
1.395941
1.736879
1.721978
1.849532
1.672506
1.718998
1.794696
1.929998
2.066493
1.980662
2.095699
2.284646
2.249479
2.536774
2.512932
2.833605
3.053546
3.557801
5.890727
33.358932
91.557503
254.038572
457.209945
831.205845
1015.594006
1015.594006
1015.594006
1015.594006
1015.594006
1015.594006
1006.755829
658.774972
408.613682
180.292726
85.863471
29.558539
17.784834
20.164847
27.436614
44.144988
60.084462
83.122849
102.512836
119.735599
127.565861
126.280785
118.530989
100.778937
83.025694
59.459805
45.337677
31.191707
23.902655
18.264651
16.455650
15.706420
15.688539
15.818477
15.732646
16.079545
16.138554
15.944839
15.430450
15.804768
15.659928
15.799999
15.891790
16.074777
15.733838
16.018748
16.001463
15.588999
15.555620
15.358925
15.369654
14.855862
14.864802
14.343858
14.554858
14.573932
##ZVALUE=310
1.393557
1.353621
1.222491
1.471639
1.466870
1.359582
1.378655
1.347661
1.414418
1.353621
1.631975
1.411438
1.373887
1.338720
1.426935
1.474619
1.463890
1.666546
1.752973
1.544952
1.696944
1.563430
1.711845
1.798868
1.768470
1.761913
1.835823
2.094507
2.246499
2.208948
2.242923
2.282858
2.450943
2.410412
3.001690
3.018975
3.577471
15.003681
47.736764
156.033635
305.828452
623.464584
932.231545
1015.605927
1015.605927
1015.605927
1015.605927
1015.605927
1015.605927
842.461586
554.173589
273.576975
142.551661
48.785806
21.518469
14.360547
17.432570
26.217699
36.496520
55.344701
72.385669
94.471574
108.426809
119.947791
120.885968
113.863945
100.419521
78.908801
62.295794
44.607520
33.354759
23.813844
19.993782
17.082691
15.786886
15.622973
14.979839
15.137792
15.292764
14.776587
16.054511
15.347600
15.540719
15.672445
15.769601
15.827417
15.668869
15.440583
15.459657
14.725924
15.143752
14.667511
14.686584
14.527440
14.343858
14.116764
##ZVALUE=315
1.015663
1.135468
1.185536
1.086593
1.115799
1.065731
1.042485
1.193881
1.088977
1.080632
1.082420
1.075864
1.084805
1.224875
1.220703
1.334548
1.400709
1.289845
1.217723
1.319647
1.396537
1.412630
1.354814
1.402497
1.578927
1.505613
1.518726
1.547933
1.674891
1.556873
1.751781
1.966953
2.161860
2.016425
2.245903
2.399683
2.403855
2.644658
3.111959
6.619692
24.233460
99.004507
215.034485
477.693677
768.685937
1015.397906
1015.397906
1015.397906
1015.397906
1015.397906
1015.397906
986.977816
709.058642
371.227860
199.705958
71.186423
29.714704
14.031529
13.060570
16.935468
22.853613
35.360456
49.454570
70.499778
85.930824
105.454922
113.075972
114.277601
108.506680
92.995763
78.867674
58.931708
45.468807
30.106902
23.732781
18.306971
16.499758
14.827847
14.935732
14.620423
14.708638
14.575720
15.149713
14.774799
15.247464
15.011430
15.118718
14.568567
15.267730
15.079975
14.920831
14.695525
14.209747
14.287829
14.276505
13.961792
##ZVALUE=320
1.282692
1.269579
1.197457
1.251698
1.289845
1.110435
1.317859
1.421571
1.319647
1.436472
1.507998
1.322627
1.234412
1.371503
1.339912
1.182556
1.406670
1.447797
1.262426
1.286864
1.353621
1.334548
1.615882
1.584888
1.638532
1.654625
1.622438
1.789927
1.740456
1.804829
1.780987
1.828671
1.969934
1.825690
2.007484
2.274513
2.285838
2.278686
2.623796
2.896786
2.814531
3.733635
10.888577
54.900646
138.513446
359.365940
591.198802
967.931747
1015.605927
1015.605927
1015.605927
1015.605927
1015.605927
1015.605927
886.127949
487.612486
276.917815
112.868547
49.257874
16.291738
11.547804
12.273788
15.098453
22.440553
30.685663
47.689676
63.455701
81.789494
97.268820
108.559728
110.617876
103.398561
92.975497
73.301792
58.692694
41.559935
31.702518
22.459626
18.724799
15.771985
15.084743
14.488697
14.800429
14.954805
15.401840
15.068650
15.030503
14.808774
14.844537
14.821887
14.361739
14.664531
14.605522
13.959408
14.072657
13.880730
##ZVALUE=325
1.359582
1.182556
1.080632
1.220703
1.235604
1.313686
1.184940
1.253486
1.282692
1.200438
1.220703
1.365542
1.266599
1.252890
1.234412
1.390576
1.452565
1.563430
1.355410
1.473427
1.542568
1.397729
1.470447
1.397729
1.677871
1.555681
1.527667
1.614690
1.579523
1.630783
1.809597
1.655817
1.852512
1.756549
1.881719
1.937747
1.967549
2.130866
2.098680
2.429485
2.517700
2.653599
3.037453
3.274679
6.231666
35.571456
92.043877
245.297551
442.255735
815.596581
1015.606523
1015.606523
1015.606523
1015.606523
1015.606523
1015.606523
977.823734
590.381622
360.081792
161.624551
75.317621
22.586584
12.544990
10.976791
11.627674
15.490651
20.254850
30.854940
44.023991
63.261986
78.313947
94.147921
102.291703
102.863908
98.723769
84.188581
70.918798
52.697659
40.708780
28.158426
22.705793
17.509460
15.964508
15.340447
14.641881
14.599562
14.556646
14.534593
14.484525
14.409423
14.295578
14.058948
14.156699
13.910532
14.070868
13.993979
##ZVALUE=330
1.201630
1.094937
1.271963
1.058578
1.187921
1.186728
1.127720
1.082420
1.187921
1.185536
1.162887
1.266599
1.098514
1.315475
1.167655
1.299977
1.157522
1.266599
1.315475
1.460910
1.185536
1.293421
1.289845
1.522899
1.505613
1.439452
1.544952
1.651645
1.417994
1.369715
1.475811
1.504421
1.721978
1.571774
1.611710
1.745820
1.905560
1.756549
1.788735
1.889467
1.982450
2.017617
2.388954
2.630949
2.655983
2.987981
3.732443
16.228557
50.033927
162.006617
312.834978
628.582835
925.588012
1015.560031
1015.560031
1015.560031
1015.560031
1015.560031
1015.560031
745.923519
478.898883
220.095515
109.238625
37.713647
15.910864
10.665655
10.647774
12.040734
14.389753
20.829439
29.297471
43.506622
57.388544
76.141953
87.266564
95.789433
98.106861
90.113878
80.973506
64.066648
51.178932
37.445426
29.366612
22.598505
18.841624
16.108751
14.597774
14.643669
14.246702
14.059544
14.092922
13.413429
14.064908
13.484955
13.575554
13.488531
##ZVALUE=335
1.203418
1.268983
1.091957
1.140833
1.248717
1.028776
0.995994
1.120567
1.245737
1.248717
1.195669
1.099706
1.261830
1.276731
1.461506
1.231432
1.146793
1.206994
1.263618
1.286864
1.478791
1.451969
1.327991
1.433492
1.227856
1.514554
1.421571
1.478791
1.429915
1.299977
1.488924
1.660585
1.486540
1.583695
1.529455
1.760721
1.828671
1.766682
1.670718
1.719594
1.674891
2.020597
1.937747
2.081990
2.215505
2.409816
2.696514
2.833605
3.158450
7.661581
25.709867
102.327466
216.814876
478.407741
763.795972
1015.605927
1015.605927
1015.605927
1015.605927
1015.605927
1015.605927
895.670652
606.133938
313.064456
163.514614
57.444572
22.951961
11.138916
10.758638
10.986924
12.273788
15.225410
19.792914
29.781461
39.922595
57.466626
69.166422
82.444549
90.120435
91.698766
86.724758
74.873567
64.241886
49.445629
39.496422
29.123425
22.873878
18.255711
16.032457
14.395714
13.783574
13.804436
12.677908
13.026595
13.476610
13.175607
##ZVALUE=340
1.116991
1.184940
1.100898
1.151562
1.059771
1.200438
1.040697
1.146793
1.069903
1.097918
1.149774
1.086593
1.293421
1.239777
1.136661
1.235604
1.192689
1.067519
1.297593
1.176596
1.287460
1.257658
1.363754
1.177788
1.404881
1.324415
1.359582
1.267791
1.431704
1.555681
1.278520
1.435876
1.599789
1.547933
1.547933
1.523495
1.470447
1.409650
1.569986
1.489520
1.664758
1.727939
1.900792
1.897812
1.982450
2.030730
2.161860
2.334714
2.370477
2.623796
2.703667
4.240870
12.926459
61.686635
151.322484
372.652411
632.504821
1001.800895
1015.605927
1015.605927
1015.605927
1015.605927
1015.605927
1000.765562
724.485517
376.213789
206.372738
81.675649
32.133460
12.596846
10.493994
10.580420
11.075735
12.495518
14.462471
20.290613
27.678609
39.930940
51.665902
67.464709
78.552961
84.716678
85.483789
80.874562
73.915720
60.331821
50.115585
36.683679
29.481649
21.648407
18.353462
14.885664
13.703704
13.296604
12.771487
12.788773
##ZVALUE=345
1.118779
0.981688
1.249909
1.153946
1.077652
1.135468
1.227856
1.104474
1.169443
1.189709
1.066923
1.025796
1.195669
1.227856
1.229644
1.191497
1.219511
1.083612
1.319647
1.297593
1.391768
1.109838
1.264811
1.329780
1.212955
1.400709
1.338720
1.321435
1.296997
1.203418
1.240969
1.244545
1.439452
1.433492
1.487732
1.435876
1.478791
1.491904
1.409650
1.653433
1.554489
1.703501
1.751781
1.737475
1.703501
1.840591
1.931787
1.832843
1.996756
2.301931
2.352595
2.502799
2.638698
3.094673
5.857944
34.494400
96.564889
256.430507
457.251668
823.908448
1015.605927
1015.605927
1015.605927
1015.605927
1015.605927
1015.605927
854.082704
498.574972
279.417634
109.695792
49.218535
16.974807
11.362433
10.578632
10.419488
10.620952
11.260509
13.868809
17.758608
26.927590
35.841465
50.540566
61.068535
71.968436
77.583790
80.273747
77.467561
68.184733
60.467720
47.762990
37.607551
27.214885
22.030473
17.328858
14.641881
13.410449
##ZVALUE=350
1.094937
1.114607
1.003742
1.028776
1.151562
1.134872
1.019835
1.136661
1.191497
1.202822
1.033545
1.103878
1.115799
1.138449
1.203418
1.354814
1.234412
1.151562
1.300573
1.184940
1.176000
1.160502
1.235604
1.309514
1.141429
1.312494
1.247525
1.378655
1.360774
1.310706
1.357794
1.350641
1.253486
1.407862
1.333952
1.383424
1.362562
1.335740
1.561642
1.514554
1.454949
1.444817
1.434684
1.643896
1.567602
1.775622
1.858473
1.945496
1.913905
2.080798
2.099872
2.163649
2.170801
2.309680
2.524853
2.829432
3.889799
18.360615
56.180954
173.535943
328.104496
654.127598
946.226716
1015.606523
1015.606523
1015.606523
1015.606523
1015.606523
979.697704
587.280989
358.004570
160.823464
72.373748
21.484494
11.832714
10.076761
9.999871
9.902716
10.190606
11.136532
13.036728
18.198490
23.921728
32.592416
41.121840
54.709911
62.570572
71.100593
73.428750
70.826411
65.185428
54.649711
46.103597
34.434795
27.452707
20.541549
##ZVALUE=355
1.133680
1.017451
1.086593
1.117587
0.831485
1.107454
1.076460
1.154542
1.132488
1.009703
1.292825
1.180768
1.297593
1.267791
1.287460
1.362562
1.181960
1.013875
1.140833
1.178980
1.153946
1.195669
1.211762
1.303554
1.307726
1.186728
1.372695
1.248717
1.334548
1.276731
1.426935
1.328588
1.292825
1.237988
1.169443
1.371503
1.441836
1.403689
1.418591
1.529455
1.450777
1.446605
1.555681
1.517534
1.677871
1.563430
1.637936
1.583695
1.722574
1.825690
1.824498
1.905560
2.076626
2.137423
2.112985
2.315640
2.341866
2.653599
2.928972
8.613467
30.253530
115.758777
235.431790
490.866899
770.117640
1015.605927
1015.605927
1015.605927
1015.605927
1015.605927
1015.605927
723.237991
453.444719
197.424889
93.641877
29.268861
13.334751
9.758472
9.713769
9.108782
9.198785
9.710789
10.151863
12.263656
15.064478
21.505952
27.904510
38.755536
46.957731
56.943893
63.344836
66.892505
65.357685
59.950948
53.650737
43.470860
##ZVALUE=360
0.991821
1.199841
1.232624
1.130700
1.213551
1.127720
1.134872
1.197457
1.028776
1.051426
1.155734
0.979900
1.215935
1.211762
1.180768
1.051426
1.242757
1.158714
1.300573
1.127720
1.051426
1.205802
1.239777
1.191497
1.209974
1.217723
1.201630
1.235604
1.232624
1.333952
1.296997
1.351833
1.345873
1.322627
1.436472
1.423955
1.502633
1.424551
1.446605
1.483560
1.441836
1.658797
1.500845
1.535416
1.567602
1.624823
1.480579
1.652837
1.573563
1.651645
1.811981
1.723766
1.817942
1.952648
1.998544
2.011657
2.100468
2.299547
2.498627
2.743602
2.972484
4.475713
13.672709
60.010552
141.706467
345.202088
588.266850
968.391895
1015.607715
1015.607715
1015.607715
1015.607715
1015.607715
838.959813
557.521582
270.553827
138.398409
49.530864
20.174980
9.779930
9.149909
9.157658
8.795857
8.632541
8.818507
9.487867
10.637641
13.608932
17.127991
23.433566
30.786991
41.317940
48.512816
55.481791
59.103966
60.594678
##ZVALUE=365
1.074672
1.081824
1.120567
1.164675
0.925660
1.077652
1.073480
1.061559
1.177788
1.151562
1.207590
1.142621
1.204610
1.190901
1.224875
1.043677
1.105666
1.220703
0.942945
1.198649
1.100898
1.158714
1.188517
1.210570
1.180768
1.272559
1.306534
1.115799
1.177788
1.303554
1.260638
1.227856
1.279712
1.322627
1.340508
1.220703
1.293421
1.444817
1.437664
1.353621
1.499653
1.443624
1.398921
1.545548
1.433492
1.672506
1.570582
1.545548
1.581907
1.643896
1.791716
1.437664
1.793504
1.605749
1.735687
1.745820
1.892447
2.072453
2.072453
2.288818
2.389550
2.624989
2.987981
3.329515
6.553531
34.288764
92.643499
243.882537
446.763635
815.407634
1015.605927
1015.605927
1015.605927
1015.605927
1015.605927
961.986780
679.247975
370.371938
198.407769
70.581436
28.223991
10.648966
8.543730
8.469820
8.413792
8.070469
8.388758
8.254647
8.435845
9.333491
11.138916
15.037656
19.492507
27.111769
36.019683
42.834878
##ZVALUE=370
0.990629
1.069903
1.091957
1.105666
0.982881
0.981688
1.039505
1.029968
1.013875
1.258850
1.064539
0.939965
1.105666
1.215935
1.053810
1.129508
1.137853
1.214743
1.123548
1.144409
1.118779
1.072884
1.252890
1.163483
1.214743
1.086593
1.267791
1.131892
1.120567
1.213551
1.082420
1.239777
1.068711
1.330972
1.300573
1.191497
1.261830
1.496673
1.310706
1.200438
1.329780
1.413822
1.189709
1.475811
1.388788
1.414418
1.512766
1.429915
1.528859
1.450777
1.479983
1.583695
1.493692
1.482964
1.528859
1.607537
1.730919
1.937747
1.788735
1.818538
1.927614
2.062917
2.113581
2.351999
2.537966
2.900958
4.268885
14.035702
70.729852
169.979930
395.882726
625.310540
976.908803
1015.608907
1015.608907
1015.608907
1015.608907
1015.608907
750.116706
483.407974
225.010514
113.791823
41.773915
17.593503
8.820891
7.776618
7.543564
7.617474
7.534623
7.407665
7.524490
7.500648
8.553863
9.955764
13.485551
16.954541
##ZVALUE=375
1.118779
1.059771
1.091957
1.091957
1.053810
1.093745
1.076460
1.006722
1.155734
0.991821
1.090765
0.984669
0.939965
1.089573
1.208782
1.236796
1.169443
1.086593
1.278520
1.123548
1.194477
0.924468
1.203418
0.979900
1.130700
1.149774
1.212955
1.087785
1.268983
1.053810
1.192689
1.372695
1.256466
1.233816
1.233816
1.311898
1.280904
1.233816
1.273751
1.336932
1.221895
1.297593
1.217723
1.350641
1.183748
1.352429
1.303554
1.328588
1.600981
1.239777
1.341701
1.407862
1.397729
1.415610
1.378655
1.452565
1.516938
1.575947
1.547933
1.545548
1.662970
1.643896
1.731515
1.947880
2.094507
2.338886
2.308488
2.634525
2.919436
9.320974
30.805469
108.924508
235.434771
517.677665
795.254707
1015.605927
1015.605927
1015.605927
1015.605927
1015.605927
937.844515
565.860868
354.187489
172.635913
83.443522
26.121736
11.203885
7.574558
7.214546
7.031560
7.075667
6.975532
6.595850
6.886721
7.072687
7.861853
##ZVALUE=380
1.062751
1.024604
1.158714
1.057982
0.939965
0.963807
1.045465
1.061559
0.983477
0.877976
1.039505
0.960827
1.215935
1.094937
1.084805
1.116991
1.059771
1.051426
1.025796
1.154542
1.169443
1.000762
1.181960
1.050830
1.160502
1.125932
0.922680
1.102686
1.184940
1.094937
1.346469
1.025796
1.080632
1.213551
1.151562
1.087785
1.251698
1.289845
1.055598
1.187921
1.062751
1.158714
1.309514
1.325607
1.245737
1.293421
1.372695
1.232624
1.216531
1.270771
1.320839
1.140833
1.310706
1.236796
1.401901
1.418591
1.566410
1.347661
1.362562
1.396537
1.649857
1.615882
1.656413
1.771450
1.896620
1.852512
2.000928
2.131462
2.359748
2.588630
2.985597
4.296899
22.121668
66.436529
189.311504
354.974866
684.882998
973.242521
1015.605927
1015.605927
1015.605927
1015.605927
1010.689735
784.525871
449.435711
262.867808
108.116865
48.400760
14.372468
8.028746
6.950498
6.297827
6.449819
6.196499
6.562471
6.192923
##ZVALUE=385
0.959635
1.025796
1.055598
1.092553
1.018643
1.168847
0.935793
1.034737
0.900626
0.969768
1.138449
1.078844
0.969768
1.042485
1.011491
1.034737
1.152754
1.112819
1.024604
1.100898
0.915527
0.940561
1.097918
1.054406
1.146793
1.202822
1.047850
1.118779
0.976920
1.089573
1.007915
1.093745
1.108646
1.203418
1.182556
1.230836
1.129508
1.247525
1.179576
1.155734
1.354814
1.161695
1.059771
1.070499
1.104474
1.205802
1.350641
1.228452
1.345873
1.226664
1.229644
1.317859
1.200438
1.334548
1.359582
1.281500
1.445413
1.187921
1.502633
1.258850
1.444817
1.445413
1.558661
1.517534
1.425743
1.673698
1.809597
1.902580
2.094507
2.419949
2.407432
2.462864
2.714992
3.160834
8.183718
44.352412
114.556551
290.715694
504.289865
866.622925
1015.612483
1015.612483
1015.612483
1015.612483
1015.612483
905.047655
640.856028
348.894000
196.619630
78.321695
30.781627
9.133816
6.659627
6.123781
5.978942
6.075501
##ZVALUE=390
0.882745
0.807643
0.995994
1.120567
0.843406
1.017451
0.918508
1.060963
1.007915
0.909567
1.070499
0.987649
1.033545
0.919700
1.093745
0.976920
1.149774
0.985861
1.065731
1.055598
0.950694
0.864863
1.104474
1.108646
0.977516
1.084805
1.086593
1.177788
1.118779
1.104474
1.072884
1.133680
1.150966
1.250505
1.236796
1.058578
1.134872
1.205802
1.211762
1.089573
1.144409
1.207590
1.294613
1.093745
1.195669
1.189709
1.152754
1.121759
1.170635
1.187921
1.053810
1.349449
1.387596
1.319647
1.389980
1.258850
1.303554
1.322627
1.294613
1.423955
1.425743
1.417994
1.451969
1.579523
1.442432
1.661777
1.705885
1.817942
1.924634
2.170801
2.190471
2.259612
2.334714
2.375841
2.554655
2.794862
4.346967
23.124814
72.614551
220.021009
409.018993
753.428936
1001.079679
1015.605927
1015.605927
1015.605927
1015.605927
1015.605927
823.865533
500.832796
289.157629
115.534663
51.130652
14.106631
7.079840
5.846620
##ZVALUE=395
0.944734
0.939965
0.978708
0.915527
1.025796
0.996590
0.979900
1.100898
1.014471
1.090765
0.913739
1.072884
0.990629
0.928640
0.919700
1.135468
0.975728
1.151562
0.941753
1.079440
1.072884
0.916719
0.914931
0.940561
0.960827
1.268983
1.066923
1.166463
1.221895
1.147985
1.070499
1.148582
1.176000
1.212955
1.246929
1.128912
1.213551
1.216531
1.170635
1.234412
1.031756
1.157522
1.207590
1.174808
1.204610
1.244545
1.216531
1.369715
1.296997
1.250505
1.218915
1.310706
1.160502
1.082420
1.354814
1.203418
1.162887
1.308918
1.204610
1.296997
1.335740
1.305938
1.338720
1.534820
1.509786
1.698732
1.536608
1.797676
1.842976
1.926422
2.040863
2.072453
2.290606
2.034903
2.073646
2.329946
2.375841
2.466440
3.104806
12.559891
43.850541
153.237581
299.120545
588.608980
857.393742
1015.602946
1015.602946
1015.602946
1015.602946
1015.602946
979.499817
610.588789
384.601951
178.513527
83.287954
26.416779
##ZVALUE=400
1.028776
0.939965
1.009703
0.944734
0.899434
0.961423
1.007915
0.996590
0.900626
1.000762
1.158714
1.138449
0.937581
0.996590
0.998974
0.820756
0.891685
0.963807
1.050830
0.974536
0.933409
0.947714
1.101494
0.998974
1.063943
1.117587
1.067519
1.142621
1.106858
0.940561
1.269579
1.140833
1.133680
1.311898
1.141429
1.162887
1.166463
1.290441
1.191497
1.155734
1.216531
1.134872
1.105666
1.240969
1.140833
1.285672
1.301765
1.263618
1.232624
1.289845
1.159906
1.312494
1.264811
1.354814
1.282692
1.345873
1.168847
1.378655
1.339912
1.279712
1.446605
1.359582
1.406670
1.392961
1.332760
1.462698
1.682639
1.875758
1.808405
1.972914
1.883507
2.008677
2.113581
1.845956
1.909733
2.005696
1.789927
2.166629
2.249479
2.410412
2.651811
6.434917
23.888946
92.857480
198.100805
438.535810
679.955482
998.770595
1015.605927
1015.605927
1015.605927
1015.605927
1015.605927
745.070577
491.347909
244.582891
##END
