##TITLE=FQP00351
##FORMAT=SPECTACLE-ASCII V-1.2
##DATA TYPE=ULTRAVIOLET SPECTRUM
##SECOND TYPE=ULTRAVIOLET SPECTRUM
##DATE=03/27/18
##TIME=18:26:54
##SPECTROMETER/DATA SYSTEM=SPECTACLE
##XUNITS=NM EM
##YUNITS=ENERGY
##YFACTOR=1
##FIRSTX=220
##LASTX=410
##NPOINTS=96
##3DDATA=Equidistant
##ZUNITS=NM EX
##FIRSTZ=210
##LASTZ=400
##ZPOINTS=39
##XYDATA=(Y..Y)
##ZVALUE=210
4.086494
4.183650
4.200935
3.889799
4.186630
4.553795
3.887415
4.217625
4.147887
3.905892
3.936887
3.924966
4.234910
4.604459
4.733801
4.010797
4.346967
4.915595
4.731417
4.739761
5.058646
5.679727
5.720854
6.148815
6.036758
6.751418
7.215738
7.689595
7.682443
6.404519
8.225441
7.912517
7.432699
8.440614
9.300709
9.282827
9.237528
9.174943
9.482503
9.325743
9.022951
8.787513
9.203553
9.168983
9.828806
8.666515
8.492470
8.994937
8.551478
8.641481
9.766817
9.464622
9.065866
9.088516
9.002686
9.219646
8.931756
8.314848
8.956790
8.841753
9.297729
9.557605
8.342862
9.514689
9.685755
9.491444
9.347796
11.139512
11.717677
14.417768
14.334917
18.455982
19.189715
23.348927
23.617744
24.072528
23.642778
26.460886
24.669766
22.902489
20.433664
21.246672
18.123984
15.062690
13.448000
11.290908
10.620952
8.825660
9.036660
8.515716
8.966923
8.064508
8.861423
8.834600
8.290410
8.780956
##ZVALUE=215
9.688735
9.783506
8.652806
6.093979
6.742477
6.167889
6.031990
6.780624
6.845593
7.062554
6.229877
6.407499
6.035566
5.637407
5.245805
4.513860
4.604459
4.402995
5.259514
4.954934
5.564690
5.471706
6.791949
6.428957
6.419420
7.014871
7.276535
8.292794
8.405447
9.226799
9.938478
10.127425
10.034442
10.154843
11.038780
11.542439
11.708736
11.839867
11.182427
10.288954
9.940863
10.795593
9.919405
9.704828
10.861754
10.391474
10.317564
9.525418
9.874701
9.157658
10.187626
10.162592
9.426475
9.949803
8.227825
9.052753
8.723736
9.247661
8.874536
8.750558
9.479523
10.135770
9.781718
9.284616
9.111762
9.718537
9.422898
11.153817
12.004972
12.871623
14.777780
18.064976
19.510984
20.903945
23.048520
22.700429
25.185943
22.766590
23.436546
20.678639
18.948913
17.332435
17.065406
13.929605
11.169910
10.076761
10.311604
8.462667
8.290410
8.159876
8.185506
8.423924
7.198453
7.525682
8.260608
7.453561
##ZVALUE=220
33.307672
32.581687
32.178760
30.914545
25.279522
21.623969
16.552806
15.823841
12.647510
12.303591
13.617873
14.662743
13.207793
12.165904
9.761453
8.810759
7.625818
6.866455
5.964637
5.697608
5.035996
6.342530
6.169677
6.452799
7.094741
8.116961
8.256435
10.534525
11.726618
11.412501
12.379885
13.228655
12.472868
14.374852
14.382601
14.165640
14.879704
14.638901
14.849901
13.969541
13.696551
13.154745
13.088584
12.716651
11.349916
11.658669
12.472868
11.161566
12.047887
10.646582
10.845661
11.649728
10.523796
10.510683
11.263490
10.011792
9.165406
10.734797
10.011792
10.725856
9.426475
9.950995
9.787679
10.398626
10.408759
10.557771
10.554790
11.037588
12.090802
13.755560
14.135838
16.913414
17.693639
20.413995
21.847486
22.554994
22.431612
22.292733
21.604896
19.662976
18.890500
18.797517
16.120672
13.202429
13.645887
10.894537
10.142922
9.655952
9.914637
8.891821
9.078979
8.590817
8.585453
8.538961
8.664727
8.364916
##ZVALUE=225
56.066513
61.328411
75.534582
86.833835
86.357594
83.822608
75.472593
56.966543
43.548942
34.331679
26.663542
23.827553
22.514462
25.496483
25.956631
25.922656
20.908713
17.535686
14.992952
10.982752
8.530617
6.683469
6.476641
6.618500
7.191896
8.182526
8.889437
9.960532
10.856986
13.107657
14.985800
15.690923
16.553998
17.051697
17.674565
17.583966
16.666651
18.745661
17.931461
15.452504
14.617443
14.328957
14.356971
13.735890
13.341904
12.014508
12.667775
13.354421
11.834502
11.658669
12.966990
12.613535
12.186766
11.636615
11.103749
10.928512
10.623932
11.711717
10.647774
10.860562
10.879636
11.325479
11.422634
11.241436
12.223721
11.245608
12.639761
12.142658
13.634562
13.609529
15.179515
18.102527
18.271804
20.281672
21.662712
20.142794
21.628737
20.467639
18.598437
17.546415
16.612411
16.035438
15.005469
13.701916
13.220906
11.727810
9.959936
11.284947
11.064410
9.774566
10.911822
9.987950
10.173917
9.916425
9.978414
10.105968
##ZVALUE=230
52.814484
57.422519
89.854598
142.170787
171.449780
202.481747
211.939812
203.117728
188.732743
148.079991
102.889538
71.230531
51.547885
45.631528
45.106411
48.498511
49.262643
49.031973
42.263865
34.985542
26.766658
21.417737
14.529824
10.634661
8.312464
8.675456
9.225607
10.338426
12.294650
13.927817
12.607574
13.847947
15.703440
16.194582
16.288757
16.571879
15.514493
15.770793
15.136600
17.630458
15.689731
17.360449
15.524626
14.788508
14.594793
14.223456
12.636781
12.449622
13.773441
13.202429
12.866855
13.577938
11.915565
12.340546
12.354851
12.708902
11.988878
11.734962
11.660457
12.624860
12.188554
13.622642
12.911558
13.082623
13.120770
12.750626
14.661551
15.239716
15.382767
18.370748
17.661452
19.080639
21.795630
23.633838
22.818446
22.904873
22.875667
23.042560
19.932985
22.015572
20.543933
17.921925
16.501546
17.132759
16.323924
16.785860
15.240908
15.579462
14.982820
12.745857
15.723705
13.782978
12.845993
14.880896
13.480783
13.270974
##ZVALUE=235
19.938946
23.800731
45.121908
103.336573
161.269903
245.024562
312.804580
389.182568
416.665673
410.052538
356.140733
295.409560
195.346475
138.278604
95.015764
78.428984
72.653890
78.553557
81.220865
80.931783
77.355504
62.206984
55.020452
37.324429
25.128722
18.312931
13.857484
10.914803
10.998845
10.574460
12.787580
11.678934
13.606548
12.700558
15.691519
13.988614
15.697479
13.500452
13.999939
13.667941
14.189482
13.770461
14.326572
14.077425
13.985634
13.721585
14.176965
13.398528
14.078617
13.835430
15.304685
15.094876
12.598634
14.165640
14.853477
13.786554
13.787746
14.255643
13.824701
14.445782
15.158653
15.889406
14.338493
15.465617
15.380979
15.755892
16.246438
17.783642
17.074943
19.272566
21.533966
23.434758
24.374723
26.356578
27.414560
27.875900
27.080774
25.762916
25.529861
24.356842
22.181869
21.130443
22.160411
21.717548
19.608736
20.818710
19.114614
17.286539
18.766522
18.191934
18.442869
16.506910
17.939806
16.632676
17.527938
17.308593
##ZVALUE=240
3.706813
4.097819
9.086728
30.118823
64.446926
133.310556
220.903754
361.208916
482.757688
598.978996
656.557679
639.079809
577.247739
446.360707
350.207686
250.579715
153.600574
116.260648
94.211698
97.862482
107.250810
112.305880
111.648440
102.140903
80.725551
63.618422
50.860643
31.065941
24.398565
16.041994
14.325976
12.789965
12.036562
12.470484
11.821985
13.663769
13.265610
14.232993
14.231801
14.272928
14.182925
15.919805
13.834834
15.351772
14.779568
14.255643
15.994906
14.455914
14.512539
14.944673
15.208721
12.952685
13.696551
13.959408
14.024973
15.141964
15.178919
14.073849
14.739633
14.160872
15.869737
16.423464
14.796853
16.605854
15.780926
16.730428
17.649531
19.460917
19.755960
20.957589
22.845864
23.853779
25.400519
27.734637
28.261542
27.945638
29.519796
29.311776
27.798414
26.995540
27.112961
25.115609
26.009679
22.873878
25.250912
23.597479
22.553802
22.619963
22.114515
22.963881
22.164583
21.393895
23.844838
21.263957
22.021532
21.633506
##ZVALUE=245
3.292561
2.859831
3.355742
3.720522
7.587671
19.063950
56.838989
119.490623
251.345634
372.459888
571.444631
703.420639
791.430473
815.700889
777.079463
635.810494
500.825644
341.606736
231.573582
136.828423
104.366541
99.210739
116.731524
123.880506
126.919746
123.946667
113.200545
97.308755
69.744587
54.906607
41.217804
26.526451
19.534826
14.972687
14.291406
12.904406
14.054775
13.245940
12.912750
14.633536
15.410781
15.796423
16.024709
15.837550
15.322566
14.809966
15.441775
14.882684
15.096664
14.042854
14.658570
14.658570
13.751984
13.246536
13.637543
13.890862
13.563633
13.940930
13.963580
12.360811
13.860464
14.667511
13.997555
14.984608
15.654564
15.546679
15.098453
17.860532
17.899871
19.741654
21.921992
21.311641
23.079515
25.879741
26.250482
26.168823
26.784539
26.823878
25.839806
24.772882
25.023818
24.113655
24.048686
22.425652
23.396611
21.833777
22.215843
23.061633
22.303462
20.266771
22.618771
21.177530
21.362901
22.193789
21.688938
22.323728
##ZVALUE=250
2.655983
2.818704
2.798438
2.896786
3.199577
2.830625
4.226565
11.385679
47.650933
100.345612
234.152675
371.629596
527.859926
747.935772
876.688957
967.881680
951.928496
837.951899
706.176758
468.559861
319.063663
203.470588
117.075443
97.945929
104.138851
120.572448
133.143663
139.967799
135.204792
124.508739
104.908943
82.114935
62.353611
40.699840
30.516982
19.728541
16.812682
16.350746
15.826821
18.031597
17.025471
15.799999
16.848445
16.824603
16.452670
16.324520
16.178489
14.594793
15.573502
15.268922
15.434623
14.164448
14.743805
13.585687
12.892485
12.455583
12.877584
12.442470
12.398958
11.573434
12.473464
12.671947
12.465715
13.267994
14.251471
13.529658
14.108419
14.807582
16.482472
16.737580
17.525554
19.867420
21.739602
22.032857
23.791790
23.101568
23.776889
24.558902
22.773743
23.383498
22.048950
22.129416
22.771955
22.014976
21.569729
21.307468
20.679832
21.738410
22.752881
20.317435
21.854639
20.222664
20.486712
20.974874
20.011663
20.279884
##ZVALUE=255
2.372861
2.872944
2.684593
3.106594
2.518892
2.644658
2.743602
3.267527
3.695488
6.718636
27.508736
73.863864
187.327862
319.874883
538.818836
732.515454
967.633724
1015.605927
1015.605927
1015.605927
908.540487
669.119954
480.496883
275.883675
176.882744
114.957690
99.793673
111.850500
123.867989
144.339800
151.569843
145.314932
131.585002
111.220479
90.936422
64.970851
47.477484
30.938983
25.699735
19.785762
18.186569
18.429756
18.004775
17.081499
17.230511
17.920732
16.528964
17.079711
16.312599
15.314817
15.601516
14.244914
14.594793
13.795495
13.216734
12.483597
12.191534
13.348460
11.405945
12.417436
12.766719
11.783838
11.643767
12.046695
12.339950
13.099909
13.573766
13.600588
14.325976
14.858842
16.021729
18.248558
18.918514
19.880533
19.734502
20.029545
20.326972
20.856857
20.131469
21.497607
20.305514
19.649863
18.786788
19.156933
20.012856
19.269586
19.118786
19.624829
19.640923
18.649697
19.653440
20.592809
19.486547
19.919872
18.976927
21.982789
##ZVALUE=260
2.236962
2.503991
2.387762
2.434850
2.546906
2.521873
2.712607
2.658963
2.677441
3.184676
2.721548
4.439950
15.611649
59.340596
120.162964
275.239944
445.005894
725.376606
934.664607
1015.606523
1015.606523
1015.606523
1015.606523
940.644741
641.047955
449.218750
263.653994
162.200928
96.251965
91.180801
111.950636
133.531690
150.914788
160.987973
160.803795
141.607523
124.695897
94.029903
72.724819
49.545765
37.654638
26.440620
21.802783
19.693971
18.819571
17.734766
16.825795
16.804934
16.751885
15.274882
15.619993
14.558434
14.262795
13.079643
13.158917
13.132691
12.283921
12.424588
12.131929
11.180639
11.420846
11.581779
12.013912
11.570454
11.741519
12.100935
11.745691
12.085438
12.874603
13.659596
14.709830
15.438795
16.723871
17.306805
18.102527
18.305779
18.073916
17.193556
16.906857
17.901659
17.324686
17.366409
16.946793
18.044710
18.035769
17.912984
17.607808
18.022656
17.772913
18.098950
17.687678
18.319488
17.774701
18.487573
18.964410
18.260479
##ZVALUE=265
1.920462
2.066493
2.239943
2.128482
2.252460
2.147555
2.370477
2.639890
2.522469
2.778769
2.712607
3.136992
2.976656
3.813505
8.499622
38.855672
90.233684
213.119984
379.757881
692.287683
936.996937
1015.606523
1015.606523
1015.606523
1015.606523
1015.606523
757.677555
529.045463
294.448733
184.587836
104.373693
83.761811
97.583532
120.527744
151.441693
162.191987
170.849562
163.765550
145.034790
123.626590
96.267462
72.742701
49.381852
35.422444
25.241971
21.378994
18.083453
16.755462
16.411543
15.769601
14.678836
14.152527
14.287829
13.737679
13.200641
12.572408
12.045503
12.094975
11.779666
11.713505
10.915995
10.836720
10.963678
11.390448
10.780692
11.219978
11.108518
12.198687
12.819767
13.493896
13.981462
14.295578
14.815927
15.488863
16.846657
16.380548
16.171932
16.389489
16.719699
16.249418
15.723705
16.521811
16.554594
16.400814
16.187429
16.301870
16.319752
16.318560
17.333627
16.247630
17.515421
16.981959
17.724633
18.836856
18.564463
18.448830
##ZVALUE=270
2.072453
1.965761
1.966953
2.085567
1.942515
2.099872
2.220869
2.109408
2.396703
2.159476
2.385974
2.672672
3.002882
2.583861
3.195405
3.477931
4.132986
20.436645
59.008002
171.012878
326.392055
542.909503
919.193029
1015.605927
1015.605927
1015.605927
1015.605927
1015.605927
986.358523
743.361712
513.581634
270.129442
157.639980
82.932711
77.642798
98.239779
121.254921
148.071647
163.484812
169.825554
160.316825
146.157742
125.035644
94.364882
73.522925
45.488477
33.789873
24.477839
19.313693
16.728640
14.664531
14.602542
14.197826
13.788939
13.241768
12.581944
12.542605
11.517406
11.452436
11.751652
11.953712
11.047721
11.662841
11.375546
11.581779
12.101531
11.569858
12.646914
12.709498
13.222694
14.210939
14.063716
15.129447
15.642643
15.518665
16.875863
16.411543
16.172528
15.682578
16.560555
15.771985
15.426874
16.168952
15.535951
15.682578
16.163588
15.955567
17.025471
17.032623
18.431544
18.617511
20.355582
21.622777
23.491979
25.358796
28.420687
##ZVALUE=275
1.807809
1.790524
1.997948
2.001524
1.945496
2.213717
2.066493
2.264977
2.116561
2.061725
2.462864
2.226830
2.165437
2.378821
2.586842
2.793670
2.738833
2.964735
3.704429
6.983876
36.468506
101.900697
277.581811
483.390689
846.094489
1015.610695
1015.610695
1015.610695
1015.610695
1015.610695
1015.610695
998.353958
731.146932
378.759503
215.793848
96.292496
65.566897
70.900917
89.886785
116.493702
137.772560
156.770945
162.553787
157.885551
140.848756
114.531517
92.149973
67.512989
48.955679
31.751990
22.952557
16.325712
14.251471
13.300776
13.163686
12.635589
12.340546
11.464953
11.993647
11.908412
11.866689
12.135506
11.598468
11.283755
11.637807
12.182593
11.888742
11.690855
12.186766
13.037920
13.969541
15.134811
15.629530
16.104579
16.662478
16.779900
16.905665
16.498566
16.463995
16.842484
16.000867
15.988946
15.566945
16.027689
15.859604
16.592741
17.542839
17.118454
18.251538
20.547509
23.005605
26.753545
29.193759
33.545494
37.789941
40.366650
##ZVALUE=280
1.722574
1.912713
1.846552
2.092719
1.888871
1.917481
1.819730
2.049804
1.917481
1.940727
2.151728
2.064705
2.352595
2.272725
2.163649
2.499819
2.544522
2.735853
3.005862
2.982616
3.243685
5.096793
17.059445
77.312589
179.581642
405.171514
630.481839
980.758667
1015.605927
1015.605927
1015.605927
1015.605927
1015.605927
1015.605927
997.911096
603.032708
350.331664
138.589740
69.788694
50.805807
62.171817
88.379979
108.540654
137.086511
150.780678
157.161951
150.109529
131.776929
114.359856
87.061524
65.470934
43.016672
30.728579
20.016432
14.680624
12.451410
11.403561
11.416674
11.214614
11.265874
11.216998
11.118650
11.107922
11.232495
11.995435
11.816621
12.199879
12.383461
13.148785
13.180971
14.040470
14.824867
15.474558
15.975833
16.054511
16.928911
16.304851
15.922785
15.592575
15.542507
15.414953
15.147924
14.992952
15.297532
15.622973
15.142560
16.355515
17.303824
19.154549
20.895600
24.006963
28.948784
31.201839
36.742687
42.558908
47.900677
##ZVALUE=285
1.708865
1.835823
1.678467
1.826882
1.722574
1.618862
1.927614
1.817942
1.975894
1.784563
1.870990
2.082586
2.112985
2.091527
1.974702
2.160668
2.254844
2.406836
2.395511
2.489686
2.746582
2.835989
3.173947
3.761649
10.242462
33.221841
112.101436
231.586695
493.305922
773.059726
1015.539765
1015.539765
1015.539765
1015.539765
1015.539765
1015.539765
1015.539765
945.465565
601.963997
264.637470
117.149949
44.449568
40.436983
58.728456
77.244639
107.495785
126.738548
144.142509
152.275562
145.455599
136.379600
111.033916
89.286566
63.869953
44.677854
28.017759
19.680858
14.050603
12.465715
11.185408
10.772943
11.375546
11.360645
11.547804
11.591911
11.742711
11.962652
12.647510
12.776852
13.363957
14.288425
14.836788
15.315413
15.255809
15.663505
15.346408
15.914440
15.068650
15.138984
15.653968
15.607476
14.644861
15.171766
15.345812
15.235543
15.616417
16.854405
17.218590
18.567443
20.832419
22.974610
27.144551
30.701756
37.429929
41.626692
47.324896
##ZVALUE=290
1.583695
1.691580
1.513958
1.813769
1.623631
1.621842
1.732707
1.658797
1.652837
1.758933
1.745820
1.999736
1.982450
2.019405
1.957417
1.959801
2.041459
2.017617
2.126694
2.348423
2.178550
2.420545
2.742410
2.776980
2.872944
3.414750
4.915595
13.688803
61.053634
140.292645
275.307894
558.407903
841.745734
1015.605927
1015.605927
1015.605927
1015.605927
1015.605927
1015.605927
752.692819
493.343472
242.128968
126.031637
49.874783
30.962825
37.339926
50.637722
74.717402
96.870661
122.241974
137.311816
145.764947
145.349503
128.213763
110.809803
83.497763
63.104630
41.825771
29.845834
18.634796
14.111996
11.822581
10.952950
10.447502
10.600686
10.668635
11.157990
11.823773
11.990666
12.495518
12.754798
13.120770
13.931990
14.125705
14.775991
14.256835
14.770627
14.147758
14.326572
14.146566
14.400482
14.057755
14.553666
14.546514
13.614893
13.568997
14.061928
13.561845
13.347864
13.647676
13.907552
13.453960
13.456941
13.379455
13.496876
13.197660
##ZVALUE=295
1.634955
1.580715
1.667738
1.729727
1.632571
1.579523
1.684427
1.546741
1.683831
1.660585
1.585484
1.706481
1.730919
1.739860
1.726747
1.822710
1.687407
1.771450
1.867414
1.952648
2.141595
2.391934
2.152920
2.349615
2.366900
2.618432
2.758503
2.890825
3.451705
6.390810
21.946430
88.650584
196.548700
445.782542
705.374479
1015.605927
1015.605927
1015.605927
1015.605927
1015.605927
1015.605927
894.085765
619.179010
328.725576
178.153515
64.554811
32.489896
23.997426
30.927658
49.060583
66.197515
92.753768
109.688640
131.911635
139.214993
135.848522
124.463439
102.599859
83.968639
58.713555
42.943954
28.148890
20.419955
13.904572
12.530684
11.224747
11.422634
11.379719
12.147427
12.429953
12.808442
13.421774
13.811588
13.944507
13.955832
14.275908
14.041662
14.291406
13.813972
14.097691
13.767481
14.090538
13.980865
13.723969
14.346838
13.854504
13.494492
14.190674
13.504624
13.659596
13.994575
13.549924
13.108850
13.396740
12.967587
12.945533
##ZVALUE=300
1.455545
1.402497
1.321435
1.311898
1.445413
1.503825
1.373887
1.554489
1.670718
1.441836
1.482964
1.647472
1.681447
1.515746
1.652837
1.610518
1.753569
1.784563
1.734495
1.673698
1.747608
2.022982
2.092719
1.958609
2.031922
2.138615
2.157688
2.506971
2.676845
3.114939
3.049970
3.791451
9.867549
51.831603
128.260851
316.168666
530.119538
896.200538
1015.605927
1015.605927
1015.605927
1015.605927
1015.605927
1007.728577
765.339732
429.993868
253.325701
110.866427
51.868558
21.454692
19.976497
29.726624
40.848851
63.542724
82.428455
108.693838
122.650862
130.068660
130.668879
118.323565
104.892850
79.573989
62.301755
43.115616
30.423999
19.772649
15.288591
13.308525
12.238622
12.536645
12.461543
13.154745
13.541579
13.823509
14.026761
14.268756
14.488697
14.026761
14.154911
14.087558
14.420748
13.939738
14.323592
14.439821
14.356971
14.503598
13.502836
13.944507
13.845563
13.771653
13.971925
13.375878
13.024807
13.074875
13.131499
13.593435
##ZVALUE=305
1.332760
1.466870
1.385808
1.444817
1.468658
1.368523
1.390576
1.351833
1.279712
1.570582
1.633763
1.551509
1.627803
1.599789
1.762509
1.590848
1.604557
1.753569
1.643896
1.654625
1.528859
1.553893
1.777411
1.822710
2.021790
2.123713
2.015829
1.995564
2.260804
2.477765
2.377629
2.596974
2.776980
3.326535
5.674958
31.691790
86.055994
233.570933
414.471626
748.158693
1003.630757
1015.605927
1015.605927
1015.605927
1015.605927
1015.605927
927.994847
583.122969
359.675884
161.140561
77.097416
27.255416
15.857816
19.080639
26.479959
43.130517
59.881806
82.587004
100.286603
118.188858
126.703978
124.067664
115.943551
98.117590
80.297589
58.116913
42.531490
27.768612
21.368861
16.264915
13.851523
13.217926
13.259649
13.694763
13.718605
14.050603
13.644695
14.076829
14.327765
13.554692
14.130473
14.197826
14.031529
14.141798
13.835430
13.785958
14.282465
13.855696
13.734698
13.897419
13.456941
13.316870
13.380647
13.379455
13.364553
12.850761
##ZVALUE=310
1.349449
1.294613
1.392961
1.328588
1.234412
1.539588
1.309514
1.387596
1.289845
1.518726
1.419783
1.461506
1.496673
1.495481
1.349449
1.493692
1.617670
1.582503
1.421571
1.527667
1.551509
1.652837
1.613498
1.705885
1.826882
2.023578
1.905560
2.045631
1.916885
1.974702
2.132654
2.076626
2.416968
2.504587
2.619624
3.059506
3.754497
13.478398
44.187903
140.190721
274.197459
561.751723
836.375952
1015.606523
1015.606523
1015.606523
1015.606523
1015.606523
1015.606523
763.017535
504.734516
248.586535
130.710602
45.128465
19.855499
13.690591
17.086864
25.112629
35.958886
54.572821
70.797801
93.901753
107.358694
118.120909
119.841695
109.209418
96.955895
77.553988
61.813593
41.909814
31.368732
22.627711
18.073916
14.816523
13.921857
13.446808
13.494492
13.784766
13.515949
13.964772
13.902783
13.967752
14.155507
13.949871
14.163852
14.526844
14.189482
14.238954
13.808608
13.562441
13.886690
13.758540
13.414621
13.225675
13.220906
12.929440
##ZVALUE=315
1.388788
1.465678
1.409650
1.308918
1.287460
1.371503
1.403689
1.455545
1.284480
1.322627
1.434684
1.470447
1.336932
1.449585
1.256466
1.396537
1.575947
1.496673
1.585484
1.465678
1.489520
1.562834
1.721978
1.606941
1.697540
1.650453
1.851916
1.853704
2.016425
1.903772
1.885891
2.096891
2.009869
2.145767
2.375841
2.543926
2.881885
2.736449
2.947450
6.672740
23.354888
88.752508
193.986893
431.224704
692.513585
1015.605927
1015.605927
1015.605927
1015.605927
1015.605927
1015.605927
935.825109
658.134818
350.102782
190.074444
67.846775
28.599501
13.017654
12.376904
16.691685
22.132993
36.252737
48.858523
69.210529
85.135698
104.397535
112.115741
113.758445
108.093619
91.089606
77.349544
57.925582
44.274926
29.935837
22.994876
16.753674
14.741421
14.029741
13.892651
13.702512
13.381839
14.130473
14.053583
13.999939
14.236569
14.133453
14.078617
13.685822
13.696551
13.670921
13.979673
12.954473
13.384819
13.579726
13.402700
13.085604
##ZVALUE=320
1.369715
1.201630
1.176596
1.355410
1.301765
1.309514
1.191497
1.339912
1.285672
1.313686
1.522899
1.259446
1.289845
1.254678
1.370907
1.322627
1.513958
1.386404
1.352429
1.341701
1.406670
1.455545
1.547933
1.499653
1.560450
1.490712
1.764894
1.544952
1.676679
1.715422
1.719594
1.882911
1.881719
2.023578
2.066493
2.134442
2.054572
2.382994
2.387762
2.709627
2.909899
3.738999
10.292530
51.749945
128.331780
326.102972
535.734892
876.231790
1015.605927
1015.605927
1015.605927
1015.605927
1015.605927
1015.605927
804.690719
446.516871
253.956914
106.599927
47.188997
15.682578
11.525750
12.279749
14.722943
21.175742
29.602647
46.309829
61.110854
81.488490
95.609426
105.857849
109.108686
101.805925
91.681480
71.038604
56.845546
40.169954
29.934645
21.203756
17.404556
14.943480
14.000535
13.267994
13.383627
13.683438
13.680458
13.569593
13.619661
13.559461
13.414621
13.191700
13.427734
13.431907
13.356805
13.472438
13.125539
13.136864
##ZVALUE=325
1.304746
1.266599
1.302958
1.283884
1.117587
1.287460
1.270771
1.370907
1.327991
1.111627
1.243949
1.211762
1.294613
1.337528
1.315475
1.413822
1.385808
1.255870
1.473427
1.360774
1.363754
1.451969
1.394749
1.449585
1.590848
1.525879
1.758933
1.622438
1.759529
1.619458
1.661777
1.705885
1.807809
1.722574
1.806617
1.817942
1.903772
2.125502
2.012849
2.351999
2.354980
2.455711
2.637506
2.896786
6.338954
33.556819
85.498691
224.522948
398.569703
736.650825
997.735858
1015.605927
1015.605927
1015.605927
1015.605927
1015.605927
894.152522
528.303981
324.270725
146.465898
66.815615
21.053553
11.804700
10.369420
11.435747
14.921427
19.554496
31.032562
43.269992
62.728524
76.592565
91.555715
100.434422
101.368427
95.986724
81.947446
70.005655
51.900744
40.227771
27.483702
21.035671
16.696453
14.962554
13.853908
13.292432
13.252497
12.898445
13.484955
13.065934
13.013482
12.817979
13.118982
12.908578
12.848973
12.643933
12.703538
##ZVALUE=330
1.300573
1.145601
1.293421
1.410842
1.335740
1.244545
1.294613
1.154542
1.201630
1.211762
1.140833
1.226664
1.265407
1.247525
1.218915
1.178980
1.348853
1.459718
1.232624
1.520514
1.461506
1.355410
1.397729
1.265407
1.453757
1.329780
1.496673
1.697540
1.642704
1.488924
1.674891
1.775622
1.714826
1.770854
1.690984
1.762509
1.768470
1.657605
1.851916
1.931787
2.001524
2.115965
2.244711
2.433658
2.676845
2.901554
3.531575
14.492869
46.082735
149.549842
287.130475
571.500659
844.726562
1015.610695
1015.610695
1015.610695
1015.610695
1015.610695
1006.645560
670.167804
428.148508
198.242664
99.713802
35.664439
16.020536
10.300875
10.164976
11.481643
14.070868
20.905733
28.161407
43.280721
56.549907
75.178742
86.253881
94.194412
95.691681
90.008974
79.605579
64.062476
51.393509
36.136508
28.594732
20.960569
17.564893
14.935732
13.475418
13.345480
12.645721
12.988448
12.473464
12.429953
12.719631
12.836456
12.494922
12.680888
##ZVALUE=335
1.380444
1.376867
1.450777
1.192689
1.467466
1.460910
1.340508
1.493692
1.533628
1.370907
1.492500
1.424551
1.490712
1.307726
1.566410
1.450777
1.380444
1.517534
1.479983
1.356602
1.466870
1.522899
1.645684
1.687407
1.528859
1.529455
1.614690
1.710653
1.511574
1.736879
1.698732
1.677871
1.751781
1.777411
1.724958
1.734495
1.712441
1.895428
1.872778
2.036691
2.025962
2.096891
2.284646
2.343655
2.193451
2.478957
2.681613
2.938509
3.261566
7.007718
23.801923
92.159510
194.735527
431.183577
689.018965
1015.803814
1015.803814
1015.803814
1015.803814
1015.803814
1015.803814
805.065632
547.716618
286.566019
148.221850
49.942732
21.197796
11.044741
10.381937
10.543466
11.584759
14.717579
19.198656
29.463768
40.051937
56.328773
68.272948
82.201958
89.602470
89.767575
84.853768
73.483586
62.141418
48.883557
39.119720
27.546883
21.909475
17.190576
15.058517
13.552904
12.627840
12.528896
12.534857
12.551546
12.288690
12.449622
##ZVALUE=340
1.130700
1.081824
1.109838
1.121759
1.198649
1.182556
1.180768
0.972748
1.212955
1.163483
1.297593
1.356602
1.119971
1.158714
1.165867
1.197457
1.142621
1.257658
1.338720
1.317859
1.340508
1.230836
1.309514
1.265407
1.316667
1.443624
1.372695
1.358986
1.481771
1.467466
1.452565
1.265407
1.525879
1.811981
1.600981
1.521707
1.470447
1.671910
1.596808
1.654625
1.709461
1.800656
1.842976
1.959801
1.890659
2.091527
2.085567
2.112985
2.286434
2.643466
2.659559
3.881454
11.860728
56.699514
139.510632
348.494649
582.853556
950.051546
1015.611887
1015.611887
1015.611887
1015.611887
1015.611887
940.815806
656.857491
339.752436
186.549425
74.509978
29.791594
11.693835
10.350943
9.910464
10.361671
12.041926
13.903975
19.946694
27.258992
40.058494
51.634908
66.745877
76.235533
84.601641
85.008740
79.342723
71.837902
59.232712
48.586726
35.755634
28.069615
20.556450
16.553998
13.833642
12.885928
12.189746
11.802912
11.553764
##ZVALUE=345
1.138449
1.252890
1.147985
1.110435
1.157522
1.082420
1.238585
1.042485
1.202822
1.124740
1.268983
1.116991
1.066923
1.242757
1.295805
1.262426
1.159906
1.244545
1.187921
1.416802
1.278520
1.270771
1.128912
1.251698
1.204610
1.254678
1.288652
1.240969
1.392961
1.212955
1.312494
1.312494
1.439452
1.409650
1.458526
1.390576
1.439452
1.524687
1.510978
1.623631
1.574755
1.616478
1.678467
1.756549
1.741648
1.715422
1.855493
1.945496
1.975894
2.192855
2.143979
2.368689
2.622604
2.867579
5.630851
32.292604
88.402629
236.109495
420.008898
762.398839
1006.799936
1015.605927
1015.605927
1015.605927
1015.605927
1015.605927
792.840719
449.266434
254.176855
103.990436
45.486689
16.097426
10.666847
10.050535
9.825826
10.398626
10.994673
13.246536
17.165542
25.173426
34.235716
48.434734
59.853792
70.396662
76.001883
78.166723
75.420737
66.882968
58.200955
46.363473
36.349893
26.353598
20.618439
16.024709
13.794899
12.551546
##ZVALUE=350
1.169443
1.159906
1.077652
1.138449
1.192689
1.116991
0.950694
1.147985
1.097918
1.234412
1.102686
1.301765
1.213551
1.283884
1.143813
1.179576
1.177788
1.208782
1.189709
1.096725
1.143813
1.184940
1.317859
1.274943
1.196861
1.374483
1.250505
1.024604
1.245737
1.327991
1.397729
1.388788
1.353621
1.473427
1.384616
1.296997
1.450777
1.456738
1.518726
1.371503
1.503825
1.448989
1.632571
1.574755
1.685619
1.766682
1.741648
1.558661
1.857877
1.903772
1.905560
2.032518
2.093911
2.337694
2.401471
2.577901
3.562570
15.786886
49.453974
154.908895
297.808647
597.886443
866.495967
1015.606523
1015.606523
1015.606523
1015.606523
1015.606523
915.203094
537.991524
327.704549
149.217844
67.096949
20.033717
10.983944
9.456873
9.491444
9.571910
9.431839
10.710955
12.628436
17.590523
22.898912
32.308698
40.342808
53.775907
61.731935
69.640875
71.434975
69.653988
64.641833
53.932667
44.458508
33.510923
26.333928
19.969940
##ZVALUE=355
1.191497
1.003742
1.128912
1.109838
0.904799
1.067519
1.276731
1.176596
1.231432
1.095533
1.063943
1.227856
1.201630
1.112819
1.210570
1.215935
1.100898
1.197457
1.251698
1.256466
1.229644
1.195669
1.240969
1.339912
1.323819
1.286864
1.319647
1.348853
1.411438
1.425743
1.590848
1.247525
1.365542
1.337528
1.203418
1.436472
1.514554
1.282692
1.405478
1.519918
1.470447
1.446605
1.515746
1.442432
1.379848
1.592636
1.471639
1.516938
1.743436
1.600981
1.773834
1.945496
1.920462
2.097487
2.008677
2.223849
2.233982
2.503991
2.969503
6.018877
31.628609
87.280869
235.314965
409.480929
737.931728
995.178819
1015.606523
1015.606523
1015.606523
1015.606523
947.540998
688.746572
385.050774
212.232471
80.323815
34.086704
12.670755
9.476542
8.865595
8.631945
8.929968
9.020567
10.071993
11.312962
15.359521
19.541979
28.463602
35.971999
47.416687
55.747628
63.207746
66.002607
64.131618
59.908628
50.435662
43.097734
##ZVALUE=360
1.007915
1.081824
1.138449
1.098514
1.078844
1.114607
1.101494
1.132488
1.173615
1.151562
1.228452
1.115799
1.106858
1.218915
1.103878
1.129508
1.281500
1.260638
1.113415
1.107454
1.323819
1.105666
1.105666
1.207590
1.234412
1.214743
1.298785
1.414418
1.290441
1.298785
1.290441
1.438856
1.361966
1.332760
1.415610
1.346469
1.405478
1.475811
1.471639
1.297593
1.444817
1.217723
1.432896
1.451969
1.467466
1.543760
1.406670
1.701713
1.655817
1.758933
1.813769
1.672506
1.913905
1.864433
1.888871
2.003908
2.073646
2.363920
2.365708
2.569556
2.717972
4.177690
12.031794
53.448677
129.563808
322.111845
533.971786
865.141749
1015.617847
1015.617847
1015.617847
1015.617847
1015.617847
762.917399
506.005883
246.117711
127.188563
45.886636
18.515587
9.059906
8.471608
8.360744
8.526444
8.385777
8.344650
9.022951
10.233521
12.827516
16.579628
23.071766
30.377507
41.149855
48.055649
55.693984
58.851838
59.115887
##ZVALUE=365
1.076460
1.245737
1.176000
1.148582
1.129508
1.069903
0.925660
1.144409
1.163483
1.032948
1.111627
1.054406
1.028776
1.234412
1.247525
1.116991
1.188517
1.122952
1.097918
1.090765
1.222491
1.186728
1.222491
1.127720
1.200438
1.198649
1.143813
1.184940
1.221895
1.155734
1.243949
1.109838
1.173615
1.168847
1.290441
1.233816
1.452565
1.354814
1.193881
1.252890
1.325607
1.463890
1.382828
1.429915
1.477599
1.504421
1.426935
1.553893
1.569986
1.696944
1.523495
1.516938
1.527667
1.701713
1.663566
1.770854
1.757741
1.938939
1.879930
2.158880
2.114773
2.383590
2.678633
3.083944
5.854964
30.595660
81.155896
214.882493
396.263003
728.089809
979.578495
1015.578508
1015.578508
1015.578508
1015.578508
877.339840
621.159673
337.718725
181.127787
65.097809
26.178956
9.974837
8.020997
7.932782
7.594824
7.669926
7.520914
7.838607
7.951856
8.905530
10.576844
14.668703
19.163489
27.232766
34.113526
42.662621
##ZVALUE=370
0.805855
0.973940
1.006722
1.137853
1.108646
1.035929
1.068711
1.045465
1.084805
1.068711
1.142621
1.197457
1.221895
1.022816
1.220703
1.086593
1.201630
1.224875
1.148582
1.180768
1.295805
1.201630
1.111627
1.154542
1.171827
1.144409
1.168847
1.269579
1.005530
1.365542
1.176596
1.282692
1.237988
1.299977
1.310706
1.272559
1.189709
1.289845
1.343489
1.369715
1.253486
1.307726
1.328588
1.391768
1.449585
1.304746
1.421571
1.403689
1.386404
1.533628
1.578927
1.649857
1.516938
1.505613
1.565814
1.637936
1.735687
1.760721
1.820922
1.647472
1.895428
2.072453
2.109408
2.186894
2.293587
2.761483
3.800988
16.486645
52.707791
161.683559
306.618810
583.459735
845.453739
1015.605927
1015.605927
1015.605927
1015.605927
987.633467
740.603805
419.661999
236.970782
92.070699
40.062666
13.335943
8.081794
7.452965
7.152557
7.237792
7.148981
6.928444
6.935596
7.480979
8.010864
9.720922
12.127757
17.086864
##ZVALUE=375
0.995994
1.086593
1.028776
0.994802
1.153946
1.000762
1.049638
1.095533
1.081824
1.064539
1.077652
1.134872
1.148582
1.053810
1.136661
1.241565
1.059771
1.085997
1.112819
1.186728
1.084805
1.303554
1.114607
1.141429
1.101494
1.173615
1.145601
1.109838
1.133680
1.017451
1.206994
1.299977
1.035929
1.055598
1.344681
1.189709
1.132488
1.089573
1.227856
1.136661
1.262426
1.172423
1.155734
1.255870
1.181960
1.273751
1.262426
1.262426
1.376867
1.276731
1.227856
1.349449
1.392961
1.408458
1.379848
1.510978
1.479983
1.483560
1.573563
1.516938
1.659989
1.718998
1.887679
1.924634
1.899600
2.141595
2.362728
2.400875
2.798438
8.288622
27.676821
98.371506
209.890604
458.403826
705.564022
1012.971997
1015.606523
1015.606523
1015.606523
1015.606523
851.037502
517.182946
325.870514
159.541965
78.455806
24.782419
10.356903
7.000566
6.942749
6.727576
6.448627
6.333590
6.474853
6.394982
6.797910
7.476807
##ZVALUE=380
1.060963
1.056790
1.007915
1.119971
1.160502
1.088977
1.066923
0.947714
1.088977
1.108646
1.083612
1.096725
1.147985
1.241565
1.116991
1.053810
1.067519
0.996590
1.012683
1.293421
1.023412
1.146793
1.134872
0.917912
1.102686
1.155734
1.064539
1.046658
1.185536
1.115799
1.187921
1.111627
1.296997
1.206994
1.188517
1.163483
1.170635
1.233816
1.258850
1.144409
1.298785
1.135468
1.162887
1.330972
1.246929
1.317859
1.101494
1.305938
1.148582
1.371503
1.341701
1.385808
1.291633
1.567602
1.391768
1.414418
1.387596
1.397729
1.421571
1.548529
1.579523
1.575947
1.599789
1.655817
1.744628
1.837611
1.912713
2.139807
2.194643
2.561808
2.842546
4.575849
15.457869
70.769787
162.227750
373.266935
597.806573
929.656625
1015.605927
1015.605927
1015.605927
1015.605927
976.262689
657.140613
438.508987
215.512514
110.348463
37.311912
15.636683
7.418990
6.572604
6.285906
6.180406
6.375909
6.159544
6.297827
##ZVALUE=385
0.895858
0.821948
0.989437
1.048446
1.050830
1.120567
0.935793
1.002550
0.967979
1.104474
1.033545
1.043677
0.959635
1.095533
1.067519
0.964999
0.989437
0.807643
0.971556
1.062751
1.060963
1.112819
1.006722
1.104474
1.213551
1.123548
1.115799
1.122952
1.134872
0.896454
1.010895
1.040697
1.234412
1.143813
1.149774
1.201630
1.037717
1.176596
1.134872
1.121759
1.149774
1.149774
1.156926
1.174808
1.249909
1.134872
1.197457
1.232624
1.415610
1.181960
1.164675
1.117587
1.194477
1.309514
1.318455
1.407862
1.424551
1.353621
1.469851
1.587868
1.398921
1.520514
1.613498
1.616478
1.533628
1.830459
1.711845
1.965761
1.918674
1.973510
2.328753
2.450943
2.751946
3.016591
20.341873
43.107867
112.229586
440.667868
474.003553
789.157748
1007.781625
1015.606523
1015.606523
1015.606523
1015.606523
791.260600
584.477782
334.651470
188.513994
54.682493
21.720529
9.578466
6.276965
5.749464
5.711913
5.695820
##ZVALUE=390
1.005530
1.107454
0.926852
1.021624
1.030564
0.930429
0.957847
0.976920
1.028776
0.993609
1.074672
1.047850
0.999570
0.940561
1.059771
0.982881
0.975728
1.039505
0.912547
1.123548
1.091957
0.986457
0.946522
1.073480
1.077652
1.217723
1.130700
0.995994
1.026988
1.120567
1.097918
1.006722
1.144409
1.036525
1.200438
1.073480
1.045465
1.359582
1.252890
1.166463
1.058578
1.289845
1.069903
1.290441
1.330972
1.250505
1.197457
1.314878
1.208782
1.156926
1.322627
1.186728
1.255870
1.257658
1.316667
1.401901
1.388788
1.320839
1.306534
1.364946
1.468658
1.435876
1.448989
1.395941
1.566410
1.781583
1.682639
1.889467
2.045631
1.850724
2.129674
2.101660
2.243519
2.323985
2.489686
2.521873
4.195571
21.659732
66.038966
197.031498
365.381837
673.120618
909.218788
1015.614867
1015.614867
1015.614867
1015.614867
977.995396
744.252801
450.764894
258.701444
104.506612
46.078563
12.881756
6.653666
5.905628
##ZVALUE=395
1.138449
1.028776
0.979900
0.913739
1.081824
0.908971
1.002550
1.014471
0.953674
0.912547
0.986457
0.901818
1.122952
0.976920
0.887513
1.007915
1.098514
1.105666
0.991821
1.191497
1.027584
1.010895
1.061559
1.211762
1.184940
1.215935
0.989437
1.242757
1.133680
1.222491
1.055598
1.261830
1.199841
1.070499
1.131892
1.231432
1.110435
1.241565
1.184940
1.178980
1.178980
1.325607
1.034737
1.289845
1.158714
1.235604
1.140833
1.276731
1.210570
1.303554
1.293421
1.227856
1.288652
1.368523
1.308918
1.095533
1.124740
1.256466
1.345873
1.360774
1.330972
1.371503
1.412630
1.499653
1.428723
1.533628
1.696944
1.820922
1.824498
1.926422
2.167821
2.210736
2.142787
2.233982
2.170801
2.146959
2.353787
2.582669
3.013611
11.850595
41.508675
143.052936
270.206928
511.501431
756.775737
1015.605927
1015.605927
1015.605927
1015.605927
1015.605927
905.025601
556.396842
343.405008
149.051547
69.226623
22.274852
##ZVALUE=400
0.867844
0.971556
1.002550
0.916719
0.911951
0.979900
1.100898
0.974536
1.101494
0.992417
1.027584
0.942945
1.103878
0.946522
1.060963
1.109838
1.053810
1.056790
0.952482
1.063943
1.097918
0.963807
0.978708
0.987649
1.108646
1.042485
1.156926
1.131892
1.189709
1.084805
1.189709
1.087785
1.097918
1.137853
1.212955
1.072884
1.097918
1.130700
1.282692
1.168847
1.195669
1.165867
1.240969
1.227856
1.107454
1.310706
1.099706
1.224875
1.166463
1.169443
1.074672
1.330972
1.121759
1.274943
1.280904
1.262426
1.285672
1.395941
1.377463
1.282692
1.262426
1.418591
1.531839
1.437664
1.323819
1.494884
1.594424
1.675487
1.704693
1.828671
1.773834
2.096891
2.049804
2.188683
1.834631
2.016425
1.770854
2.050996
2.141595
2.128482
2.561808
6.196499
22.028685
84.958673
180.218816
395.637751
612.325668
920.387506
1015.605927
1015.605927
1015.605927
1015.605927
986.135602
681.912899
450.964570
224.026442
##END
