##TITLE=QP00352
##FORMAT=SPECTACLE-ASCII V-1.2
##DATA TYPE=ULTRAVIOLET SPECTRUM
##SECOND TYPE=ULTRAVIOLET SPECTRUM
##DATE=03/27/18
##TIME=18:19:43
##SPECTROMETER/DATA SYSTEM=SPECTACLE
##XUNITS=NM EM
##YUNITS=ENERGY
##YFACTOR=1
##FIRSTX=220
##LASTX=410
##NPOINTS=96
##3DDATA=Equidistant
##ZUNITS=NM EX
##FIRSTZ=210
##LASTZ=400
##ZPOINTS=39
##XYDATA=(Y..Y)
##ZVALUE=210
4.236698
3.563762
3.428459
3.985763
3.983974
3.759861
4.344583
4.306436
3.882647
4.012585
4.809499
4.353523
3.768802
4.089475
4.914999
4.403591
4.933476
5.481839
5.553961
5.659461
6.009936
5.753636
6.861687
6.842613
6.318688
7.245541
7.576942
7.872581
8.137822
8.216500
7.857680
7.527471
8.631945
9.737611
8.844733
9.618998
10.066628
9.582639
10.736585
10.281801
11.299849
11.386871
11.571646
11.209846
12.053847
12.315512
11.319518
12.319684
12.053847
11.896491
11.965632
13.290644
12.507439
12.675524
13.527870
13.159513
13.736486
14.290810
14.101863
14.608502
14.122725
14.033914
15.273690
15.601516
14.579892
15.485883
16.756654
18.211603
21.240711
26.370883
31.694770
35.559535
43.256879
47.098994
53.889751
57.203770
60.814619
62.745810
61.437488
61.506629
56.745410
52.969456
45.277476
38.276911
31.820536
25.438666
19.597411
17.113686
14.543533
14.518499
14.185905
14.017820
14.119744
15.009642
14.847517
14.217496
##ZVALUE=215
11.307597
10.374784
8.684993
7.642508
6.891489
6.671548
5.860925
7.099509
6.978512
7.159710
6.680489
5.948544
5.864501
6.367564
5.108714
5.489588
5.786419
4.805923
5.223751
6.589890
6.191730
6.653666
6.833673
7.722974
8.037686
7.926822
7.074475
9.086728
9.075999
8.573532
8.941889
9.504557
9.393692
9.277463
9.772778
10.312796
10.471940
11.631846
11.541843
9.827614
11.399984
11.125803
11.143684
13.434887
12.342930
11.712909
12.507439
13.899803
13.150573
12.294650
14.001727
13.605952
13.741851
12.372732
14.219880
13.656616
14.002919
13.639927
13.513565
14.760494
14.309883
14.333725
14.624596
15.484691
16.022921
16.579628
16.765594
17.918944
22.568703
24.845600
29.475689
33.261776
39.860606
40.881634
47.526956
50.444603
48.523545
50.230622
49.557686
46.434999
45.261979
38.598776
35.063624
28.698444
26.965737
20.476580
19.703507
17.244816
14.679432
14.400482
13.415813
12.621880
12.617707
13.242960
12.403727
13.977885
##ZVALUE=220
35.696626
37.273765
38.482547
38.601756
31.523705
26.088953
19.950867
16.169548
13.010502
11.432767
13.776422
14.599562
14.209747
12.578964
10.682940
9.403825
8.245707
7.754564
6.235838
6.442666
6.004572
6.501675
7.513762
7.081628
8.688569
8.470416
8.768439
8.202791
8.864999
8.652806
8.639693
9.246469
9.662509
9.119511
9.981990
10.753870
9.461641
9.595752
10.745525
11.573434
10.309815
9.833574
11.226535
12.354851
11.956692
12.555718
12.164712
12.690425
12.245774
12.872815
12.783408
13.350844
13.679862
14.337897
13.519526
13.213754
14.259815
13.547540
13.119578
13.869405
15.540719
15.144944
15.442967
15.536547
14.937520
15.399456
16.810894
19.082427
19.113421
21.379590
27.071834
28.811693
33.336878
37.050843
40.459633
40.044785
40.703416
41.615963
37.895441
36.075711
34.932494
29.534698
25.148988
24.609566
19.354820
18.549562
16.346574
14.882684
13.218522
14.054775
12.842417
13.294816
12.420416
13.125539
12.987852
12.369752
##ZVALUE=225
59.137940
63.137412
81.326962
97.149611
107.806921
102.748871
92.095733
70.270896
51.916838
40.877461
29.358864
24.629831
24.182796
28.344989
26.873946
26.642680
22.359490
18.648505
14.439821
11.903644
9.303689
9.080768
6.677508
7.618666
6.830692
7.225871
8.469820
8.391738
7.966757
8.806586
9.162426
9.382963
9.456873
9.309649
9.422898
9.889603
11.118650
9.829998
11.078715
10.886788
11.028647
10.440946
10.718703
10.800958
10.976791
10.908842
11.461973
11.743903
12.872815
12.526512
12.865663
11.692643
12.698770
13.231635
12.986660
12.594461
13.110638
11.830926
12.905598
13.089776
13.511777
15.658736
15.526414
15.410781
15.119910
13.866425
15.535951
17.654896
19.639730
22.556782
24.773479
27.250648
28.197765
33.764839
33.765435
34.003854
34.513474
33.248663
35.340786
27.319789
28.176904
25.711656
24.702549
21.352768
17.458797
18.231869
16.541481
15.066862
15.352964
14.066696
14.563799
13.842583
14.317632
13.869405
13.836622
14.044642
##ZVALUE=230
52.858591
60.987473
91.087818
146.831870
185.601711
219.495893
236.841440
237.502456
206.350684
175.314546
118.786693
82.978606
55.848956
48.079491
44.885874
46.067834
49.141645
49.741864
43.266416
38.219690
29.981732
20.960569
14.487505
10.150671
7.718801
8.214712
8.440614
8.160472
9.098649
9.617805
9.634495
9.736419
10.885000
9.905696
10.013580
11.221766
9.890795
10.380745
10.856986
11.139512
11.295676
10.665655
12.272000
11.830926
12.225509
12.728572
11.818409
11.934638
12.949705
11.483431
13.614893
13.273954
12.878776
14.097691
14.294982
15.189648
15.088916
16.533732
15.340447
15.628934
15.321970
15.802979
14.993548
16.347766
16.597509
17.404556
18.585920
19.273758
22.011995
24.390817
24.694800
32.084584
34.681559
34.722686
38.016438
39.903522
38.716793
36.743879
36.507845
31.975508
30.741692
29.321909
27.706623
24.423599
23.789406
21.280646
20.270944
19.477606
18.839836
17.621517
19.170642
16.448498
17.425418
17.739534
18.017888
16.942620
##ZVALUE=235
20.826459
23.236871
55.336952
97.225904
188.322663
261.227489
367.697477
453.037620
495.700836
486.224890
424.360633
342.863798
255.901814
159.415007
117.340684
83.343983
73.059797
79.978704
81.804991
83.231926
77.158809
65.868497
50.973892
39.345622
26.936531
18.398762
13.283491
12.147427
10.444522
10.140538
9.719729
10.848641
9.918809
11.602640
10.540485
11.898875
11.939406
11.371970
12.050867
11.459589
13.906956
12.043715
11.912584
11.736751
12.347698
13.098717
13.767481
13.613701
13.434887
13.037920
13.854504
14.173985
14.842749
14.372468
15.943646
15.749931
15.311837
16.331673
16.054511
17.268658
17.661452
16.861558
18.404722
18.546581
18.622875
19.114614
21.584630
24.265647
24.731755
30.586720
33.395886
35.775900
40.878654
41.111708
42.000413
43.622851
44.817924
42.250752
41.739941
39.842725
37.940741
33.328533
30.517578
27.861595
26.171803
22.944808
22.923946
22.700429
22.925735
22.255778
23.680925
20.883679
22.713542
22.087693
22.184849
20.663738
##ZVALUE=240
3.657937
4.463792
10.298491
33.986568
74.064732
165.337920
271.493793
461.940765
617.829561
729.965568
847.023726
839.589834
743.376613
625.282526
440.938473
302.631855
178.991556
129.222870
98.615885
104.462504
110.903978
115.300417
113.650560
99.190474
85.139871
61.442852
51.062703
34.899712
25.030971
17.653704
14.057755
13.331771
12.522936
11.654496
12.494922
13.163686
11.950731
11.797547
12.150407
13.112426
12.003779
13.213754
12.781620
14.791489
13.898611
14.536977
13.952851
15.025735
15.987754
14.695525
14.794469
14.930964
15.913844
15.774965
14.776587
17.316937
17.815828
18.298626
16.956925
17.671585
18.742681
18.640757
19.066930
19.303560
21.266937
23.533702
22.370815
25.096536
25.704503
30.046701
32.895803
38.125515
39.898753
45.200586
46.934485
47.222972
47.914982
47.293901
44.407845
42.058825
42.438507
37.807822
36.146641
33.145547
29.898882
28.805733
27.980804
28.174520
27.183890
27.820468
25.227666
26.794672
24.480820
24.290681
23.455620
24.792552
##ZVALUE=245
2.962947
3.322959
3.646612
3.543496
8.106828
20.771623
69.999695
146.185756
325.242877
484.666824
745.537877
923.242569
1015.551686
1015.551686
1009.331942
846.668482
682.892799
458.180904
307.498574
169.502497
121.285915
108.054876
115.006566
125.960708
131.654739
126.033425
111.277699
96.809864
72.278976
56.276917
39.608479
26.311874
19.521713
13.859868
12.781620
12.477636
11.717677
11.978745
12.197495
12.011528
12.521744
10.563731
12.084842
12.995601
13.511777
11.421442
12.853742
12.379885
12.082458
13.815761
12.432933
13.552904
13.642907
13.176799
12.378693
13.540983
14.799833
15.488863
15.957952
14.537573
15.062690
16.048551
17.319918
17.499924
16.015768
16.786456
19.592643
19.251704
20.400882
24.061799
27.156472
29.055476
32.593608
33.098459
35.819411
36.465526
36.797523
35.525560
35.677552
31.248927
31.474829
30.383468
28.921962
27.511716
26.333928
25.642514
24.015903
25.049448
24.125576
24.886727
23.840666
23.918748
24.062991
22.880435
24.352670
22.977591
##ZVALUE=250
2.841949
2.710819
2.956986
2.941489
2.983809
3.482699
4.506707
16.993880
48.092008
111.906528
273.554921
467.702746
766.009688
969.227552
1015.605927
1015.605927
1015.605927
1015.605927
932.539701
647.349954
428.438783
235.632658
152.845383
107.317567
107.484460
123.288631
134.642720
139.040947
133.269429
120.377541
104.427934
77.785850
59.075952
39.591789
27.342439
16.833544
13.082623
11.218786
10.602474
10.817647
10.283589
10.809898
10.752678
10.346770
11.566877
10.630488
11.397600
11.631846
10.746717
10.206699
10.611415
10.897517
11.742711
10.973811
11.325479
11.843443
12.482405
11.834502
12.817979
12.137890
12.836456
13.606548
13.431907
13.785958
14.692545
15.753508
15.098453
16.717911
18.711686
20.708442
23.001432
23.864508
27.665496
29.819608
32.809973
31.730533
30.252934
29.205680
28.957725
29.194951
27.244687
27.127862
26.799440
23.258924
23.226738
23.500919
22.984743
22.928715
21.423697
22.570491
21.272898
21.279454
22.858977
22.916794
22.480488
22.319555
##ZVALUE=255
2.604723
2.370477
2.299547
2.599955
2.697706
2.723932
2.859831
3.337860
3.756881
8.744597
43.769479
103.502870
215.052962
452.979803
704.770684
1015.605927
1015.605927
1015.605927
1015.605927
1015.605927
1015.605927
950.727463
582.332611
371.145010
185.444951
120.505691
98.720789
105.398893
126.702785
139.965415
144.649744
146.149993
130.886436
104.092956
83.845854
56.847930
41.869879
24.031997
17.534494
12.939572
11.208653
10.334849
9.734631
9.533763
9.454489
9.526610
9.941459
9.545684
9.132624
10.066628
10.539889
10.332465
10.436773
10.943413
10.265708
10.255575
10.267496
10.507703
10.301471
11.599660
10.879636
11.305809
11.708736
11.834502
12.639761
12.535453
13.580918
15.009642
15.454888
18.460751
20.402670
21.958947
24.103522
25.912523
25.728941
25.887489
25.981665
26.490688
26.126504
25.370717
25.263429
21.759868
20.803809
21.885633
20.841956
20.401478
20.601749
20.096898
20.951629
21.236539
19.562840
19.931793
20.598769
20.119548
19.923449
20.390749
##ZVALUE=260
2.400875
2.349615
2.388954
2.463460
2.801418
2.829432
2.478957
3.152490
3.072619
3.401637
3.581643
4.734993
15.498996
66.642761
150.238872
357.046723
598.008633
966.802835
1015.707850
1015.707850
1015.707850
1015.707850
1015.707850
1015.707850
795.941949
543.535948
300.332904
178.502798
101.829767
89.272857
104.153752
128.862858
144.385695
150.876641
150.764585
133.028626
112.827420
82.906485
61.156750
40.334463
26.595592
16.007423
12.580752
9.892583
9.261966
8.968711
9.205937
9.438992
9.194613
9.025931
9.392500
10.004640
10.284781
9.709597
10.023713
9.705424
9.412766
9.447932
9.658933
10.981560
10.616779
10.210872
10.858774
10.375977
11.358857
12.162924
12.322664
12.926459
15.069842
15.276670
18.059611
19.418597
20.507574
21.284819
21.321774
23.196936
22.137761
21.606684
21.003485
21.164417
21.225810
19.841790
19.441843
19.921660
19.061565
18.677711
17.187595
17.740726
18.798709
18.935800
19.012690
19.002557
18.333793
18.257499
18.899441
19.541979
##ZVALUE=265
2.079606
2.172589
2.182722
2.247691
2.560616
2.646446
2.517700
2.637506
2.868772
2.878904
2.828836
3.270507
3.619790
4.156828
8.980632
45.082569
108.650923
274.643898
486.915708
894.910693
1015.605927
1015.605927
1015.605927
1015.605927
1015.605927
1015.605927
1004.653573
741.919875
412.884951
238.209963
135.217905
81.010461
84.004998
111.544728
132.739544
150.260925
154.746771
149.915814
134.268999
108.485818
85.741878
57.873726
40.043592
24.338961
15.950799
11.083484
9.151697
9.073615
9.340644
8.601546
8.249879
8.879900
9.084940
9.287000
9.289980
8.939505
9.639859
9.941459
9.128451
9.647608
9.189844
9.146929
10.376573
10.122657
10.326505
10.807514
11.115670
12.281537
12.995601
13.708472
14.592409
15.765429
17.321706
17.584562
19.369721
19.002557
19.180775
18.700957
18.247962
17.244816
17.588735
17.262697
16.961694
16.275644
16.625524
16.285777
16.742945
16.352534
17.128587
16.953945
17.473698
16.923547
17.662644
16.987920
16.758442
16.460419
##ZVALUE=270
2.085567
1.961589
2.206564
2.030730
2.062917
2.109408
2.349615
1.999736
2.174973
2.321601
2.383590
2.499819
2.753735
3.018975
3.227592
3.576875
4.329681
20.609498
62.427521
196.060538
388.682485
665.061474
1015.605927
1015.605927
1015.605927
1015.605927
1015.605927
1015.605927
1015.605927
949.915648
659.039021
345.882773
186.556578
85.172653
69.254637
86.756945
108.322501
135.132670
150.649548
155.191422
151.633620
131.938457
111.373663
82.252622
61.584711
38.038492
24.775863
15.954971
12.042522
9.045601
8.966923
8.266568
8.071661
8.625984
8.328557
8.169413
8.512735
8.414984
9.274483
9.204745
9.371638
9.252429
9.610653
9.258986
9.636879
9.708405
10.617971
11.066794
11.266470
12.903810
13.899803
15.719533
16.107559
16.891956
18.309951
18.186569
17.823577
17.651916
16.832948
16.271472
15.725493
15.241504
15.360713
15.008450
15.179515
15.621781
15.274882
15.120506
15.171766
15.879869
14.738441
15.155673
15.641451
15.396476
16.481876
16.241670
##ZVALUE=275
1.897812
1.956820
2.050996
2.035499
2.039671
1.999736
2.053976
2.014637
2.256632
2.017617
2.393723
2.430677
2.712607
2.326965
2.599955
3.020763
3.309846
3.717542
4.228950
8.480549
34.846663
140.206814
294.325352
636.086464
975.881815
1015.605927
1015.605927
1015.605927
1015.605927
1015.605927
1015.605927
1015.605927
835.634470
449.572802
259.696841
112.514496
64.963698
65.039992
81.803799
113.153458
131.948590
151.773691
154.664516
147.257447
135.710835
108.745694
85.585713
58.693886
42.945743
26.129484
17.675757
11.866689
9.982586
8.982420
9.547472
8.744597
8.892417
8.852482
8.598566
9.182692
8.987784
8.870959
9.442568
9.455681
9.387732
10.301471
10.347962
11.548996
11.967421
12.490749
13.726950
15.306473
16.313791
16.421676
17.690659
17.479658
17.468929
17.315745
16.580820
15.740991
16.711950
15.438795
15.034676
15.038848
14.302731
13.982654
13.984442
14.581680
14.102459
13.943911
13.490915
14.030933
15.163422
14.517903
14.573932
14.345646
##ZVALUE=280
2.021790
1.848936
1.778603
1.812577
1.846552
1.989603
1.883507
2.091527
2.142787
2.257824
2.168417
1.983643
2.230406
2.317429
2.628565
2.529621
2.353787
2.912879
2.800822
3.260970
3.588796
4.624724
24.635792
83.106756
257.576704
471.308827
860.313773
1015.605927
1015.605927
1015.605927
1015.605927
1015.605927
1015.605927
1015.605927
1009.555459
602.556467
352.006555
150.576830
74.603558
48.209429
57.240725
83.635449
106.045604
132.119656
146.873593
153.509974
148.520470
132.235885
111.199617
82.031488
61.833858
39.471984
27.454495
16.657710
12.075901
9.320974
9.093881
9.006858
8.902550
8.883476
9.425879
9.379983
9.331703
9.444952
9.423494
9.778738
10.651946
10.744929
11.480451
12.337565
12.896657
13.842583
15.253425
15.513897
16.241670
16.315579
16.369820
16.020536
15.805960
14.555454
14.597774
14.794469
13.872981
13.796687
13.488531
13.620853
13.300776
13.523698
13.410449
13.598800
13.680458
13.422966
13.631582
13.207793
13.289452
13.836622
##ZVALUE=285
1.786947
1.843572
1.781583
1.871586
1.784563
1.940727
2.094507
1.760721
2.031922
2.020597
2.031922
2.065897
2.044439
2.033710
2.180934
2.454519
2.253652
2.625585
2.349615
3.013611
3.053546
3.355742
3.261566
3.921986
11.706948
41.995645
142.838955
296.092629
631.012917
975.688696
1015.605927
1015.605927
1015.605927
1015.605927
1015.605927
1015.605927
1015.605927
878.635645
538.395643
247.800946
120.143890
47.811866
39.976835
56.505799
77.738762
106.100440
124.090910
142.385960
148.686767
145.340562
133.417845
110.112429
87.867975
61.606765
43.564439
26.623607
18.543601
12.659431
10.300875
9.105802
8.994937
9.287000
9.319782
9.235740
9.941459
10.319948
10.280609
11.143684
11.508465
12.464523
12.894869
14.556646
14.857650
15.514493
15.507936
15.637875
15.667677
15.391707
14.785528
14.258623
13.895631
14.605522
14.237761
13.454556
14.103651
13.450980
13.080835
13.047457
13.770461
13.038516
13.328791
13.094544
12.872815
13.423562
13.022423
12.701750
##ZVALUE=290
1.771450
1.651645
1.703501
1.829863
1.732707
1.869798
1.795888
1.837611
1.860857
1.956820
1.902580
1.829863
1.944900
2.042651
1.969934
2.122521
2.158880
2.474785
2.502799
2.292991
2.528429
2.753735
2.855659
3.049970
3.680587
4.022717
5.507469
17.275810
75.898767
186.370611
378.308892
804.585814
1015.605927
1015.605927
1015.605927
1015.605927
1015.605927
1015.605927
1015.605927
1015.605927
778.014660
382.729769
196.232796
69.406629
36.176443
38.025975
51.830411
75.087547
96.418858
122.273564
135.476589
145.724416
142.660737
128.433704
109.199882
81.795454
62.085986
41.425824
28.627515
17.506480
13.333559
10.435581
9.711981
9.665489
9.764433
9.804964
10.638833
11.355877
11.445880
12.171865
12.963414
13.642907
14.677644
14.988780
14.976859
14.770627
15.186667
14.307499
14.661551
14.454722
13.599992
13.808608
13.694763
13.566613
13.084412
12.833476
12.657642
13.322830
13.918877
13.406873
13.281703
12.810826
12.756586
13.549924
12.797713
12.307763
##ZVALUE=295
1.551509
1.711845
1.583695
1.737475
1.709461
1.689792
1.675487
1.718998
1.773834
1.930594
1.702905
1.693964
1.727939
1.788735
1.933575
1.842976
1.903772
2.252460
2.192855
2.279878
2.422929
2.391934
2.718568
2.754927
3.046989
3.085732
3.131628
3.205538
4.193783
8.287430
28.945804
117.387772
262.926817
624.159575
977.597833
1015.605927
1015.605927
1015.605927
1015.605927
1015.605927
1015.605927
1015.605927
982.455611
532.594919
282.639861
97.116828
43.921471
26.931763
32.757521
50.428510
66.968799
93.504786
111.843944
131.048560
138.047934
133.834481
123.119950
102.955699
84.655881
58.817863
43.097734
27.361512
19.015670
13.594627
11.263490
10.443926
10.583997
10.890961
10.859966
11.860728
12.886524
13.582706
14.248490
14.584661
14.969707
15.003681
14.134645
14.126897
13.241768
14.003515
12.982488
12.994409
13.298988
12.835860
13.153553
13.073683
12.973547
12.854934
13.481975
13.056993
12.556911
12.524724
12.761950
12.989640
12.669563
12.516975
##ZVALUE=300
1.616478
1.548529
1.547933
1.596808
1.684427
1.569986
1.670718
1.728535
1.679659
1.491904
1.668930
1.722574
1.744628
1.679659
1.892447
1.882911
1.850724
1.932979
2.086759
2.166629
2.103448
2.243519
2.272725
2.387762
2.608895
2.539754
2.642870
3.026724
3.218651
3.727674
4.137754
4.519820
18.917918
66.007376
218.961835
423.021913
870.697498
1015.605927
1015.605927
1015.605927
1015.605927
1015.605927
1015.605927
1015.605927
1015.605927
802.663565
392.200947
202.725530
70.327520
30.127764
22.564530
30.873418
45.842528
61.663985
85.435510
104.556680
125.408769
132.535696
130.470991
121.049881
102.726817
83.524585
60.163736
45.705438
28.203726
20.329952
14.740825
12.820959
11.659861
12.001991
12.709498
13.155937
13.744831
14.196634
14.544725
14.523864
14.038682
13.766885
13.761520
13.429523
12.956858
13.396740
12.801886
12.897849
13.416409
13.082623
12.952685
12.964606
13.369918
12.802482
13.074875
13.050437
12.754798
12.685657
12.353659
12.870431
##ZVALUE=305
1.372695
1.536608
1.530647
1.583695
1.536608
1.436472
1.508594
1.809597
1.547933
1.668930
1.757741
1.738667
1.817942
1.799464
1.699924
1.965761
1.931787
1.796484
1.875758
1.872778
1.901984
1.943707
2.025962
2.032518
2.245903
2.349615
2.504587
2.643466
2.722740
2.636909
3.095865
3.378987
3.757477
4.193783
10.428429
36.991835
151.356459
323.092937
716.037750
1015.606523
1015.606523
1015.606523
1015.606523
1015.606523
1015.606523
1015.606523
1015.606523
1004.557014
564.383864
304.070711
110.331774
43.954849
18.916726
20.224452
29.565692
41.484833
62.745810
80.048442
102.446675
116.630793
126.150846
125.601888
113.550425
98.707676
76.825619
59.095621
40.884614
29.547811
19.670725
15.217662
13.715625
13.205409
13.773441
13.913512
13.652444
13.847947
13.711452
13.257861
13.186932
13.317466
12.916923
13.097525
13.040900
13.454556
12.516975
12.970567
12.992620
13.000965
13.168454
12.892485
12.406707
12.900829
12.630820
12.767911
12.025833
12.513995
##ZVALUE=310
1.533628
1.482964
1.464486
1.495481
1.432896
1.454949
1.456738
1.433492
1.529455
1.458526
1.582503
1.519918
1.587868
1.525879
1.486540
1.664758
1.789927
1.913905
1.744628
1.743436
1.767874
1.988411
1.975894
1.877546
2.135634
2.150536
2.223849
2.598763
2.475977
2.500415
2.592802
2.977848
3.167987
3.275871
3.608465
3.926754
5.206466
15.839934
84.353685
203.927755
504.263639
869.432688
1015.605927
1015.605927
1015.605927
1015.605927
1015.605927
1015.605927
1015.605927
1015.605927
832.461715
490.525961
203.056931
87.190866
25.747418
16.254783
19.446611
25.214553
38.550496
52.815676
73.962808
90.619922
109.147429
117.210746
118.703842
112.137794
94.607472
79.791546
57.979822
43.989420
29.356480
23.098588
17.790794
16.295910
14.906526
14.352798
13.694763
13.158917
13.213754
12.567639
13.247728
12.772679
13.058782
12.788773
13.535619
13.271570
13.272762
12.936592
13.280511
12.577772
13.349652
13.017654
12.801886
12.582541
12.183785
12.361407
##ZVALUE=315
1.489520
1.406670
1.502633
1.408458
1.335740
1.348853
1.576543
1.526475
1.465678
1.643896
1.510978
1.590848
1.752973
1.608729
1.593828
1.809597
1.725554
1.710653
1.714826
1.818538
1.620650
1.805425
1.931787
2.027750
1.894832
2.126694
2.147555
2.100468
2.490878
2.425909
2.362728
2.535582
2.561808
3.027916
2.995729
3.050566
3.585815
3.864765
4.476905
8.095503
47.006011
134.438872
391.396880
711.276531
1015.605927
1015.605927
1015.605927
1015.605927
1015.605927
1015.605927
1015.605927
1015.605927
1006.980538
669.395924
300.212502
134.644508
35.346746
16.815662
14.508963
16.773939
24.273992
34.557581
52.331686
67.449808
87.345839
101.094842
113.193989
113.935471
106.347799
93.392730
74.244738
59.735775
42.916536
32.571554
22.885799
18.213987
14.656782
13.628602
12.984872
13.053417
12.859702
12.715459
12.573600
12.951493
12.919903
13.052821
12.929440
13.124943
12.648702
12.893677
12.583733
12.473464
12.552738
12.344718
12.558699
12.461543
##ZVALUE=320
1.513958
1.557469
1.456738
1.356602
1.458526
1.455545
1.426935
1.543760
1.655817
1.443624
1.283884
1.654625
1.609921
1.314878
1.574755
1.571774
1.561642
1.665950
1.684427
1.766682
1.825690
1.820922
1.692772
1.859665
1.840591
1.932979
2.078414
2.174973
2.039671
2.069473
2.166629
2.320409
2.359748
2.381802
2.519488
2.849698
2.957582
3.122687
3.607869
3.834963
4.295707
5.500913
22.475719
76.330900
274.905562
569.086671
1015.605927
1015.605927
1015.605927
1015.605927
1015.605927
1015.605927
1015.605927
1015.605927
1015.605927
889.515877
400.645733
204.480886
69.862604
26.665926
13.702512
13.641715
16.408563
21.882653
32.644868
45.341849
63.974857
80.105662
99.206567
107.392669
109.255910
104.036927
89.797974
76.616406
57.127476
43.850541
30.655861
22.892952
16.916990
14.267564
13.663769
13.160706
13.042688
12.790561
13.214946
13.042688
13.180971
12.746453
13.006926
12.861490
12.621880
12.881756
12.510419
12.522936
12.225509
12.280941
##ZVALUE=325
1.374483
1.357794
1.321435
1.310706
1.415610
1.472831
1.257658
1.460910
1.424551
1.267791
1.533628
1.516938
1.607537
1.632571
1.622438
1.617670
1.678467
1.544952
1.725554
1.571774
1.637936
1.643896
1.921654
1.747608
1.686811
1.857877
1.875758
1.975894
1.829863
1.945496
2.234578
2.143979
2.165437
2.294779
2.574921
2.632737
2.748966
2.773404
3.037453
3.413558
3.443956
3.803968
4.211664
5.114675
10.195971
68.025589
176.645517
451.183915
815.111995
1015.605927
1015.605927
1015.605927
1015.605927
1015.605927
1015.605927
1015.605927
1015.605927
1007.300615
648.036599
279.823542
126.917958
34.597516
15.580654
12.959838
13.768673
16.632676
21.808743
33.122897
45.432448
64.144731
78.103542
94.777942
102.602839
104.168653
98.232627
82.833767
69.597960
51.616430
39.767623
27.531981
20.990968
16.158819
14.215708
13.432503
13.133883
12.964606
13.274550
12.607574
12.565851
12.278557
12.405515
12.873411
12.285709
12.065768
12.463927
12.339950
##ZVALUE=330
1.285672
1.354814
1.367927
1.334548
1.314878
1.494884
1.382828
1.360774
1.617670
1.492500
1.466870
1.474619
1.504421
1.333952
1.543760
1.699924
1.425743
1.442432
1.477599
1.480579
1.464486
1.624823
1.622438
1.719594
1.669526
1.877546
1.759529
1.744628
1.729727
1.873970
1.815557
2.035499
2.152920
2.099872
2.245903
2.415776
2.439618
2.585649
2.610683
2.694726
2.753735
3.162622
3.371835
3.439784
3.945827
4.600883
5.994439
27.144551
88.984966
302.160382
591.001511
1015.605927
1015.605927
1015.605927
1015.605927
1015.605927
1015.605927
1015.605927
1015.605927
1015.605927
872.862935
393.877625
192.858577
60.582757
23.068786
13.238788
12.503862
13.779998
16.283989
23.252964
30.779839
44.581890
58.692694
76.670647
87.572932
96.845627
96.045732
90.095997
79.834461
62.966943
50.953627
35.560727
28.064847
20.041466
16.836524
14.234781
13.193488
13.271570
12.507439
12.609959
12.224913
12.027621
11.734962
11.963844
11.819601
11.874437
##ZVALUE=335
1.323819
1.280904
1.325607
1.187921
1.266599
1.300573
1.268983
1.276731
1.289845
1.256466
1.438856
1.485944
1.348853
1.480579
1.369715
1.423955
1.380444
1.342893
1.417994
1.501441
1.376867
1.556873
1.559854
1.535416
1.720786
1.741648
1.705885
1.645684
1.733899
1.765490
1.647472
1.809597
1.871586
1.824498
1.960993
2.056956
1.959801
2.214909
2.257824
2.291799
2.428889
2.672672
2.605915
2.966523
3.041625
3.462434
3.568530
4.023910
4.253983
12.035966
43.590665
178.880692
387.808681
863.993764
1015.608907
1015.608907
1015.608907
1015.608907
1015.608907
1015.608907
1015.608907
1015.608907
983.429551
515.620708
258.681774
81.584454
30.889511
13.980865
12.679696
13.040900
14.158487
16.908646
21.744967
31.147599
41.550994
58.586001
68.989992
82.322955
88.868737
90.377927
86.071491
73.133707
61.965585
47.742724
37.387609
27.268529
21.219850
16.317964
13.963580
12.929440
12.684464
11.899471
11.495948
11.710525
11.626482
11.699796
##ZVALUE=340
1.364946
1.358986
1.315475
1.321435
1.317859
1.365542
1.332760
1.278520
1.359582
1.453757
1.339912
1.244545
1.351833
1.524687
1.350641
1.437664
1.525879
1.418591
1.469851
1.471639
1.458526
1.487732
1.393557
1.461506
1.462698
1.507998
1.538992
1.655817
1.610518
1.682639
1.686811
1.700521
1.868606
1.751781
1.934767
1.746416
1.995564
1.920462
2.010465
2.148747
2.019405
2.378821
2.547503
2.486706
2.522469
2.826452
3.056526
3.378987
3.612638
3.907681
4.307628
6.677508
21.292567
114.175677
286.428928
735.505819
1015.605927
1015.605927
1015.605927
1015.605927
1015.605927
1015.605927
1015.605927
1015.605927
1015.605927
645.404458
348.274708
132.782459
48.978925
16.251802
13.901591
13.104677
13.363957
14.278889
16.149879
21.691918
28.063655
40.649772
52.062869
68.263412
77.460408
84.173679
84.785819
79.644918
72.782636
59.908628
48.459768
36.074519
28.020740
20.815730
16.345978
13.431907
12.418628
11.370778
11.385679
11.481643
##ZVALUE=345
1.128912
1.141429
1.086593
0.990629
1.030564
1.198649
1.174808
1.128912
1.082420
1.075864
1.266599
1.068711
1.208782
1.313686
1.208782
0.923872
1.172423
1.008511
1.249909
1.268983
1.298785
1.290441
1.113415
1.371503
1.276731
1.416802
1.280904
1.318455
1.346469
1.510978
1.539588
1.514554
1.439452
1.621842
1.434684
1.588464
1.696944
1.709461
1.664758
1.834631
1.704693
1.645684
2.180934
2.034903
2.170801
2.375841
2.475977
2.609491
2.692938
3.036857
3.184676
3.409982
3.943443
4.712939
9.969473
63.236952
183.819532
502.732396
918.795466
1015.424728
1015.424728
1015.424728
1015.424728
1015.424728
1015.424728
1015.424728
1015.424728
912.496448
505.206585
188.597441
78.547001
24.361610
14.211535
13.157725
12.516975
12.216568
12.273788
14.587641
18.526912
26.859641
35.331845
49.241781
59.990883
70.606470
75.376630
79.055429
75.515509
67.412853
59.312582
46.398640
36.375523
25.922656
20.407438
15.506744
13.475418
11.668801
##ZVALUE=350
1.340508
1.178980
1.392961
1.429915
1.255870
1.365542
1.238585
1.251698
1.424551
1.414418
1.355410
1.368523
1.315475
1.337528
1.360774
1.457930
1.340508
1.398921
1.403689
1.437664
1.438856
1.540780
1.483560
1.412630
1.603961
1.640916
1.439452
1.609921
1.655817
1.627803
1.647472
1.570582
1.580715
1.723766
1.816750
1.639724
1.768470
1.824498
2.006888
2.010465
1.919866
1.970530
1.970530
2.054572
2.173781
2.234578
2.600551
2.464652
2.598763
2.776980
2.987981
3.083944
3.329515
3.700852
3.936887
4.513860
6.594658
33.968687
110.591650
351.438522
686.645508
1015.605927
1015.605927
1015.605927
1015.605927
1015.605927
1015.605927
1015.605927
1015.605927
1015.605927
702.554584
302.168727
132.410526
33.444762
15.994906
12.834668
12.202859
11.388659
10.986924
12.013912
14.003515
18.372536
24.311543
33.165812
42.441487
54.251552
62.786937
70.355535
71.811676
70.119500
64.162612
53.451657
44.833422
33.833981
26.939511
19.945502
##ZVALUE=355
1.210570
1.421571
1.258850
1.295805
1.159906
1.331568
1.376867
1.287460
1.370907
1.332760
1.357794
1.503825
1.329780
1.445413
1.467466
1.314878
1.371503
1.500845
1.479983
1.453757
1.461506
1.423955
1.462698
1.512766
1.732707
1.531839
1.685619
1.594424
1.622438
1.638532
1.657605
1.767874
1.918674
1.738667
1.721978
1.895428
1.935959
2.029538
1.875758
1.838803
2.019405
2.026558
2.126694
2.240539
2.273917
2.298951
2.285838
2.539754
2.480745
2.610683
2.687573
2.870560
3.143549
3.211498
3.363490
3.787875
3.981590
4.432797
5.062819
15.605688
59.280992
235.167742
479.080677
966.870785
1015.601754
1015.601754
1015.601754
1015.601754
1015.601754
1015.601754
1015.601754
1015.601754
937.132835
403.991938
184.284449
50.691962
19.006729
12.288690
11.635423
10.964870
10.841489
10.806918
11.267662
12.943745
15.751719
21.455884
28.236508
38.073659
47.090650
56.777000
62.223673
66.179633
64.297915
58.815479
51.631927
41.938424
##ZVALUE=360
1.499653
1.272559
1.396537
1.407862
1.486540
1.452565
1.491904
1.346469
1.481771
1.549721
1.496673
1.364946
1.606941
1.356602
1.465678
1.405478
1.538992
1.446605
1.443624
1.636744
1.496673
1.524687
1.701713
1.696944
1.421571
1.445413
1.468658
1.556873
1.742840
1.721978
1.710653
1.758933
1.757741
1.758933
1.765490
1.822710
1.833439
1.874566
1.874566
1.985431
2.120733
1.938939
2.019405
2.021790
2.068877
2.344847
2.371669
2.463460
2.446771
2.420545
2.721548
2.745986
2.840757
3.052950
3.181696
3.485680
3.519654
3.915429
3.915429
4.559755
4.977584
8.064508
26.569963
126.385689
303.309560
734.512806
1015.605927
1015.605927
1015.605927
1015.605927
1015.605927
1015.605927
1015.605927
1015.605927
1015.605927
604.916811
304.342508
101.670623
34.976602
13.308525
11.540651
10.817647
10.352731
10.153651
10.260940
10.688901
11.643767
13.953447
17.327666
24.062991
31.147599
41.633844
48.738718
56.238770
58.787465
59.690475
##ZVALUE=365
1.263618
1.315475
1.255870
1.316667
1.272559
1.382828
1.338720
1.354814
1.374483
1.703501
1.358986
1.597404
1.432896
1.297593
1.382828
1.478791
1.361966
1.305938
1.453757
1.511574
1.467466
1.346469
1.629591
1.605749
1.488924
1.554489
1.673698
1.685619
1.544952
1.697540
1.542568
1.716614
1.805425
1.664758
1.814961
1.817942
1.785755
1.966953
2.071857
1.914501
1.787543
1.915693
1.939535
1.952648
2.024770
2.012849
2.000928
2.132654
2.100468
2.301931
2.315640
2.457500
2.530813
2.414584
2.655983
2.940893
2.828836
3.202558
3.398657
3.831983
3.958941
4.367828
4.909635
5.864501
12.414455
73.154569
192.798972
509.818792
934.375525
1015.605927
1015.605927
1015.605927
1015.605927
1015.605927
1015.605927
1015.605927
1015.605927
807.603002
416.888595
135.440826
49.006939
14.265776
11.257529
10.430813
9.850860
9.607673
9.148717
8.977652
9.206533
10.333657
11.343956
15.751719
20.178556
27.734637
34.673810
43.779612
##ZVALUE=370
1.137853
1.362562
1.337528
1.237988
1.298785
1.367927
1.269579
1.385808
1.217723
1.157522
1.465678
1.351833
1.357794
1.349449
1.353621
1.430511
1.376867
1.523495
1.420975
1.353621
1.475811
1.526475
1.298785
1.438856
1.501441
1.579523
1.547933
1.665950
1.560450
1.463890
1.460910
1.699924
1.469851
1.604557
1.607537
1.533628
1.689792
1.685619
1.717806
1.592636
1.712441
1.861453
1.892447
1.839995
1.852512
1.862645
1.850724
2.026558
2.109408
2.095699
2.223849
2.292991
2.159476
2.368689
2.452731
2.285838
2.366900
2.467632
2.735853
2.644658
2.830625
3.314614
3.537536
3.973842
4.269481
4.903674
6.654859
33.835769
120.068789
394.916534
732.113719
1015.606523
1015.606523
1015.606523
1015.606523
1015.606523
1015.606523
1015.606523
1015.606523
947.635770
535.520911
203.343630
86.667538
24.390817
11.703968
9.506941
9.273887
8.750558
8.734465
8.268952
7.938743
8.295774
8.922815
10.486841
12.917519
17.505884
##ZVALUE=375
1.317859
1.244545
1.126528
1.292825
1.166463
1.312494
1.244545
1.270771
1.281500
1.314878
1.287460
1.332760
1.331568
1.302958
1.270771
1.187921
1.229644
1.252890
1.070499
1.289845
1.309514
1.272559
1.343489
1.393557
1.327991
1.364946
1.526475
1.229644
1.324415
1.521707
1.318455
1.463890
1.437664
1.460910
1.489520
1.521707
1.494884
1.413822
1.562834
1.496673
1.464486
1.517534
1.618862
1.533628
1.654625
1.789927
1.732707
1.767874
1.796484
1.787543
1.660585
1.758933
1.845956
2.048612
1.944900
2.047420
2.160668
2.265573
2.338886
2.262592
2.386570
2.392530
2.574921
2.800822
3.092885
3.454685
3.821850
4.325509
5.109906
15.795827
58.007836
223.298669
481.196642
998.954773
1015.605927
1015.605927
1015.605927
1015.605927
1015.605927
1015.605927
1015.605927
1015.605927
778.595805
354.627967
166.850686
45.683980
16.621947
9.503961
8.570552
8.255839
8.022785
7.733703
7.618666
7.452965
7.625818
7.977486
##ZVALUE=380
1.130700
1.178980
1.135468
1.044869
1.182556
1.084805
1.099706
1.105666
1.182556
1.203418
1.196861
1.234412
1.146793
1.256466
1.252890
1.296997
1.258850
1.188517
1.225471
1.151562
1.153946
1.352429
1.374483
1.284480
1.374483
1.275539
1.119971
1.409650
1.356602
1.323819
1.443624
1.240969
1.469851
1.464486
1.280904
1.279712
1.491904
1.546741
1.549721
1.495481
1.594424
1.357794
1.517534
1.638532
1.583695
1.590848
1.596808
1.636744
1.724958
1.697540
1.609921
1.737475
1.637936
1.876950
1.736879
1.829863
1.849532
2.035499
2.109408
2.252460
2.362728
2.163649
2.154708
2.401471
2.563000
2.634525
3.043413
3.323555
3.675818
4.159808
4.915595
8.291602
30.472875
147.591829
349.785686
836.194754
1015.606523
1015.606523
1015.606523
1015.606523
1015.606523
1015.606523
1015.606523
1015.606523
1000.248790
520.642996
264.514685
83.463788
28.588772
9.972453
8.152723
7.886887
7.566810
7.355809
7.046461
7.028580
##ZVALUE=385
1.052618
1.098514
1.086593
1.201630
1.081824
1.252890
1.086593
1.109838
1.213551
1.170635
1.067519
1.087785
1.087785
1.059771
1.057982
1.052618
1.102686
1.184940
1.111627
1.065731
1.171827
1.122952
1.030564
1.148582
1.133680
1.298785
1.169443
1.202822
1.262426
1.195669
1.331568
1.335740
1.205802
1.289845
1.440644
1.324415
1.387596
1.307726
1.421571
1.572967
1.358986
1.530647
1.536608
1.396537
1.458526
1.498461
1.374483
1.514554
1.535416
1.559854
1.578927
1.482964
1.551509
1.581907
1.521707
1.691580
1.636744
1.757741
1.734495
1.912713
1.941919
1.987815
2.233982
1.987815
2.191663
2.243519
2.618432
2.993941
3.085732
3.507733
3.989935
4.134774
4.588962
5.631447
14.896989
85.460544
224.331021
567.015409
963.176489
1015.605927
1015.605927
1015.605927
1015.605927
1015.605927
1015.605927
1015.605927
1015.605927
731.755495
419.363976
169.758797
64.400434
14.092922
8.149743
7.294416
7.077456
6.888509
##ZVALUE=390
1.014471
1.059771
1.128912
1.252890
1.332760
1.011491
1.124740
1.059771
1.105666
1.037717
1.045465
1.055598
1.028776
1.091957
1.153946
1.049638
1.035929
1.250505
1.141429
1.128912
1.086593
0.944734
1.115799
1.133680
1.135468
1.236796
1.225471
1.162887
1.345873
1.313686
1.246929
1.169443
1.214743
1.296997
1.229644
1.251698
1.363754
1.389980
1.359582
1.452565
1.362562
1.347661
1.404881
1.534820
1.369715
1.306534
1.555681
1.350641
1.425743
1.588464
1.659989
1.564622
1.527667
1.471639
1.555681
1.650453
1.767874
1.787543
1.769662
1.925826
1.866817
2.031922
1.856685
2.127886
2.055764
2.294779
2.428889
2.560616
2.870560
3.350973
3.539920
3.603697
3.786683
4.000664
4.372597
4.718900
7.945895
46.275854
148.524642
450.387597
844.215751
1015.605927
1015.605927
1015.605927
1015.605927
1015.605927
1015.605927
1015.605927
1015.605927
977.273583
590.533614
235.374570
102.802515
24.719834
10.041595
7.579923
##ZVALUE=395
1.078844
1.129508
0.974536
1.093745
1.168847
1.198649
0.993609
1.085997
1.208782
1.179576
1.041889
1.116991
0.948906
1.042485
1.078844
1.105666
1.147985
1.142621
1.157522
1.109838
1.151562
1.072884
1.066923
1.229644
1.122952
1.222491
1.236796
1.254678
1.269579
1.185536
1.287460
1.382828
1.315475
1.221895
1.182556
1.316667
1.223683
1.202822
1.320839
1.289845
1.259446
1.314878
1.379848
1.357794
1.457930
1.468658
1.452565
1.194477
1.504421
1.535416
1.467466
1.547933
1.563430
1.509786
1.676679
1.558661
1.611710
1.788735
1.818538
1.696944
1.782775
1.754761
1.909733
2.033710
2.064705
2.186894
2.398491
2.694726
2.751946
3.118515
3.282428
3.329515
3.297925
3.622770
3.405809
3.643632
3.923774
4.301667
5.180836
24.482608
92.619658
325.189829
641.964674
1015.608907
1015.608907
1015.608907
1015.608907
1015.608907
1015.608907
1015.608907
1015.608907
1015.608907
804.708600
362.920761
164.372921
47.298670
##ZVALUE=400
1.052618
1.147985
1.038909
1.144409
1.189709
1.069903
1.102686
1.094937
1.022816
1.190901
1.096725
1.130700
1.228452
1.042485
1.201630
1.111627
1.073480
1.214743
1.127720
1.328588
1.074672
1.165867
1.159906
1.232624
1.169443
1.132488
1.260638
1.239777
1.271963
1.137853
1.203418
1.321435
1.274943
1.180768
1.302958
1.307726
1.276731
1.350641
1.369715
1.385808
1.364946
1.246929
1.298785
1.376867
1.288652
1.362562
1.451969
1.352429
1.520514
1.512766
1.533628
1.654625
1.504421
1.576543
1.506805
1.608729
1.622438
1.741648
1.780987
1.762509
1.757741
1.701713
1.898408
1.923442
1.957417
2.282858
2.227426
2.617836
2.865791
3.058910
3.129840
3.135800
3.195405
3.153682
3.130436
3.116727
3.341436
3.555417
3.865957
4.259944
4.893541
12.824535
50.965548
206.213593
447.496772
963.363647
1015.609503
1015.609503
1015.609503
1015.609503
1015.609503
1015.609503
1015.609503
1015.609503
890.858769
535.946488
##END
