##TITLE=QP00302
##FORMAT=SPECTACLE-ASCII V-1.2
##DATA TYPE=ULTRAVIOLET SPECTRUM
##SECOND TYPE=ULTRAVIOLET SPECTRUM
##DATE=03/27/18
##TIME=18:00:53
##SPECTROMETER/DATA SYSTEM=SPECTACLE
##XUNITS=NM EM
##YUNITS=ENERGY
##YFACTOR=1
##FIRSTX=220
##LASTX=410
##NPOINTS=96
##3DDATA=Equidistant
##ZUNITS=NM EX
##FIRSTZ=210
##LASTZ=400
##ZPOINTS=39
##XYDATA=(Y..Y)
##ZVALUE=210
3.208518
3.295541
2.610683
3.267527
3.513694
4.192591
3.837943
3.786683
3.440976
3.490448
3.703833
3.572702
3.404617
4.202724
3.460646
4.185438
3.743768
4.525781
4.985929
5.326867
5.324483
5.324483
5.875826
5.951524
5.830526
7.593632
5.559921
6.924868
6.485581
7.467866
7.975698
7.443428
8.108616
7.176995
7.182956
8.016825
7.702708
8.643866
8.024573
10.267496
8.625984
8.536577
8.741617
8.778572
8.414984
9.913445
10.358691
9.715557
10.575652
9.612441
9.942651
10.223985
10.150671
11.022687
10.181665
9.699464
10.918975
10.760427
11.168718
10.641813
11.524558
11.974573
10.723472
11.927485
11.603832
11.764765
14.001727
15.266538
17.093420
21.897554
24.878979
29.262900
30.860901
37.039518
39.362907
37.269592
37.684441
40.465593
35.659671
36.108494
34.177899
30.259490
25.009513
22.981763
17.096996
16.418695
13.846755
13.834834
12.571812
11.496544
12.378693
10.825992
12.197495
11.908412
13.039708
12.234449
##ZVALUE=215
9.601712
9.559989
8.345842
7.051826
6.439686
6.175637
5.302429
6.277561
6.960630
7.208586
6.488562
6.453991
5.479455
4.851818
4.595518
4.610419
4.132986
4.647970
4.561543
5.542636
5.155802
5.052686
5.873442
5.805492
6.402731
5.668998
6.566644
6.306767
7.072687
6.761551
7.475615
7.113814
7.905960
7.663965
7.967949
7.284880
8.804798
9.315610
7.598996
8.254647
8.932948
8.440614
8.270741
9.792447
9.043813
9.425879
8.816719
10.470748
9.848475
9.324551
10.249615
11.068583
10.651946
10.009408
10.458827
11.021495
11.700988
11.308789
10.430813
11.482835
11.188984
11.238456
11.649728
11.673570
12.169480
10.877848
13.374686
14.355779
16.065836
18.593669
19.633770
25.303960
25.981665
28.664470
32.163858
33.100843
33.223629
30.327439
29.921532
29.252768
27.509928
24.921894
20.157695
18.518567
16.890764
13.890862
13.967752
12.198687
12.123585
11.047721
12.384653
10.462999
10.565519
11.487603
11.184812
11.531711
##ZVALUE=220
33.687949
34.289956
34.655929
35.038590
28.815866
24.721622
19.055605
14.543533
12.197495
12.830496
13.141632
13.604760
12.019873
11.515617
10.569692
9.634495
7.446408
5.693436
5.691648
5.648732
5.351901
5.347729
5.478859
7.032752
6.231666
7.310510
6.359816
7.281899
7.554889
7.829666
8.169413
7.454753
7.532835
8.134842
8.824468
9.205937
9.217858
8.639693
9.593964
9.322762
10.263920
9.508729
8.954406
9.623766
9.720922
10.537505
10.372996
10.625720
10.887980
10.764599
11.076927
11.266470
10.435581
11.624694
11.040568
12.175441
13.485551
12.256503
13.315678
14.210939
13.042688
13.743639
13.389587
13.528466
12.540817
14.134645
14.119744
15.490651
17.656684
21.055937
22.419691
27.285814
29.371977
33.296943
34.383535
35.582781
36.139488
34.724474
33.451915
29.135942
29.497743
25.674701
24.614930
20.983815
19.831657
16.255975
15.118718
14.443994
14.390945
14.547706
13.056993
14.381409
12.869835
14.583468
12.923479
11.992455
##ZVALUE=225
61.330795
66.898465
81.857443
100.183487
109.401941
102.210641
93.277693
70.988536
55.045485
39.851665
27.293563
23.763776
24.021864
24.387836
27.157664
24.660826
20.066500
17.865896
13.924837
10.985732
8.938909
6.689429
6.090999
7.170439
6.728768
7.191896
7.873774
8.564591
7.727742
7.946491
8.249879
8.955598
8.957982
9.422898
9.401441
9.404421
9.934902
9.743571
10.428429
10.693669
11.272430
11.635423
11.663437
11.396408
9.999871
11.369586
11.499524
11.151433
11.740923
12.494922
12.792945
12.224913
12.916923
13.016462
12.912750
12.303591
14.776587
13.562441
14.078617
14.583468
14.337897
13.557673
15.650988
14.268756
14.729500
16.780496
16.352534
16.714931
18.818974
19.982457
22.795796
26.751757
30.114651
30.292869
34.201741
34.037828
32.331944
31.458735
31.844974
28.382540
26.561618
23.183823
24.041533
22.022724
19.298792
20.741820
18.127561
17.747879
18.325448
15.295744
16.819835
16.337633
16.220808
15.665889
14.445782
16.283989
##ZVALUE=230
53.715706
59.910417
96.367598
154.572725
205.195546
254.778862
278.701782
264.484882
233.930945
196.118951
130.244493
89.522600
55.421591
48.388839
48.511624
49.979687
49.474835
50.117970
42.536855
36.926866
29.472709
20.504594
13.530850
9.652972
8.406639
8.568764
7.984638
8.730888
8.318424
8.951426
9.234548
9.237528
9.020567
10.038614
9.572506
11.489987
10.362864
11.197925
10.933876
12.064576
11.794567
11.608601
11.922717
11.518598
11.842847
12.280941
12.378693
12.417436
12.369752
12.533665
12.988448
13.239980
12.956858
14.428496
14.944673
14.061928
14.378428
15.648603
14.056563
15.820861
16.617775
15.756488
15.700459
17.867684
17.434955
18.630624
18.994808
20.667911
23.577809
22.963881
27.132630
29.615760
34.781694
37.185550
36.849976
35.588741
35.400987
36.082864
34.347773
33.427477
33.422709
28.058887
28.600693
26.449561
25.943518
23.005605
24.738908
24.229884
22.719502
22.682548
22.954941
21.913648
22.216439
20.844936
21.040440
20.945668
##ZVALUE=235
21.010637
23.712516
50.059557
112.204552
183.687806
291.989446
384.881496
489.691496
528.894663
528.534651
459.866524
366.598964
242.123604
170.847774
110.632777
81.136823
72.030425
75.818896
80.197453
82.065463
77.334642
64.822435
53.183436
37.137866
26.608706
18.288493
14.668703
10.665655
9.611845
10.370612
10.343790
10.191798
10.548830
9.475946
10.259748
9.963512
11.016726
11.792779
11.814833
11.357665
10.494590
11.121631
12.685657
12.110472
12.114644
12.800694
13.014674
12.848973
12.484789
13.723969
14.929771
13.863444
14.208555
14.499426
15.361905
15.283823
16.205907
16.155839
16.561747
17.008781
17.866492
17.543435
18.426776
17.543435
20.811558
20.390749
21.269917
23.330450
25.969744
28.642416
31.499863
32.724738
38.300753
38.778782
41.339993
43.411851
44.138432
39.686561
39.299726
39.356947
37.293434
35.205483
34.481883
31.457543
33.202767
32.367706
29.668808
29.265881
28.732419
27.531981
28.238893
30.542612
28.025508
25.786757
26.430488
28.373599
##ZVALUE=240
3.776550
3.861785
8.118749
32.029748
69.500804
155.639648
252.070427
425.985456
582.348704
738.603473
808.754563
800.532699
720.900893
562.325716
427.413583
301.978588
177.663565
127.840638
99.124908
97.815990
110.298991
113.025904
110.445619
105.079412
82.476735
66.189766
50.474405
31.407475
24.019480
16.374588
14.941692
10.769963
11.468530
11.620522
10.377765
10.670424
10.770559
11.746883
12.481809
11.707544
12.112856
11.579990
11.883974
12.231469
12.445450
12.116432
12.147427
13.162494
13.408661
12.353659
14.276505
13.594627
14.238954
14.856458
14.871955
15.967488
15.427470
16.192794
16.879439
16.839504
17.971992
19.813776
18.345714
20.033717
21.463633
22.484660
25.745630
25.148988
28.388500
31.117797
33.867955
36.759973
38.971901
43.460727
43.739676
45.632720
45.240521
45.553446
42.693615
41.879416
42.362809
41.897893
38.964748
37.538409
39.223433
37.811995
36.586523
35.487413
37.798882
34.662485
35.891533
36.160946
34.553409
36.850572
35.390854
34.276843
##ZVALUE=245
2.691746
2.867579
2.682805
3.262758
7.303953
21.342635
66.422820
136.394501
301.078558
457.996726
692.675710
846.143961
944.855809
980.847478
911.968946
743.523836
591.046810
385.821462
262.466669
150.305629
111.785531
101.884604
115.420818
124.380589
130.684972
126.482844
111.643672
96.818805
73.354840
54.859519
39.992929
24.761558
18.339753
12.628436
12.124777
10.088682
9.480715
11.108518
10.659695
12.346506
10.614991
10.790825
12.210608
11.277795
11.319518
10.770559
11.395812
10.896921
11.297464
12.191534
12.294650
11.909604
12.973547
12.971759
13.085604
12.299418
14.126897
13.217926
13.848543
15.282631
15.263557
16.739964
16.612411
19.529462
20.185709
18.949509
22.481680
22.098422
25.470853
29.498935
30.452609
32.004714
35.929680
40.248632
40.885806
40.080547
41.861534
41.140914
40.741563
38.188696
38.293600
40.523410
38.047433
36.076903
34.562945
34.293532
35.721660
35.741925
34.970641
36.139488
35.328865
35.189986
37.442446
34.700632
35.205483
34.628510
##ZVALUE=250
2.839565
2.440810
2.775788
2.771616
2.729893
2.959967
4.898906
14.077425
56.251884
120.767951
283.532739
459.757447
656.651855
929.387808
1015.613675
1015.613675
1015.613675
992.283821
825.461745
557.973981
375.225544
236.491561
131.293535
102.516413
105.794668
120.957494
134.395957
139.374733
135.025978
121.602416
106.408596
80.695748
60.296655
38.213730
26.231408
16.705990
12.660623
11.112690
10.436773
10.334849
10.211468
9.281635
10.607839
9.533763
10.544658
10.514855
10.169744
10.625720
10.674000
11.587739
11.373758
10.994673
11.120439
10.820627
11.696815
12.073517
13.620853
12.986660
12.453794
14.025569
13.603568
15.080571
14.746785
15.099645
15.639663
17.103553
19.076467
19.301772
22.040606
24.296641
25.501847
29.405951
31.253695
35.581589
35.273433
36.906600
35.650730
37.478805
36.720634
35.583973
35.610795
34.379959
34.163594
32.293797
33.864975
32.241940
32.534599
32.274723
32.432675
31.900406
32.321811
31.692982
32.807589
32.569766
33.746958
31.264424
##ZVALUE=255
2.661943
2.418756
2.329946
2.379417
2.505779
2.617836
3.169775
3.208518
3.486872
8.068681
46.203732
120.323896
284.369588
461.149812
750.469565
986.900926
1015.605927
1015.605927
1015.605927
1015.605927
1015.605927
793.162584
551.630855
307.615399
177.604556
103.843808
94.999671
109.170675
123.322606
138.292909
146.975517
144.797564
128.324628
102.862716
86.115599
57.228804
40.368438
24.423599
16.531944
12.902617
10.490417
9.569526
10.251999
10.579824
10.173917
11.517406
10.894537
11.009574
10.886788
10.433793
10.746717
10.651946
11.339784
11.919737
10.911822
11.442900
11.207461
12.995601
11.646748
12.742877
12.770891
13.347864
13.916492
15.138984
15.983582
16.257763
17.179847
18.040538
20.058751
22.157431
24.602413
26.698709
27.905703
29.808879
31.052828
31.703711
33.028722
32.620430
33.502579
31.924844
31.704903
30.965805
30.726790
30.608773
31.555891
29.661655
29.891729
31.102896
30.132532
31.096935
31.521916
31.458735
31.883717
30.731559
30.502677
31.298995
##ZVALUE=260
2.262592
1.935959
2.470613
2.409816
2.107620
2.510548
2.361536
2.722740
2.842546
2.979636
2.999902
5.025864
15.841722
70.692897
155.944824
356.114507
578.028560
929.848552
1015.623808
1015.623808
1015.623808
1015.623808
1015.623808
1015.623808
725.685954
490.605831
277.033448
164.635777
95.009804
88.619590
103.673935
129.032731
144.327879
154.684782
147.258639
131.170750
111.652613
84.158778
62.747002
40.604472
26.525855
16.894937
12.672544
10.337830
9.429455
9.873509
9.857416
9.713769
9.886622
10.278821
9.828806
10.247827
10.099411
10.949969
10.049939
10.414720
11.320710
10.905862
11.209846
11.692643
11.746883
12.169480
12.394786
13.009906
13.504624
14.524460
15.710592
16.036630
17.415881
20.019412
19.699931
22.157431
24.261475
26.342869
26.313663
27.985573
27.957559
28.067827
27.143955
27.527809
28.137565
27.113557
27.574897
27.520657
26.368499
26.230812
27.424693
28.851628
27.499795
28.134584
28.846860
29.511452
28.375983
28.751493
29.029846
28.722882
##ZVALUE=265
2.212524
2.004504
1.968741
2.103448
2.224445
2.136827
2.334714
2.230406
2.257824
2.509952
2.543926
2.792478
3.113747
3.685951
9.047985
49.148798
119.465590
279.583931
481.706858
856.975913
1015.589833
1015.589833
1015.589833
1015.589833
1015.589833
1015.589833
957.069993
677.213669
378.749967
221.118927
129.277706
79.760551
84.436536
112.468600
131.300688
149.196982
157.127976
149.604678
133.659840
107.589960
86.594820
58.872700
39.906502
25.840998
16.989708
11.914968
10.725856
9.527802
9.950995
9.187460
10.160804
9.739995
9.902716
11.529922
10.331869
10.537505
10.579824
10.579824
10.514855
11.910796
11.733770
11.170506
12.262464
12.138486
12.819767
13.938546
14.265776
14.746785
16.476512
17.932653
19.393563
21.212697
21.534562
23.219585
24.469495
25.145411
23.824573
26.352406
24.921894
25.208592
24.702549
24.861693
26.126504
25.746822
25.368929
26.092529
25.424957
25.789738
26.705861
26.928782
26.216507
26.926994
25.849938
27.622581
27.659535
27.395487
##ZVALUE=270
1.823902
1.945496
1.891851
2.037883
2.004504
2.287626
2.026558
2.175570
2.213717
2.361536
2.564788
2.501607
2.839565
2.890825
3.003478
3.304482
3.938675
19.300580
58.746934
187.311769
369.439721
630.681515
1012.493968
1015.605927
1015.605927
1015.605927
1015.605927
1015.605927
1015.605927
919.776559
630.504489
324.298739
178.978443
83.975792
69.113970
88.769794
109.197497
135.184526
150.267482
159.071684
153.864622
136.015415
114.350915
86.748600
62.661767
38.625598
27.324557
17.458797
13.188720
10.870695
9.773970
9.792447
10.119677
10.085702
10.787845
10.130405
10.434985
10.787845
12.007952
11.194944
11.516809
12.118816
11.488795
12.257695
12.436509
13.207793
13.581514
15.376806
15.053749
18.019676
18.740892
19.483566
21.136999
22.096634
23.324490
24.040937
23.623705
23.792982
23.266673
24.446845
22.621751
23.728609
24.019480
23.665428
24.226904
24.564862
24.354458
23.992658
25.012493
24.598837
25.926828
26.268959
24.119616
25.962591
25.597811
25.560856
##ZVALUE=275
1.822710
1.780987
1.930594
1.938939
2.172589
1.725554
1.959801
1.933575
2.190471
2.361536
2.073646
2.324581
2.130866
2.274513
2.239943
2.798438
2.713799
2.892613
3.229976
9.139776
34.008622
95.148683
273.001790
505.270958
922.333002
1015.615463
1015.615463
1015.615463
1015.615463
1015.615463
1015.615463
1015.615463
826.672912
433.855653
246.217847
100.784898
60.987473
63.264966
82.514882
112.106800
130.578876
149.725676
156.247616
149.642825
138.731003
109.155774
88.082552
63.434839
44.909716
26.783943
18.737912
13.296604
11.164546
10.020733
10.607839
10.387897
10.325909
11.338592
11.058450
10.964870
11.975765
11.965632
11.788607
13.060570
12.580752
13.263822
14.115572
14.552474
14.786720
16.809702
17.459989
19.208789
19.957423
20.425916
22.047758
22.556782
23.467541
22.859573
22.395849
23.495555
22.409558
23.011565
22.730827
22.178888
22.865534
23.513436
22.805929
23.944974
23.529530
23.479462
23.065805
24.056435
23.818612
23.878813
24.791956
23.935437
##ZVALUE=280
1.705885
1.709461
1.817942
1.635551
1.755953
1.849532
1.752973
1.930594
1.951456
1.768470
1.947880
2.131462
2.111793
2.166629
2.282858
2.139807
2.420545
2.652407
2.656579
3.023744
3.160834
5.236864
19.295812
85.465908
203.112960
454.051495
721.517801
1015.605927
1015.605927
1015.605927
1015.605927
1015.605927
1015.605927
1015.605927
972.228646
564.834476
329.946876
141.024590
73.434711
48.046708
58.632493
85.088611
106.223822
132.402778
147.784948
154.355764
146.804452
129.940510
111.435652
83.625913
63.602924
41.882992
29.334426
18.515587
13.955832
11.304617
10.328889
10.847449
10.588765
11.158586
11.190772
11.971593
11.955500
12.804866
13.537407
13.467669
14.488697
14.943480
15.725493
16.684532
17.866492
19.296408
19.552708
20.626783
21.572709
22.569895
22.262931
22.367835
22.332668
22.206903
22.246838
22.699833
21.717548
22.172928
22.879839
22.494793
22.077560
22.227764
23.418665
22.680759
21.973848
22.669435
22.416711
23.058653
23.854971
23.146868
##ZVALUE=285
1.537800
1.691580
1.432896
1.635551
1.526475
1.679659
1.884699
1.722574
1.703501
1.686811
1.776814
1.834631
1.781583
1.806617
2.030730
2.092719
2.152920
2.143979
2.366900
2.365708
2.619624
2.807975
3.322959
3.661513
11.537671
40.078759
133.961439
267.585516
556.601882
871.261954
1015.592813
1015.592813
1015.592813
1015.592813
1015.592813
1015.592813
1015.592813
770.857930
481.182933
223.794580
113.197565
47.017932
39.689541
55.909753
76.808929
106.404424
123.659968
142.395496
148.826838
145.456791
132.376552
112.120509
89.570880
63.017607
43.887496
28.174520
20.063519
14.806986
12.439489
11.699796
12.029409
13.019443
12.481809
13.190508
13.144612
13.780594
14.585853
14.729500
16.527772
16.125441
17.716885
19.281507
19.515753
20.929575
20.670891
21.708608
21.621585
22.607446
21.987557
22.671819
21.740794
22.571683
22.011995
22.313595
22.348762
21.857619
22.069812
21.597743
23.019910
22.717714
22.158623
21.863580
22.395849
22.345781
22.602677
22.240877
##ZVALUE=290
1.675487
1.622438
1.631975
1.560450
1.540780
1.591444
1.750588
1.630783
1.738667
1.680851
1.722574
1.752973
1.922846
1.844764
1.852512
1.903772
2.036691
2.068877
1.975894
2.276897
2.231598
2.695918
2.714992
2.909899
3.425479
3.898740
4.708767
24.081469
78.851581
250.643492
462.520719
888.710022
1015.605927
1015.605927
1015.605927
1015.605927
1015.605927
1015.605927
1015.605927
961.894989
636.289716
314.165950
159.288645
58.946609
33.062696
37.331581
51.839948
76.334476
96.490979
121.665597
135.514736
143.357515
144.862533
129.888654
109.488964
83.157420
64.126849
42.914748
31.017661
20.407438
16.294718
13.681650
13.237000
13.281703
13.535619
14.112592
14.654994
15.965700
16.397834
17.736554
18.651485
19.817948
20.484924
21.059513
21.391511
21.618605
20.661950
21.517873
21.513700
21.749735
21.943450
22.309422
22.311807
22.066832
22.222996
22.593737
22.648573
22.590756
23.086667
22.028685
22.274852
22.057891
21.603703
21.440983
21.509528
21.860600
##ZVALUE=295
1.388788
1.495481
1.398921
1.309514
1.478791
1.587868
1.486540
1.486540
1.599789
1.607537
1.744628
1.650453
1.760721
1.675487
1.668930
1.807809
1.788735
2.173781
2.038479
2.025962
2.067685
2.222657
2.586842
2.426505
2.540946
2.813935
3.237724
3.395677
3.926754
7.200837
28.485656
124.521852
293.399692
707.947612
1015.551686
1015.551686
1015.551686
1015.551686
1015.551686
1015.551686
1015.551686
1015.551686
799.987912
414.924622
224.291682
80.749989
38.866997
25.768876
32.083988
50.028563
67.719817
93.535781
110.957623
131.702423
138.509870
134.935975
125.043988
103.153586
84.643960
61.077476
44.466853
30.373931
22.935867
16.215444
14.991760
14.436841
14.561415
15.074611
16.532540
16.929507
17.823577
19.825697
19.521713
20.511746
21.486878
21.623969
21.398664
21.802783
21.856427
22.303462
22.381544
21.709800
22.223592
22.574663
21.956563
22.198558
22.153854
22.093654
22.650957
22.532940
22.302866
22.148490
22.509694
21.493435
21.648407
21.357536
##ZVALUE=300
1.201630
1.388788
1.234412
1.393557
1.487732
1.400709
1.573563
1.505613
1.527667
1.698732
1.539588
1.626611
1.528859
1.569986
1.669526
1.725554
1.840591
1.824498
1.799464
1.898408
1.813769
1.978874
2.119541
2.331734
2.271533
2.399683
2.820492
2.732873
3.154874
3.340840
3.648996
4.396439
12.287498
69.173574
169.757605
440.656543
764.532685
1015.606523
1015.606523
1015.606523
1015.606523
1015.606523
1015.606523
1015.606523
992.758870
558.049679
325.393677
141.346455
64.576864
24.815798
21.984577
30.652881
42.310953
63.160658
82.709789
107.243657
121.991634
132.076740
131.585002
119.316578
106.033683
81.005692
63.613653
44.774413
34.204721
23.139715
19.196868
16.518831
16.426444
17.090440
17.465949
18.952489
19.931793
20.448565
20.946860
21.002889
21.553636
21.896958
21.933913
22.121668
22.069812
22.169948
22.350550
22.690892
22.412539
22.916794
22.971630
22.844672
22.666454
22.727847
22.170544
22.269487
21.868944
22.327900
22.808909
21.791458
##ZVALUE=305
1.509786
1.360774
1.304746
1.386404
1.430511
1.425743
1.599789
1.425743
1.608729
1.472831
1.560450
1.423955
1.421571
1.487732
1.355410
1.710653
1.625419
1.789927
1.580715
1.914501
1.915693
1.913905
1.904964
2.091527
2.110600
2.088547
2.303720
2.451539
2.476573
2.746582
2.878904
3.113747
3.325939
3.763437
6.412864
38.394928
109.056830
307.654738
563.735962
991.374850
1015.605927
1015.605927
1015.605927
1015.605927
1015.605927
1015.605927
1015.605927
785.550475
487.795472
218.119621
105.538964
34.343600
18.591881
20.169616
27.912855
44.085979
60.789585
82.668662
100.587606
117.436647
125.887990
125.174522
117.596984
99.371672
82.812905
61.650872
46.355724
32.453537
25.584698
21.157861
19.600987
19.508600
19.768476
20.718575
20.713806
21.406412
21.184683
21.658540
22.234917
22.117496
23.281574
22.357702
23.122430
23.572445
23.407936
22.916794
23.381710
23.577809
22.841692
23.522973
22.946596
22.377968
22.527575
22.655725
21.919608
22.216439
##ZVALUE=310
1.310706
1.387596
1.412630
1.399517
1.390576
1.479983
1.469851
1.517534
1.485944
1.341701
1.318455
1.455545
1.459718
1.570582
1.470447
1.590848
1.584888
1.719594
1.684427
1.627803
1.551509
1.835823
1.670718
1.847744
1.881719
1.941919
2.112985
2.094507
2.099872
2.197623
2.522469
2.658963
2.606511
2.621412
3.121495
3.402829
4.196763
17.411709
57.251453
191.486478
381.773710
791.757703
1015.616655
1015.616655
1015.616655
1015.616655
1015.616655
1015.616655
1015.616655
1015.616655
721.702576
357.365608
188.537836
66.967607
27.193427
15.897751
18.598437
27.024746
36.858916
56.351423
72.726607
94.821453
109.753609
120.327473
122.044683
113.113523
99.980831
80.926418
66.089630
46.826601
36.787987
28.744936
24.537444
22.032857
21.663904
21.572709
21.806955
21.561980
22.299886
22.294521
22.175908
22.946596
23.075938
23.750663
23.203492
23.702979
23.773909
23.952723
24.295449
23.631454
23.334622
22.774935
22.544861
23.166537
23.539662
22.807717
##ZVALUE=315
1.242757
1.376867
1.352429
1.321435
1.537800
1.377463
1.180768
1.364946
1.298785
1.365542
1.345873
1.423955
1.443624
1.354814
1.501441
1.539588
1.535416
1.536608
1.638532
1.588464
1.725554
1.758933
1.761913
1.652837
1.782775
1.851916
1.796484
2.191663
2.093911
1.874566
2.108812
2.398491
2.299547
2.569556
2.684593
2.764463
3.094673
3.500581
3.622770
8.207560
29.915571
122.959018
271.774530
619.230866
971.180797
1015.605927
1015.605927
1015.605927
1015.605927
1015.605927
1015.605927
1015.605927
953.171849
488.571525
256.798863
90.330839
35.456419
15.220642
14.277697
18.250942
24.910569
38.063526
51.381588
70.104003
86.985826
104.571581
113.615990
115.848780
109.377503
95.149875
81.743598
62.917471
50.223470
37.015676
29.973984
24.901628
23.328662
22.683740
22.582412
23.029447
23.001432
22.929907
23.426414
23.794770
23.636818
23.901463
24.181604
24.697781
24.226904
24.263859
24.249554
23.768544
23.264885
23.062825
22.519827
23.014545
##ZVALUE=320
1.181960
1.269579
1.299977
1.379848
1.423955
1.389980
1.350641
1.376867
1.241565
1.483560
1.367927
1.388788
1.375675
1.320839
1.365542
1.429915
1.451969
1.553893
1.521707
1.364946
1.458526
1.663566
1.551509
1.754761
1.594424
1.845956
1.683831
1.782775
1.745820
1.870990
1.923442
1.874566
1.940727
2.247691
2.345443
2.359748
2.575517
2.907515
2.807975
3.333688
3.565550
4.804730
14.207959
76.625943
188.412666
479.222536
794.410706
1015.606523
1015.606523
1015.606523
1015.606523
1015.606523
1015.606523
1015.606523
1015.606523
730.551481
389.706492
143.848658
62.417984
20.670891
13.762712
14.695525
17.462969
24.190545
33.592582
50.333738
65.749884
84.939003
99.179745
110.972524
112.863779
106.903911
98.465681
80.016851
65.775514
48.037767
39.506555
31.009912
26.506782
24.038553
23.614764
23.717880
23.522973
23.206472
24.030805
24.529696
24.532676
24.362803
24.534464
24.227500
24.014711
23.753643
24.410486
23.710728
23.688674
23.059845
##ZVALUE=325
1.262426
1.251698
1.254678
1.181960
1.448989
1.205802
1.155734
1.279712
1.143813
1.136661
1.344681
1.419783
1.248717
1.236796
1.282692
1.483560
1.456738
1.517534
1.537800
1.572967
1.311898
1.350641
1.474619
1.574755
1.502633
1.681447
1.640916
1.779795
1.751781
1.647472
1.757741
1.838803
1.817942
1.879930
2.088547
1.995564
2.183914
2.224445
2.341866
2.642870
2.877712
3.188848
3.414750
3.750920
7.627606
46.808720
122.474432
322.245955
582.133532
1015.523672
1015.605927
1015.605927
1015.605927
1015.605927
1015.605927
1015.605927
1015.605927
952.281952
574.496388
240.165591
107.300878
31.136870
15.737414
13.214946
14.550686
18.680692
23.445487
34.650564
46.683550
66.488981
82.198977
96.963644
106.224418
108.041763
102.182627
89.031458
77.371597
60.734749
48.608780
36.307573
30.060410
25.943518
24.217963
23.593903
23.764968
23.652911
24.254918
23.536682
23.742914
23.558736
23.851991
23.329854
23.403764
23.088455
22.681952
22.956729
##ZVALUE=330
1.026988
1.250505
1.072884
1.232624
1.256466
1.166463
1.238585
1.206994
1.196861
1.365542
1.271963
1.503825
1.505613
1.410842
1.280904
1.378655
1.304746
1.371503
1.380444
1.570582
1.459718
1.426935
1.422763
1.546741
1.518726
1.499653
1.539588
1.698732
1.781583
1.640916
1.542568
1.765490
1.758933
1.767874
1.752973
1.756549
2.031922
2.019405
2.257824
2.270937
2.357960
2.441406
2.681613
3.027916
3.254414
3.683567
4.628897
19.835830
65.198541
222.838521
435.383916
888.585448
1015.605927
1015.605927
1015.605927
1015.605927
1015.605927
1015.605927
1015.605927
976.997018
644.639730
303.286910
153.299570
51.365495
21.388531
13.208985
13.520718
15.726686
18.462539
25.198460
33.111572
47.995448
61.844587
80.875754
92.461705
101.241469
102.970004
97.272992
88.256598
71.567893
59.155822
44.952631
37.329793
30.049682
27.279854
25.323629
23.819804
23.212433
23.868680
23.134947
23.371577
22.835732
22.898912
22.855997
22.577643
22.410750
##ZVALUE=335
1.247525
1.080632
1.176596
0.994802
1.367927
1.272559
1.095533
1.156926
1.164675
1.297593
1.257658
1.115799
1.169443
1.203418
1.158714
1.334548
1.292825
1.268983
1.255870
1.321435
1.340508
1.468658
1.248717
1.333952
1.546741
1.590848
1.315475
1.439452
1.445413
1.451969
1.561642
1.377463
1.579523
1.621842
1.811981
1.831651
1.921654
1.852512
2.136827
2.237558
2.240539
2.064705
2.076626
2.638698
2.617836
3.005862
3.174543
3.345609
3.649592
9.464622
32.236576
133.756399
288.110971
656.195879
1002.391577
1015.605927
1015.605927
1015.605927
1015.605927
1015.605927
1015.605927
1015.605927
883.335471
460.497737
239.876509
80.356598
31.899810
14.909506
13.955832
14.420748
15.941858
19.019842
24.236441
35.291910
44.854879
61.498880
73.797703
88.030696
95.431805
97.058415
92.198849
80.614686
70.436597
58.184862
48.370957
37.183762
31.409860
26.403666
24.507642
22.978783
22.248626
22.305846
21.889806
22.076964
22.067428
21.998882
##ZVALUE=340
1.238585
1.061559
1.143813
1.166463
1.152754
1.070499
1.085997
1.159906
1.228452
1.220703
1.276731
1.204610
1.158714
1.289845
1.267791
1.405478
1.288652
1.270771
1.270771
1.142621
1.308918
1.290441
1.394749
1.249909
1.507998
1.434684
1.593828
1.429915
1.536608
1.594424
1.454949
1.684427
1.618862
1.557469
1.509786
1.855493
1.701713
1.835823
1.798868
1.896620
1.933575
2.000928
2.147555
2.338886
2.235770
2.342463
2.505779
2.734661
2.959967
3.151894
3.653765
5.173683
17.520785
87.555647
216.211677
544.434786
917.657614
1015.654802
1015.654802
1015.654802
1015.654802
1015.654802
1015.654802
1015.654802
980.544090
516.203642
282.236934
111.491680
43.510795
16.399622
14.399886
14.356971
14.946461
16.708970
18.846989
25.013685
32.554865
44.881701
56.678653
73.512793
83.450675
91.187954
91.944933
87.576509
80.795884
67.781806
56.746602
45.423508
37.029982
29.977560
25.976896
22.745728
22.345781
21.138787
21.282434
20.860434
##ZVALUE=345
1.134872
1.136661
1.032948
1.118779
1.134872
1.153946
1.319647
1.112819
1.083612
1.239777
1.120567
1.048446
1.219511
0.999570
1.292825
1.163483
1.165867
1.192689
1.167655
1.287460
1.170635
1.229644
1.340508
1.196861
1.413822
1.419783
1.243949
1.341701
1.469851
1.423955
1.536608
1.355410
1.594424
1.383424
1.634955
1.449585
1.492500
1.621842
1.800656
1.524687
1.713634
1.698732
1.846552
1.858473
1.807809
2.231598
2.077818
2.280474
2.511740
2.589822
2.728701
2.940893
3.287792
3.702641
7.957816
51.885843
144.276619
376.741886
667.787790
1015.605927
1015.605927
1015.605927
1015.605927
1015.605927
1015.605927
1015.605927
1015.605927
704.250932
388.908982
146.743655
63.701868
22.147894
15.243888
14.481544
14.693737
15.062690
15.618801
18.911958
22.471547
32.220483
41.435957
55.744648
65.522790
76.408982
83.029866
85.249543
82.899928
75.194836
66.110492
54.651499
44.802427
34.986734
28.990507
24.323463
22.077560
20.461679
##ZVALUE=350
1.106858
1.038909
1.247525
0.836849
0.986457
1.118779
1.228452
1.070499
1.075864
1.082420
1.143813
1.052618
1.151562
1.076460
1.139641
1.026988
1.098514
0.967979
1.119971
1.089573
1.221895
1.178980
1.110435
1.099706
1.168847
1.270771
1.092553
1.375675
1.365542
1.288652
1.339912
1.363754
1.377463
1.402497
1.380444
1.432896
1.440644
1.565814
1.577735
1.519918
1.739860
1.603961
1.827478
1.759529
1.737475
2.091527
2.154708
1.978874
2.172589
2.229810
2.355576
2.559423
2.691746
2.908707
3.166795
3.494620
4.940629
27.884841
92.929006
290.159583
540.655851
990.054607
1015.557647
1015.557647
1015.557647
1015.557647
1015.557647
1015.557647
1015.557647
814.570785
493.935943
220.655799
99.445581
28.985739
15.935898
13.734698
13.302565
13.202429
14.010668
15.172958
17.519593
22.616982
28.591752
37.854910
46.832561
60.015917
68.889856
76.144934
78.414679
76.520443
71.256757
61.187744
51.558614
40.614605
33.897758
27.337670
##ZVALUE=355
1.180768
1.124740
1.019835
1.136661
1.155734
1.152754
1.080632
1.185536
1.257658
1.257658
1.149774
1.274943
1.269579
1.293421
1.266599
1.282692
1.315475
1.159906
1.155734
1.239777
1.282692
1.386404
1.431704
1.421571
1.437664
1.443624
1.444817
1.301765
1.439452
1.336932
1.407862
1.375675
1.343489
1.372695
1.453757
1.556873
1.526475
1.514554
1.780987
1.589656
1.545548
1.651645
1.616478
1.663566
1.835823
1.721978
1.881719
1.912713
1.935959
2.181530
2.227426
2.283454
2.302527
2.587438
2.709627
2.968907
3.118515
3.474951
3.992915
13.740659
51.165819
200.710893
407.724977
845.423937
1015.605927
1015.605927
1015.605927
1015.605927
1015.605927
1015.605927
1015.605927
965.718031
603.695512
261.408687
125.593543
42.414665
18.542409
13.225675
12.859702
13.272762
13.356805
13.938546
14.552474
16.820431
19.608736
25.872588
31.723976
42.735934
50.560832
61.316490
66.908598
71.177483
70.153475
64.219832
58.505535
48.432946
##ZVALUE=360
1.125932
1.179576
1.200438
1.251698
1.244545
1.192689
1.176596
1.087785
1.234412
1.345873
1.240969
1.224875
1.315475
1.316667
1.369715
1.328588
1.492500
1.290441
1.231432
1.206994
1.383424
1.095533
1.361966
1.317859
1.407862
1.369715
1.390576
1.336932
1.376867
1.356602
1.480579
1.545548
1.540780
1.583695
1.382828
1.632571
1.723766
1.587868
1.421571
1.662970
1.632571
1.757741
1.752973
1.922846
1.938939
1.949668
1.943707
1.970530
2.141595
2.099872
2.155900
2.236962
2.261996
2.536774
2.496839
2.889633
2.821684
3.395677
3.400445
3.817677
4.130602
6.863475
24.010539
112.560987
273.127556
671.219826
1015.605927
1015.605927
1015.605927
1015.605927
1015.605927
1015.605927
1015.605927
1015.605927
835.911036
391.728878
200.831890
71.045756
28.281808
13.438463
12.782812
12.162924
12.526512
12.613535
13.101697
13.610721
14.525652
17.619729
21.015406
27.975440
35.097599
45.616627
52.505732
60.117841
63.902736
64.658523
##ZVALUE=365
1.015663
1.158714
1.222491
1.248717
1.145601
1.154542
1.256466
1.219511
1.286864
1.179576
1.145601
1.220703
1.446605
1.239777
1.306534
1.202822
1.134872
1.270771
1.316667
1.397729
1.296997
1.206994
1.363754
1.432896
1.454949
1.431704
1.401901
1.414418
1.473427
1.370907
1.390576
1.429915
1.314878
1.503825
1.534820
1.490712
1.578927
1.557469
1.630783
1.631975
1.628995
1.672506
1.749992
1.824498
1.884699
1.852512
2.020597
2.010465
1.978874
2.018809
1.984835
2.186894
2.208948
2.286434
2.350807
2.576709
2.724528
2.914667
3.050566
3.153682
3.586411
3.678799
4.112720
5.044937
9.260774
51.322579
148.399472
417.110920
767.142773
1015.602946
1015.602946
1015.602946
1015.602946
1015.602946
1015.602946
1015.602946
1015.602946
614.782572
319.845676
113.270879
44.949651
15.069842
12.124777
11.785626
11.694431
11.947751
11.733770
11.713505
12.021661
13.135672
14.967918
19.330978
23.662448
30.713677
38.023591
47.048926
##ZVALUE=370
1.216531
1.291633
1.216531
1.219511
1.316667
1.254678
1.149774
1.052618
1.164675
1.174808
1.312494
1.203418
1.189709
1.232624
1.151562
1.255870
1.278520
1.268983
1.289845
1.249909
1.332760
1.369715
1.353621
1.364946
1.484752
1.429915
1.452565
1.458526
1.355410
1.308918
1.319647
1.439452
1.428723
1.302958
1.246929
1.473427
1.521707
1.465678
1.552701
1.600981
1.492500
1.598597
1.642704
1.662970
1.676679
1.985431
1.666546
1.822710
1.615882
1.823902
1.915693
2.037883
1.967549
1.987815
2.091527
2.150536
2.298951
2.193451
2.331734
2.502799
2.746582
2.918839
3.039837
3.284812
3.494620
4.153848
5.950928
28.317571
95.537901
319.404602
588.570833
1015.601754
1015.601754
1015.601754
1015.601754
1015.601754
1015.601754
1015.601754
1015.601754
838.043094
458.570719
171.329975
73.210597
22.912621
12.731552
11.155605
10.623932
10.845661
10.748506
10.664463
10.802746
10.860562
11.628866
13.940930
17.041564
21.471977
##ZVALUE=375
1.367927
1.337528
1.374483
1.303554
1.374483
1.421571
1.380444
1.427531
1.492500
1.378655
1.454949
1.358986
1.357794
1.514554
1.347661
1.291633
1.430511
1.527667
1.499653
1.516938
1.489520
1.484752
1.457930
1.529455
1.347661
1.492500
1.502633
1.602769
1.517534
1.462698
1.682639
1.624823
1.719594
1.565814
1.683831
1.609921
1.571774
1.633763
1.609921
1.607537
1.768470
1.663566
1.752973
1.710653
1.680851
1.757741
1.740456
1.810789
1.837611
1.757741
1.805425
1.927614
1.942515
1.902580
1.872778
2.109408
1.992583
2.248883
2.225637
2.375841
2.449751
2.577901
2.573729
2.818704
2.958775
3.196597
3.418922
4.046559
4.790425
14.463663
52.333474
188.480616
394.283533
848.785639
1015.855670
1015.855670
1015.855670
1015.855670
1015.855670
1015.855670
1015.855670
992.881656
651.277900
301.763415
147.482753
43.506622
16.860962
10.620952
9.918809
9.849668
9.961724
9.843707
9.960532
9.833574
10.283589
11.321902
##ZVALUE=380
1.128912
0.965595
1.164675
0.999570
0.995994
1.131892
1.233816
0.955462
1.144409
0.993609
1.102686
1.111627
1.189709
1.073480
1.122952
0.886917
1.090765
1.059771
1.113415
1.136661
1.319647
1.053810
0.940561
1.229644
1.053810
1.164675
1.176000
1.212955
1.284480
1.159906
1.199841
1.209974
1.302958
1.190901
1.198649
1.416802
1.139641
1.271963
1.402497
1.295805
1.479983
1.213551
1.292825
1.214743
1.408458
1.411438
1.533628
1.461506
1.568794
1.427531
1.500845
1.659989
1.599789
1.598597
1.583695
1.632571
1.677871
1.688600
1.758933
1.866817
1.930594
1.944900
2.214909
2.210736
2.394915
2.449751
2.515912
2.946854
3.289580
3.809929
4.117489
7.062554
26.976466
137.642026
320.335627
738.040805
1015.605927
1015.605927
1015.605927
1015.605927
1015.605927
1015.605927
1015.605927
1015.605927
854.134560
412.922502
209.001899
68.533421
25.509000
10.872483
9.273887
9.274483
8.959770
8.685589
9.195805
9.247661
##ZVALUE=385
1.032948
1.036525
1.022816
1.092553
1.043677
1.230836
1.045465
1.088977
1.079440
0.945926
1.069903
1.221895
1.173615
1.043677
1.039505
1.036525
1.057982
1.156926
1.177788
1.179576
1.062751
1.174808
1.117587
1.124740
1.051426
1.006722
1.131892
1.387596
1.217723
1.148582
1.156926
1.183748
1.235604
1.250505
1.218915
1.129508
1.186728
1.286864
1.150966
1.346469
1.249909
1.347661
1.336932
1.456738
1.428723
1.407862
1.427531
1.388788
1.395941
1.475811
1.601577
1.608729
1.452565
1.466870
1.593828
1.444817
1.552701
1.811981
1.640916
1.850724
1.850724
1.974702
1.929998
2.133846
2.100468
2.171993
2.238750
2.664924
2.893806
3.034472
3.583431
3.767610
4.183650
5.000830
11.897683
68.944693
184.140801
476.004481
850.197673
1015.654802
1015.654802
1015.654802
1015.654802
1015.654802
1015.654802
1015.654802
1015.654802
599.424839
327.650905
125.757456
47.137737
13.157725
9.150505
8.744597
8.624792
8.739829
##ZVALUE=390
1.013875
1.028776
0.949502
1.019835
0.939965
1.005530
0.925660
1.027584
1.032948
1.020432
0.981688
0.896454
0.902414
0.973940
1.067519
0.954866
1.078844
1.030564
0.986457
0.976920
1.166463
1.183748
1.176000
0.943542
1.028776
1.058578
1.002550
0.985861
1.025796
1.148582
1.120567
1.063943
1.215935
1.152754
1.173615
1.264811
1.171827
1.273751
1.184940
1.207590
1.201630
1.176000
1.325607
1.287460
1.213551
1.442432
1.382828
1.320839
1.264811
1.351833
1.315475
1.291633
1.412630
1.404881
1.493692
1.570582
1.532435
1.642704
1.567602
1.480579
1.673698
1.729727
1.832843
1.740456
1.768470
2.110600
2.294779
2.413988
2.687573
2.913475
3.087521
3.287792
3.419518
3.513694
3.590584
4.072785
6.846786
39.547682
119.696856
365.898609
690.235496
1015.605927
1015.605927
1015.605927
1015.605927
1015.605927
1015.605927
1015.605927
1015.605927
812.055469
455.549955
176.699758
80.079436
23.111701
10.447502
8.094907
##ZVALUE=395
0.989437
1.176596
1.080632
1.048446
1.008511
1.059771
1.124740
1.096725
0.921488
0.981688
1.096725
0.915527
1.051426
1.094937
1.069903
1.142621
1.163483
1.122952
1.092553
1.192689
1.092553
1.090765
1.135468
1.102686
1.185536
1.116991
1.038909
1.147985
1.191497
1.121759
1.212955
1.380444
1.126528
1.089573
1.168847
1.150966
1.263618
1.319647
1.221895
1.235604
1.383424
1.317859
1.170635
1.260638
1.265407
1.378655
1.305938
1.423955
1.363754
1.443624
1.457930
1.561642
1.455545
1.368523
1.388788
1.451969
1.535416
1.734495
1.604557
1.691580
1.693964
1.733899
1.759529
1.952648
1.768470
2.018809
2.191663
2.445579
2.447963
2.676845
2.753735
2.898574
2.909899
3.034472
3.059506
3.107786
3.365874
3.743768
4.620552
24.963617
91.309547
297.734737
544.563532
974.721909
1015.681028
1015.681028
1015.681028
1015.681028
1015.681028
1015.681028
1015.681028
969.954729
602.972507
250.471830
112.802982
33.730865
##ZVALUE=400
0.798702
0.835657
0.797510
0.766516
0.733733
0.927448
0.744462
0.918508
0.707507
0.822544
0.785589
0.776649
0.803471
0.954866
0.946522
0.936985
0.905991
0.753999
1.011491
0.789762
0.952482
0.777841
0.912547
0.793934
0.831485
0.822544
0.811815
0.939965
0.933409
1.136661
1.165867
0.858903
0.915527
1.127720
0.960827
0.997782
0.948906
1.051426
1.047850
0.943542
0.879765
1.021624
1.121759
1.101494
1.100898
1.098514
1.160502
1.015663
1.215935
1.078844
1.081824
1.189709
1.262426
1.346469
1.226664
1.161695
1.314878
1.196861
1.284480
1.398921
1.350641
1.385808
1.422763
1.553893
1.569986
1.494884
1.622438
2.105832
2.127886
2.154708
2.549887
2.457500
2.563596
2.463460
2.359748
2.435446
2.612472
2.594590
2.799630
3.320575
3.680587
9.896755
37.391782
147.017837
326.616764
740.882754
1015.439630
1015.439630
1015.439630
1015.439630
1015.439630
1015.439630
1015.439630
1015.439630
785.946846
389.891863
##END
