##TITLE=QP00301
##FORMAT=SPECTACLE-ASCII V-1.2
##DATA TYPE=ULTRAVIOLET SPECTRUM
##SECOND TYPE=ULTRAVIOLET SPECTRUM
##DATE=03/27/18
##TIME=17:57:49
##SPECTROMETER/DATA SYSTEM=SPECTACLE
##XUNITS=NM EM
##YUNITS=ENERGY
##YFACTOR=1
##FIRSTX=220
##LASTX=410
##NPOINTS=96
##3DDATA=Equidistant
##ZUNITS=NM EX
##FIRSTZ=210
##LASTZ=400
##ZPOINTS=39
##XYDATA=(Y..Y)
##ZVALUE=210
3.211498
3.690720
3.018975
3.052950
3.294945
3.654957
3.565550
4.061460
3.602505
3.536940
3.203750
3.675818
3.631711
3.457665
3.862977
3.323555
4.145503
4.112720
4.322529
4.829764
4.217625
5.195737
5.497932
5.475879
5.676746
5.167723
5.643964
5.826950
5.136728
6.034970
6.649494
6.594658
6.645918
6.590486
6.643534
6.999969
7.020831
6.228685
8.851886
7.123947
7.195473
7.182956
6.872416
7.382631
7.070899
8.034706
7.706881
8.617640
7.646680
8.127689
7.712841
8.690953
8.788705
9.566545
8.059740
8.865595
9.315610
8.707643
9.207726
8.666515
9.809732
8.539557
9.706616
9.595752
9.638667
9.269714
10.229945
11.584759
13.028979
16.871691
17.514825
20.634532
22.452474
25.401711
27.764440
28.923750
28.774738
29.135942
26.871562
26.595592
23.692846
22.500753
18.900633
16.666651
13.261437
12.384653
12.636781
10.050535
9.335876
9.900928
8.894801
9.479523
9.062886
10.366440
9.978414
10.205507
##ZVALUE=215
9.823442
9.498000
8.143783
6.331801
6.290674
5.268455
5.754828
5.201697
6.013513
5.839467
6.022453
6.050467
5.051494
5.171895
4.344583
4.295707
4.376769
4.399419
4.279613
4.815459
4.582405
4.916787
4.746914
5.896688
6.797910
6.487966
6.894469
6.060600
6.589890
6.435513
7.244945
7.299781
7.020831
7.027984
6.206632
7.628798
7.693768
8.247495
7.524490
7.467866
7.258654
7.393956
8.257627
8.537769
7.488728
7.870793
8.021593
8.602738
8.706450
7.574558
9.746552
9.067655
7.900596
8.886456
10.930896
9.649992
9.235740
9.432435
9.481907
9.461641
10.249615
9.091496
9.728670
9.115934
10.610819
9.911656
12.894869
13.766885
14.206767
15.384555
18.708706
20.984411
23.427606
24.457574
27.201772
27.335882
27.561784
27.271509
24.476647
24.574995
21.982789
20.618439
18.178821
15.749931
14.630556
11.699796
11.222959
10.367632
9.975433
10.072589
9.181499
9.032488
8.747578
9.957552
9.420514
9.700656
##ZVALUE=220
31.054616
33.227801
33.782721
32.586455
25.800467
21.881461
16.019940
13.819933
12.442470
12.366772
13.354421
12.834668
12.612939
11.660457
10.795593
7.856488
6.732941
6.304979
5.330443
5.337000
5.360842
5.048513
6.042719
5.331635
6.182790
6.130934
6.207824
6.644726
8.114576
6.801486
6.582737
6.996989
7.492900
7.940531
7.810593
8.848906
7.886887
8.284450
8.392930
8.563995
8.366704
8.615851
7.949471
8.756518
8.063912
8.616447
8.885860
8.473992
8.927584
8.493662
8.902550
8.675456
9.519458
8.795857
9.451509
9.257793
9.329915
10.650754
8.635521
10.566711
10.840893
10.702610
9.240508
9.668469
9.859800
11.047721
11.215806
11.639595
13.993979
15.687943
18.872619
20.360947
22.163987
26.125908
26.055574
28.692484
26.500821
26.739836
25.495887
23.269653
23.542643
20.096898
19.246936
18.251538
16.390681
12.910962
13.425946
12.579560
11.707544
12.127757
11.691451
11.024475
11.327863
10.812879
11.245608
10.712743
##ZVALUE=225
58.151484
62.175989
75.326562
90.346932
96.468925
88.995695
78.621507
61.266422
48.293471
34.976602
25.844574
22.815466
24.322867
26.807785
27.490854
26.354790
22.804737
17.669797
14.414787
10.457635
7.994771
6.599426
6.656647
5.890727
6.584525
6.174445
6.892681
7.065535
6.933808
7.215738
6.882548
7.760525
7.553697
7.769465
8.008480
8.429885
8.615851
8.345842
8.444786
8.501410
8.379817
9.409785
9.240508
9.965897
9.422898
9.564757
10.399818
10.221601
9.543896
9.555817
10.180473
9.742975
10.826588
12.011528
10.662675
9.833574
10.914803
11.288524
10.715723
11.679530
11.724830
11.914968
11.985898
12.213588
12.567639
15.967488
14.738441
14.300942
15.801787
18.653870
20.481944
22.675991
25.088787
27.028918
28.401613
29.709935
29.326677
26.758909
25.811791
26.042461
24.207830
22.357702
19.902587
18.624663
18.446445
16.693473
14.776587
15.243888
14.998913
14.426708
15.152693
14.183521
13.723969
14.795661
13.652444
14.579892
##ZVALUE=230
56.619644
60.169697
94.150901
153.238773
189.179778
226.542950
237.776637
228.656530
202.611685
167.772770
112.104416
79.212785
52.511692
45.423508
45.832992
45.876503
48.970580
47.061443
40.510893
33.913851
27.884841
19.867420
15.410781
9.792447
8.112788
7.412434
7.626414
7.951856
8.028746
8.787513
8.272529
9.318590
8.985996
8.703470
8.247495
9.849668
8.345842
10.067821
8.685589
9.364486
9.418726
10.410547
9.385943
9.241700
10.077953
12.020469
9.423494
10.579824
10.654926
11.433959
10.115504
11.813641
10.721684
12.099743
12.131929
11.778474
11.631846
11.930466
12.146831
13.389587
14.364719
14.480948
12.877584
15.580654
15.254617
16.486645
17.265677
17.164946
19.273758
22.435784
22.727847
26.436448
26.628971
32.662749
32.436848
32.050610
33.331513
34.465790
30.525923
28.375983
26.084781
30.274987
23.932457
23.226738
23.579597
20.591617
21.909475
21.266937
20.309687
19.851923
19.418597
18.989444
20.071864
20.406842
18.915534
20.210743
##ZVALUE=235
23.531914
25.937557
52.377582
115.609765
186.173916
284.132957
360.958576
439.571738
468.695760
471.979976
400.161743
322.147608
216.394663
155.621767
100.478530
77.799559
73.106885
78.837872
81.275702
84.116459
76.833963
60.670972
53.789616
37.061572
26.933551
18.125772
14.295578
10.653734
9.340644
8.916855
9.423494
9.877682
9.347796
9.534955
10.666847
9.823442
9.196997
10.045767
9.980798
9.964705
9.872913
10.308623
10.062456
9.532571
11.455417
10.747910
11.660457
10.489821
11.807680
12.113452
12.085438
12.616515
12.453794
13.964772
13.514757
14.064908
13.150573
13.967752
14.796853
15.534759
16.454458
18.154979
16.992688
17.694831
17.370582
19.362569
19.860864
21.766424
23.102760
26.826859
28.106570
30.307770
33.364892
38.363934
37.619472
38.158894
38.491488
39.191842
35.419464
37.577748
33.333898
32.992959
32.685995
32.156706
29.269457
29.847622
29.110909
28.435588
28.164983
28.749704
26.846528
28.038621
27.340651
30.143857
26.578903
26.627779
##ZVALUE=240
3.594756
3.331900
10.608435
29.640794
78.822970
143.699646
272.200704
408.737659
583.366752
678.644776
745.553970
740.078688
682.002902
528.866649
405.076742
252.120495
171.365738
117.616653
96.246004
101.397634
109.676719
116.926432
109.294653
101.719499
79.872608
64.134002
47.734976
32.658577
23.672581
16.396642
12.544990
9.929538
9.858608
10.378957
10.707974
11.320710
10.343790
10.195971
11.048913
10.618567
10.980964
11.676550
10.228753
10.744929
10.661483
11.467934
11.400580
12.166500
10.851622
11.572838
13.121963
12.719631
13.064742
12.249947
13.572574
12.630820
14.836788
15.674829
14.903545
16.046762
15.795827
16.481876
18.486977
18.059611
19.793510
21.758676
19.598603
22.509694
26.142001
27.945638
29.384494
35.123825
34.906864
40.539503
40.246844
40.813684
41.271448
41.284561
40.361881
38.532615
39.572716
37.690997
37.111640
35.758615
34.862757
34.426451
35.327673
33.868551
32.993555
34.986734
35.061836
33.435822
33.339858
34.613609
31.040907
31.584501
##ZVALUE=245
3.067851
2.673864
3.040433
3.687739
7.086992
20.911694
64.167976
135.224462
294.746757
448.299646
667.767525
816.648006
933.752656
946.538448
894.683599
717.473626
573.464632
385.410786
263.690948
153.512955
113.515854
101.832747
112.491846
123.419762
127.807856
122.178793
114.867687
94.874501
71.001649
55.712461
39.452910
25.821924
18.839836
12.282729
8.958578
9.917617
10.263920
10.784864
10.447502
10.379553
10.171533
9.344816
10.790825
9.925961
9.725690
9.909868
10.247827
10.615587
11.272430
10.014772
11.722445
10.820627
12.202859
12.500882
12.284517
12.679696
13.605952
13.221502
13.400912
14.274716
14.598966
14.756918
16.920567
14.752746
18.156767
17.835498
19.791722
20.212531
22.480488
25.463700
28.487444
29.203892
31.373501
34.285784
34.562945
36.628842
36.712885
36.215782
38.561821
37.036538
36.592484
33.767819
35.678744
34.380555
35.403967
33.403635
32.991767
33.958554
34.702420
33.661723
32.134652
32.803416
33.218861
32.848716
34.629703
34.608841
##ZVALUE=250
2.584457
2.548695
2.735853
3.166795
2.569556
2.583861
4.428625
16.748905
45.217872
125.060678
236.481428
459.966660
657.858849
907.136798
1015.605927
1015.605927
1015.605927
966.730714
806.351900
536.739826
366.010666
237.438679
134.949684
102.231503
104.770660
119.453669
135.335922
142.081976
134.699941
120.498538
99.487901
80.793500
60.942769
37.365556
25.560856
15.206933
11.370778
10.823607
9.361506
9.570718
9.291768
9.196997
9.372830
9.420514
9.470582
8.752942
9.710789
10.460615
10.434985
9.633899
10.664463
9.746552
9.726882
10.517836
11.132956
11.242628
11.574626
11.253953
11.065602
13.128519
13.032556
14.247894
13.530850
14.780760
14.800429
16.776919
17.184615
19.097924
19.154549
22.560954
24.005771
26.283860
29.294491
30.347705
31.467676
34.143925
33.322573
32.907724
32.511950
32.722950
31.529665
33.451915
31.181574
31.062961
30.417442
30.044913
30.730963
32.982826
31.208992
31.441450
32.277703
31.940937
32.515526
31.113625
32.003522
31.152964
##ZVALUE=255
2.264977
2.637506
2.584457
2.386570
2.277493
2.483726
2.728701
2.985597
3.466606
7.677674
38.462877
93.616843
188.343525
396.976471
601.424575
916.827917
1015.605927
1015.605927
1015.605927
1015.605927
1002.326012
802.455544
493.999720
309.674740
162.217617
111.840963
92.987418
101.952553
123.834610
137.494802
144.019723
142.900944
130.102634
103.733540
84.091425
57.476759
42.278767
24.335980
15.701652
11.061430
9.929538
9.300709
9.118915
8.482933
9.293556
8.669496
9.196997
9.825826
9.250641
9.322762
9.476542
9.480715
9.316802
10.022521
9.321570
9.980798
10.690689
10.443926
10.034442
11.566877
11.511445
12.553930
12.205839
12.880564
13.104677
14.291406
15.980601
16.118884
17.415881
18.555522
21.065474
22.801757
25.199652
26.828647
27.612448
28.694868
27.685761
29.686689
30.379891
28.491616
29.217601
29.881001
29.160976
28.821826
28.800964
28.942823
29.814839
28.969646
28.545856
29.442906
30.278563
30.519962
30.497909
30.391812
29.947758
30.292869
##ZVALUE=260
2.112985
1.874566
2.224445
1.954436
2.185702
2.271533
2.266765
2.560616
2.864599
2.758503
3.097653
4.940629
15.321970
63.136816
140.083432
330.338478
529.545546
844.190717
1015.605927
1015.605927
1015.605927
1015.605927
1015.605927
997.951031
669.772625
455.625653
255.567431
152.545571
92.124939
84.835887
101.333857
124.124885
141.027570
151.627660
148.748755
131.153464
111.925602
82.788467
60.048699
39.791465
25.740862
16.315579
12.080669
9.079576
8.903742
8.708835
8.392930
8.987784
8.376837
9.086728
9.056926
9.509921
9.082556
9.648800
10.157824
10.075569
9.772778
10.015965
10.525584
10.524988
11.237860
11.476874
11.348724
12.176633
12.697577
13.595819
14.152527
15.576482
15.043616
18.440485
18.636584
20.215511
21.458864
23.038983
23.680925
25.237799
25.236607
24.726987
26.224852
25.678873
27.359724
25.733709
26.099682
25.906563
25.208592
25.787950
26.246905
26.419759
27.344823
27.565956
27.736425
26.890635
27.233958
28.403997
28.490424
28.907657
##ZVALUE=265
2.029538
1.949668
2.215505
2.070665
2.236962
2.291799
2.432466
2.357960
2.366900
2.654791
2.699494
2.889633
3.178716
3.751516
8.195639
42.185783
100.506544
251.696706
440.311432
795.618892
1015.605927
1015.605927
1015.605927
1015.605927
1015.605927
1015.605927
895.657539
632.182956
356.451869
207.824707
122.645497
77.831745
82.796812
109.955668
128.729939
149.376988
155.396461
149.823427
135.742426
108.364820
85.305572
58.532953
41.276813
24.576783
16.408563
11.214614
9.942651
9.607673
9.521842
9.601712
9.131432
9.173751
9.551644
9.387732
9.484887
9.821653
9.954572
10.599494
10.497570
10.650754
11.258721
10.941625
12.455583
11.686683
12.252927
13.516545
13.815761
14.598966
15.163422
16.488433
18.592477
19.264817
20.818710
22.432804
23.090839
23.389459
24.798512
23.308992
24.310946
23.886561
23.169518
23.927689
24.607778
24.353862
24.070740
24.226904
24.607778
25.075674
25.798678
24.755597
25.136471
25.563836
26.704669
26.644468
26.427507
25.936961
##ZVALUE=270
1.751781
1.844764
2.025962
2.012849
1.990795
1.950860
2.043843
2.352595
2.334714
2.187490
2.202988
2.701879
2.711415
2.835989
3.380775
2.828836
4.724860
15.154481
68.662763
158.324838
368.651748
633.672476
1015.605927
1015.605927
1015.605927
1015.605927
1015.605927
1015.605927
1015.605927
830.457807
557.440519
280.832648
155.291557
79.096556
64.757466
86.921453
106.326938
136.620998
149.664879
158.934593
154.069662
134.550929
115.019679
83.981752
62.256455
38.705468
25.947690
16.702414
12.194514
10.077953
10.032654
9.857416
9.781718
9.854436
9.568930
9.792447
10.701418
10.548830
10.888577
11.285543
10.977983
11.694431
11.467934
11.814833
12.096763
12.440681
13.566613
14.026761
15.226603
16.817451
18.472672
18.553734
19.330978
21.144748
21.902919
22.628903
21.332502
22.621751
23.294687
22.938848
23.500919
22.674799
23.070574
22.738576
23.130774
23.089647
23.903847
24.499893
24.786592
24.616718
23.747683
25.287867
24.278760
26.060939
24.304986
24.857521
##ZVALUE=275
1.836419
1.935959
1.659989
1.695752
1.788735
1.942515
1.729727
1.915693
2.068877
2.106428
2.220869
2.376437
2.495646
2.359748
2.442598
2.557635
3.013611
3.167987
3.588796
7.071495
37.437677
105.970502
302.196741
537.309647
955.750942
1015.605927
1015.605927
1015.605927
1015.605927
1015.605927
1015.605927
1015.605927
788.530707
412.160754
234.416723
97.805858
60.470700
62.384605
79.829693
108.154416
128.167868
149.333477
154.613853
149.343610
133.801699
106.539726
88.123679
61.872602
43.922663
26.397705
18.848777
12.742877
10.728836
9.880662
9.284616
9.725690
10.059476
9.893775
10.667443
10.782480
11.250973
11.099577
11.177659
11.923909
11.940598
12.104511
12.886524
13.844967
15.424490
15.869737
17.640591
17.978549
19.459724
20.368695
21.259785
22.107959
21.964908
21.971464
21.310449
22.481680
22.391677
22.240877
22.148490
22.047758
22.128820
23.352504
22.956729
23.110509
22.935867
22.870898
23.694634
23.599863
24.134517
24.116635
23.898482
22.912621
##ZVALUE=280
1.550913
1.972914
1.619458
1.697540
1.837611
1.863837
1.763701
1.793504
1.718998
1.988411
2.035499
1.800656
2.009869
2.174973
2.321601
2.333522
2.575517
2.724528
2.719760
2.976656
3.345609
4.355907
24.794936
79.092979
238.583684
431.507826
776.299834
1015.599966
1015.599966
1015.599966
1015.599966
1015.599966
1015.599966
1015.599966
967.707634
547.709465
319.846869
132.909417
66.691637
45.976639
56.741834
81.675649
104.917884
130.205750
145.383477
151.153803
146.365762
130.450726
111.665726
83.263516
63.920617
39.998889
28.340816
17.610788
13.642907
10.923743
10.166764
10.321736
9.978414
10.429621
10.707974
11.160970
11.689663
12.226701
12.034774
12.766719
13.024807
13.767481
15.170574
15.721917
16.294718
17.706752
18.786788
19.716620
20.357966
21.427870
21.828413
21.759868
21.956563
21.641850
21.970868
22.017956
21.176934
21.634698
21.973848
22.292733
22.071600
21.974444
22.155643
22.663474
22.254586
22.065639
22.129416
21.634698
22.894740
23.116469
##ZVALUE=285
1.683831
1.667738
1.690984
1.714826
1.628995
1.768470
1.730919
1.721978
1.590848
1.907945
1.794696
1.959801
2.005696
2.127886
2.175570
2.198815
2.154708
2.454519
2.408624
2.738833
2.727509
3.164411
3.391504
3.980398
10.103583
54.926872
134.630799
335.691571
568.581820
973.944664
1015.605927
1015.605927
1015.605927
1015.605927
1015.605927
1015.605927
1015.605927
770.018697
476.664901
217.688680
105.604529
43.413639
38.862824
54.963827
74.150562
102.354884
122.258663
141.381621
149.025917
143.603683
132.465959
108.453631
87.358952
62.211752
44.471622
27.476549
19.511580
13.818741
11.950731
10.487437
10.890961
11.061430
10.911822
12.383461
12.618899
13.000965
13.433695
14.082789
15.330911
16.198754
16.876459
18.284917
19.302964
19.570589
20.388961
20.830631
20.965934
20.627975
20.791888
21.438599
20.919442
20.689964
21.186471
21.559596
22.179484
21.797419
21.800995
22.703409
22.306442
21.691918
21.950603
21.342635
22.148490
21.633506
21.959543
21.979809
##ZVALUE=290
1.678467
1.753569
1.605749
1.554489
1.416802
1.392961
1.669526
1.658797
1.784563
1.678467
1.814961
1.814961
1.813769
2.005696
1.704693
1.977682
2.018809
1.964569
2.174973
2.273917
2.297759
2.392530
2.577901
2.884865
3.554821
3.672838
5.272627
16.880631
83.474517
196.471810
332.552791
781.978965
1015.603542
1015.603542
1015.603542
1015.603542
1015.603542
1015.603542
1015.603542
962.225795
627.775788
311.095715
153.611898
53.580999
31.884909
36.670566
50.494671
73.648691
92.468858
119.507909
135.345459
143.466592
142.167807
127.513409
112.050772
83.888769
63.383579
42.362809
29.879808
19.647479
15.876889
12.410879
12.589693
11.830926
12.665987
12.917519
13.512969
14.826655
15.699863
16.035438
17.604828
18.558502
19.599795
19.782782
19.828677
20.822883
20.570755
20.799637
21.013618
21.344423
21.343827
21.577477
20.953417
21.447539
21.874905
22.095442
21.844506
21.974444
22.403598
21.793842
21.664500
21.500587
22.021532
21.452904
21.807551
21.263957
##ZVALUE=295
1.609921
1.528859
1.515746
1.490712
1.397729
1.504421
1.579523
1.442432
1.618862
1.676679
1.666546
1.788735
1.510978
1.852512
1.886487
1.813769
1.932979
1.814961
1.929998
1.970530
2.002716
2.244711
2.415776
2.351999
2.725720
2.978444
3.107786
3.630519
3.918409
8.241534
30.502677
128.862858
281.977654
643.872023
980.219841
1015.605927
1015.605927
1015.605927
1015.605927
1015.605927
1015.605927
1015.605927
778.126717
401.055813
212.587714
76.287985
36.513805
24.529696
30.954480
48.611760
65.859556
92.017651
109.767914
128.301978
137.367845
134.924650
123.922825
103.803873
85.198879
59.986711
44.522882
29.171705
20.961761
16.087890
14.558434
13.798475
14.121532
14.350414
15.174747
16.219616
17.364621
18.506646
19.255877
20.086765
19.614697
20.778775
20.462871
20.627975
21.082759
21.169782
21.454692
22.140741
21.581650
21.613836
21.886826
21.758676
21.914840
22.154450
21.617413
21.537542
21.114945
22.361875
21.204948
21.217465
21.877885
21.431446
##ZVALUE=300
1.405478
1.375675
1.496673
1.349449
1.496673
1.524687
1.415610
1.573563
1.428723
1.491904
1.600981
1.634955
1.516938
1.560450
1.673698
1.660585
1.688600
1.891851
1.933575
1.932979
1.886487
2.127886
2.060533
2.177954
2.288818
2.451539
2.440810
2.911687
3.029704
3.055930
3.659725
4.454851
11.886954
66.251755
168.275833
442.372561
768.769979
1015.605927
1015.605927
1015.605927
1015.605927
1015.605927
1015.605927
1015.605927
980.574489
543.905497
313.469768
131.511688
61.051846
23.291707
21.346807
30.592680
41.105747
62.184930
82.386732
106.846690
122.037530
131.720901
132.908821
121.678710
105.384588
81.462860
65.063834
45.119524
32.759905
23.016930
18.693805
15.986562
16.198754
16.930699
17.120838
18.600821
19.267797
20.152926
20.842552
20.845532
20.977855
21.684766
21.362901
21.424890
21.838546
21.938682
21.921992
22.163987
22.292733
22.440553
22.298694
22.057891
22.358894
22.593737
21.946430
21.672845
21.987557
21.874905
21.290779
22.144914
##ZVALUE=305
1.484752
1.388788
1.451969
1.311898
1.519918
1.661777
1.569986
1.465678
1.499653
1.592636
1.583695
1.435876
1.675487
1.532435
1.550913
1.604557
1.577735
1.765490
1.803637
1.772642
1.779795
1.704693
1.733899
2.111793
2.025962
2.139807
2.365708
2.568960
2.587438
2.773404
2.892613
3.239512
3.415942
3.909469
6.955862
39.516687
108.896494
317.000747
584.042668
1015.605927
1015.605927
1015.605927
1015.605927
1015.605927
1015.605927
1015.605927
1015.605927
774.695873
468.173623
206.144452
98.359585
32.783747
18.058419
20.315647
27.675629
43.568611
59.851408
82.395673
99.596977
116.980672
125.029683
125.018954
117.902756
99.567771
82.886815
62.228441
46.952963
32.292604
25.552511
20.767450
19.260645
18.902421
19.655824
20.383596
20.755529
21.312833
20.824671
21.551847
21.689534
22.037625
22.186637
22.467971
22.914410
22.967458
22.978783
22.460818
22.859573
22.554994
22.681952
22.370815
22.197962
22.285581
22.430420
21.841526
21.582842
21.575689
##ZVALUE=310
1.373887
1.331568
1.356602
1.236796
1.348853
1.358986
1.431704
1.371503
1.453757
1.577735
1.230836
1.430511
1.667738
1.515746
1.402497
1.522899
1.745820
1.521707
1.606941
1.693964
1.744628
1.664758
1.781583
1.843572
1.804829
2.059937
1.884699
2.072453
2.320409
2.219677
2.375841
2.431870
2.522469
2.808571
3.215671
3.694892
4.288554
17.084479
55.868626
188.769698
377.469659
789.372921
1015.605927
1015.605927
1015.605927
1015.605927
1015.605927
1015.605927
1015.605927
998.686552
682.174563
327.011943
168.860555
58.665872
24.230480
15.758872
18.136501
26.524663
37.101507
55.490732
71.051717
94.127655
107.353926
118.663907
121.444464
112.661719
100.797415
82.025528
65.865517
46.634674
37.346482
27.459860
24.540424
21.249652
21.111965
20.904541
21.309853
21.523833
21.510720
21.978617
22.386909
22.929907
23.141503
23.074746
23.739934
24.095774
23.474693
23.430586
23.074746
23.532510
23.215413
22.786856
22.979975
22.981763
22.368431
21.833777
##ZVALUE=315
1.381636
1.259446
1.318455
1.327991
1.397729
1.362562
1.404881
1.286864
1.367927
1.468658
1.353621
1.544952
1.376867
1.418591
1.580715
1.467466
1.535416
1.260638
1.540780
1.572967
1.603961
1.458526
1.626611
1.844764
1.747608
1.736879
1.759529
1.814961
2.102852
2.118945
2.163649
2.187490
2.345443
2.387762
2.652407
3.000498
3.100634
3.406405
3.811717
8.070469
29.329658
123.732686
270.098448
607.875586
967.939496
1015.605927
1015.605927
1015.605927
1015.605927
1015.605927
1015.605927
1015.605927
938.212872
486.486554
255.827904
87.197423
35.264492
15.280843
14.065504
17.676950
24.059415
37.085414
49.761534
69.238544
86.414814
104.699731
113.614798
115.286708
109.836459
95.461607
81.845522
63.637495
50.051808
36.794543
29.939413
24.671555
22.742748
22.132993
22.238493
22.448897
22.767782
22.568703
22.644997
23.213625
23.565888
23.786426
23.480654
23.793578
23.511648
23.695827
23.555756
23.690462
23.240447
23.281574
22.910833
22.716522
##ZVALUE=320
1.282692
1.241565
1.288652
1.136661
1.303554
1.287460
1.232624
1.316667
1.417994
1.475811
1.320839
1.395941
1.377463
1.447797
1.279712
1.452565
1.443624
1.383424
1.383424
1.390576
1.652837
1.587868
1.521707
1.607537
1.687407
1.902580
1.788735
1.629591
1.744628
1.842976
1.927614
1.939535
2.052784
2.073646
2.245903
2.320409
2.432466
2.561808
2.891421
3.015995
3.353953
4.458427
12.827516
67.251921
170.798898
450.680852
745.749474
1015.596986
1015.596986
1015.596986
1015.596986
1015.596986
1015.596986
1015.596986
1015.596986
631.479621
354.230404
143.542886
60.440898
19.302964
13.100505
14.321804
16.409755
23.249984
32.172799
49.111843
63.084960
83.948970
97.726583
110.301971
112.227798
106.633902
96.609592
78.943968
64.531565
47.621727
38.547516
29.652715
26.074648
23.203492
23.064613
22.762418
23.325682
23.140907
23.557544
23.651719
23.740530
23.799539
23.900867
23.810863
23.683906
23.154616
23.004413
23.112893
23.056865
22.408962
##ZVALUE=325
1.305938
1.434684
1.455545
1.378655
1.395941
1.379848
1.314878
1.396537
1.395941
1.314878
1.437664
1.589656
1.403689
1.495481
1.466870
1.418591
1.423955
1.627803
1.677871
1.569986
1.480579
1.481771
1.582503
1.692772
1.724958
1.768470
1.863837
1.874566
1.785755
1.830459
1.945496
1.939535
2.042651
2.063513
2.150536
2.155900
2.348423
2.441406
2.560616
2.830625
2.917647
3.038645
3.185868
3.930926
7.306933
42.022467
112.850666
306.564569
554.552674
989.310741
1015.745997
1015.745997
1015.745997
1015.745997
1015.745997
1015.745997
1015.745401
772.681832
468.690991
206.494927
92.652440
27.689934
14.704466
13.032556
14.063716
18.019676
22.839904
33.820868
46.898723
66.905618
81.758499
96.925497
105.196834
106.830597
102.903843
88.818669
77.662468
60.326457
48.674941
36.989450
30.301809
25.816560
24.611950
23.813844
23.276806
23.386478
23.920536
23.684502
23.558736
23.730993
23.668408
23.766756
23.456812
23.092628
23.011565
23.314953
##ZVALUE=330
1.283884
1.270771
1.220703
1.251698
1.319647
1.218915
1.200438
1.439452
1.325607
1.152754
1.167655
1.177788
1.357794
1.157522
1.309514
1.261830
1.266599
1.338720
1.388788
1.547933
1.325607
1.480579
1.352429
1.401901
1.382828
1.537800
1.590848
1.573563
1.578927
1.678467
1.535416
1.736879
1.734495
1.955628
1.894832
1.980662
2.041459
1.992583
2.322793
2.324581
2.263784
2.570748
2.681613
2.985597
3.031492
3.658533
4.374981
18.903613
61.133504
206.442475
401.805639
820.235014
1015.608907
1015.608907
1015.608907
1015.608907
1015.608907
1015.608907
1015.608907
993.261933
664.467812
307.724476
151.838660
50.532818
20.377636
13.003945
13.243556
14.823675
17.395616
24.363995
31.999946
47.326684
60.838461
80.094934
91.698766
100.972652
101.912618
95.908642
88.163614
71.904659
60.171485
45.678616
37.571788
30.685663
27.006865
24.374723
23.730993
23.399591
23.247600
23.243427
23.146868
22.942424
22.830963
22.835732
22.250414
22.079945
##ZVALUE=335
1.134872
1.087785
1.099706
1.114607
1.235604
1.187921
1.307726
1.224875
1.265407
1.188517
0.984669
1.290441
1.221895
1.078844
1.079440
1.316667
1.267791
1.342893
1.271963
1.336932
1.244545
1.394749
1.326799
1.405478
1.329780
1.410842
1.505613
1.503825
1.456738
1.619458
1.809597
1.557469
1.658797
1.679659
1.709461
1.634955
1.846552
1.923442
1.886487
2.148747
2.015829
2.025962
2.125502
2.234578
2.688766
2.669692
2.816916
3.394485
3.601909
9.241700
32.663941
129.001737
273.683667
617.761016
973.061919
1015.605927
1015.605927
1015.605927
1015.605927
1015.605927
1015.605927
1015.605927
799.399018
414.339900
216.858983
72.267652
28.424859
13.990998
13.283491
14.369488
15.511513
19.071698
23.775697
34.636855
44.894814
61.995983
74.361563
88.112950
95.833540
97.039938
92.236996
81.330538
71.258545
57.707429
47.353506
36.898851
31.229854
26.458502
24.493933
23.016930
22.530556
22.338629
21.959543
22.148490
21.627545
21.929741
##ZVALUE=340
1.196861
1.213551
1.065731
1.134872
1.178980
1.186728
1.106858
1.234412
1.110435
1.223683
1.154542
1.313686
1.219511
1.183748
1.236796
1.345873
1.264811
1.307726
1.244545
1.371503
1.255870
1.428723
1.290441
1.308918
1.511574
1.260638
1.311898
1.358986
1.354814
1.544952
1.465678
1.520514
1.490712
1.532435
1.715422
1.804829
1.699924
1.810789
1.798868
1.820922
1.718998
1.889467
1.955628
2.042651
2.014637
2.330542
2.381802
2.459884
2.716780
3.019571
3.326535
4.985929
15.511513
80.731511
198.800564
498.095751
838.260651
1015.627980
1015.627980
1015.627980
1015.627980
1015.627980
1015.627980
1015.627980
949.850678
483.647585
262.628794
103.182793
40.998459
15.835762
13.967752
14.158487
14.579892
16.379952
19.336939
24.865866
31.937957
44.586658
57.025552
73.076487
83.410740
91.524720
91.063976
87.578893
80.062747
67.190528
56.731701
44.938922
37.404895
29.872656
25.889874
23.006797
21.915436
21.260977
21.064878
20.535588
##ZVALUE=345
1.177788
1.023412
1.037717
0.955462
1.018643
1.103878
1.223683
1.122952
1.165867
1.212955
1.131892
1.157522
1.269579
1.090765
1.212955
1.091957
1.218915
1.195669
1.205802
1.343489
1.259446
1.073480
1.256466
1.310706
1.347661
1.369715
1.189709
1.362562
1.316667
1.395941
1.556873
1.435876
1.477599
1.368523
1.485944
1.582503
1.605749
1.649857
1.634955
1.738667
1.841784
1.543760
1.952648
1.844764
1.972914
1.965761
2.139807
2.310872
2.251863
2.531409
2.527833
2.912879
3.048778
3.556609
7.351637
45.349002
127.668381
337.650776
607.262850
1015.618443
1015.618443
1015.618443
1015.618443
1015.618443
1015.618443
1015.619040
1015.618443
676.295757
382.686853
152.327418
68.075657
22.397637
14.572740
14.204979
14.030933
14.870763
15.442967
18.697977
22.349954
31.487942
40.923953
55.190921
64.936876
75.737834
81.469417
85.451603
82.970858
75.008869
67.161918
54.493546
44.979453
35.362840
29.278994
24.537444
21.883845
20.448565
##ZVALUE=350
0.963807
1.200438
1.177788
1.091957
1.133680
1.116991
1.125932
1.284480
1.128912
1.141429
1.244545
1.283884
1.137853
1.098514
1.265407
1.136661
1.114607
1.120567
1.240969
1.275539
1.027584
1.199841
1.251698
1.151562
1.182556
1.328588
1.300573
1.248717
1.385808
1.333952
1.424551
1.420975
1.362562
1.200438
1.539588
1.561642
1.474619
1.490712
1.606941
1.545548
1.605749
1.548529
1.719594
1.697540
1.725554
1.911521
1.861453
1.962781
2.125502
2.167821
2.320409
2.596974
2.619624
2.786517
3.137589
3.382564
4.762411
24.643540
79.744458
248.965621
473.735929
933.824778
1015.588641
1015.588641
1015.588641
1015.588641
1015.588641
1015.588641
1015.588641
828.222632
504.711866
232.341886
104.792714
29.426813
15.317798
13.584495
13.688803
13.684630
14.324784
15.105605
17.461777
22.546649
28.469563
37.455559
46.548843
60.372949
69.239736
76.332688
78.860521
76.523423
70.972443
60.808659
52.314997
40.917993
34.404993
27.191639
##ZVALUE=355
1.168847
1.149774
1.130700
1.288652
1.278520
0.992417
1.235604
1.249909
1.044869
1.068711
1.246929
1.290441
1.043677
1.091957
1.214743
1.277924
1.360774
1.278520
1.249909
1.347661
1.238585
1.270771
1.339912
1.329780
1.290441
1.366735
1.386404
1.449585
1.440644
1.579523
1.273751
1.534820
1.451969
1.543760
1.516938
1.559854
1.566410
1.345873
1.610518
1.504421
1.634955
1.597404
1.705885
1.562834
1.625419
1.844764
1.957417
1.823902
1.848936
1.902580
2.238750
2.396703
2.305508
2.510548
2.640486
2.781749
2.958775
3.173947
3.528595
10.745525
42.788982
172.567964
355.227590
724.403858
1015.605927
1015.605927
1015.605927
1015.605927
1015.605927
1015.605927
1015.605927
975.756645
629.733801
270.126462
126.936436
38.237572
17.474890
12.921691
12.684464
12.732744
12.737513
13.081431
14.379621
16.553998
19.554496
25.487542
32.440424
41.827559
50.653815
62.003732
68.051815
71.255565
71.288943
65.649748
58.827996
48.943758
##ZVALUE=360
1.133680
1.142621
1.247525
1.002550
0.996590
1.081824
1.087785
1.270771
1.187921
1.148582
1.320839
1.173615
1.313686
0.974536
1.040697
1.280904
1.286864
1.109838
1.097918
1.382828
1.339912
1.291633
1.262426
1.417994
1.327991
1.389980
1.352429
1.395941
1.395941
1.314878
1.272559
1.176000
1.454949
1.442432
1.310706
1.501441
1.531839
1.513958
1.556873
1.484752
1.617670
1.588464
1.526475
1.686811
1.626611
1.637936
1.863837
1.796484
1.903772
1.911521
1.914501
1.884699
2.138615
2.353787
2.298951
2.475977
2.631545
2.707839
2.968907
3.013611
3.658533
4.861951
22.052526
71.368814
238.072872
457.279682
884.686708
1015.606523
1015.606523
1015.606523
1015.606523
1015.606523
1015.606523
1015.606523
717.826486
429.452658
182.652473
76.473951
21.783710
13.088584
11.955500
11.662841
12.094975
12.027621
12.448430
13.058782
14.674664
16.332865
21.439791
27.038455
36.021471
43.815970
53.847432
60.096979
64.570904
64.511895
##ZVALUE=365
1.092553
1.088977
1.082420
1.206994
1.300573
1.204610
0.971556
1.182556
1.221895
1.199841
1.128912
1.248717
1.365542
1.258850
1.302958
1.039505
1.127720
1.213551
1.171827
1.152754
1.252890
1.331568
1.284480
1.336932
1.243949
1.355410
1.389980
1.431704
1.297593
1.320839
1.328588
1.335740
1.505613
1.458526
1.375675
1.455545
1.345873
1.334548
1.567602
1.571774
1.567602
1.643896
1.663566
1.727939
1.702905
1.744628
1.548529
1.721978
1.933575
1.875758
1.829863
2.049804
1.905560
1.881719
2.007484
2.150536
2.215505
2.413988
2.731681
2.934933
3.108978
3.339648
3.688931
4.261732
8.398890
48.309565
139.015913
386.418700
692.283511
1015.605927
1015.605927
1015.605927
1015.605927
1015.605927
1015.605927
1015.605927
920.869708
495.324731
267.471671
98.199844
39.689541
14.285445
11.240840
10.855794
11.081696
10.945797
11.105537
11.402965
11.836886
12.751818
14.442801
18.730760
22.993684
30.099750
37.450790
46.453476
##ZVALUE=370
1.119971
1.148582
1.132488
1.181960
1.047850
1.153946
1.131892
1.018643
1.100898
1.096725
1.046658
1.090765
1.174808
1.105666
1.074672
1.319647
1.254678
1.213551
1.224875
1.199841
1.289845
1.354814
1.192689
1.325607
1.309514
1.165867
1.215935
1.311898
1.245737
1.367927
1.176000
1.317859
1.376867
1.314878
1.411438
1.441836
1.464486
1.489520
1.345873
1.610518
1.340508
1.414418
1.378655
1.588464
1.418591
1.513958
1.631975
1.463890
1.559854
1.652837
1.740456
1.632571
1.793504
1.773834
1.789927
1.931787
1.864433
1.999736
1.947880
2.099872
2.260804
2.483726
2.789497
2.907515
3.335476
3.487468
5.439520
19.109845
104.630589
255.545974
600.131750
948.870778
1015.606523
1015.606523
1015.606523
1015.606523
1015.606523
1015.606523
957.306027
618.252754
286.936760
145.717859
53.892732
22.215843
10.706782
9.988546
9.854436
10.098815
9.845495
10.040998
10.203719
10.370612
11.482835
13.084412
16.585588
20.210743
##ZVALUE=375
1.011491
0.952482
0.990629
1.112819
1.101494
0.900626
1.051426
0.981688
0.962615
1.015663
0.999570
1.111627
1.073480
1.035929
0.952482
0.887513
1.136661
1.054406
1.003742
1.185536
1.154542
1.079440
1.063943
1.062751
1.151562
1.125932
1.077652
1.051426
1.188517
1.123548
1.101494
1.237988
1.294613
1.317859
1.303554
1.102686
1.143813
1.233816
1.328588
1.294613
1.343489
1.420975
1.440644
1.363754
1.339912
1.491904
1.400709
1.258850
1.265407
1.365542
1.463890
1.511574
1.616478
1.654625
1.646876
1.671910
1.742840
1.812577
1.746416
1.714826
1.892447
2.028942
2.170801
2.310872
2.331734
2.642870
3.095865
3.502965
3.858805
12.489557
44.234991
163.231492
355.695486
790.438652
1015.551686
1015.551686
1015.551686
1015.551686
1015.551686
1015.551686
1015.551686
769.834518
476.569533
232.119560
114.476681
35.288930
14.745593
9.532571
9.268522
9.138584
9.064674
9.410977
9.120703
9.369850
9.581447
10.418892
##ZVALUE=380
1.067519
1.100898
1.033545
0.906587
1.059771
1.110435
1.144409
1.125932
1.015663
1.143813
1.112819
1.069903
1.091957
1.116991
1.112819
1.139641
1.126528
1.059771
1.203418
1.058578
1.117587
1.066923
1.168847
1.227856
1.116991
1.131892
1.216531
1.068711
1.123548
1.221895
1.155734
1.202822
1.171827
1.062751
1.414418
1.162887
1.146793
1.210570
1.311898
1.333952
1.245737
1.210570
1.163483
1.349449
1.349449
1.617670
1.362562
1.465678
1.416802
1.310706
1.400709
1.231432
1.444817
1.499653
1.499653
1.584888
1.603961
1.736879
1.654625
1.655817
1.780987
1.960993
1.971722
2.033710
2.071857
2.276897
2.370477
2.653599
3.013611
3.499985
3.891587
6.814599
25.318861
121.015906
284.121037
662.393570
1005.315781
1015.605927
1015.605927
1015.605927
1015.605927
1015.605927
1015.605927
974.176526
651.234984
314.925909
160.308480
54.910779
22.129416
9.923577
8.903742
8.663535
8.551478
8.672476
8.648634
8.385777
##ZVALUE=385
0.937581
1.154542
0.939965
0.956655
1.086593
1.074672
0.901818
1.140833
0.958443
0.989437
1.058578
0.912547
0.983477
1.010895
1.086593
1.109838
1.028776
1.107454
0.979900
1.018643
0.959635
1.128912
0.963807
1.090765
0.975728
1.011491
1.067519
1.028776
1.162887
1.140833
0.979900
1.062751
0.939965
0.995994
1.084805
1.048446
1.174808
1.145601
1.220703
1.208782
1.106858
1.274943
1.256466
1.229644
1.355410
1.261830
1.142621
1.276731
1.236796
1.269579
1.392961
1.516938
1.446605
1.490712
1.419783
1.413822
1.393557
1.640916
1.571774
1.598597
1.475811
1.589656
1.713634
1.835823
1.904964
2.026558
2.159476
2.286434
2.566576
2.855659
3.111959
3.405809
3.447533
4.359484
11.339784
65.772533
171.889663
437.453985
770.648718
1015.602946
1015.602946
1015.602946
1015.602946
1015.602946
1015.602946
1015.602946
872.630477
453.442931
249.533653
99.620819
40.188432
12.124777
8.583665
7.886887
7.750988
8.086562
##ZVALUE=390
0.886917
0.930429
0.987649
1.064539
0.979900
1.011491
1.000762
0.998974
0.920892
0.971556
0.918508
1.112819
1.009703
1.006722
0.857711
1.061559
1.181960
1.060963
0.959635
1.197457
1.185536
1.089573
1.010895
1.159906
1.172423
1.011491
1.071692
1.006722
1.022816
1.149774
1.085997
1.155734
1.191497
1.072884
1.261830
1.069903
1.037717
1.179576
1.220703
1.257658
1.181960
1.089573
1.290441
1.174808
1.339912
1.192689
1.307726
1.209974
1.172423
1.342893
1.318455
1.198649
1.349449
1.246929
1.580715
1.384616
1.298785
1.328588
1.579523
1.489520
1.641512
1.744628
1.664758
1.697540
1.907945
1.929998
2.023578
2.240539
2.371669
2.613664
2.845526
3.047585
2.781749
3.195405
3.288984
3.714561
6.096959
35.400987
109.725595
335.402489
628.044009
1015.605927
1015.605927
1015.605927
1015.605927
1015.605927
1015.605927
1015.605927
1015.605927
660.826564
369.096994
143.314600
64.472556
19.610524
9.313822
7.599592
##ZVALUE=395
0.759959
0.696778
0.601411
0.849962
0.830889
0.716448
0.654459
0.927448
0.645518
0.756979
0.773668
0.805855
0.863671
0.800490
0.821948
0.835657
0.934601
0.874996
0.790954
0.877976
0.786781
0.761747
0.839829
0.897646
0.996590
0.942945
0.847578
0.751615
0.872612
0.849962
0.957847
0.899434
0.972748
0.923872
0.922680
0.920892
0.864863
1.058578
1.130700
0.926852
1.014471
1.039505
1.056790
0.970960
0.943542
1.066923
1.047850
1.253486
1.205802
1.048446
1.084805
0.932813
1.262426
1.301765
1.226664
1.369715
1.380444
1.229644
1.210570
1.094937
1.269579
1.425743
1.400709
1.631975
1.497865
1.660585
1.711845
2.033710
2.135634
2.329946
2.429485
2.476573
2.578497
2.643466
2.581477
2.666712
2.822876
3.011823
3.970861
19.294620
71.975589
249.892473
474.522710
904.356837
1015.414596
1015.414596
1015.414596
1015.414596
1015.414596
1015.414596
1015.414596
866.101980
520.169735
213.357806
96.610785
30.478835
##ZVALUE=400
0.835657
1.076460
1.021624
1.008511
1.017451
1.095533
1.058578
1.066923
0.931621
0.994802
1.049638
0.886917
0.879765
1.133680
0.933409
0.946522
0.939965
0.936985
1.108646
1.112819
0.957847
0.968575
1.173615
1.069903
1.046658
1.002550
1.255870
1.191497
1.210570
1.028776
1.116991
1.077652
1.112819
1.084805
1.123548
1.075864
1.107454
1.210570
0.995994
1.231432
1.005530
1.271963
1.051426
1.176596
1.180768
1.229644
1.394749
1.283884
1.225471
1.253486
1.458526
1.355410
1.306534
1.257658
1.370907
1.295805
1.342893
1.410842
1.542568
1.354814
1.466870
1.553893
1.568794
1.733899
1.748800
1.664758
1.966953
2.005696
2.217889
2.405643
2.434850
2.642870
2.446771
2.520680
2.492666
2.525449
2.649426
2.793670
2.790689
3.312826
3.435612
10.118484
37.710667
144.015551
307.884812
693.096519
1015.605927
1015.605927
1015.605927
1015.605927
1015.605927
1015.605927
1015.605927
998.106003
675.045848
328.774452
##END
