##TITLE=AAI050
##FORMAT=SPECTACLE-ASCII V-1.2
##DATA TYPE=ULTRAVIOLET SPECTRUM
##SECOND TYPE=ULTRAVIOLET SPECTRUM
##DATE=10/24/17
##TIME=15:24:10
##SPECTROMETER/DATA SYSTEM=SPECTACLE
##XUNITS=NM EM
##YUNITS=ENERGY
##YFACTOR=1
##FIRSTX=220
##LASTX=410
##NPOINTS=96
##3DDATA=Equidistant
##ZUNITS=NM EX
##FIRSTZ=210
##LASTZ=400
##ZPOINTS=39
##XYDATA=(Y..Y)
##ZVALUE=210
3.260970
3.745556
2.752542
3.082752
3.375411
3.756881
3.529787
4.013777
3.623962
3.635883
3.787875
3.157854
3.276467
3.584623
3.263950
3.329515
3.166795
4.099607
4.484653
4.405975
4.716516
4.449487
4.434586
4.722476
5.317926
5.216599
5.529523
5.988479
6.201863
6.629825
6.387830
6.588697
6.979704
6.161928
6.376505
7.151961
7.250905
8.258820
8.482933
7.481575
8.785725
8.132458
7.934570
9.036660
8.837581
9.658933
9.191632
9.396672
8.045435
9.404421
9.154677
9.317994
8.522868
9.882450
9.306669
10.029674
8.897781
9.845495
9.367466
9.714961
9.074807
8.940697
11.137724
10.668635
9.571910
10.251999
10.796785
11.495948
12.483597
13.644695
17.559528
20.211935
23.378730
23.149848
27.538538
26.599765
26.766658
25.301576
25.831461
24.415851
22.426844
20.395517
18.012524
15.755892
13.778806
11.587739
11.471510
9.553432
9.035468
9.379983
7.829666
8.637905
8.270741
8.948445
8.041859
9.280443
##ZVALUE=215
10.965466
10.831952
10.807514
8.840561
8.030534
5.784631
6.271601
6.028414
6.676912
7.172823
6.612539
5.781651
5.257726
4.124641
3.887415
3.681779
3.912449
4.297495
4.137754
4.119873
4.178882
5.406737
5.261898
5.592704
6.291866
5.283952
5.598664
5.567670
5.790591
6.849766
5.620718
6.715655
7.454753
7.706881
9.025931
9.994507
9.479523
9.379983
9.418726
10.068417
9.478927
10.325909
9.114742
10.614991
10.300875
11.184812
10.348558
10.067821
10.742545
10.935664
9.846687
9.982586
10.257959
10.766983
10.839701
10.162592
10.578632
10.886788
10.344982
10.172725
10.892749
11.091828
11.730790
11.167526
11.067986
10.933876
11.968613
13.376474
13.893843
16.736984
15.821457
21.076798
21.151900
25.152564
24.563670
26.294589
25.306940
25.339723
24.503469
24.392605
21.870732
18.837452
16.537905
15.951991
12.719631
12.088418
11.043549
10.784864
9.521842
8.849502
9.201765
9.131432
9.173751
8.778572
9.028912
9.406805
##ZVALUE=220
33.846498
35.828948
40.102601
37.162900
36.809444
30.665994
19.419789
18.694997
13.227463
12.881756
13.993979
14.478564
13.305545
12.023449
11.056662
8.318424
6.342530
6.243587
5.367994
5.386472
4.458427
4.865527
4.989505
4.754663
5.599856
5.065799
6.784797
6.297827
6.901622
7.047653
8.241534
8.509755
9.800792
11.319518
11.937618
12.889504
13.732910
15.245676
15.158653
15.371442
15.377998
15.054941
14.838576
15.701652
16.012788
14.925599
13.997555
14.437437
13.586879
15.204549
13.871789
13.831854
14.234781
14.684796
13.364553
14.752746
14.604926
14.540553
14.903545
14.664531
13.768673
13.665557
13.740659
14.045835
13.259649
14.907718
14.761686
16.234517
16.526580
17.030835
19.497871
20.586848
23.305416
24.415851
27.698874
28.870702
27.700663
25.641918
27.162433
25.628805
23.809671
21.272898
19.675493
16.926527
15.297532
14.080405
13.848543
12.854934
11.376739
10.903478
9.596944
10.436773
10.816455
10.075569
9.535551
10.072589
##ZVALUE=225
56.810975
63.844919
79.429746
104.808807
115.764737
115.561485
105.329752
80.502629
61.164498
45.888424
31.865835
26.523471
25.631785
29.345751
27.389526
26.772618
21.563768
17.502904
14.324784
9.986758
8.578897
6.247759
6.852746
6.610751
6.493926
5.944967
6.531477
8.273721
8.086562
9.716749
10.415912
12.625456
14.034510
16.329885
18.536448
19.822717
22.067428
22.545457
24.889708
23.896694
26.790500
24.002790
25.769472
25.471449
24.157763
25.324821
22.757649
24.115443
23.172498
23.291707
23.348927
20.928979
22.850633
22.915602
20.635724
20.681620
21.635890
19.340515
18.996596
18.051863
20.679832
22.390485
19.492507
20.912886
20.234585
20.368695
20.182729
18.990636
20.486712
22.096634
24.696589
23.767948
27.354956
28.613806
30.243993
29.515624
27.991533
28.037429
26.583672
26.491880
22.958517
22.422671
21.472573
20.335913
17.659664
15.568733
15.682578
14.880896
15.883446
14.242530
14.264584
12.966990
13.687611
12.362599
12.513995
12.708902
##ZVALUE=230
49.554706
58.566928
87.713599
148.157477
192.686915
242.345929
265.829563
267.754793
240.617990
191.520452
146.584511
99.061728
65.334439
52.173734
50.696731
50.913692
53.916574
48.149824
43.791533
37.414432
25.521517
19.939542
12.863874
9.735823
7.329583
8.317828
7.389784
8.822680
9.654760
12.047887
13.040900
16.106963
19.273758
22.357702
26.444793
26.872754
30.745864
35.278797
34.140944
37.293434
36.594868
38.249493
37.604570
37.376881
35.337806
37.405491
34.382939
33.755898
33.261776
31.391978
31.249523
30.939579
30.493736
29.697418
29.443502
29.040575
29.478669
28.880835
28.296709
27.350783
27.580857
28.433800
27.549863
25.804639
24.240613
27.186871
25.391579
25.788546
27.899742
31.941533
30.201674
32.863617
34.538507
33.951998
36.769509
33.886433
35.421848
35.430789
32.248497
30.015707
28.402805
26.639700
24.696589
25.787950
24.729967
21.685958
22.172928
20.052791
21.672845
18.031597
18.562675
17.305613
18.829703
18.030405
17.213821
17.242432
##ZVALUE=235
17.106533
20.313859
42.130947
102.639794
165.427923
270.273685
363.654494
474.304557
529.723763
529.977679
482.630730
383.714437
292.825699
178.494453
124.544501
93.025565
76.636672
78.981519
85.303783
85.773468
79.626441
66.710711
47.908425
36.953688
25.901794
17.616749
15.698671
11.101961
10.770559
13.528466
14.616847
18.489957
22.570491
26.637912
29.503703
32.796860
34.770966
40.118694
39.988756
41.424632
42.591691
44.515729
42.780638
41.556954
44.146776
41.836500
41.708946
39.812922
40.112734
37.393570
38.041472
36.799908
36.254525
35.147667
36.195517
34.827590
35.505891
33.039451
35.337806
34.362674
34.821630
35.195947
33.909678
32.866001
33.106804
34.744740
33.832788
35.891533
35.072565
36.075711
39.245486
38.305521
41.988492
42.199492
42.992830
41.837692
40.487647
42.039752
40.934682
37.747622
35.356879
33.486485
34.874678
31.025410
30.829906
27.487874
27.517676
26.217699
26.862621
24.782419
24.403930
25.993586
24.656653
22.372603
23.676753
21.651983
##ZVALUE=240
3.239512
2.544522
6.575584
26.771426
59.891939
138.166547
231.169462
405.413508
546.578765
687.248707
827.270746
837.420821
760.265589
641.523004
477.176905
335.060954
194.888711
144.089460
110.712647
99.782944
109.354854
114.248991
112.755895
99.043846
86.228848
62.818527
46.545863
35.051703
26.257634
20.504594
18.336773
18.937588
20.960569
23.261905
24.658442
30.257702
29.373765
32.324791
34.423470
36.486983
35.536885
37.677884
35.915971
36.266446
37.337542
35.885572
35.247803
32.651424
35.191774
35.032630
36.094785
35.180449
35.360456
35.338998
36.878586
34.846663
37.079453
38.029552
34.619570
36.810637
36.047697
35.534501
37.604570
37.532449
39.283633
36.168694
37.101507
37.339926
39.305687
39.630532
43.217540
41.685700
44.554472
47.149658
47.659874
46.280622
46.768785
45.586824
43.902993
41.706562
40.726662
39.844513
37.325621
37.501454
34.279823
31.910539
31.600595
31.084418
29.911995
28.916597
27.490854
29.811859
28.096437
27.166605
27.984977
27.587414
##ZVALUE=245
1.823902
2.157688
1.868606
2.473593
5.821586
15.189648
57.303905
117.966533
258.464813
400.465727
646.501780
817.876458
964.303613
1015.698910
1007.547975
843.541026
696.946979
473.464727
319.864750
178.487897
126.950741
104.846954
113.243461
123.645663
130.926967
124.368668
112.316608
95.413923
69.937706
57.156682
41.790605
27.355552
20.747781
18.556714
18.047690
19.465685
19.694567
20.312667
22.736788
22.803545
21.883845
23.237467
22.347569
22.984743
23.903847
21.878481
23.126602
24.171472
24.686456
25.274754
26.274920
27.212501
27.561784
27.889609
27.160645
29.547811
31.082630
31.811595
32.796860
32.800436
33.043623
33.242702
32.956600
32.982826
34.891963
36.220551
34.856796
34.863949
35.148859
37.119985
37.126541
41.950941
41.276813
44.507980
42.046905
42.947531
42.066574
41.643977
38.915873
39.541721
38.010478
35.146475
33.969879
33.116937
33.615828
30.862689
29.824972
29.743910
29.706955
29.405951
27.328730
27.487874
26.734471
24.980903
25.417805
24.811625
##ZVALUE=250
2.083778
1.957417
1.934767
2.422929
2.155900
2.568960
3.236532
13.827682
34.618974
81.500411
219.503641
376.619697
637.673736
840.026736
1015.793681
1015.793681
1015.793681
1015.793681
980.920792
681.997538
472.333431
252.310634
157.025456
104.071498
106.244683
121.942759
128.777623
139.852762
134.543777
117.490888
102.543831
77.256560
61.113834
39.319992
29.872656
22.073984
17.672777
16.436577
16.441941
16.819835
15.377998
17.533898
17.575622
17.583966
18.049479
18.168688
18.398762
20.073652
20.195842
21.154881
21.895766
21.879673
22.954941
25.085807
26.776791
27.328730
28.872490
28.520823
30.119419
30.250549
30.381680
32.456517
32.469630
32.704473
33.721924
31.532645
31.849742
34.550428
35.270452
35.962462
35.511851
38.174987
38.807988
39.575696
41.062832
37.831664
40.715933
37.584901
35.578609
36.025643
34.366846
32.815933
32.287836
31.193495
29.803514
28.214455
28.560758
26.500821
28.130412
26.526451
26.124716
25.644898
25.015473
25.409460
24.970770
23.873448
##ZVALUE=255
1.602769
1.350641
1.750588
1.502633
1.273751
1.913905
1.962781
2.315640
2.371669
7.350445
22.847652
77.878833
161.147714
360.119939
551.953912
856.765509
1015.518904
1015.518904
1015.518904
1015.518904
1015.518904
961.909890
625.118613
393.220782
197.816491
128.684640
97.009540
103.719831
125.347972
137.710571
144.304633
140.854716
127.522945
107.057691
85.036755
59.653521
43.956637
30.002594
24.069548
19.614697
17.206669
16.615987
17.138720
17.847419
17.755628
17.679930
19.264817
18.508434
18.936992
20.764470
21.495819
22.102594
23.707747
25.873780
24.870634
26.559830
27.781725
28.606653
29.670596
31.502843
30.498505
32.775998
31.270981
33.040643
31.681657
31.828880
33.748746
32.185912
35.358667
35.187602
35.851598
35.372972
36.862493
36.992431
37.134886
36.770701
35.943985
35.198927
34.109950
31.760931
30.146837
29.244423
29.760599
27.467608
26.773810
27.294755
24.761558
24.628639
25.053620
23.930669
22.461414
22.935867
22.356510
21.994710
21.552444
21.871924
##ZVALUE=260
2.052784
1.594424
1.838803
1.705885
1.554489
1.560450
1.629591
1.951456
2.388954
1.861453
2.752542
4.069805
11.003613
47.812462
113.433003
273.592472
460.167527
775.809884
1011.525989
1015.793681
1015.793681
1015.793681
1015.793681
1015.793681
799.158812
541.993976
304.351449
180.416703
102.459788
90.280771
101.640821
128.763914
147.330761
154.857635
154.350996
137.833953
120.553970
91.521740
71.408749
49.378872
37.751794
27.563572
23.766756
21.968484
19.808412
20.703673
21.998882
22.311807
22.038817
22.479892
23.221970
24.504662
24.347901
25.648475
26.857853
27.718544
27.835965
29.394627
30.048490
30.635595
30.650496
30.536652
31.970739
31.944513
31.835437
32.398701
32.129884
32.510757
33.173561
33.306479
33.939481
35.587549
33.409595
35.738945
33.600926
34.416914
33.111572
32.190681
32.625794
30.002594
28.634667
27.464628
27.238727
27.069449
24.685860
25.369525
24.661422
22.883415
22.980571
22.856593
22.085905
22.868514
21.498799
21.208525
20.743608
21.178722
##ZVALUE=265
1.470447
1.446605
1.442432
1.166463
1.423955
1.737475
1.726747
1.748800
1.724958
1.775622
1.927614
2.348423
2.474785
2.932549
6.777644
35.422444
84.727407
221.874714
397.722721
741.524696
1010.395885
1015.793681
1015.793681
1015.793681
1015.793681
1015.793681
1008.915901
763.167739
427.168608
255.272985
145.805478
85.505843
88.708401
118.175745
139.199495
159.370899
166.108608
158.439875
144.802928
120.782852
100.868940
72.677732
55.319667
40.817857
31.694770
26.704669
25.439858
24.597645
25.222898
25.575757
25.463700
26.687980
28.324723
27.225614
27.774572
28.457642
29.682517
27.893782
29.305816
29.990673
30.489564
31.146407
30.594468
31.354427
31.182766
30.337572
30.963421
31.263828
31.534433
32.517910
31.270981
31.909943
32.662749
31.908751
32.656789
30.982494
30.880570
29.873848
28.229952
27.495623
26.995540
26.033521
24.749637
23.615956
22.546649
23.499727
21.524429
21.729469
20.631552
20.712614
20.914674
19.643903
18.658638
18.498898
18.956661
19.865632
##ZVALUE=270
1.226664
1.289845
1.564622
1.324415
1.369715
1.230836
1.636744
1.701713
1.579523
1.638532
1.740456
1.728535
1.982450
2.321601
2.165437
2.721548
3.552437
16.444921
49.842596
162.896514
325.136781
575.746894
982.929468
1015.793681
1015.793681
1015.793681
1015.793681
1015.793681
1015.793681
1001.224518
717.767477
373.768806
207.620859
99.356771
78.619719
95.144510
119.187832
149.559975
163.077712
173.148513
167.301893
150.904655
129.456520
102.276802
80.808997
58.025718
44.611692
35.730600
31.277537
28.994679
29.021502
28.512478
29.085875
28.253794
28.270483
28.950572
28.943419
29.543638
30.731559
30.963421
30.229688
29.553771
30.051470
30.357838
29.536486
29.433966
29.193759
28.784871
30.060410
28.779507
30.031800
30.149817
30.625463
30.864477
30.332804
30.374527
29.069781
27.956963
27.447939
26.018620
25.378466
23.363829
23.291707
22.761822
21.439791
21.067858
20.442605
19.969940
19.999743
19.054413
18.016696
18.505454
17.829537
17.610788
18.225908
17.620921
##ZVALUE=275
1.097918
1.308918
1.146793
1.363754
1.420975
1.381636
1.474619
1.350641
1.648664
1.356602
1.315475
1.711845
1.570582
1.748800
1.981854
2.233982
2.161860
2.360940
2.692938
6.936789
28.702617
84.863901
254.322886
481.745005
915.967822
1015.796661
1015.796661
1015.796661
1015.796661
1015.796661
1015.796661
1015.796661
930.110812
498.371720
290.389657
127.041936
79.895854
76.967478
95.920563
124.653578
147.023797
164.356828
172.844529
169.317722
152.523518
125.609636
105.945468
79.368949
64.267516
44.953823
38.375854
31.947494
31.749606
30.300617
30.676723
29.775500
30.723810
30.034781
30.805469
31.013489
31.691790
31.735897
30.967593
31.280518
30.904412
30.732751
30.546784
29.759407
30.698776
29.808879
29.828548
30.088425
30.358434
29.790998
28.623939
28.862953
28.396845
27.561784
25.869608
25.019646
25.361776
23.800731
22.469759
22.450686
21.161437
21.082759
20.677447
20.044446
19.637942
18.769503
18.829703
17.829537
17.878413
18.096566
17.512441
17.223954
##ZVALUE=280
0.982881
1.198649
1.044869
1.240969
1.201630
1.163483
1.211762
1.189709
1.181960
1.324415
1.536608
1.728535
1.483560
1.606941
1.750588
1.763701
1.805425
1.984835
2.152920
2.642870
2.820492
3.830791
17.693639
61.728954
202.381611
381.435752
730.987787
1015.794873
1015.794873
1015.794873
1015.794873
1015.794873
1015.794873
1015.794873
1015.794873
642.389655
385.651588
171.460509
94.002485
61.943531
69.800615
96.135736
117.244720
144.795775
158.590674
167.311430
161.794424
143.738985
126.825571
99.240541
80.042481
59.017539
47.083497
36.988854
32.587647
31.140447
30.778646
31.025410
31.751990
31.009912
32.053590
31.708479
31.083822
31.924844
31.844974
32.173991
30.476451
30.177832
30.663610
30.587912
30.382872
30.706525
30.419827
31.060576
29.852986
29.563904
28.678775
27.750731
26.899576
25.994778
24.448633
23.363829
22.870898
22.362471
22.436976
21.403432
20.522475
19.272566
19.106865
19.343495
17.861724
17.790794
17.518997
17.032623
17.051697
16.680956
##ZVALUE=285
1.024604
1.040697
1.131892
0.930429
1.006722
1.011491
1.076460
1.256466
1.081824
1.267791
1.268983
1.370907
1.182556
1.425743
1.354814
1.560450
1.418591
1.667738
1.976490
2.158880
2.218485
2.332926
2.739429
3.045797
8.974671
32.311678
112.122893
240.059495
526.108742
857.445598
1015.793681
1015.793681
1015.793681
1015.793681
1015.793681
1015.793681
1015.793681
857.985020
540.112853
256.727934
129.419565
57.273507
47.307611
62.719584
83.300471
114.252567
131.856799
150.388479
158.302784
155.526996
143.800974
122.774839
103.913546
77.184439
61.928630
45.031905
38.128495
32.798648
31.090975
30.616522
31.457543
31.025410
31.554699
31.707883
31.058788
31.006932
30.568838
31.658411
31.633973
31.434894
31.887889
31.296611
31.252503
30.974746
30.096769
29.028654
27.976632
27.226806
27.365685
26.129484
24.845600
23.662448
23.792982
22.350550
21.224618
20.541549
20.723939
19.637942
19.812584
19.381642
18.208623
17.974973
17.694831
16.739964
16.462803
16.404986
##ZVALUE=290
0.948906
0.893474
0.897646
1.054406
1.196861
1.026988
0.928640
0.996590
1.038909
1.145601
0.937581
1.174808
1.055598
1.036525
1.172423
1.341701
1.481771
1.413822
1.511574
1.778603
1.655817
1.902580
2.039671
2.432466
2.703667
2.786517
3.758669
16.008615
51.472783
166.014433
329.752564
705.353618
1015.793681
1015.793681
1015.793681
1015.793681
1015.793681
1015.793681
1015.793681
1015.793681
736.877918
371.008515
195.370913
73.449612
39.780736
41.450858
55.726767
78.223944
100.385547
127.641559
141.212940
153.439641
150.187612
138.969421
122.419000
95.504522
78.219771
58.571696
45.996904
37.621856
33.781528
31.191707
30.711889
30.007958
30.260682
29.863715
30.403733
30.544996
29.958487
29.923916
29.759407
30.935407
29.935837
29.929876
28.653741
27.918816
27.253628
26.346445
26.153922
24.768710
23.560524
23.750663
22.988915
21.590590
20.904541
20.484924
20.408630
19.789934
19.518733
18.167496
17.434955
17.755628
17.000437
16.824603
16.109943
16.301870
##ZVALUE=295
0.907779
0.884533
0.874996
0.846982
0.962615
1.148582
1.013875
0.921488
1.154542
0.842810
1.134872
1.211762
1.225471
1.006722
1.350641
1.380444
1.234412
1.395941
1.307726
1.465678
1.479983
1.503825
1.949668
2.026558
2.347827
2.234578
2.710819
2.548695
3.137589
6.005764
32.239556
96.482635
224.761367
547.623634
903.203487
1015.793681
1015.793681
1015.793681
1015.793681
1015.793681
1015.793681
1015.793681
965.024829
505.795479
278.695822
104.299784
47.549605
28.304458
35.440922
53.678751
72.730780
98.863840
118.568540
139.500499
146.278739
145.046711
135.181546
116.079450
97.353458
73.655844
59.828758
44.345856
37.122965
32.201409
29.851794
28.926730
28.871894
28.972626
28.827786
28.293729
27.978420
28.488636
28.483868
27.970672
28.193593
26.828647
25.407672
25.837421
24.383664
23.109913
23.177862
21.888614
21.523833
21.179914
20.275712
21.069646
19.821525
19.053817
18.695593
18.782616
17.527938
16.869903
17.137527
16.199946
16.282797
15.853643
##ZVALUE=300
0.888705
0.980496
0.892878
0.777841
0.743866
0.891685
0.777841
0.945926
0.929832
0.877976
0.912547
1.101494
1.102686
1.046658
1.058578
0.980496
1.035929
1.181960
1.209974
1.388788
1.544952
1.201630
1.443624
1.772642
1.640916
1.984835
1.858473
2.195835
2.317429
2.546906
3.092885
3.403425
14.669895
53.568482
181.416869
361.773968
757.261515
1015.794873
1015.794873
1015.794873
1015.794873
1015.794873
1015.794873
1015.794873
1015.794873
778.883696
388.819575
204.426646
74.029565
33.016801
26.652813
33.845901
51.754713
67.369938
92.647672
111.908913
132.080913
139.789581
141.216516
133.651495
113.926530
97.036958
73.972940
58.951974
44.070482
36.567450
29.646754
28.047562
26.063919
26.555657
26.036501
26.139617
25.630593
25.623441
24.991632
24.834871
24.210811
23.476481
22.182465
21.634698
21.696687
21.264553
20.512938
19.934773
19.244552
18.989444
18.787980
17.762780
17.647743
17.368793
17.383695
16.928911
15.589595
15.765429
15.507936
15.636683
##ZVALUE=305
0.799894
0.842810
0.857711
0.850558
0.769496
0.624657
0.775456
0.732541
0.786781
0.872612
1.060963
0.740886
0.977516
0.964999
1.067519
0.850558
1.000762
0.971556
1.163483
1.123548
1.115799
1.426935
1.372695
1.458526
1.760721
1.594424
1.620650
1.836419
1.993775
2.094507
2.097487
2.463460
2.801418
3.525019
5.799532
36.399961
106.870532
306.054950
558.322668
1000.418663
1015.789509
1015.789509
1015.789509
1015.789509
1015.789509
1015.789509
1015.789509
959.354639
605.410933
274.239779
131.135583
43.919683
24.909973
26.433468
33.824444
50.378442
65.562725
89.424849
108.385682
127.547979
134.680867
134.004951
126.486421
108.024478
91.109872
67.735910
54.636598
40.471554
32.716990
27.026534
25.297999
24.407506
23.293495
22.986531
22.915602
21.841526
21.570921
20.540953
20.712614
19.953847
19.605756
19.012690
18.734932
19.362569
18.236637
17.482638
17.717481
16.971827
16.826987
16.799569
15.874505
15.951991
15.665889
14.977455
15.077591
14.422536
##ZVALUE=310
0.690818
0.882745
0.696778
0.706911
0.867844
0.938773
0.789762
0.836849
0.848770
0.947714
0.862479
1.045465
1.058578
0.979900
1.029968
0.842810
1.168847
1.102686
1.021624
1.104474
1.040697
1.141429
1.271963
1.334548
1.339912
1.597404
1.687407
1.607537
1.796484
1.730919
2.041459
2.269745
2.219677
2.320409
2.650619
3.001690
3.631711
15.941858
55.835843
187.864304
380.143523
802.008510
1015.844941
1015.844941
1015.844941
1015.844941
1015.844941
1015.844941
1015.844941
1015.844941
885.137916
441.004634
233.867764
80.456734
33.383965
21.128654
24.184585
33.163428
43.342710
62.740445
78.811646
101.546645
115.038753
125.210881
126.355886
116.801858
105.374455
86.170435
68.870783
49.455762
39.328933
29.625893
25.222898
22.010803
21.098852
20.014644
19.669533
18.925667
18.915534
18.438697
17.807484
17.150640
17.438531
17.371774
16.931891
16.323924
17.041564
16.401410
15.896559
16.048551
15.679598
15.352964
15.173554
14.813542
14.563799
14.342666
##ZVALUE=315
0.690818
0.702739
0.941753
0.661612
0.796914
0.740886
0.664592
0.679493
0.883937
0.639558
0.866652
0.883937
0.842810
0.770688
0.918508
0.886917
0.803471
0.921488
0.838637
1.057982
1.091957
1.000762
1.111627
1.381636
1.180768
1.438856
1.315475
1.342893
1.394749
1.502633
1.475811
1.575947
1.830459
2.231598
1.999736
2.371669
2.783537
2.840757
3.376603
7.788539
29.185414
125.649571
275.281668
626.222491
985.205770
1015.793681
1015.793681
1015.793681
1015.793681
1015.793681
1015.793681
1015.793681
1015.793681
618.516803
333.059430
119.785666
48.796535
20.167828
18.865466
22.956729
28.512478
41.492581
55.244565
74.482560
90.497732
107.245445
115.502477
117.507577
110.897422
94.826818
81.133842
61.623454
48.652887
34.814477
26.712418
21.658540
18.926859
17.500520
16.680956
16.136765
16.431808
15.722513
16.124845
15.591979
15.700459
15.211701
15.095472
15.451908
15.012622
14.658570
14.710426
14.525652
14.128685
13.778806
13.920665
13.615489
##ZVALUE=320
0.663996
0.702739
0.665784
0.520945
0.674725
0.737906
0.745654
0.872612
0.673532
0.816584
0.970960
0.795722
0.684857
0.930429
0.921488
0.837445
0.717640
0.929832
0.784993
1.036525
0.984669
1.068711
1.052618
0.984669
1.033545
0.958443
1.082420
1.220703
1.408458
1.322627
1.397729
1.656413
1.586676
1.639724
1.618862
1.977682
1.928806
2.180934
2.463460
2.754927
2.978444
4.109740
12.102723
69.167614
178.579688
465.986729
777.233839
1015.828848
1015.828848
1015.828848
1015.828848
1015.828848
1015.828848
1015.828848
1015.828848
812.067986
465.003848
193.101764
83.320737
24.935603
15.988946
15.946627
18.052459
24.681687
33.807755
49.096942
63.461661
83.122849
95.523000
107.051730
109.901428
103.661418
92.608929
73.971748
59.379935
41.662455
32.161474
22.751689
19.414425
15.397668
14.466643
14.415979
14.219880
13.970733
14.265776
14.385581
14.062524
14.080405
14.025569
13.942719
13.859868
13.740659
13.608932
13.909936
12.909770
13.085604
##ZVALUE=325
0.695586
0.552535
0.704527
0.550747
0.803471
0.630617
0.718832
0.643730
0.695586
0.648499
0.703931
0.598431
0.648499
0.620484
0.747442
0.799894
0.856519
0.834465
0.889897
0.952482
0.808835
0.904799
1.024604
1.062751
1.036525
1.044869
0.985861
0.995994
1.280904
1.206994
1.160502
1.218915
1.422763
1.474619
1.480579
1.570582
1.729727
1.727939
1.853704
2.086759
2.202988
2.468824
2.752542
3.443956
6.689429
46.433806
122.013688
320.441723
573.681593
1006.226540
1015.803814
1015.803814
1015.803814
1015.803814
1015.803814
1015.803814
1015.803814
957.574844
587.567687
258.616805
118.915439
33.813715
14.706850
12.148619
12.310743
15.389919
20.434856
31.007528
42.555928
60.744882
75.947642
91.861486
99.790692
101.546645
96.287727
81.260800
68.307519
51.782727
39.274693
27.693510
21.741986
16.282797
14.125705
13.274550
12.979507
12.674928
12.761950
12.961626
12.524724
12.707710
12.671947
12.345910
12.603998
12.114644
12.150407
12.559891
##ZVALUE=330
0.687838
0.651479
0.723600
0.646710
0.577569
0.602603
0.650883
0.566840
0.607967
0.676513
0.620484
0.703931
0.913739
0.649691
0.646710
0.764728
0.726581
0.733733
0.810623
0.863671
0.670552
0.693798
0.837445
0.835657
0.935793
0.921488
0.760555
0.966787
0.880957
0.934601
1.071692
1.096725
1.232624
1.333952
1.219511
1.435876
1.478791
1.624823
1.709461
1.958609
1.847744
1.809597
2.150536
2.569556
2.688766
3.206730
4.028678
19.285679
66.968799
227.225423
435.394645
866.547823
1015.826464
1015.826464
1015.826464
1015.826464
1015.826464
1015.826464
1015.826464
1015.826464
778.578520
361.955762
177.906752
57.585835
20.899773
10.855794
10.387897
11.461973
13.644695
20.431876
27.888417
42.434931
54.757595
71.971416
84.667802
92.968941
94.034672
88.106990
77.896714
61.164498
49.200654
34.823418
26.716590
20.008683
16.384721
13.989806
12.942553
12.523532
12.233853
12.248755
12.091994
11.922717
11.572838
11.869669
11.638999
11.813641
##ZVALUE=335
0.718832
0.748634
0.686646
0.736713
0.786781
0.794530
0.731945
0.800490
0.744462
0.896454
0.752807
0.682473
0.858903
0.905991
0.860691
0.814795
1.044869
0.843406
0.874996
1.028776
0.964999
1.064539
0.961423
0.962615
0.981688
1.007915
1.113415
1.038909
1.326799
1.079440
1.225471
1.268983
1.321435
1.458526
1.308918
1.550913
1.558661
1.421571
1.615882
1.536608
1.753569
1.873970
2.080798
2.184510
2.472997
2.525449
2.501607
2.743602
3.377795
6.936789
42.644739
119.819641
337.318778
603.374839
1015.999913
1015.999913
1015.999913
1015.999913
1015.999913
1015.999913
1015.999913
1015.999913
920.611024
561.230779
237.729549
107.142925
30.537844
13.274550
10.489821
10.535717
12.016892
13.880730
19.772649
26.921630
39.582849
52.074790
66.818595
78.624487
87.062716
88.155866
81.932545
73.077679
59.558749
48.937798
35.662651
27.791858
20.473599
16.663671
13.648868
12.764931
12.223721
11.753440
11.390448
11.181831
11.410713
11.644959
##ZVALUE=340
0.508428
0.475645
0.553727
0.344515
0.401735
0.443459
0.599623
0.553727
0.557899
0.635982
0.645518
0.618696
0.622869
0.484586
0.513792
0.577569
0.521541
0.633597
0.636578
0.459552
0.622869
0.778437
0.627637
0.770688
0.757575
0.824928
0.762939
0.955462
0.916719
0.862479
0.852942
0.821948
0.811815
0.974536
1.164675
0.956655
0.932813
1.107454
1.196861
1.361966
1.265407
1.464486
1.459718
1.452565
1.722574
1.793504
2.001524
2.144575
2.186894
2.612472
2.969503
4.905462
18.795729
93.516707
223.245025
537.232757
887.004733
1015.793681
1015.793681
1015.793681
1015.793681
1015.793681
1015.793681
1015.793681
1015.793681
631.291866
346.836448
127.253532
49.032569
15.044808
10.636449
10.563731
10.545850
11.819601
13.821721
19.162893
26.021600
37.535429
48.867464
64.527988
73.863864
81.578493
82.731843
76.892972
69.782734
57.111979
47.055483
34.988523
27.365685
19.052625
15.582442
12.906790
11.706948
11.216998
11.094809
10.927916
##ZVALUE=345
0.461936
0.410676
0.561476
0.442863
0.513792
0.494719
0.462532
0.555515
0.450611
0.469685
0.662804
0.390410
0.551939
0.576973
0.713468
0.507832
0.663996
0.563860
0.771880
0.504851
0.732541
0.657439
0.698566
0.542998
0.647902
0.544786
0.787973
0.680685
0.762939
0.861883
0.771880
0.750422
0.815988
0.824928
0.815988
0.891685
0.925660
1.078844
1.008511
1.205802
1.138449
1.264811
1.366735
1.469851
1.467466
1.498461
1.835823
1.663566
1.783967
2.010465
2.273917
2.314448
2.517700
3.318787
6.830692
51.289797
146.383643
383.795500
674.057603
1015.793681
1015.793681
1015.793681
1015.793681
1015.793681
1015.793681
1015.793681
1015.793681
800.601840
458.875895
180.842876
78.264475
22.143722
11.617541
10.201931
9.987950
10.135770
10.223985
12.519956
15.885830
24.170876
33.513904
47.811866
57.316422
68.236589
74.198842
75.855851
73.701739
65.190792
57.427883
45.228601
35.113692
24.786592
19.714832
14.717579
12.680888
11.011958
##ZVALUE=350
0.458956
0.339746
0.486970
0.523925
0.519753
0.595450
0.576973
0.610948
0.557899
0.475645
0.634789
0.610948
0.575781
0.501871
0.482798
0.586510
0.632405
0.565648
0.621676
0.522733
0.541806
0.519753
0.638962
0.637770
0.745654
0.754595
0.825524
0.806451
0.603795
0.871420
0.794530
0.723600
0.859499
0.711679
0.865459
0.826716
0.997782
0.978708
1.006722
0.924468
1.000762
1.089573
1.109838
1.085997
1.200438
1.301765
1.355410
1.449585
1.383424
1.688600
1.655817
2.023578
1.904964
2.209544
2.490878
2.973676
4.130006
24.617910
84.215403
266.667604
497.903824
955.898762
1015.793681
1015.793681
1015.793681
1015.793681
1015.793681
1015.793681
1015.793681
928.758979
576.090813
264.447927
119.130611
30.107498
13.126731
9.673834
8.943677
8.892417
8.951426
9.586811
11.325479
16.203523
21.836758
31.187534
39.961934
51.853657
60.132742
67.084432
70.041418
67.933798
62.350631
51.961541
43.297410
32.737851
25.593638
18.658638
##ZVALUE=355
0.626445
0.487566
0.472665
0.484586
0.496507
0.523925
0.558496
0.566840
0.511408
0.558496
0.523925
0.643730
0.552535
0.618696
0.620484
0.499487
0.803471
0.628829
0.628829
0.802875
0.673532
0.746846
0.634789
0.777841
0.703931
0.624657
0.728965
0.774860
0.742674
0.760555
0.668764
0.746846
0.904799
0.849962
0.697970
0.945926
0.962615
0.969768
1.034737
1.161695
1.127720
1.092553
1.310706
1.156926
1.132488
1.383424
1.298785
1.413822
1.466870
1.552701
1.767874
1.759529
1.787543
1.923442
1.958609
2.146959
2.407432
2.805591
3.422499
11.157990
43.902397
172.352791
350.645781
719.680786
1015.793681
1015.793681
1015.793681
1015.793681
1015.793681
1015.793681
1015.793681
1015.793681
728.798509
324.583650
154.882669
43.468475
16.480684
9.187460
8.801818
8.509755
8.425713
8.386970
9.115934
10.988712
13.506413
19.489527
25.912523
35.885572
44.316649
54.036975
61.241984
63.664913
62.313676
56.643486
50.303936
40.537715
##ZVALUE=360
0.502467
0.555515
0.521541
0.575781
0.554919
0.652671
0.537634
0.445843
0.609756
0.812411
0.613928
0.531673
0.598431
0.641942
0.441670
0.567436
0.616908
0.482798
0.613928
0.598431
0.646710
0.776649
0.792742
0.679493
0.673532
0.765920
0.787973
0.721812
0.780821
0.919700
0.835657
0.887513
0.901818
0.727773
0.898838
0.784993
0.831485
0.898838
0.773668
1.067519
1.040697
1.040697
1.011491
1.059771
0.973940
1.069903
1.205802
1.245737
1.477599
1.431704
1.579523
1.534820
1.572967
1.749992
1.875758
1.760721
1.960993
2.223849
2.486706
2.949834
3.177524
5.202889
18.296838
89.599490
215.607882
523.656607
857.689977
1015.793681
1015.793681
1015.793681
1015.793681
1015.793681
1015.793681
1015.793681
883.689523
433.460474
223.789811
78.772902
28.223991
10.211468
8.865595
8.387566
8.058548
7.817745
7.907748
8.255839
9.377599
11.929870
15.035868
21.555424
28.726459
39.080977
46.187639
53.926706
56.779981
57.773590
##ZVALUE=365
0.385642
0.521541
0.562668
0.532866
0.521541
0.488758
0.523925
0.420809
0.533462
0.605583
0.529885
0.571609
0.559688
0.653863
0.604987
0.477433
0.506639
0.549555
0.480413
0.593662
0.468493
0.496507
0.595450
0.790954
0.749826
0.691414
0.720620
0.759959
0.672936
0.749826
0.694990
0.749826
0.895858
0.821948
0.823736
0.829697
0.993609
1.005530
0.903606
0.866652
0.899434
0.893474
0.978708
1.050830
1.040697
1.158714
1.193881
1.117587
1.168847
1.218915
1.225471
1.385808
1.414418
1.433492
1.522899
1.842976
1.740456
1.858473
2.117753
2.156496
2.563000
2.862811
3.028512
3.361702
7.835627
48.636794
134.048462
345.353484
633.651614
1015.785933
1015.785933
1015.785933
1015.785933
1015.785933
1015.785933
1015.785933
1015.785933
586.405993
318.506956
111.967921
42.092800
12.099743
8.819699
7.711649
7.675886
7.385612
7.213950
6.971955
7.144809
8.031726
9.532571
13.810992
17.991662
25.697947
32.584667
41.164756
##ZVALUE=370
0.487566
0.506639
0.490546
0.449419
0.504851
0.582933
0.394583
0.454783
0.591874
0.643730
0.591874
0.629425
0.520945
0.531673
0.716448
0.608563
0.652671
0.503659
0.565648
0.678897
0.698566
0.691414
0.683665
0.632405
0.660419
0.724792
0.661612
0.764728
0.745654
0.702739
0.860691
0.790954
0.798702
0.796914
0.762939
0.882745
0.907779
0.709891
0.926852
0.768900
0.997782
0.847578
0.861883
1.039505
0.999570
1.000762
0.983477
1.184940
1.153946
1.170635
1.145601
1.300573
1.309514
1.251698
1.336932
1.297593
1.420975
1.701713
1.641512
1.928806
1.963973
2.099872
2.307892
2.632737
2.710819
3.261566
5.183816
21.001697
112.865567
263.767838
596.172810
934.171677
1015.794873
1015.794873
1015.794873
1015.794873
1015.794873
1015.794873
1015.794873
807.389617
375.076532
190.621614
66.367984
24.577975
8.786917
7.608533
7.075667
6.761551
6.531477
6.381869
6.323457
6.565452
7.361770
8.649826
11.645555
15.720725
##ZVALUE=375
0.433922
0.486970
0.557899
0.641942
0.426769
0.415444
0.651479
0.511408
0.451803
0.546575
0.620484
0.423789
0.583529
0.489950
0.564456
0.547767
0.627637
0.519753
0.553727
0.749826
0.685453
0.560880
0.598431
0.632405
0.627637
0.609756
0.693798
0.727773
0.675917
0.586510
0.758767
0.585914
0.647902
0.680685
0.644922
0.783801
0.719428
0.732541
0.720620
0.672936
0.925660
0.722408
0.849962
0.780821
0.850558
0.824928
0.774860
0.980496
0.846982
0.944734
1.090765
0.903606
0.992417
1.066923
1.182556
1.122952
1.345873
1.334548
1.304746
1.402497
1.491904
1.537800
1.699924
1.898408
1.872778
2.421737
2.529621
2.745986
3.430843
11.858940
48.198700
183.533430
382.992625
822.323561
1015.793681
1015.793681
1015.793681
1015.793681
1015.793681
1015.793681
1015.793681
961.509943
608.986616
278.234482
133.349895
38.279891
13.877749
7.435679
6.957650
6.291866
6.350875
6.078482
6.138682
5.751848
6.029606
6.503463
##ZVALUE=380
0.431538
0.487566
0.386834
0.563860
0.472665
0.397563
0.411868
0.534654
0.430942
0.493526
0.476837
0.505447
0.545979
0.517964
0.460744
0.491738
0.390410
0.505447
0.610948
0.422597
0.439882
0.450611
0.524521
0.635982
0.397563
0.564456
0.623465
0.599623
0.679493
0.490546
0.523925
0.535846
0.539422
0.706911
0.678897
0.634789
0.671744
0.763535
0.924468
0.750422
0.674725
0.721812
0.762939
0.784993
0.957847
0.923872
0.894666
0.843406
0.904799
1.039505
0.926852
0.853539
1.002550
0.939965
1.018643
1.112819
1.126528
1.152754
1.118779
1.350641
1.204610
1.295805
1.421571
1.453757
1.554489
1.753569
2.132654
2.218485
2.637506
3.067851
3.676414
6.131530
57.557821
116.940737
421.210527
640.754700
980.857015
1015.794873
1015.794873
1015.794873
1015.794873
1015.794873
1015.794873
1015.794873
838.904977
416.412950
215.930939
78.288913
27.380586
8.014441
6.446838
5.939603
5.923510
5.588531
5.607605
5.323887
##ZVALUE=385
0.372529
0.363588
0.477433
0.250936
0.423789
0.308752
0.411868
0.273585
0.429749
0.522733
0.516772
0.633597
0.453591
0.269413
0.385642
0.445843
0.413656
0.501871
0.715852
0.430942
0.465512
0.501871
0.427961
0.494719
0.531673
0.560880
0.422597
0.532866
0.440478
0.376701
0.713468
0.582933
0.679493
0.663996
0.493526
0.583529
0.696778
0.650883
0.512600
0.729561
0.701547
0.706911
0.700951
0.792742
0.608563
0.819564
0.712872
0.744462
0.793934
0.756979
0.845790
0.747442
0.810623
0.831485
0.805855
0.904799
1.211762
1.079440
1.114607
1.067519
1.085997
1.122952
1.194477
1.391768
1.325607
1.456738
1.527667
1.905560
1.989603
2.263784
2.442598
2.654791
3.180504
3.954768
10.647774
65.197945
170.592666
437.757969
770.059824
1015.793681
1015.793681
1015.793681
1015.793681
1015.793681
1015.793681
1015.793681
1015.793681
649.407506
362.571478
132.453442
48.324466
10.898709
6.504655
5.784631
5.679727
5.291700
##ZVALUE=390
0.311732
0.503659
0.391603
0.410676
0.309944
0.428557
0.425577
0.434518
0.497699
0.540614
0.389814
0.468493
0.367761
0.385642
0.375509
0.403523
0.411868
0.482798
0.561476
0.461936
0.607967
0.473857
0.459552
0.556707
0.548959
0.453591
0.545979
0.455976
0.472665
0.414848
0.535846
0.523925
0.388622
0.496507
0.754595
0.567436
0.605583
0.616908
0.629425
0.633597
0.568628
0.516772
0.543594
0.724792
0.705719
0.741482
0.690818
0.573993
0.733733
0.811815
0.817776
0.867844
0.904799
0.869632
0.664592
0.823736
0.979900
0.953674
1.002550
1.004934
1.043677
1.075864
1.043677
0.882745
1.145601
1.328588
1.388788
1.598597
1.666546
2.070665
2.099872
2.161860
2.526641
2.499819
2.708435
2.804995
6.119609
26.339889
125.173926
286.786556
667.948723
1002.571583
1015.793681
1015.793681
1015.793681
1015.793681
1015.793681
1015.793681
1015.793681
863.498449
438.861847
221.995711
71.531534
24.258494
7.142425
5.858541
##ZVALUE=395
0.395775
0.483990
0.474453
0.393987
0.374913
0.515580
0.391603
0.356436
0.466704
0.468493
0.580549
0.323653
0.470877
0.411868
0.430942
0.480413
0.545979
0.323653
0.266433
0.561476
0.569820
0.464916
0.557899
0.473857
0.585914
0.593662
0.452995
0.442863
0.506639
0.398755
0.741482
0.492930
0.557899
0.596642
0.713468
0.671744
0.703931
0.591874
0.452995
0.609756
0.613928
0.627637
0.639558
0.717640
0.631809
0.760555
0.697970
0.718832
0.754595
0.638962
0.722408
0.720620
0.814795
0.670552
0.787973
0.979900
1.014471
0.885725
0.841618
1.044869
0.822544
0.842810
0.938773
1.242757
1.293421
1.250505
1.286864
1.590848
1.736879
1.957417
1.940727
2.125502
2.248883
2.187490
2.160668
2.381802
2.360940
2.664924
3.482699
18.696785
72.404742
243.032575
455.332994
859.140754
1015.828848
1015.828848
1015.828848
1015.828848
1015.828848
1015.828848
1015.828848
990.781784
645.110607
279.367566
129.355788
37.135482
##ZVALUE=400
0.329614
0.316501
0.310540
0.212789
0.374913
0.515580
0.320673
0.356436
0.474453
0.321865
0.294447
0.272989
0.564456
0.474453
0.301600
0.326633
0.489950
0.412464
0.479817
0.414848
0.424981
0.515580
0.631809
0.339746
0.487566
0.454783
0.534654
0.529885
0.532866
0.405908
0.506639
0.448823
0.654459
0.540614
0.433922
0.546575
0.537634
0.550747
0.577569
0.581741
0.455976
0.702739
0.674725
0.618696
0.580549
0.660419
0.562668
0.673532
0.756979
0.753999
0.808835
0.825524
0.688434
0.803471
0.803471
0.937581
0.775456
0.734925
1.016855
0.834465
0.892878
0.781417
0.963807
1.005530
1.220703
1.224875
1.230836
1.402497
1.548529
1.834631
1.807809
1.922846
1.962781
1.865625
1.807809
1.755953
1.963973
2.044439
2.376437
2.542734
3.041625
8.907914
36.710501
147.608519
309.817791
664.425492
990.855694
1015.793681
1015.793681
1015.793681
1015.793681
1015.793681
1015.793681
1015.793681
844.803452
422.611833
##END
