##TITLE=AAI0502
##FORMAT=SPECTACLE-ASCII V-1.2
##DATA TYPE=ULTRAVIOLET SPECTRUM
##SECOND TYPE=ULTRAVIOLET SPECTRUM
##DATE=10/24/17
##TIME=15:28:24
##SPECTROMETER/DATA SYSTEM=SPECTACLE
##XUNITS=NM EM
##YUNITS=ENERGY
##YFACTOR=1
##FIRSTX=220
##LASTX=410
##NPOINTS=96
##3DDATA=Equidistant
##ZUNITS=NM EX
##FIRSTZ=210
##LASTZ=400
##ZPOINTS=39
##XYDATA=(Y..Y)
##ZVALUE=210
3.941655
3.171563
3.431439
4.019737
3.414750
3.699660
4.130602
3.156662
4.168749
3.390908
3.391504
3.407598
2.656579
3.375411
3.183484
3.606677
4.053712
4.587770
4.407763
4.126430
4.522800
4.559755
4.855990
5.169511
5.768538
5.786419
6.570816
6.908774
6.401539
6.755590
6.971955
8.302927
8.159876
8.208752
8.303523
8.308887
8.856654
9.152889
8.753538
10.379553
9.220839
9.819865
10.038614
10.452867
10.648966
10.714531
10.148883
10.798573
11.395812
11.373758
12.039542
12.388825
12.272596
11.146665
11.760592
13.343692
12.344718
13.132691
14.172792
13.317466
13.150573
12.573600
13.930798
12.743473
13.879538
13.841987
15.081763
17.082691
18.938780
21.580458
22.417903
28.926730
31.150579
39.093494
40.478706
41.819811
44.226646
42.610765
41.279793
41.313767
37.612915
30.902624
29.482841
24.481416
21.765828
18.397570
15.802979
13.443828
12.308955
13.108850
12.742877
11.791587
11.918545
12.159944
13.404489
12.200475
##ZVALUE=215
12.702942
10.724664
11.393428
9.336472
8.896589
6.777644
6.526709
5.309582
7.944703
6.737709
6.336570
5.491972
5.699992
4.047751
3.795624
3.616810
4.148483
3.793836
3.922582
4.683733
4.953742
5.078912
5.037785
5.328655
5.076528
6.452799
6.251931
6.746650
7.375479
7.552505
7.396936
7.632971
9.344816
9.160638
10.404587
10.421872
9.995699
10.455847
11.020899
12.195706
11.541843
12.150407
12.411475
12.882948
13.708472
13.538599
13.631582
14.117956
12.598634
13.544559
13.513565
13.417602
14.088750
14.090538
13.728738
14.575720
12.390614
13.941526
13.366938
12.849569
15.038848
13.423562
14.978647
15.612841
14.569759
16.586781
18.006563
18.579960
19.771457
20.577908
23.679733
29.611588
29.920936
37.333965
39.576888
39.301515
42.055845
40.153861
40.070415
38.010478
33.885837
31.057596
28.366446
22.256970
20.975471
18.302798
16.890764
13.615489
13.689995
12.380481
12.561679
13.461709
12.677908
11.154413
12.728572
12.185574
##ZVALUE=220
36.051869
34.875870
43.176413
40.768981
37.164688
30.710697
22.018552
20.318627
14.837980
14.302731
13.007522
13.194680
13.708472
13.857484
11.804700
9.523630
8.132458
6.053448
5.732775
4.603863
5.057454
5.357862
5.686879
5.538464
5.929470
6.032586
6.541610
7.473826
7.938743
8.698702
8.705854
8.823872
10.681748
13.562441
14.706850
14.401674
16.192794
17.138720
18.886924
19.238591
18.858910
19.708872
20.781755
18.604994
18.492937
19.179583
18.395782
18.349886
18.709898
19.679666
18.940568
19.091964
19.737482
20.271540
18.650889
18.532872
18.810630
20.123720
19.025803
20.123720
19.181967
19.887686
16.018748
17.385483
19.540787
18.941760
18.793941
20.798445
22.167563
25.503635
27.591586
31.584501
32.149553
37.402511
37.412643
41.354895
42.891502
40.225983
39.619803
37.958622
34.253597
31.607747
30.286908
25.563836
22.649765
20.912886
17.890930
16.344786
14.522672
15.744567
15.282631
15.353560
13.867617
14.965534
14.074445
14.007688
##ZVALUE=225
56.420565
60.680509
80.666542
103.363991
111.096501
114.473701
107.487440
86.168647
66.861510
42.564869
33.942461
27.118921
28.312802
28.375983
27.718544
26.060939
22.313595
19.138455
15.422702
10.901690
7.651448
7.183552
6.590486
5.693436
6.489754
6.837845
8.133650
8.421540
9.339452
9.736419
10.691881
13.724566
15.694499
19.574761
21.130443
24.277568
26.733875
27.694702
30.940771
30.780435
32.136440
32.418966
32.287836
30.164719
30.107498
31.078458
28.750896
28.815866
29.410720
29.017925
28.769970
28.531551
27.706623
28.385520
27.080774
26.304722
27.309656
28.163791
24.705529
26.647449
26.326776
27.206540
25.640726
25.843978
24.911761
25.170445
25.238991
26.507974
28.485656
31.477809
31.124949
34.835935
36.772490
44.123530
44.230819
42.539835
43.040514
44.803619
40.037632
37.016869
34.054518
32.233596
30.352473
26.934743
23.939610
22.508502
22.138953
19.155741
20.949841
18.702745
17.809868
19.143820
19.238591
18.957853
19.568801
18.479824
##ZVALUE=230
48.894882
53.376555
88.192821
141.239762
194.719434
252.004862
271.932483
279.080868
256.493688
197.464824
147.847533
105.454922
65.336823
52.592754
48.154593
52.574873
52.588582
50.735474
45.195818
37.969947
29.201508
21.394491
14.411807
10.488629
8.347631
8.659959
9.541512
9.688735
11.717677
12.324452
14.365911
20.014644
22.672415
28.681755
29.655695
34.183860
37.172437
40.054917
41.721463
44.198632
42.155981
43.548942
45.401454
44.455528
43.264627
45.072436
41.556954
44.644475
42.228699
38.355589
39.994717
39.271712
37.393570
37.754774
36.032796
38.250685
37.363768
37.719607
36.301613
35.884976
35.514832
35.918951
37.712455
36.000609
35.231709
37.098527
35.426617
38.551688
37.759542
37.897825
39.177537
44.994950
47.679543
47.495961
48.861504
51.334500
48.991442
49.806833
48.751831
43.454766
41.837692
39.772987
36.591887
34.021735
33.016801
29.000640
28.596520
26.332736
24.734735
25.345683
24.686456
23.279786
23.930669
22.831559
23.248792
21.634698
##ZVALUE=235
17.451644
17.903447
39.954782
98.165870
165.877938
271.052718
369.388461
485.446453
543.362498
536.796451
506.229997
390.399694
303.872824
194.098949
136.679411
97.502470
75.344443
81.497431
83.507895
86.474419
78.042746
67.681670
51.386952
38.040876
26.318431
18.548965
14.030933
12.640953
12.498498
15.550852
16.240478
20.568967
26.757717
31.454563
33.852458
40.182471
43.113828
46.239495
49.304962
52.118897
50.538778
51.457882
52.275658
54.368973
52.304864
49.671531
50.780773
48.701763
49.770474
46.852827
48.641562
47.073960
43.994784
46.382546
45.495629
46.256781
45.102835
43.137670
45.732856
48.284531
45.472980
44.323802
43.207407
43.474436
43.456554
44.105649
42.760968
45.931935
42.047501
48.346519
49.908757
51.095486
53.648949
56.298971
58.253407
57.196617
57.312846
54.129958
52.340627
50.713420
50.415993
43.131709
42.606592
39.098859
38.667917
36.289692
32.737851
34.178495
32.648444
32.048821
30.769706
31.322837
30.580759
30.490756
31.798482
27.863979
##ZVALUE=240
3.037453
2.817512
7.019639
24.140477
55.315495
136.082768
231.994987
416.438580
561.802983
702.027678
865.654945
882.848501
795.650482
683.822632
501.260757
360.210538
214.505792
150.374770
114.845634
100.983977
107.849836
115.520954
113.576651
102.435946
85.124969
63.705444
48.082471
36.154985
25.700927
19.222498
18.340945
20.190477
22.900701
26.626587
28.431416
34.107566
36.669970
37.689805
41.252971
42.041540
44.059753
40.035844
44.024587
42.991638
42.630434
41.429996
43.278933
41.751862
42.328835
43.318868
42.686462
43.900609
43.027997
43.790936
43.931603
44.322610
45.423508
43.037534
44.325590
49.671531
47.507882
47.229528
46.934485
47.422647
46.906471
45.755506
45.922995
48.248768
50.032735
49.414635
54.877996
55.924654
55.294633
61.717629
60.662627
61.785579
64.164996
59.462786
54.453611
55.852532
52.261949
49.151778
48.338771
45.478940
41.986704
41.030645
39.881468
39.523840
35.858750
35.883784
36.600828
37.218928
35.008788
33.597946
34.681559
32.946467
##ZVALUE=245
2.239943
2.338886
2.981424
2.489686
5.853772
16.849637
53.010583
114.835501
261.987448
422.046781
674.865842
861.170888
996.237993
1015.967727
1015.967727
894.525647
738.443732
498.563647
346.084833
196.780562
136.280656
109.266639
112.520456
125.998855
131.956935
125.735998
113.203526
96.265674
72.999001
56.084991
44.660568
29.433966
22.319555
20.392537
21.294951
21.161437
21.683574
22.920966
25.167465
25.817752
25.431514
26.722550
27.139783
26.980639
28.792620
28.669834
30.071735
29.885769
31.487942
31.589866
33.626556
33.387542
33.102632
36.098957
35.892725
35.917759
38.578510
39.727688
42.936802
41.371584
41.836500
42.567849
43.188930
42.144656
44.620633
43.662786
42.520761
45.518875
47.092438
48.610568
51.096678
50.738454
54.762959
55.778623
58.671832
56.140423
56.314468
54.832697
52.325726
49.367547
47.039986
45.224428
43.275952
42.280555
39.490461
38.442612
37.276745
36.335588
37.458539
36.290884
34.954548
34.961700
35.701990
34.059882
32.478571
32.072663
##ZVALUE=250
2.181530
1.618862
1.956820
2.140999
2.314448
2.221465
2.952814
12.462735
35.248995
80.954432
219.378471
395.747423
674.522519
900.551677
1015.793681
1015.793681
1015.793681
1015.793681
1045.762897
751.171708
507.276654
274.582505
172.126889
110.313892
102.544427
120.533705
128.410459
136.724710
135.115981
121.868849
106.866956
79.639554
60.802698
43.349862
32.861829
22.452474
20.504594
17.943978
18.924475
19.162893
19.454956
19.596815
20.113587
21.022558
20.631552
21.392703
22.359490
24.949908
26.452541
27.430654
27.224422
29.272437
30.806661
34.295917
33.944845
34.539700
34.891963
37.889481
38.970709
38.084984
41.466951
40.928721
39.644837
42.538643
43.293834
43.064952
43.669939
44.753551
45.546889
45.593977
46.369433
48.852563
51.138997
53.023696
52.985549
53.020716
50.576925
51.795840
48.243999
47.966838
45.693517
43.249726
39.725900
37.882924
38.334727
37.712455
34.766793
34.105778
31.307936
30.653477
31.982660
30.350685
30.574799
31.658411
30.925870
30.685663
##ZVALUE=255
1.783967
1.965761
1.953840
2.018809
1.965761
1.842976
2.310872
2.215505
2.979636
5.711913
30.444860
76.085925
158.119798
364.241004
585.196614
923.818946
1015.788913
1015.788913
1015.788913
1015.788913
1015.788913
1003.465652
665.828586
427.019596
215.852857
134.258866
100.085735
102.264881
126.727819
142.305493
147.212744
144.852996
132.172704
109.581947
90.722442
65.601468
47.800541
32.115579
26.265979
22.546649
21.752715
20.318627
21.696687
22.388697
22.293925
23.028851
22.922754
24.909973
26.129484
26.253462
27.389526
28.944612
30.702949
33.153892
33.905506
33.909678
36.497712
36.879778
36.263466
38.679838
40.880442
41.400790
41.525960
41.436553
43.732524
43.863654
42.307973
44.605732
45.830607
45.753717
47.154427
46.015978
47.414899
49.240589
48.387647
49.685836
48.422813
46.415925
46.569705
42.742491
39.983988
39.748549
37.410855
35.999417
34.104586
33.533573
32.754540
30.442476
31.587481
28.727651
30.133724
30.249953
28.771758
28.887987
28.089881
26.876926
##ZVALUE=260
1.375675
1.876950
1.763701
1.785755
1.756549
1.728535
2.159476
2.451539
2.466440
2.314448
2.453923
3.344417
15.919805
45.322776
131.546855
266.232491
550.555587
820.111632
1015.793681
1015.793681
1015.793681
1015.793681
1015.793681
1015.793681
929.367542
541.693568
341.453552
172.388554
109.161735
90.199709
105.961561
131.961703
149.950981
160.750747
155.309439
140.639544
123.358965
96.209645
76.342821
55.158734
42.537451
32.430887
28.013587
26.683807
26.023984
26.918650
28.454661
28.094649
28.481483
28.747916
30.176640
31.347871
32.308698
33.186674
32.937527
35.236478
36.113858
37.486553
38.421750
39.263964
40.368438
40.919781
41.474700
41.718483
41.340590
41.414499
42.733550
43.310523
45.048594
44.503808
43.930411
44.666529
46.118498
47.927499
45.941472
44.315457
44.930577
42.916536
42.146444
40.462613
38.155913
36.138892
34.661889
34.937859
32.929778
31.553507
31.717420
30.323863
30.573606
29.668808
29.273629
26.827455
27.271509
26.859641
26.524663
26.510954
##ZVALUE=265
1.297593
1.572967
1.267791
1.395941
1.654625
1.648664
1.639724
1.768470
1.767874
1.812577
1.912713
2.426505
2.459884
3.239512
6.613731
34.210682
88.913441
231.148005
416.739583
813.331008
1015.793681
1015.793681
1015.793681
1015.793681
1015.793681
1015.793681
1015.793681
854.724646
462.534428
274.308920
163.127780
88.773966
89.216828
120.444894
140.696764
161.719918
172.065496
165.446997
151.902437
127.015710
106.557608
80.816746
62.660575
46.175718
38.493872
33.207536
32.256842
31.758547
31.585693
32.687783
32.641888
33.442974
33.406615
35.811663
35.771728
35.477877
36.362410
37.381649
37.289858
38.606524
39.099455
39.881468
39.385557
38.972497
40.002465
39.333701
40.002465
40.596724
39.835572
39.666891
40.199757
40.775537
42.088628
42.332411
40.811896
40.513873
39.331913
38.503408
37.245750
36.676526
33.933520
33.080578
32.221675
30.482411
30.699968
29.175878
27.398467
27.371645
27.489662
26.803613
26.802421
26.703477
26.772618
25.055408
24.701953
24.700761
##ZVALUE=270
1.371503
1.289845
1.392961
1.499653
1.291633
1.658797
1.499653
1.545548
1.772642
1.897812
2.053976
1.882911
2.028942
2.164841
2.624989
2.614856
3.463626
15.720725
48.930645
164.956450
334.936380
605.502725
1015.793681
1015.793681
1015.793681
1015.793681
1015.793681
1015.793681
1015.793681
1015.793681
783.268809
405.249000
227.937698
106.738806
83.710551
100.157857
124.603510
152.590871
169.866681
176.620483
175.252557
156.067610
139.259696
110.875964
87.131858
63.967705
51.499605
43.087602
39.111972
36.064982
35.195947
35.712719
35.431981
36.250949
36.166906
36.494732
37.321448
37.791729
36.702752
38.721561
38.856864
37.792921
36.364794
36.275983
37.451982
37.363768
36.772490
37.587881
36.947727
37.556887
37.636757
37.364960
38.691759
38.302541
38.052797
37.894845
37.237406
35.549998
33.445954
32.642484
32.438636
29.429793
29.992461
29.015541
26.731491
26.679635
26.858449
26.222467
25.446415
23.361444
24.142861
23.905635
22.512674
22.500753
22.171736
23.584962
##ZVALUE=275
1.401901
1.200438
1.248717
1.318455
1.418591
1.253486
1.367927
1.627803
1.432896
1.730919
1.803637
1.663566
1.703501
1.814961
1.829863
2.230406
2.058744
2.878904
3.000498
7.265806
29.199719
88.872910
272.817612
522.165895
976.848602
1015.797853
1015.797853
1015.797853
1015.797853
1015.797853
1015.797853
1015.797853
982.964635
546.422005
314.328671
139.731765
84.612966
81.049800
99.802613
131.534934
151.841640
170.743465
180.309415
174.637437
159.822702
133.676529
111.337900
85.492730
69.420934
52.996874
44.670701
38.831830
38.072467
36.394000
37.130713
37.378669
37.086606
37.520528
36.899447
37.348866
38.170815
38.755536
37.672520
37.639737
37.291646
36.410689
36.695600
36.375523
36.791563
36.947727
36.622882
36.580563
36.380887
37.342906
36.612749
37.145615
34.402609
34.147501
33.004880
31.838417
30.992627
29.694438
28.962493
27.228594
26.712418
25.724769
25.084615
24.858713
24.604797
23.556948
23.635626
22.633672
22.554994
22.771955
22.327900
21.510720
##ZVALUE=280
1.051426
1.225471
1.163483
1.211762
1.292825
1.053810
1.337528
1.343489
1.292825
1.430511
1.510978
1.621842
1.344681
1.840591
1.758933
1.617670
1.612902
1.878738
2.377629
2.499819
2.884865
3.575683
19.087791
65.138936
216.532946
414.158702
793.673992
1015.793681
1015.793681
1015.793681
1015.793681
1015.793681
1015.793681
1015.793681
1015.793681
717.495680
427.859426
188.888907
100.312829
65.350533
74.659586
101.055503
122.943521
147.911906
165.324807
171.921849
166.377425
152.876973
132.815838
106.660724
86.075664
63.550472
53.429604
43.312907
39.620996
36.932826
36.994815
36.975741
37.858486
37.652850
38.128495
38.095713
36.793947
37.973523
37.925839
36.685467
36.696792
36.916733
37.085414
37.225485
36.379695
35.985708
36.895871
37.582517
36.730766
35.318732
35.526752
33.887625
32.847524
31.047463
30.467510
28.143525
28.705001
27.311444
26.781559
26.667714
25.474429
24.498701
24.107695
23.817420
23.411512
22.015572
22.072792
21.424890
21.152496
21.040440
##ZVALUE=285
1.123548
1.232624
1.067519
1.176000
1.277924
1.078844
1.252890
1.146793
1.277924
1.253486
1.375675
1.497865
1.560450
1.599789
1.483560
1.435876
1.365542
1.503825
1.932979
1.913905
2.153516
2.410412
2.788901
3.061891
9.693503
35.215616
127.148628
267.203450
579.676628
948.356986
1015.793681
1015.793681
1015.793681
1015.793681
1015.793681
1015.793681
1015.793681
968.468785
625.064969
295.535922
149.961710
64.610839
51.816702
67.037940
87.492466
117.574930
137.472749
155.544877
164.982677
162.352920
150.914788
128.036737
108.407736
81.999898
66.078901
49.813986
43.309927
38.388968
36.873817
36.969781
36.051869
37.544966
36.825538
36.765933
36.533475
36.493540
36.801696
36.875606
36.544800
37.090778
36.800504
37.177801
36.580563
36.479831
35.817623
34.475923
34.110546
33.115745
32.060742
30.766726
30.046701
28.444529
28.076768
27.738810
26.496649
25.766492
24.935603
24.281740
24.250746
24.254918
23.182631
22.365451
22.280812
21.901727
21.572709
20.697713
##ZVALUE=290
1.115799
1.157522
1.014471
1.020432
1.189709
1.130700
1.091957
1.248717
1.196861
1.172423
1.317859
1.440644
1.447797
1.338720
1.246929
1.514554
1.572967
1.534820
1.787543
1.655817
1.924634
1.993775
2.207756
2.540946
2.597570
3.231764
3.937483
18.345714
59.545636
194.879770
382.141471
818.365812
1015.793681
1015.793681
1015.793681
1015.793681
1015.793681
1015.793681
1015.793681
1015.793681
870.054960
434.546471
225.170851
82.145929
43.102503
44.510961
58.676600
82.344413
102.878809
130.800605
147.082806
157.842636
156.349540
143.963695
128.642917
102.681518
82.844496
63.199997
51.882863
41.909814
37.598610
34.788847
33.888817
34.473538
35.315752
33.943653
35.038590
35.078526
34.404993
35.688877
34.934878
35.441518
34.672618
33.739805
34.952760
33.577681
32.131672
31.425953
30.055642
29.524565
28.211474
27.492642
27.464628
26.535988
26.344657
25.860667
24.673939
24.285913
23.440719
23.231506
22.934675
21.862984
22.404790
21.339655
21.523833
20.686984
##ZVALUE=295
1.103878
0.927448
1.023412
0.895858
0.908971
0.972748
0.915527
1.124740
1.259446
0.973940
1.105666
1.195669
1.105666
1.351833
1.318455
1.118779
1.480579
1.367927
1.624823
1.524687
1.673698
1.856685
1.814961
2.230406
2.205968
2.223849
2.752542
3.071427
3.353953
6.339550
35.404563
102.307796
302.154422
593.447685
1015.793681
1015.793681
1015.793681
1015.793681
1015.793681
1015.793681
1015.793681
1015.793681
1015.793681
614.134669
332.632661
115.370750
51.966906
31.961799
38.124919
52.081943
77.399611
97.560883
125.420690
139.926672
151.136518
149.682760
139.496922
121.414661
99.766850
82.733631
62.472820
50.586462
40.655732
36.596656
33.458471
31.972528
32.924414
32.805800
32.439828
32.145977
33.271909
33.428669
33.212900
32.576919
31.911731
32.565594
31.671524
30.581951
28.276443
28.870702
27.810931
27.159452
26.439428
25.742650
25.065541
24.996996
24.922490
24.071932
23.505688
23.050904
22.172928
21.633506
21.410584
21.289587
20.892620
20.333529
##ZVALUE=300
0.717640
0.934601
0.950694
0.963807
0.897646
1.036525
0.950694
0.890493
1.082420
1.222491
1.166463
1.244545
1.189709
1.088977
1.233816
1.211762
1.173615
1.435876
1.291633
1.368523
1.394749
1.524687
1.605749
1.995564
1.789927
2.130866
2.014637
2.428889
2.634525
2.735853
3.544688
4.215837
11.582971
72.623491
185.101628
484.758615
850.901604
1015.794873
1015.794873
1015.794873
1015.794873
1015.794873
1015.794873
1015.794873
1015.794873
862.716436
514.949560
221.741796
100.983977
35.257936
28.479695
39.009452
50.841570
73.356628
93.179941
118.645430
133.816600
146.347880
144.609809
134.511590
122.812986
97.593665
81.136823
61.569810
48.535466
38.330555
34.348965
31.757951
30.812621
30.456781
30.527711
30.462742
30.392408
30.807853
29.904842
28.959513
29.313564
28.631687
27.747750
27.230978
26.596785
25.634766
25.386810
24.850965
24.080873
24.302602
23.580790
23.409724
21.939874
22.747517
21.674633
21.697879
21.034479
20.956993
20.523667
20.437837
##ZVALUE=305
0.889897
1.021624
0.979900
0.910759
0.961423
0.898838
0.936985
0.975728
1.004934
0.868440
1.075864
0.971556
1.072884
1.134872
1.007915
1.054406
1.120567
1.122952
1.261830
1.191497
1.517534
1.368523
1.668930
1.640916
1.649857
1.855493
1.873970
1.939535
2.157688
2.456903
2.600551
2.919436
3.047585
3.886819
6.777644
44.113994
124.215484
359.952450
666.834712
1015.798450
1015.798450
1015.798450
1015.798450
1015.798450
1015.798450
1015.798450
1015.798450
1015.798450
746.002793
332.395434
154.773593
49.913526
28.091669
29.536486
37.153959
53.296685
70.319772
95.569491
112.531781
131.055713
137.491822
138.976574
129.936934
114.324689
97.684860
73.881745
58.525801
45.482516
37.970543
31.728745
29.784441
28.721690
28.715730
27.899742
27.974844
27.422905
27.209520
26.129484
25.523901
25.387406
25.111437
24.354458
23.595691
23.945570
23.006797
22.650957
22.554994
22.373796
22.073984
22.344589
21.717548
21.036863
20.541549
20.438433
20.347834
19.671917
##ZVALUE=310
0.902414
0.934601
1.085997
1.003742
1.019835
0.906587
1.010895
1.139641
1.056790
0.985861
0.951886
0.974536
1.106858
0.954866
1.101494
1.012683
1.369715
1.240969
1.332760
1.374483
1.550913
1.493692
1.421571
1.578927
1.498461
1.732707
1.683831
1.852512
2.142787
2.226830
2.333522
2.477765
2.811551
2.947450
3.166795
3.962517
4.774928
19.012690
65.058470
224.704742
452.376604
949.172974
1015.880704
1015.880704
1015.880704
1015.880704
1015.880704
1015.880704
1015.880704
1015.880704
1015.880704
583.761930
302.739739
99.374652
39.440989
24.267435
28.204918
36.722422
47.564507
65.934658
82.490444
106.532574
119.074583
129.217505
129.866004
121.793747
109.076500
90.642571
74.208975
54.261684
43.894649
34.434795
31.107664
27.640462
26.073456
25.045872
24.491549
24.016500
23.580790
23.179650
22.498965
22.796988
22.094846
21.635890
22.151470
21.789670
21.215677
21.322966
20.975471
20.945668
20.594597
20.279884
19.944906
19.349456
19.649863
19.106865
##ZVALUE=315
0.728965
0.764728
0.658631
0.746846
0.832677
0.917912
0.789762
0.780821
0.911951
0.990629
1.047850
0.965595
0.881553
0.828505
0.846982
1.044869
1.035929
1.029968
0.927448
1.208782
1.212955
1.176596
1.272559
1.276731
1.391768
1.328588
1.553893
1.670718
1.564622
1.995564
2.074838
2.077818
2.389550
2.421737
2.558827
2.862811
3.047585
3.682971
4.305840
8.954406
33.959746
147.424936
329.673886
760.617852
1015.793681
1015.793681
1015.793681
1015.793681
1015.793681
1015.793681
1015.793681
1015.793681
1015.793681
945.137739
514.858961
173.733830
62.613487
24.993420
22.809505
26.407838
32.553673
44.940710
57.921410
77.626705
92.749000
111.130476
120.024681
121.240616
115.917921
99.966526
86.331964
66.497922
52.937865
38.886666
31.708479
25.509000
23.115873
21.535754
21.128654
20.451546
20.868778
20.301938
20.488501
20.204782
20.100474
20.565987
20.081997
19.292831
19.889474
19.914508
19.133687
19.372702
18.951893
19.337535
18.755794
18.311739
##ZVALUE=320
0.880957
0.869632
0.830889
0.746846
0.735521
0.857711
0.988841
0.844598
0.787973
0.773668
0.853539
0.987649
0.870824
1.073480
0.833869
0.997782
0.810623
0.926852
1.054406
1.108646
1.123548
1.110435
1.294613
1.407862
1.405478
1.629591
1.546741
1.553893
1.606941
1.684427
1.525879
1.727939
2.174973
1.959801
2.362728
2.377629
2.360940
2.909899
2.999902
3.338456
3.792644
5.431771
16.006827
92.787743
244.621634
638.526678
998.718739
1015.782952
1015.782952
1015.782952
1015.782952
1015.782952
1015.782952
1015.782952
1015.782952
1015.782952
834.226608
333.611965
132.805705
33.464432
20.502806
20.259619
22.355914
28.743744
36.305785
52.501559
66.416860
86.874962
100.558996
110.876560
112.567544
107.122660
96.939802
78.774691
63.342452
46.342611
37.450790
27.507544
23.460984
19.726753
19.183755
18.452406
18.498898
18.482804
18.640757
18.819571
18.974543
18.442869
18.462539
18.510818
18.138885
18.034577
18.254519
18.131733
18.233657
18.325448
##ZVALUE=325
0.816584
0.777841
0.903606
0.953674
0.887513
0.829697
0.772476
0.854731
0.749826
0.762939
0.783801
0.888705
0.910759
0.973940
0.825524
1.031756
1.160502
1.048446
0.968575
1.037717
1.088977
1.130700
1.167655
1.114607
1.071692
1.347661
1.377463
1.463890
1.353621
1.444817
1.438856
1.637936
1.603961
1.792908
1.754761
2.147555
2.137423
2.512932
2.645850
2.927780
2.999902
3.549457
4.215837
4.453659
8.821487
61.074495
166.716576
447.183847
806.328654
1015.794873
1015.794873
1015.794873
1015.794873
1015.794873
1015.794873
1015.794873
1015.794873
1015.794873
1015.794873
540.514588
233.313441
54.273605
21.007657
16.710758
17.119646
19.739866
24.856925
34.975410
46.988726
65.863729
80.608726
96.825957
103.171468
106.543899
101.122856
87.130666
73.230863
56.265593
44.085979
32.057762
25.343895
20.664930
18.988848
17.627478
17.442703
17.742515
17.690659
17.777681
17.106533
17.989874
17.329454
17.254949
17.355680
16.839504
17.509460
17.763972
##ZVALUE=330
0.661612
0.698566
0.845790
0.819564
0.607967
0.842810
0.855923
0.625849
0.775456
0.892878
0.929832
0.877976
0.741482
0.859499
0.871420
0.973940
0.808835
0.767708
1.080632
1.153946
1.017451
0.937581
0.938773
1.203418
1.093745
1.398921
1.085997
1.288652
1.430511
1.488924
1.417994
1.542568
1.669526
1.707673
1.868606
1.803637
1.977682
1.921654
2.156496
2.366900
2.519488
2.599955
2.785921
3.543496
3.837943
4.461408
5.638599
25.009513
89.496970
303.909779
585.611463
1015.792489
1015.792489
1015.792489
1015.792489
1015.792489
1015.792489
1015.792489
1015.792489
1015.792489
1015.792489
865.135789
420.488715
116.672516
33.907890
15.786886
15.178919
15.708804
18.015504
24.302602
32.592416
46.053529
58.810711
77.914000
89.667439
98.599792
99.764466
92.197657
82.831979
66.561699
53.282976
39.080977
31.586885
24.596453
21.411777
18.616915
17.301440
16.908646
16.881824
16.345978
16.306639
16.449690
16.641617
16.092658
16.609430
16.345978
##ZVALUE=335
0.570416
0.607967
0.613928
0.771880
0.658631
0.756979
0.802875
0.879765
0.629425
0.683665
0.679493
0.775456
0.709891
0.857711
0.812411
0.902414
0.965595
0.849962
0.872612
0.827909
0.916719
0.815988
0.920892
0.919700
1.135468
1.180768
1.129508
1.235604
1.274943
1.152754
1.123548
1.222491
1.225471
1.533628
1.601577
1.456738
1.608729
1.744628
1.809597
1.988411
2.051592
2.282858
2.410412
2.635717
2.567768
3.173947
3.627539
3.965497
4.715919
11.198521
47.391653
207.023025
437.558889
951.146483
1015.753746
1015.753746
1015.753746
1015.753746
1015.753746
1015.753746
1015.753746
1015.753746
1015.753746
1015.753746
679.749846
205.174685
62.779784
18.671751
15.081763
14.963746
16.017556
18.845797
22.927523
32.539964
42.772889
59.243441
71.514845
83.701611
90.424418
91.267824
86.418986
74.664950
65.471530
51.158667
41.616559
30.743480
24.859905
19.937754
18.109679
16.481876
16.089678
15.785694
15.475750
15.097857
15.021563
15.523434
##ZVALUE=340
0.570416
0.745654
0.733733
0.452995
0.646710
0.681877
0.797510
0.681877
0.715852
0.682473
0.831485
0.760555
0.612736
0.779629
0.818968
0.627637
0.779629
0.798702
0.862479
0.740886
0.909567
0.928640
0.848770
1.002550
0.944734
0.878572
1.093745
1.090765
1.116991
1.219511
1.138449
1.445413
1.106858
1.314878
1.456738
1.493692
1.545548
1.446605
1.708865
1.662970
1.838803
2.135634
1.931787
2.188683
2.388954
2.642870
2.995729
2.966523
3.276467
4.076958
4.467964
6.601810
19.557476
104.016066
270.355940
702.327490
1015.793681
1015.793681
1015.793681
1015.793681
1015.793681
1015.793681
1015.793681
1015.793681
1015.793681
1015.793681
953.080654
348.642468
113.660693
24.352670
16.110539
15.477538
15.786886
16.595721
18.815994
23.731589
30.353665
42.267442
52.677989
68.810582
78.901649
86.113811
86.064935
81.820488
73.617697
61.279535
51.351786
39.699674
32.139421
24.032593
20.044446
17.168522
16.094446
14.949441
15.037656
14.902949
##ZVALUE=345
0.709891
0.707507
0.615716
0.612736
0.743866
0.774860
0.673532
0.707507
0.697970
0.781417
0.825524
0.690818
0.839829
0.729561
0.862479
0.681877
0.808835
0.872612
0.719428
0.818968
0.919700
0.796914
1.003742
1.049638
1.111627
0.891685
1.116991
1.069903
0.975728
1.063943
0.996590
1.003742
1.094937
1.245737
1.401901
1.331568
1.287460
1.390576
1.477599
1.475811
1.613498
1.695752
1.880527
1.854897
1.985431
2.184510
2.382994
2.475977
2.612472
3.048778
3.157854
3.657937
4.254580
5.011559
9.003878
54.435730
162.941813
464.249849
860.264897
1015.793681
1015.793681
1015.793681
1015.793681
1015.793681
1015.793681
1015.793681
1015.793681
1015.793681
1015.793681
544.153452
219.973922
46.170950
19.176602
16.495585
15.593767
14.830828
14.921427
16.996861
20.307899
28.186440
36.665797
50.973892
60.293674
71.430802
77.294707
80.053806
77.503920
70.015788
61.157942
48.807859
39.194822
29.338598
23.350716
18.628836
16.482472
15.064478
##ZVALUE=350
0.690818
0.740886
0.678897
0.676513
0.800490
0.756979
0.632405
0.609756
0.808835
0.753999
0.871420
0.876784
0.738502
0.682473
0.897646
0.780821
0.777841
0.817776
0.590682
0.757575
0.738502
0.966787
0.787973
0.817776
0.899434
0.925660
1.077652
0.945926
1.185536
1.101494
1.235604
1.216531
1.208782
1.045465
1.117587
1.254678
1.245737
1.433492
1.287460
1.347661
1.554489
1.568794
1.659989
1.654625
1.949668
1.914501
2.003908
2.243519
2.318621
2.581477
2.702475
3.194809
3.161430
3.688931
4.001856
4.732609
6.094575
27.400851
92.882514
318.436623
631.105900
1015.793681
1015.793681
1015.793681
1015.793681
1015.793681
1015.793681
1015.793681
1015.793681
1015.793681
1015.793681
804.480910
365.180969
77.085495
22.692680
15.417933
14.246702
13.405681
12.786984
13.363957
15.304685
19.905567
24.983883
33.898950
42.256713
54.592490
63.595772
71.772933
73.658824
72.240829
66.731572
56.128502
46.884418
36.051869
28.862953
22.621751
##ZVALUE=355
0.820756
0.827909
0.779629
0.983477
0.806451
0.963807
0.749826
0.659823
0.813603
0.879765
1.005530
0.889897
0.882745
0.914931
0.896454
0.764728
0.993609
0.787973
0.857711
1.010895
0.996590
0.895858
1.019835
1.105666
1.196861
0.909567
0.907779
1.058578
1.043677
1.075864
1.243949
1.202822
1.212955
1.177788
1.165867
1.383424
1.206994
1.224875
1.577735
1.417994
1.423955
1.480579
1.545548
1.657605
1.783967
2.027750
1.912713
2.150536
2.237558
2.179742
2.246499
2.640486
2.796650
2.929568
3.162622
3.493428
4.095435
4.198551
5.067587
13.891459
49.728751
212.853551
461.731553
973.106623
1015.794873
1015.794873
1015.794873
1015.794873
1015.794873
1015.794873
1015.794873
1015.794873
1015.794873
970.460773
506.466627
128.762722
34.103990
14.365911
13.378859
12.744665
12.433529
12.429953
12.547970
14.447570
16.855001
22.682548
28.421879
38.944483
46.855807
56.815743
63.175559
67.059994
66.096783
60.664415
53.910613
43.430924
##ZVALUE=360
0.689626
0.682473
0.699759
0.809431
0.862479
0.752807
0.663996
0.894666
0.764728
0.914931
0.956655
0.880957
0.763535
0.921488
0.796914
0.925660
0.903606
0.779629
1.004934
0.769496
0.943542
1.000762
0.982881
0.866652
1.112819
1.125932
1.293421
1.050830
1.059771
1.037717
1.272559
1.195669
1.294613
1.219511
1.242757
1.232624
1.328588
1.382828
1.468658
1.535416
1.452565
1.414418
1.510978
1.625419
1.710653
1.667738
1.906753
1.863837
1.957417
1.995564
2.353787
2.546906
2.726912
2.546906
3.111959
3.070831
3.348589
3.802776
3.715754
4.463792
5.093813
6.632805
26.408434
226.193666
301.024914
727.619529
1015.793681
1015.793681
1015.793681
1015.793681
1015.793681
1015.793681
1015.793681
1015.793681
1015.793681
787.127018
720.866919
260.288715
17.129779
15.959740
13.292432
12.498498
11.691451
11.713505
11.399984
11.528730
12.441874
14.622808
19.190907
24.182796
33.369660
40.865541
50.466657
56.163669
60.701966
60.331821
##ZVALUE=365
0.721812
0.780821
0.638962
0.773668
0.740886
0.768900
0.826716
0.728965
0.896454
0.924468
0.956655
0.793934
0.942945
0.775456
0.824928
0.845790
0.844598
0.905991
0.906587
1.038909
1.007915
0.998974
0.946522
1.152754
0.961423
1.036525
1.060963
1.015663
1.283884
1.292825
1.082420
1.323819
1.181960
1.150966
1.321435
1.216531
1.283884
1.398921
1.315475
1.378655
1.389980
1.448989
1.597404
1.552701
1.498461
1.613498
1.851916
1.606941
1.827478
1.736879
1.971722
1.885891
2.276897
2.157688
2.342463
2.551675
2.606511
2.839565
3.161430
3.281832
3.776550
4.191995
4.879832
5.540848
12.095571
43.165684
178.165436
408.414006
957.174897
1015.793681
1015.793681
1015.793681
1015.793681
1015.793681
1015.793681
1015.793681
1015.793681
1015.793681
927.720666
458.143950
110.407472
27.992725
12.484789
11.876822
10.905862
10.499954
10.071993
9.875894
10.116696
10.702610
12.569427
15.337467
21.381974
27.250648
36.316514
43.229461
##ZVALUE=370
0.781417
0.809431
0.802875
0.688434
0.739694
0.930429
0.813603
0.925660
0.700951
0.788569
0.713468
0.664592
0.810623
0.890493
0.591874
0.736713
0.843406
0.915527
1.036525
0.905991
0.910759
0.888705
0.961423
1.002550
1.033545
1.143813
1.023412
0.951886
0.970960
0.899434
1.194477
1.133680
1.048446
1.096725
1.207590
1.061559
1.120567
1.167655
1.442432
1.260638
1.309514
1.268983
1.448989
1.469851
1.394749
1.521707
1.572967
1.606941
1.442432
1.536608
1.762509
1.840591
1.734495
1.937747
1.947880
2.111793
2.142787
2.290606
2.274513
2.576709
2.643466
3.087521
3.388524
3.667474
4.190803
4.821420
6.037951
27.316809
96.439719
345.245600
674.819946
1015.867591
1015.867591
1015.867591
1015.867591
1015.867591
1015.867591
1015.867591
1015.867591
1015.867591
1015.867591
558.580756
248.087645
57.739615
16.183853
10.468960
9.981990
9.414554
9.377599
9.036660
8.837581
9.007454
9.281635
11.228919
13.340712
18.367767
##ZVALUE=375
0.572801
0.627637
0.656843
0.741482
0.725985
0.467896
0.673532
0.727773
0.796914
0.549555
0.760555
0.778437
0.785589
0.521541
0.779629
0.679493
0.853539
0.752807
0.513792
0.833869
0.655651
0.842810
0.794530
0.734925
0.744462
0.786781
0.756979
0.945926
0.754595
0.953674
0.979900
0.855923
1.014471
0.873804
0.856519
0.897646
0.974536
1.125932
1.220703
0.994802
0.892878
1.161695
1.061559
1.136661
1.151562
1.003742
1.096725
1.143813
1.145601
1.392961
1.230836
1.473427
1.424551
1.533628
1.499653
1.676679
1.503825
1.837611
1.931787
2.081990
2.162457
2.206564
2.386570
2.464652
2.822876
3.088713
3.557801
4.076958
4.624724
13.966560
50.288439
197.826028
460.056663
1003.049612
1015.793681
1015.793681
1015.793681
1015.793681
1015.793681
1015.793681
1015.793681
1015.793681
1015.793681
911.044478
480.662584
136.771798
36.368966
10.844469
9.265542
8.745790
8.632541
8.239746
7.850528
7.853508
8.011460
8.371472
##ZVALUE=380
0.481606
0.630617
0.610948
0.464916
0.625849
0.564456
0.645518
0.579953
0.566840
0.553727
0.698566
0.471473
0.767708
0.599623
0.812411
0.689626
0.621676
0.612736
0.656843
0.661612
0.717640
0.672936
0.722408
0.627637
0.554919
0.791550
0.688434
0.728965
0.673532
0.873804
0.667572
0.721812
0.771880
0.793934
0.835657
0.963807
0.951886
0.758767
0.902414
0.908971
0.962615
0.819564
1.001954
1.066923
1.028776
1.011491
0.930429
1.098514
1.174808
1.319647
1.163483
1.214743
1.271963
1.268983
1.225471
1.642704
1.424551
1.429915
1.634955
1.572967
1.854897
1.752973
1.856685
2.058744
2.220869
2.519488
2.742410
3.123879
3.602505
4.326701
5.237460
7.391572
34.244657
114.603043
378.258824
732.885003
1015.793681
1015.793681
1015.793681
1015.793681
1015.793681
1015.793681
1015.793681
1015.793681
1015.793681
1015.793681
624.032617
298.668742
66.589713
15.728474
8.974671
8.275509
8.055568
7.703900
7.099509
7.464886
##ZVALUE=385
0.612736
0.434518
0.510812
0.441670
0.624657
0.487566
0.431538
0.324845
0.506639
0.537634
0.395775
0.529885
0.493526
0.541806
0.498891
0.601411
0.540614
0.712872
0.637770
0.594854
0.571609
0.557899
0.561476
0.558496
0.590682
0.661612
0.620484
0.691414
0.782609
0.555515
0.585914
0.563860
0.748634
0.789762
0.590682
0.844598
0.727773
0.900626
0.724792
0.954866
0.844598
0.837445
0.897646
0.830889
0.674725
0.785589
0.896454
0.911951
0.999570
0.977516
1.052618
1.012683
1.097918
1.137853
1.216531
1.291633
1.455545
1.415610
1.354814
1.309514
1.498461
1.658797
1.702905
1.630783
1.891851
1.935959
2.020597
2.599955
2.804995
3.431439
3.627539
3.987551
4.517436
5.426407
13.299584
80.480576
218.033791
579.699874
984.565020
1015.793681
1015.793681
1015.793681
1015.793681
1015.793681
1015.793681
1015.793681
1015.793681
1015.793681
867.919922
402.016640
167.480707
31.554699
9.969473
7.996559
7.318854
7.023811
##ZVALUE=390
0.481606
0.426769
0.423789
0.577569
0.478625
0.448823
0.598431
0.443459
0.506639
0.464916
0.432730
0.401735
0.407696
0.507832
0.478625
0.499487
0.553727
0.614524
0.560880
0.370741
0.430942
0.346899
0.558496
0.445843
0.579953
0.574589
0.462532
0.501871
0.585914
0.497699
0.682473
0.676513
0.707507
0.677705
0.710487
0.598431
0.622869
0.748634
0.618696
0.775456
0.660419
0.745654
0.871420
0.782609
0.821948
0.863671
0.836849
0.827909
0.973940
0.896454
1.013875
1.183748
1.151562
0.900626
1.160502
1.088977
1.199841
1.267791
1.287460
1.266599
1.315475
1.381636
1.467466
1.681447
1.576543
1.669526
1.951456
2.206564
2.630949
2.825856
3.256798
3.533959
3.674626
3.910661
4.085898
4.367828
7.584691
31.038523
156.089664
379.176736
931.201577
1015.793681
1015.793681
1015.793681
1015.793681
1015.793681
1015.793681
1015.793681
1015.793681
1015.793681
883.696675
478.737950
170.809627
61.128736
12.698770
7.616878
##ZVALUE=395
0.419617
0.435710
0.382662
0.391603
0.424981
0.478625
0.314713
0.575781
0.437498
0.453591
0.422597
0.286698
0.452995
0.433922
0.545979
0.480413
0.311732
0.471473
0.427961
0.475645
0.592470
0.441670
0.460744
0.509620
0.477433
0.500679
0.658631
0.579953
0.531673
0.582933
0.633597
0.706911
0.765920
0.661612
0.749826
0.767708
0.725985
0.561476
0.661612
0.830889
0.610948
0.877976
0.974536
0.704527
0.818968
0.851750
0.804663
0.901818
0.914931
0.868440
0.983477
1.120567
1.007915
1.124740
1.107454
1.165867
1.091957
1.367927
1.233816
1.239777
1.365542
1.261830
1.383424
1.530647
1.566410
1.704693
2.020597
2.303720
2.276897
2.652407
2.994537
3.174543
3.250837
3.247857
3.483891
3.419518
3.694892
4.052520
4.959702
20.558834
80.615878
308.942795
637.334585
1015.793681
1015.793681
1015.793681
1015.793681
1015.793681
1015.793681
1015.793681
1015.793681
1015.793681
1015.793681
548.291802
259.469748
72.035789
##ZVALUE=400
0.371933
0.317693
0.486970
0.569820
0.606775
0.442863
0.677705
0.238419
0.336766
0.227690
0.389814
0.395775
0.456572
0.383854
0.445843
0.535846
0.474453
0.373721
0.457764
0.535846
0.453591
0.399947
0.564456
0.501871
0.425577
0.587702
0.661612
0.427961
0.503659
0.604987
0.537634
0.591874
0.726581
0.601411
0.718832
0.601411
0.753999
0.584722
0.708699
0.621676
0.749826
0.820756
0.846982
0.772476
0.896454
0.850558
0.861883
0.728965
0.782609
0.979900
1.010895
0.771880
0.938773
0.935793
0.938773
1.060963
1.004934
1.221895
1.144409
1.085997
1.211762
1.430511
1.412630
1.298785
1.521707
1.613498
1.830459
1.846552
2.213717
2.600551
2.561808
2.711415
2.909899
2.745986
2.879500
2.782941
2.903938
3.093481
3.185868
3.677607
4.322529
11.590719
43.173432
173.399448
394.404531
924.016833
1015.793681
1015.793681
1015.793681
1015.793681
1015.793681
1015.793681
1015.793681
1015.793681
1015.793681
678.789616
##END
