##TITLE=AAI0802
##FORMAT=SPECTACLE-ASCII V-1.2
##DATA TYPE=ULTRAVIOLET SPECTRUM
##SECOND TYPE=ULTRAVIOLET SPECTRUM
##DATE=10/24/17
##TIME=16:46:56
##SPECTROMETER/DATA SYSTEM=SPECTACLE
##XUNITS=NM EM
##YUNITS=ENERGY
##YFACTOR=1
##FIRSTX=220
##LASTX=410
##NPOINTS=96
##3DDATA=Equidistant
##ZUNITS=NM EX
##FIRSTZ=210
##LASTZ=400
##ZPOINTS=39
##XYDATA=(Y..Y)
##ZVALUE=210
4.548430
4.633665
3.760457
3.819466
4.242659
4.073977
3.859997
3.967881
4.255772
4.295707
3.847480
3.449917
3.108978
3.223419
3.442764
4.017949
3.848672
4.134774
4.312992
4.197955
4.880428
4.367828
5.703568
4.958510
5.612969
5.629659
5.679727
6.558895
6.420612
5.886555
6.182790
6.400943
6.411672
6.450415
7.667542
7.390976
7.558465
7.361770
7.665753
7.509589
7.584691
7.344484
8.404851
8.726716
8.040667
8.940697
8.076429
7.856488
9.491444
8.368492
9.184480
8.071661
8.216500
9.207726
8.422732
8.437634
8.982420
10.132790
9.781718
8.734465
9.510517
8.958578
10.384917
9.882450
10.418892
10.625720
10.044575
12.696981
13.840795
14.927983
18.349886
22.138953
22.492409
28.046966
30.334592
30.868649
32.389760
33.554435
28.801560
28.829575
22.749901
21.687746
18.291473
16.988516
15.712976
12.544990
11.450648
10.578632
9.177923
8.984804
8.997917
9.197593
9.108782
10.068417
9.655952
9.705424
##ZVALUE=215
17.020702
15.584826
16.011000
10.753870
9.204745
7.012486
6.701946
7.678866
7.822514
7.827878
6.872416
7.307529
5.309582
4.398823
4.559755
3.562570
3.655553
3.559589
3.534555
4.408956
4.806519
4.667640
5.004406
5.078912
5.175471
5.559921
5.932450
5.729795
6.084442
6.215572
6.450415
7.190704
6.687641
7.260442
6.361604
7.602572
8.257627
7.115602
7.257462
8.415580
7.339716
8.859634
7.471442
8.179545
8.050799
8.788705
8.980632
7.195473
8.703470
8.848906
9.061694
8.051991
8.723736
8.624792
9.541512
8.989573
8.569956
9.408593
8.711815
9.639859
9.498596
9.745955
8.657575
9.465814
11.087656
10.351539
10.710955
12.209415
11.858940
16.391873
15.725493
19.450784
21.473765
23.744702
27.694702
26.503801
28.518438
25.815964
28.705001
25.093555
24.723411
20.737648
18.430948
15.524626
14.034510
13.087988
10.356903
9.650588
9.010434
9.532571
8.531809
8.713603
8.079410
8.465648
7.915497
8.818507
##ZVALUE=220
44.840574
45.195818
46.558976
46.070814
40.918589
34.671426
25.535822
19.034743
16.173720
13.563633
14.792681
15.240908
15.837550
12.898445
11.304617
8.966923
6.092787
5.781651
4.742742
4.728436
4.520416
5.158782
5.587935
5.843639
5.993843
5.801916
6.412864
6.070733
6.384850
6.884933
7.415414
7.401705
6.820560
8.196831
7.554889
7.419586
7.285476
8.017421
8.243918
8.391738
7.992983
8.168817
9.313822
8.455515
8.137822
8.996725
7.914901
8.526444
9.392500
8.885860
9.710789
9.347796
9.594560
10.767579
10.129809
10.202527
10.098815
10.810494
10.826588
9.841919
10.016561
9.583831
10.841489
10.447502
9.926558
11.358857
11.740923
11.933446
15.363693
15.246868
15.771985
20.233989
20.224452
22.855997
23.424625
24.743676
25.767684
25.521517
23.738742
23.785830
20.140409
20.977855
17.953515
16.067624
14.611483
12.814999
11.883974
9.839535
9.880662
9.151697
9.206533
8.653998
8.549690
8.959770
8.599758
8.986592
##ZVALUE=225
60.688853
61.495900
80.352426
101.490617
114.383698
111.240745
104.757547
79.644918
64.087510
50.383806
32.941699
29.066801
29.857755
30.984879
32.151937
27.087927
22.778511
18.426776
15.437603
11.052489
8.872747
6.420612
5.261898
5.857944
5.635619
6.109476
5.682707
6.399751
5.578995
7.639527
6.823540
7.534623
6.609559
6.584525
7.696748
7.554889
8.866787
8.043647
8.742809
8.425713
9.162426
9.329915
8.105636
9.313822
9.574890
8.534789
9.467602
10.179877
10.243654
9.587407
10.713935
9.658933
10.065436
10.150671
11.186600
11.374950
11.176467
11.099577
11.185408
12.147427
13.182759
12.735724
13.085604
12.523532
12.489557
12.347698
12.869835
13.050437
14.193654
16.154647
18.030405
19.493699
22.270679
23.593903
22.995472
25.732517
25.647879
24.971962
22.117496
22.606850
19.766688
17.783642
16.741753
15.275478
14.599562
13.003945
12.656450
11.580586
11.238456
11.668801
11.168718
10.666847
10.662675
10.560751
10.841489
10.520816
##ZVALUE=230
46.188831
49.884915
81.270933
141.437650
183.333755
233.016610
268.978477
263.372660
251.907706
221.485496
157.747865
113.623738
72.924495
61.706901
53.046942
53.021908
54.103732
55.170655
50.008893
39.583445
32.001734
23.312569
14.161468
10.166764
7.756948
8.121729
6.852746
7.601976
7.518530
6.885529
7.801652
8.393526
7.560849
7.913709
8.707643
9.443760
8.717775
8.917451
9.559989
9.546876
10.154843
10.164976
9.600520
10.099411
10.102987
9.039640
11.344552
11.417866
11.605620
10.956526
11.872649
11.135936
12.692809
12.684464
13.637543
13.322830
14.326572
13.784766
14.353991
14.452934
14.325976
14.830828
15.387535
14.067888
14.235973
15.276670
15.554428
16.957521
17.062426
19.228458
22.241473
23.850799
25.487542
28.057694
27.181506
27.256608
26.381612
26.101470
26.707649
23.587942
20.985603
20.922422
18.957853
19.941926
16.230941
16.530752
14.835596
15.700459
14.364719
13.252497
13.916492
14.117956
14.138818
12.715459
14.152527
13.694763
##ZVALUE=235
15.038848
17.521977
41.403770
88.750720
152.542591
251.171589
347.591639
456.928611
508.973002
524.403453
468.662977
396.488905
270.309448
199.649930
122.265816
89.328885
76.560974
84.407926
88.769794
86.242557
80.989003
67.921877
55.112839
38.535595
28.626919
18.935800
15.490651
10.053515
9.293556
8.944869
8.867979
10.059476
9.346604
9.657741
8.752942
9.383559
9.872913
9.329915
10.159612
10.873675
9.418726
11.456609
10.197759
10.879636
11.089444
9.951591
10.575652
11.374950
11.107922
13.227463
12.218952
13.290644
12.725592
15.033484
14.035702
14.024973
15.229583
14.364719
16.209483
16.387701
16.408563
17.673969
17.036796
17.924905
17.720461
17.405748
19.586682
19.004941
21.056533
21.875501
23.200512
24.678707
27.609468
28.709769
30.712485
30.640960
33.557415
31.769872
29.347539
28.372407
25.069714
23.813844
23.122430
20.729899
20.867586
20.998716
20.074844
19.266605
18.462539
17.250776
17.750859
17.309785
17.288923
15.162826
18.558502
16.965866
##ZVALUE=240
2.046824
2.756715
6.585717
16.416907
42.400956
105.918646
193.021894
355.589986
506.009459
671.461821
772.019625
797.806978
731.500983
592.889786
468.109846
300.492644
196.498632
130.186677
103.771687
106.256604
111.565590
115.518570
115.939975
104.437470
82.876682
69.614649
48.386455
33.875704
22.695661
16.374588
13.079643
10.689497
11.020899
10.008812
10.940433
11.014938
10.246634
10.149479
10.203719
9.901524
9.125471
10.195971
10.143518
12.262464
11.257529
10.416508
11.397600
10.631680
11.940598
11.176467
12.143850
12.948513
12.600422
14.084578
14.700890
13.171434
15.940666
15.636683
15.285611
16.414523
16.032457
15.702844
16.946793
16.955733
17.391443
20.554662
20.597577
20.695925
20.902753
23.513436
25.356412
26.528835
30.259490
32.676458
31.777620
32.421947
30.843616
32.779574
32.118559
28.735995
27.397871
26.359558
24.481416
25.534630
21.764636
23.948550
21.554828
21.505952
19.954443
21.055937
20.900965
19.847751
20.735860
19.216537
20.603538
19.939542
##ZVALUE=245
1.945496
1.858473
1.715422
2.081990
3.718734
11.109710
40.995479
87.100863
210.477710
342.946649
564.512014
725.699663
867.987871
932.598710
906.890035
767.871737
624.903440
430.894494
288.811922
164.442658
120.900869
105.012655
117.372870
128.342509
131.847858
129.822493
115.115643
97.585917
74.085593
59.357882
40.213466
26.177764
18.972754
13.546944
11.308789
10.666847
11.435747
9.402633
10.094643
9.453893
9.842515
9.725690
9.897947
8.753538
8.656979
9.585619
9.758472
10.019541
9.891987
9.770989
10.406971
11.197925
11.533499
12.380481
12.121797
11.769533
12.763739
13.696551
13.131499
13.618469
13.341904
13.128519
13.678670
14.212728
14.572740
15.923977
16.012788
18.164515
19.083619
20.949841
22.416711
22.547841
24.474859
27.135611
26.905537
27.554631
26.744604
28.335452
26.493669
27.116537
25.368929
23.616552
23.466945
22.227764
21.168590
21.601915
20.446777
20.347834
19.187927
19.520521
19.790530
20.007491
19.207597
17.947555
19.372702
18.414855
##ZVALUE=250
1.997948
1.619458
1.702905
2.098680
1.913905
1.985431
2.909899
7.421970
32.785535
70.391893
185.721517
323.745012
493.512750
742.034912
930.261612
1015.793681
1015.793681
993.015766
841.346979
589.700937
398.889780
256.045461
139.823556
108.666420
104.160905
118.057728
136.000514
140.049458
137.016773
124.520659
110.585690
82.842708
62.453747
40.480494
26.481748
18.501878
13.109446
10.590553
9.757876
10.002851
9.864569
9.535551
8.522868
9.312630
8.425713
8.966923
8.639693
8.898973
9.926558
8.815527
9.256601
9.591579
9.502769
10.322928
9.596944
11.079907
11.049509
10.781884
11.984706
12.293458
11.479855
11.515617
13.005733
13.207793
13.764501
12.941957
14.586449
16.558766
16.487837
17.861724
19.479990
21.506548
22.708774
23.540854
24.696589
24.869442
24.171472
25.199652
24.376512
21.725893
23.193955
21.272898
20.886660
19.324422
20.353794
19.844770
18.277764
18.151999
17.758608
17.834902
17.622709
16.219616
17.428994
15.970469
16.847849
16.812682
##ZVALUE=255
1.393557
1.410842
1.409650
1.611710
1.747608
1.730919
2.469420
1.918674
2.058744
4.791617
22.473931
56.803823
124.010444
280.482769
452.094674
741.275549
936.027765
1015.793681
1015.793681
1015.793681
1013.190746
841.467977
537.084937
336.964726
175.439715
118.745565
96.304417
104.609728
126.127005
140.137672
147.182941
147.015452
131.212473
109.502673
86.806417
58.152676
39.617419
25.845766
16.518831
11.203885
9.396672
8.674860
8.308887
7.584691
9.004474
8.647442
8.689761
8.904934
8.112788
8.646846
8.657575
8.120537
9.179711
9.351969
10.093451
10.784864
10.419488
9.686947
10.575652
10.963678
11.326671
10.640621
11.117458
11.645555
11.545420
12.331605
12.635589
13.547540
15.000701
15.854836
16.784668
18.987656
20.194650
20.807981
21.439791
22.135973
21.594763
21.319985
22.234917
21.459460
19.156933
18.865466
17.607808
18.447638
18.015504
17.266870
17.343760
16.112924
16.367435
17.228723
16.395450
15.967488
15.632510
15.922785
15.639663
15.450716
##ZVALUE=260
1.609921
1.443624
1.306534
1.426935
1.366735
1.475811
1.512766
1.834631
1.523495
2.167821
2.237558
3.070831
9.364486
37.973523
88.501573
218.095779
376.043916
650.995970
885.815620
1015.794873
1015.794873
1015.794873
1015.794873
997.759700
681.986809
466.301441
261.271000
159.510970
92.195868
85.116625
104.874969
126.825571
146.114826
151.379704
148.482919
135.184526
108.709931
88.326931
58.333874
42.686462
24.477839
16.111732
10.631680
9.183884
8.369684
7.973909
7.705688
8.283854
8.341670
9.059906
8.805990
8.913875
8.798838
8.609891
8.448958
9.351969
9.238720
9.140968
9.796619
10.377765
9.945631
10.679960
10.575652
10.571480
10.851622
11.285543
12.375712
13.077855
13.692975
14.433861
16.297698
16.174912
18.344522
18.588901
19.706488
19.507408
19.733906
20.322800
18.277764
17.584562
18.006563
17.627478
16.585588
16.915798
15.793443
15.881658
15.060902
15.318990
15.425682
15.233755
14.802814
14.908910
15.462637
14.821887
14.924407
14.853477
##ZVALUE=265
1.507998
1.602769
1.391768
1.763701
1.659989
1.428723
1.532435
1.525879
1.747608
2.074838
2.108812
2.105832
2.123713
2.620816
4.932880
23.733974
63.156486
172.031522
318.017602
619.347692
880.286694
1016.063690
1016.063690
1016.063690
1016.063690
1016.063690
917.214751
653.533936
364.275575
217.960477
109.569430
78.769922
80.968738
108.867884
129.731894
151.124597
154.861808
149.822831
133.516788
107.506514
86.626410
60.190558
40.597916
23.581982
16.285777
11.237860
9.234548
8.186698
8.844733
8.580685
8.513927
9.539723
8.598566
9.795427
9.684563
9.885430
10.144711
9.877682
10.268688
10.252595
9.860992
10.330677
10.877848
10.304451
11.244416
11.528730
12.441874
11.894703
12.784600
14.197826
14.575720
16.713738
16.723871
17.013550
17.659664
18.265843
18.310547
18.630624
17.898679
16.751885
15.916824
15.600920
15.468597
15.472770
14.971495
15.264750
15.010834
14.518499
14.347434
13.663769
14.281869
13.796687
13.469458
13.235807
13.422966
13.760924
##ZVALUE=270
1.238585
0.988841
1.049638
1.303554
1.295805
1.322627
1.137853
1.079440
1.227856
1.591444
1.616478
1.568794
1.746416
1.922846
2.063513
2.128482
2.766848
10.700822
32.381415
117.757916
258.510709
467.673540
860.349536
1015.796661
1015.796661
1015.796661
1015.796661
1015.796661
1015.796661
879.688859
439.566970
313.676596
151.435733
85.982680
67.448616
79.512596
108.514428
128.580928
150.977969
155.655742
150.827765
137.041807
112.154484
88.193417
59.541464
42.015910
25.804639
17.326474
11.770725
9.424686
9.266734
9.735823
9.090900
9.551644
9.132624
9.140968
9.487867
9.921789
10.051727
10.342598
10.774732
10.644794
10.035634
9.909868
10.760427
10.898709
11.101961
11.680722
12.170672
12.575984
13.501644
14.440417
16.002655
16.327500
15.537739
16.470551
15.617609
16.119480
15.195608
14.486909
14.770627
14.021993
14.103651
14.143586
13.995767
13.297796
13.475418
13.097525
12.418628
12.905598
12.550950
12.186766
12.220740
12.728572
11.707544
12.033582
##ZVALUE=275
1.084805
0.861883
0.707507
0.960827
0.937581
1.106858
1.106858
1.239777
1.381636
1.401901
1.389980
1.390576
1.262426
1.668930
1.685619
1.700521
1.534820
1.824498
2.424717
4.464984
17.330647
77.803731
180.244446
425.652862
700.767636
1015.793681
1015.793681
1015.793681
1015.793681
1015.793681
1015.793681
1001.833677
743.638873
401.772857
233.370662
100.819468
60.899854
60.019493
79.554915
106.762648
128.092766
146.739483
154.131651
148.878694
137.170553
107.974410
88.029504
59.720874
43.399930
27.914643
18.384457
12.879968
10.380745
10.246634
9.659529
9.371638
9.790659
9.315610
10.125637
10.136962
10.450482
10.393858
9.950995
10.573864
10.356903
10.454655
11.161566
10.978580
11.566877
12.545586
12.822747
13.392568
14.068484
14.895797
16.005635
15.032887
15.259981
15.012622
14.777780
14.275908
13.742447
13.678670
13.621449
12.921691
12.393594
11.877418
12.135506
11.750460
11.680722
11.915565
11.467934
11.776686
11.274815
11.543632
11.593699
10.859966
##ZVALUE=280
0.730753
0.829697
0.865459
0.610948
1.087785
0.990629
0.998974
0.966787
1.155734
1.214743
1.307726
1.089573
1.382828
1.152754
1.409650
1.364946
1.389980
1.943707
1.682639
2.046824
2.105832
2.836585
13.448596
45.986772
153.663754
297.344923
585.667491
887.681842
1015.793681
1015.793681
1015.793681
1015.793681
1015.793681
1015.793681
945.370793
539.867878
321.671963
141.163468
72.649717
45.785904
55.198669
80.242753
101.820827
127.635002
144.346952
149.845481
148.339868
130.220652
111.832619
83.553791
63.288808
41.172504
28.970838
17.761588
13.682842
10.941625
10.237694
9.987950
10.018945
10.495782
10.516644
10.202527
10.529757
10.575652
10.379553
10.506511
11.391640
11.324883
11.643767
11.497736
12.375712
13.220906
13.421774
14.190674
13.786554
14.056563
14.106631
14.046431
13.529658
13.292432
12.941957
12.338758
12.511611
11.719465
12.095571
11.519790
11.777878
11.611581
11.659861
11.142492
10.837913
11.218786
10.678768
10.285974
10.861754
10.606647
##ZVALUE=285
0.868440
0.783801
0.734925
1.062751
0.955462
0.894666
0.844598
0.996590
0.915527
0.981688
1.176596
1.119971
1.349449
0.992417
1.294613
1.410842
1.238585
1.408458
1.518726
1.491904
1.717806
1.911521
2.053976
2.580881
7.079840
25.942922
91.496706
195.264816
443.496704
705.032945
982.775688
1015.799642
1015.799642
1015.799642
1015.799642
1015.799642
1015.799642
728.451610
454.548001
214.655995
108.876824
45.332909
36.868453
52.987933
73.675513
101.687908
121.942759
141.047835
145.799518
144.935846
134.256482
109.863877
89.598894
62.240958
44.159889
27.777553
19.428730
13.797879
11.571646
10.622740
9.903908
10.295510
10.378957
10.338426
10.773540
10.756850
10.755658
11.133552
11.911988
12.412667
12.135506
12.440681
13.091564
13.547540
13.842583
13.973713
13.505816
13.260841
12.847781
12.809634
11.939406
12.148619
12.498498
12.176633
11.817813
11.509657
11.080503
11.346936
11.252761
11.031628
10.623932
10.846853
10.817647
10.562539
10.483861
10.189414
##ZVALUE=290
0.641942
0.809431
0.722408
0.731945
0.763535
0.871420
0.776649
1.047850
0.903606
0.813603
0.858903
0.845790
1.131892
0.938773
1.069903
1.095533
1.312494
1.152754
1.206994
1.581907
1.451969
1.590848
1.629591
1.676679
1.955628
2.475977
2.903938
13.798475
45.534968
143.030882
273.522735
580.962896
890.520811
1015.793681
1015.793681
1015.793681
1015.793681
1015.793681
1015.793681
922.574997
613.296628
306.512713
161.665678
58.809519
31.341910
34.438968
49.034953
69.583654
90.832710
116.692781
132.496953
142.436624
142.997503
128.962994
110.949874
81.911683
61.813593
41.244626
28.957725
18.291473
14.258623
11.359453
10.307431
10.046959
9.998679
10.244846
10.028481
10.540485
10.612607
11.122823
11.893511
12.170672
12.848973
12.283921
13.021827
12.697577
12.666583
12.512803
12.193918
12.023449
11.329651
11.255741
11.630654
11.308789
11.078715
10.730624
10.642409
10.832548
10.679960
10.628700
10.349751
10.152459
10.245442
9.746552
10.008812
9.829998
##ZVALUE=295
0.713468
0.711679
0.805855
0.659823
0.706911
0.816584
0.749826
0.842810
0.787973
0.792742
0.761747
0.850558
1.110435
0.877976
0.769496
1.104474
0.890493
1.226664
1.097918
1.220703
1.158714
1.310706
1.350641
1.601577
1.542568
1.772642
1.912713
2.180934
2.565980
4.655719
17.776489
78.998804
181.579590
438.979864
719.755888
1015.792489
1015.792489
1015.792489
1015.792489
1015.792489
1015.792489
1015.793085
775.036812
394.989848
215.381980
81.253648
36.461949
24.049878
29.428601
46.863556
64.244866
90.247989
108.050704
129.460692
135.548711
133.527517
123.113990
102.684498
84.676743
59.015751
44.781566
28.315783
19.877553
13.251901
11.285543
10.261536
10.276437
9.347796
10.339618
10.631680
11.233687
11.491776
11.840463
12.190938
12.393594
11.941791
12.087822
11.501908
11.260509
11.121631
11.341572
10.593534
11.255741
10.734797
10.452867
10.389686
10.699630
10.185838
10.979772
10.606647
10.490417
10.224581
9.945631
9.950995
10.031462
10.121465
##ZVALUE=300
0.752807
0.765920
0.637770
0.744462
0.602603
0.596642
0.898838
0.784993
0.706911
0.746846
0.555515
0.736713
0.750422
0.672936
0.637770
0.731945
0.953674
0.908971
1.089573
1.213551
1.067519
1.209974
1.200438
1.354814
1.296997
1.287460
1.718998
1.841784
1.656413
2.068877
2.386570
2.747774
10.365844
39.160848
143.214464
285.678506
607.822537
941.671729
1015.793681
1015.793681
1015.793681
1015.793681
1015.793681
1015.793681
944.702625
617.974997
310.078859
162.488818
55.129528
25.584698
20.077825
26.862621
41.828752
57.467818
81.988573
101.293921
121.474862
128.655434
128.135681
121.740699
101.698637
84.218979
60.558915
44.843554
28.810501
20.261407
13.905764
11.524558
10.412931
10.344982
10.193586
10.931492
10.966659
11.473894
11.117458
11.179447
11.320710
11.155605
10.967851
10.980964
11.069775
10.569692
10.741949
11.008978
10.542870
10.300875
10.192990
9.992719
10.445714
9.995699
9.844899
9.636879
9.525418
10.012984
10.074973
9.215474
##ZVALUE=305
0.553727
0.607967
0.779629
0.740886
0.659823
0.665784
0.661612
0.679493
0.743866
0.772476
0.691414
0.662804
0.760555
0.652671
0.828505
0.784993
0.821948
0.822544
0.945926
0.856519
1.000762
1.051426
1.138449
1.033545
1.145601
1.380444
1.326799
1.475811
1.545548
1.522899
1.808405
1.849532
2.100468
2.432466
4.912615
19.277930
88.483691
204.652548
472.381711
767.969489
1015.793681
1015.793681
1015.793681
1015.793681
1015.793681
1015.793681
1015.793681
721.573830
451.813936
259.999633
96.780658
40.383935
17.052889
17.391443
26.728511
38.159490
58.565736
76.336861
99.292994
113.031864
123.102665
122.729540
113.337636
98.799467
76.522827
59.658885
40.892959
29.229522
18.374920
14.306903
10.868907
10.625720
10.476708
10.475516
10.882616
10.647774
10.413527
10.377765
10.093451
9.970665
9.825826
9.958744
10.231733
10.185838
10.030866
10.129809
9.831786
9.809732
10.059476
9.716749
9.850860
9.377599
9.596944
9.496808
9.361506
9.583831
##ZVALUE=310
0.393987
0.499487
0.543594
0.506639
0.578761
0.474453
0.648499
0.729561
0.745654
0.681877
0.484586
0.621676
0.617504
0.641942
0.754595
0.681877
0.680685
0.828505
0.754595
0.684857
0.709891
0.766516
0.990629
1.040697
0.959635
1.008511
1.306534
1.218915
0.992417
1.423955
1.417994
1.460910
1.763701
1.805425
2.086759
2.155900
3.009439
7.795691
45.150518
119.829774
260.352492
579.397678
915.514827
1015.792489
1015.792489
1015.792489
1015.792489
1015.792489
1015.792489
1001.944542
608.978868
357.455611
148.969889
65.405965
20.326972
13.653636
16.132593
33.277869
34.021735
50.288439
66.212416
89.859962
114.699602
116.134882
117.533803
107.989907
97.335577
76.731443
59.062839
40.475726
29.304624
19.247532
14.246702
11.101961
10.326505
9.299517
9.582639
9.164810
9.272695
9.432435
9.684563
9.135604
9.238720
9.363890
9.440780
9.719729
9.666681
9.536743
9.466410
9.627938
9.407997
9.147525
9.182692
8.907914
8.978844
9.246469
##ZVALUE=315
0.655651
0.500679
0.631809
0.573993
0.519753
0.651479
0.519753
0.544786
0.620484
0.755787
0.703931
0.714660
0.687838
0.710487
0.743866
0.762939
0.642538
0.668764
0.942945
0.781417
0.726581
0.804663
0.863671
0.910759
0.968575
0.887513
0.986457
0.901818
1.013875
1.026988
1.047850
1.413822
1.381636
1.515746
1.527667
1.566410
2.107620
2.336502
2.426505
4.378557
16.454458
75.204968
175.945759
426.016450
721.526742
1015.780568
1015.780568
1015.780568
1015.780568
1015.780568
1015.780568
1015.780568
827.922821
438.305736
234.779716
83.835721
33.458471
13.259649
11.952519
15.405416
20.735860
32.604933
44.741631
64.928532
80.598593
99.758506
107.411742
110.404491
103.719831
88.530779
73.601604
55.141449
41.037798
26.655793
19.438863
12.776852
11.109710
9.516478
8.856654
8.725524
8.618832
8.736849
8.500814
8.599758
8.495450
8.773804
9.001493
8.953810
8.780956
8.609891
8.936524
8.893609
8.730888
8.597970
8.338690
8.440614
##ZVALUE=320
0.662804
0.619888
0.567436
0.404716
0.467896
0.659823
0.504851
0.527501
0.649691
0.740886
0.542998
0.636578
0.523925
0.758767
0.640750
0.677705
0.656843
0.519753
0.735521
0.804663
0.623465
0.864863
0.850558
0.864863
0.787973
0.860691
0.887513
1.002550
1.102686
1.101494
1.256466
1.035929
1.304746
1.275539
1.388788
1.286864
1.597404
1.688600
1.908541
2.153516
2.368689
2.918839
7.346869
42.550564
115.664601
322.140455
561.022758
963.131785
1015.840769
1015.840769
1015.840769
1015.840769
1015.840769
1015.840769
1015.840769
603.701472
344.851613
142.920613
60.287714
17.957687
10.860562
10.864735
13.134480
19.072890
27.323961
43.254495
56.911707
75.937510
89.406967
102.399588
103.902817
98.422766
87.940693
69.229603
54.813623
36.431551
26.487708
17.582774
13.297796
10.085702
9.278655
8.381605
8.475780
8.567572
8.276701
8.323789
8.285642
8.391738
8.315444
8.437634
8.278489
8.429885
8.463860
8.236766
8.194447
8.327961
##ZVALUE=325
0.596642
0.529885
0.522733
0.488758
0.549555
0.592470
0.669956
0.544786
0.594854
0.673532
0.699759
0.589490
0.737906
0.544786
0.675917
0.545979
0.737906
0.746846
0.804663
0.725985
0.775456
0.646710
0.823736
0.769496
0.838637
0.791550
0.716448
0.941753
0.952482
0.899434
0.959635
1.148582
1.195669
1.254678
1.431704
1.112819
1.354814
1.511574
1.456738
1.617670
1.820922
1.854897
1.986623
2.529621
4.528761
27.916431
77.414513
221.368074
410.237908
803.033710
1015.855670
1015.855670
1015.855670
1015.855670
1015.855670
1015.855670
1015.855670
754.649639
474.635959
213.463902
101.264715
29.007792
12.493730
9.369850
9.545684
12.660623
17.186999
27.216673
38.548708
56.845546
71.564913
86.236596
95.473528
98.208785
92.507601
79.651475
66.119432
48.511624
35.828948
23.447871
16.566515
11.792779
9.827614
9.105802
8.565784
8.215904
8.231997
8.141994
7.882714
8.496642
8.036494
8.114576
8.281469
8.194447
8.073449
7.995963
##ZVALUE=330
0.356436
0.490546
0.465512
0.428557
0.437498
0.442863
0.434518
0.590682
0.487566
0.641942
0.546575
0.487566
0.500679
0.512600
0.510812
0.301600
0.507832
0.375509
0.510812
0.445843
0.699759
0.558496
0.662804
0.625849
0.820756
0.697970
0.690818
0.750422
0.819564
0.776649
0.776649
0.755787
0.979900
1.068711
0.909567
1.048446
1.153946
1.159906
1.379848
1.514554
1.368523
1.543760
1.476407
1.671910
1.949668
2.241731
2.854466
11.441708
41.522980
145.830512
293.935537
616.488457
941.946507
1015.794873
1015.794873
1015.794873
1015.794873
1015.794873
1015.794873
952.844620
631.715655
301.840901
154.998899
52.408576
18.491745
9.022951
8.546710
9.313822
11.249781
17.398596
24.817586
38.140416
51.156878
69.657564
80.429912
90.470910
91.635585
85.572004
76.222420
59.202909
46.590567
31.213760
23.161769
16.228557
12.488961
9.709597
8.754730
7.821918
7.774830
7.888675
7.873774
7.254481
7.513762
7.423759
7.508993
7.645488
##ZVALUE=335
0.546575
0.585914
0.460744
0.434518
0.303984
0.378489
0.501871
0.410676
0.405908
0.501871
0.449419
0.456572
0.327826
0.611544
0.519753
0.558496
0.428557
0.462532
0.529885
0.458956
0.485778
0.572801
0.558496
0.485778
0.491738
0.637770
0.639558
0.616908
0.639558
0.684857
0.567436
0.825524
0.820756
0.853539
0.784993
0.703931
0.887513
1.154542
1.002550
0.965595
1.191497
1.277924
1.316667
1.318455
1.516938
1.739860
1.906753
2.146959
2.429485
5.606413
21.236539
91.717839
208.459496
498.188734
827.161670
1015.793681
1015.793681
1015.793681
1015.793681
1015.793681
1015.793681
1015.793681
738.911629
385.904908
207.627416
75.518489
28.396845
9.691715
8.548498
8.625984
9.009838
12.293458
15.778542
25.163889
35.600662
51.087737
62.859654
76.474547
84.006786
84.695816
80.344677
69.379807
57.845712
43.295622
33.616424
22.970438
16.885996
11.836886
9.779930
8.468628
7.590652
7.232428
7.332563
7.451773
7.442832
7.282495
##ZVALUE=340
0.316501
0.370741
0.520945
0.319481
0.436902
0.351667
0.438690
0.354648
0.517964
0.383854
0.460744
0.369549
0.498891
0.439882
0.488758
0.407696
0.408888
0.373721
0.378489
0.422597
0.479817
0.475645
0.494719
0.596642
0.533462
0.609756
0.674725
0.610948
0.703931
0.674725
0.734925
0.536442
0.788569
0.785589
0.965595
1.035929
0.851750
0.962615
0.882745
0.723600
0.847578
0.983477
1.077652
1.122952
1.262426
1.361966
1.412630
1.405478
1.518726
1.788735
2.154708
3.004670
10.606647
58.157444
148.050785
365.433693
632.154942
1015.793681
1015.793681
1015.793681
1015.793681
1015.793681
1015.793681
1015.793681
884.199739
461.419821
254.119635
101.552010
39.138794
11.315942
8.600950
8.339882
8.264780
8.992553
10.947585
16.262531
22.204518
33.476949
45.721531
61.049461
70.551634
78.982711
79.334974
76.442957
67.881942
55.123568
44.800639
31.563640
24.071932
16.750693
12.089610
8.980632
8.049607
7.284880
7.161498
6.765723
##ZVALUE=345
0.296831
0.455976
0.390410
0.385642
0.444651
0.463724
0.433922
0.410676
0.377893
0.340939
0.460744
0.471473
0.430942
0.369549
0.420809
0.443459
0.394583
0.486970
0.439882
0.512600
0.378489
0.522733
0.491738
0.524521
0.617504
0.529885
0.497699
0.527501
0.579953
0.671744
0.498891
0.702739
0.737906
0.800490
0.606775
0.733733
0.731945
0.709891
0.715852
0.746846
0.681877
0.950694
0.868440
0.931621
1.006722
1.238585
1.111627
1.240969
1.392961
1.394749
1.693964
1.628995
1.720786
2.362728
4.454851
30.590892
88.356733
247.706771
453.090668
834.899545
1015.794873
1015.794873
1015.794873
1015.794873
1015.794873
1015.794873
972.035527
580.382943
328.751802
127.175450
56.187510
17.745495
9.574890
7.890463
7.831454
7.733703
7.986426
10.156631
13.691783
21.731853
29.991865
43.542981
53.725839
65.310001
71.289539
74.019432
70.951581
63.157678
54.633617
42.033792
32.499433
22.435784
16.519427
11.545420
9.396672
7.471442
##ZVALUE=350
0.397563
0.334978
0.332594
0.264645
0.381470
0.290871
0.399947
0.366569
0.484586
0.370741
0.516772
0.446439
0.513792
0.405908
0.428557
0.467896
0.434518
0.583529
0.389814
0.481606
0.497699
0.387430
0.552535
0.494719
0.480413
0.362992
0.265837
0.450611
0.655651
0.430942
0.685453
0.571609
0.679493
0.624657
0.596642
0.690818
0.651479
0.854731
0.715852
0.724792
0.795722
0.856519
0.902414
0.898838
0.893474
0.928640
0.979900
1.111627
1.182556
1.404881
1.398921
1.405478
1.576543
1.882911
1.776814
2.164841
2.850890
15.478730
52.126646
170.377493
333.910584
689.314008
986.663699
1015.794873
1015.794873
1015.794873
1015.794873
1015.794873
1015.794873
690.909624
418.920517
180.186629
79.193711
22.082925
10.069609
7.711649
7.298589
6.685853
6.777644
7.616878
9.045601
13.481975
18.663406
27.322769
35.851598
48.431754
57.380795
64.685941
67.160726
65.294504
60.299635
49.939752
41.301847
29.784441
22.651553
15.597939
##ZVALUE=355
0.247955
0.291467
0.338554
0.452995
0.400543
0.413656
0.335574
0.397563
0.348687
0.392795
0.391603
0.307560
0.483990
0.288486
0.321865
0.427961
0.356436
0.333786
0.518560
0.458956
0.402927
0.525713
0.460744
0.395775
0.489950
0.552535
0.528693
0.629425
0.518560
0.559688
0.536442
0.681877
0.515580
0.691414
0.719428
0.706911
0.636578
0.812411
0.598431
0.742674
0.754595
0.699759
1.004934
0.800490
0.834465
1.053810
1.024604
1.065731
0.972748
1.087785
1.234412
1.303554
1.435876
1.505613
1.672506
1.716614
1.863837
2.123713
2.340674
6.348491
24.601817
105.397701
229.159594
503.325462
816.491842
1015.757918
1015.757918
1015.757918
1015.757918
1015.757918
1015.757918
909.952521
573.475957
250.901580
116.239786
34.520626
13.242960
7.881522
7.255673
6.647706
6.483793
6.590486
6.738901
8.550882
10.876656
16.233921
22.280812
32.203794
40.449500
50.752759
56.994557
60.962439
59.793591
55.029988
48.388839
38.582683
##ZVALUE=360
0.378489
0.264645
0.392795
0.378489
0.404716
0.381470
0.350475
0.310540
0.362992
0.430942
0.470877
0.310540
0.279546
0.463724
0.451803
0.416636
0.391603
0.622869
0.524521
0.572801
0.485778
0.478625
0.554919
0.644922
0.536442
0.668764
0.632405
0.602603
0.433922
0.604987
0.540614
0.669956
0.537634
0.660419
0.700951
0.750422
0.666976
0.636578
0.662804
0.867844
0.738502
0.759959
0.774860
0.851750
0.758767
0.932813
1.019835
0.824928
0.967979
0.984669
1.018643
0.966787
1.117587
1.186728
1.263618
1.677871
1.439452
1.651645
1.958609
2.130866
2.407432
3.344417
9.568930
48.061609
121.751428
320.437551
573.946834
984.732509
1015.793681
1015.793681
1015.793681
1015.793681
1015.793681
984.001756
679.497719
329.457521
166.989565
58.561563
21.858811
8.262992
6.963611
6.328821
6.290674
6.048679
5.758405
6.261468
6.718636
9.363890
12.644529
18.812418
25.727749
35.801530
43.426752
50.401688
54.302812
55.058599
##ZVALUE=365
0.349879
0.444651
0.292659
0.343919
0.346899
0.473857
0.316501
0.439882
0.383854
0.430942
0.465512
0.537634
0.495911
0.483990
0.501871
0.409484
0.347495
0.367761
0.321865
0.481606
0.422597
0.447631
0.387430
0.647902
0.488758
0.516772
0.604987
0.679493
0.438690
0.556707
0.500679
0.556707
0.488758
0.631809
0.647902
0.571609
0.679493
0.569820
0.660419
0.670552
0.639558
0.616908
0.779629
0.762939
0.809431
0.759959
0.763535
0.897646
0.877976
0.865459
0.927448
1.054406
1.149774
1.166463
1.256466
1.271963
1.310706
1.438856
1.545548
1.655817
1.751781
1.807809
2.112985
2.588630
4.297495
25.066733
73.875785
211.473703
410.584807
798.304677
1015.793681
1015.793681
1015.793681
1015.793681
1015.793681
1015.793681
824.452639
466.382504
257.422924
91.167688
33.402443
9.721518
7.144809
6.099939
6.012917
5.691648
5.158782
5.145669
5.203485
6.005764
7.497668
11.112690
15.528798
22.827983
30.139685
37.973523
##ZVALUE=370
0.306964
0.190735
0.363588
0.422597
0.473857
0.625849
0.445843
0.345707
0.424981
0.366569
0.337958
0.361800
0.457764
0.412464
0.434518
0.360608
0.514984
0.417829
0.476837
0.366569
0.494719
0.454783
0.493526
0.421405
0.454783
0.544786
0.609756
0.527501
0.327826
0.527501
0.706911
0.543594
0.596642
0.432730
0.654459
0.625849
0.555515
0.605583
0.418425
0.709891
0.597835
0.629425
0.757575
0.872612
0.760555
0.736713
0.797510
0.629425
0.862479
0.775456
0.874996
0.872612
1.018643
0.952482
0.987649
1.021624
1.207590
1.142621
1.182556
1.166463
1.266599
1.417994
1.640916
1.584888
2.134442
2.204776
3.003478
12.747645
45.723915
159.850717
314.874053
628.209710
944.200754
1015.793681
1015.793681
1015.793681
1015.793681
1015.793681
977.771878
575.760603
330.531597
129.252672
58.069825
17.543435
7.755756
5.861521
5.413890
5.012751
4.768968
4.583597
4.536510
4.766583
5.123615
6.861687
9.205937
14.044642
##ZVALUE=375
0.327826
0.273585
0.233650
0.377893
0.293851
0.285506
0.349879
0.400543
0.211596
0.310540
0.350475
0.365973
0.208616
0.323653
0.306964
0.375509
0.409484
0.486970
0.533462
0.439882
0.260472
0.402927
0.310540
0.304580
0.398755
0.375509
0.452995
0.502467
0.321865
0.426769
0.387430
0.523925
0.539422
0.343919
0.613928
0.522733
0.524521
0.564456
0.579953
0.524521
0.519753
0.631809
0.708699
0.575781
0.611544
0.592470
0.493526
0.673532
0.727773
0.717640
0.867844
0.835657
0.708699
0.874996
0.997782
0.868440
0.897646
0.911951
1.058578
0.909567
0.948906
1.086593
1.029968
1.164675
1.446605
1.406670
1.647472
1.946688
2.595782
5.379915
32.496452
87.939501
243.160725
452.152491
829.258561
1015.794873
1015.794873
1015.794873
1015.794873
1015.794873
998.506546
734.865665
411.617756
234.040022
92.043877
38.271546
10.038614
5.780458
5.065799
4.645586
4.663467
4.515648
4.372597
4.367828
4.508495
4.553795
##ZVALUE=380
0.290871
0.223517
0.338554
0.362992
0.364780
0.245571
0.348687
0.453591
0.284910
0.317693
0.235438
0.240803
0.306964
0.347495
0.342727
0.402927
0.395775
0.366569
0.404716
0.369549
0.474453
0.432730
0.232458
0.433922
0.220537
0.388622
0.473857
0.296831
0.444651
0.451803
0.407696
0.317693
0.521541
0.513792
0.449419
0.496507
0.338554
0.454783
0.461936
0.516772
0.642538
0.607967
0.627637
0.540614
0.479817
0.518560
0.598431
0.366569
0.653863
0.480413
0.691414
0.530481
0.693798
0.704527
0.739694
0.722408
0.781417
0.702739
0.696778
0.773668
0.893474
0.821948
0.882745
1.064539
1.142621
1.137853
1.418591
1.531839
1.733899
1.960993
2.322793
3.260970
15.836954
54.837465
181.822777
350.494981
690.844655
989.849567
1015.793681
1015.793681
1015.793681
1015.793681
1015.793681
907.212496
532.462597
315.576792
130.958557
59.456825
15.706420
6.724596
4.888773
4.560947
4.148483
4.253983
3.905892
3.791451
##ZVALUE=385
0.296831
0.248551
0.356436
0.144839
0.279546
0.267625
0.065565
0.241995
0.210404
0.276566
0.207424
0.337958
0.231862
0.306964
0.096560
0.304580
0.123978
0.203848
0.147820
0.207424
0.208616
0.231862
0.338554
0.311732
0.253916
0.224710
0.217557
0.362992
0.305772
0.281930
0.379682
0.355840
0.342727
0.465512
0.550747
0.326633
0.409484
0.369549
0.397563
0.337958
0.491738
0.455976
0.422597
0.339746
0.409484
0.407696
0.450611
0.388622
0.519753
0.566840
0.568628
0.519753
0.517964
0.631809
0.527501
0.636578
0.569820
0.597835
0.719428
0.713468
0.683665
0.748634
0.736713
0.618696
0.836849
1.026988
1.093745
1.196861
1.394749
1.566410
1.744628
1.791716
2.098680
2.381802
5.826950
32.816529
93.955398
273.166895
493.206978
904.823542
1015.757918
1015.757918
1015.757918
1015.757918
1015.757918
1004.740596
743.328929
406.967998
229.561925
92.341900
36.238432
9.097457
5.063415
4.173517
4.126430
3.910661
##ZVALUE=390
0.255704
0.142455
0.193715
0.310540
0.177622
0.285506
0.296831
0.364780
0.252724
0.356436
0.323653
0.221729
0.117421
0.252724
0.375509
0.251532
0.283718
0.289679
0.343919
0.158548
0.310540
0.256896
0.327826
0.333786
0.312924
0.307560
0.260472
0.399947
0.500679
0.419617
0.491738
0.298619
0.498891
0.398755
0.267625
0.313520
0.319481
0.365973
0.435710
0.420809
0.443459
0.409484
0.507832
0.479817
0.469685
0.503659
0.406504
0.468493
0.445843
0.431538
0.566840
0.650883
0.569820
0.576973
0.600815
0.617504
0.631809
0.694990
0.669956
0.680685
0.688434
0.663996
0.888705
0.885725
0.916719
0.894666
0.969768
1.151562
1.425743
1.316667
1.591444
1.746416
1.717806
1.708865
1.992583
2.175570
3.463626
14.955997
74.729919
181.642771
445.863605
715.819001
1015.793681
1015.793681
1015.793681
1015.793681
1015.793681
1015.793681
898.479819
614.471436
314.953923
160.403848
54.028630
19.367933
5.676746
4.550815
##ZVALUE=395
0.261664
0.084639
0.364780
0.269413
0.081658
0.265837
0.383854
0.252724
0.243783
0.296831
0.022650
0.122786
0.187755
0.174642
0.227690
0.321865
0.275970
0.272989
0.330806
0.224710
0.316501
0.302792
0.213981
0.369549
0.223517
0.318885
0.320673
0.415444
0.337958
0.260472
0.440478
0.235438
0.327826
0.488758
0.379682
0.382662
0.321865
0.392795
0.432730
0.362992
0.471473
0.482798
0.497699
0.444651
0.471473
0.513792
0.431538
0.394583
0.500679
0.507832
0.563860
0.583529
0.596642
0.591874
0.579953
0.623465
0.443459
0.573993
0.711679
0.718832
0.812411
0.669956
0.867844
0.788569
0.997782
0.904799
0.953674
1.200438
1.199841
1.342893
1.332760
1.275539
1.611710
1.778603
1.553893
1.718998
1.882911
1.964569
2.674460
8.651614
51.718950
133.033991
328.388810
562.918782
960.466862
1015.780568
1015.780568
1015.780568
1015.780568
1015.780568
1015.780568
764.452815
402.889848
215.480924
79.883933
33.424497
##ZVALUE=400
0.193715
0.222921
0.362992
0.212789
0.352859
0.280738
0.340939
0.302792
0.335574
0.133514
0.400543
0.221729
0.297427
0.197887
0.217557
0.523925
0.273585
0.240803
0.235438
0.312924
0.189543
0.307560
0.291467
0.236630
0.247955
0.218749
0.195503
0.235438
0.449419
0.439882
0.216961
0.318885
0.354648
0.456572
0.473857
0.441670
0.444651
0.553727
0.478625
0.307560
0.522733
0.406504
0.518560
0.459552
0.369549
0.239611
0.366569
0.443459
0.374913
0.589490
0.376701
0.626445
0.534654
0.553727
0.546575
0.436902
0.694990
0.471473
0.454783
0.590682
0.679493
0.773668
0.742674
0.629425
0.698566
0.881553
0.881553
0.898838
1.016855
1.165867
1.120567
1.299977
1.446605
1.257658
1.499653
1.435876
1.286864
1.435876
1.584888
1.811981
2.128482
4.822612
19.446611
83.501935
186.323524
429.962873
695.048571
1015.793681
1015.793681
1015.793681
1015.793681
1015.793681
1015.793681
841.994882
562.451482
285.982490
##END
