##TITLE=AAO0851
##FORMAT=SPECTACLE-ASCII V-1.2
##DATA TYPE=ULTRAVIOLET SPECTRUM
##SECOND TYPE=ULTRAVIOLET SPECTRUM
##DATE=10/24/17
##TIME=16:00:59
##SPECTROMETER/DATA SYSTEM=SPECTACLE
##XUNITS=NM EM
##YUNITS=ENERGY
##YFACTOR=1
##FIRSTX=220
##LASTX=410
##NPOINTS=96
##3DDATA=Equidistant
##ZUNITS=NM EX
##FIRSTZ=210
##LASTZ=400
##ZPOINTS=39
##XYDATA=(Y..Y)
##ZVALUE=210
4.121661
3.534555
3.068447
3.519654
3.145933
3.236532
3.505945
3.417730
3.726482
2.922416
2.913475
2.838969
2.883673
2.832413
3.037453
2.930760
3.167987
3.432631
3.416538
3.456473
3.864765
3.341436
3.898740
4.263520
3.987551
4.964471
4.568696
4.773736
4.995465
5.096793
5.255938
4.977584
4.723668
4.417896
5.502701
5.584955
5.507469
5.784631
5.636811
5.707741
5.508661
6.338954
5.714893
5.808473
6.083846
6.377697
5.962849
6.682873
6.483793
6.700754
7.169843
6.781816
7.281899
7.374883
6.721616
7.362962
6.324649
7.134676
7.101893
7.176995
7.108450
7.594824
7.515550
7.311702
7.239580
8.315444
8.259416
9.242892
9.613633
12.044907
14.196634
15.077591
17.416477
18.712878
20.795465
20.934939
20.452738
21.899939
20.711422
19.609928
16.653538
15.507936
15.135407
12.388825
10.737777
8.892417
8.323789
8.136630
6.659627
6.497502
6.995797
6.630421
6.831884
7.772446
8.022785
7.326603
##ZVALUE=215
10.239482
11.554956
9.149909
7.842779
7.421970
6.747842
6.218553
6.294847
6.446838
6.352663
5.994439
6.167889
5.463958
3.961921
4.549623
3.520846
3.178716
3.334880
3.188848
3.391504
3.677607
4.228950
4.036427
4.693866
4.747510
4.149675
4.823804
4.295707
4.527569
4.932880
5.842447
5.535483
5.056858
5.749464
5.698800
5.188584
6.246567
6.229877
5.956888
5.712509
6.067753
6.700754
5.317926
6.615520
5.825758
6.456971
6.792545
6.699562
5.872846
6.808639
6.729960
7.500648
7.564425
7.102489
7.222891
8.205771
7.810593
8.317828
7.992983
7.707477
7.786751
7.419586
7.599592
7.427931
8.536577
8.311868
8.790493
9.427667
10.667443
11.853576
12.574792
15.330911
17.018914
17.712712
19.414425
19.601583
21.447539
19.324422
18.309951
18.752813
17.564893
14.280677
13.285875
10.501742
11.378527
8.836985
8.135438
7.528663
7.055998
6.988645
6.964803
7.024407
6.933808
7.134676
6.782413
6.902814
##ZVALUE=220
31.549931
29.700994
32.240748
32.668710
31.895638
27.499795
23.857951
16.575456
14.339685
12.600422
13.156533
14.871955
15.467405
12.931824
10.896921
8.247495
6.887913
5.060434
4.378557
4.414916
4.082918
4.106760
4.705787
3.984571
4.592538
4.056692
5.114675
5.023479
5.860925
4.507899
4.969835
6.066561
6.104708
5.821586
6.136894
6.376505
5.887747
6.233454
6.097555
6.451607
5.634427
7.414818
7.166862
7.097721
7.362962
6.627440
7.012486
7.293820
7.091761
6.898642
6.933808
7.080436
7.704496
8.454919
7.446408
7.610917
8.160472
7.938743
8.245707
7.276535
9.377599
9.045601
8.143783
8.567572
8.432865
8.263588
9.675622
9.388924
10.837913
11.452436
13.422966
14.334917
17.310977
19.306540
18.544793
18.963814
20.537972
20.654798
20.142794
17.430782
17.548800
17.155409
15.344620
12.572408
11.364818
9.456873
9.947419
7.782578
7.673502
6.885529
7.401705
7.596612
6.964803
6.790757
6.645918
7.140636
##ZVALUE=225
48.117638
52.783489
65.248609
83.652735
91.466904
87.507963
82.742572
63.732862
54.398775
41.108727
29.008985
25.504827
27.357936
30.279756
29.205680
26.755929
23.127794
18.603802
13.673902
9.621978
7.169843
5.598664
4.960895
4.200935
4.776716
5.271435
5.716681
5.797744
5.935431
6.381869
6.030798
5.645752
5.786419
6.149411
6.939769
7.055998
6.416440
8.391738
7.305741
6.979704
7.166862
6.853938
8.266568
7.422566
7.096529
7.420778
7.875562
8.395910
8.229613
8.243918
8.389950
9.195805
8.948445
9.363890
8.443594
9.429455
8.403659
8.412600
10.162592
9.004474
9.426475
10.309815
10.568500
10.728836
10.800958
10.799766
10.546446
11.316538
12.352467
13.492703
14.284849
13.587475
17.156601
17.879605
20.883679
19.203424
21.063685
18.702745
18.120408
16.937852
15.251637
15.617609
13.631582
11.270642
11.342764
10.588765
9.289980
9.780526
8.853674
8.764863
8.158684
7.810593
7.348657
7.982850
7.390976
7.615685
##ZVALUE=230
38.666725
41.479468
74.768662
107.085705
139.857531
186.186433
208.151937
212.881565
191.767812
151.708722
114.143491
74.434876
56.040883
49.527884
48.794746
52.625537
54.344535
51.374435
44.799447
39.323568
26.275516
20.667911
12.133718
9.305477
6.969571
6.634593
6.174445
5.932450
5.188584
6.255507
6.959438
7.835627
6.901622
6.700754
7.122755
7.970929
7.931590
7.047653
7.502437
7.380843
7.748604
7.608533
7.779598
8.256435
8.970499
7.962584
7.906556
8.254647
8.587837
9.212494
9.490848
9.427667
9.678602
11.002421
10.024905
11.475682
10.706782
10.459423
11.455417
13.346672
11.802912
12.045503
12.395978
12.516975
12.247562
13.352633
13.563633
13.189912
14.334917
16.511679
16.759634
17.533898
18.406510
19.029975
22.388697
22.435784
20.749569
21.033883
21.024942
18.311739
16.864538
15.779734
14.985800
12.506843
11.252761
10.814667
11.318922
10.505915
10.664463
10.417700
10.046959
9.904504
9.929538
10.067821
9.720922
9.555817
##ZVALUE=235
13.088584
15.235543
31.719804
75.446963
122.934580
203.127861
272.761583
349.211693
391.109586
403.330922
363.394618
298.173428
205.033422
153.339505
98.866820
77.846646
77.190995
79.224706
83.247423
83.167553
75.288415
63.173771
51.595569
37.243962
27.542710
17.193556
10.193586
7.442832
7.434487
7.932782
8.372664
7.172823
7.143617
8.134842
8.254647
7.973909
8.760691
8.557439
8.297563
7.880926
7.686615
8.401871
7.880926
8.468628
8.522868
8.193851
7.999539
8.913875
9.514689
10.235906
10.277629
11.276603
11.377931
11.814833
12.108684
12.433529
13.755560
12.373924
12.855530
13.427734
13.984442
14.401674
14.884472
15.543699
14.647841
14.895797
14.562607
16.688704
16.878843
17.954707
19.586682
20.948648
22.793412
24.058819
24.402738
24.755597
22.284985
23.937821
21.814704
19.943714
20.475984
18.086433
16.982555
15.594959
15.423894
13.446808
12.402534
13.011694
12.911558
12.866855
11.731982
11.124611
9.851456
12.291670
12.512803
11.692643
##ZVALUE=240
2.425909
2.778769
6.635785
18.099546
46.411753
84.775686
177.674890
275.141001
421.552658
515.967607
590.966940
604.835749
552.465916
452.825427
366.280675
230.824947
160.648823
113.561749
96.676946
100.041628
110.861659
118.765831
110.628605
100.997686
80.625415
62.683821
43.345690
32.337904
21.604896
13.994575
11.777878
8.806586
8.342862
8.101463
8.461475
8.967519
8.850694
8.963943
8.049607
8.310676
8.485913
8.605719
8.730888
8.710623
9.149909
9.226799
9.372830
9.828806
9.866953
11.560917
11.389852
11.601448
13.733506
13.736486
12.387633
14.499426
15.070438
13.502836
14.169812
16.394854
15.879869
16.472936
16.140938
16.067624
18.105507
16.528964
17.146468
17.948747
18.622875
20.730495
20.828843
23.487806
23.083687
25.701523
25.482774
25.473833
26.472807
24.260879
22.484660
22.234917
18.655658
18.988848
18.254519
17.102957
16.570687
15.126467
14.330745
13.950467
14.387965
13.690591
14.027953
12.670755
12.190938
14.019608
12.659431
11.960864
##ZVALUE=245
2.430677
1.736879
2.067685
2.404451
4.087687
13.873577
33.372641
89.396834
161.425471
266.360641
442.196727
582.987666
710.403919
752.316713
716.089606
635.091662
478.316545
359.295011
227.184892
153.842568
112.396479
99.585652
109.432936
125.660896
129.468441
122.130513
110.707879
89.216828
73.549747
50.981641
36.148429
22.411942
15.330911
11.024475
7.957816
7.521510
8.143783
7.466674
8.492470
8.034706
8.034706
7.427931
7.104874
7.743835
7.925630
8.166432
7.789731
9.629726
9.244680
10.060668
9.495616
11.285543
11.378527
12.520552
12.148619
12.377501
13.049841
14.095902
13.750792
15.637875
14.219880
14.766455
14.329553
16.177893
14.344454
14.751554
16.141534
16.026497
17.081499
18.287897
19.069910
20.360947
20.496845
21.373630
21.516681
21.260977
21.609664
21.724701
20.092726
22.243857
17.278790
17.133951
15.798807
16.209483
15.256405
13.672709
13.892651
13.054609
12.710690
12.131929
11.960864
10.718703
11.220574
10.837913
11.369586
12.285709
##ZVALUE=250
1.328588
1.568794
2.082586
2.230406
1.916885
1.924634
2.676845
7.298589
30.160546
65.986514
165.369511
276.012421
407.029986
607.853532
740.900636
858.110785
870.195031
782.478452
672.165751
466.025472
329.395533
207.996964
121.312737
100.340843
104.649663
118.436813
132.330656
136.340857
130.557418
118.563771
102.091432
75.306892
56.330562
34.906864
24.025440
15.052557
11.102557
7.446408
7.311702
7.940531
6.767511
7.461905
7.360578
7.200837
7.194877
7.418990
6.911755
7.844567
8.156896
8.043647
8.050799
8.898973
9.824634
9.479523
9.678602
10.170937
10.956526
10.883808
11.312962
11.851788
11.915565
11.993647
12.995601
12.746453
12.304783
11.853576
12.446642
12.923479
14.274716
15.841722
15.809536
15.656948
16.496778
17.674565
19.603968
18.685460
19.011497
17.916560
17.359853
15.907884
15.234947
14.148951
14.255643
13.143420
11.633635
11.551976
10.964870
11.012554
10.513663
10.266900
9.974837
11.273623
9.753704
10.245442
9.378791
10.328889
##ZVALUE=255
1.432896
1.693964
1.572967
1.845956
2.030730
1.985431
1.720786
1.842976
2.489686
4.421473
20.160675
50.782561
108.292699
239.611864
379.649997
608.288646
768.278837
931.378007
999.947786
970.495939
855.366588
684.190989
440.908670
280.726552
154.733658
107.904673
90.473890
100.882649
121.942759
136.370659
140.644908
140.625834
129.956603
102.253556
81.355572
54.854751
37.439466
21.852851
14.000535
9.644628
7.249713
6.975532
6.915927
6.493926
6.912947
6.423593
7.189512
7.508993
7.760525
6.628633
7.913709
8.321404
8.841753
9.507537
8.812547
8.812547
9.532571
9.953976
10.334849
10.723472
10.529757
11.048913
10.107756
10.610819
10.643601
10.549426
11.128783
11.760592
11.993647
12.782812
13.046861
14.618635
14.790893
14.464855
15.418530
14.613867
14.878511
13.993979
15.258789
12.368560
13.081431
11.791587
11.272430
10.789633
10.574460
9.575486
9.451509
10.534525
10.477901
9.307861
9.131432
9.287000
9.052753
9.610653
8.979440
8.963943
##ZVALUE=260
1.340508
1.233816
1.300573
1.274943
1.308918
1.703501
1.715422
1.627803
2.006888
1.883507
2.017617
2.746582
11.035800
29.589534
88.257790
178.518891
359.125733
531.503558
717.591643
975.465775
1015.793681
1015.793681
1015.793681
817.525983
606.956482
355.779529
228.806734
126.940608
88.671446
85.304976
100.469589
126.724839
138.049722
149.653554
145.711899
125.204921
109.252930
78.241825
58.006644
34.848452
24.545789
14.255643
8.719563
7.995963
6.842613
6.326437
6.902814
7.065535
7.006526
7.636547
7.639527
8.992553
9.040833
9.267926
8.480549
9.532571
9.341836
8.885860
9.540915
10.294914
10.318756
10.224581
10.112524
9.524822
9.893775
10.216832
10.483861
10.879636
11.083484
11.654496
11.382699
12.668967
13.455749
13.000965
13.879538
13.162494
12.578964
12.451410
12.786984
11.492968
10.922551
10.687709
9.870529
10.054708
10.006428
9.343624
9.041429
9.254813
8.718967
9.010434
8.592606
8.860826
7.786751
8.318424
7.939935
7.905960
##ZVALUE=265
1.063943
1.258850
1.135468
1.252890
1.226664
1.185536
1.358986
1.382828
1.470447
1.739860
1.691580
1.657605
1.784563
2.238750
4.100800
21.896958
56.969523
150.349736
273.364782
530.170798
759.075880
985.334516
1015.793681
1015.793681
1015.793681
1011.517048
771.712661
554.293990
309.186578
189.314485
100.635886
72.926879
81.881881
108.105540
127.427578
147.322416
154.891610
144.677758
132.319927
108.083487
81.733465
54.197907
38.448572
21.942854
13.853908
9.010434
7.764697
7.667542
7.208586
8.026958
8.280873
8.696914
8.925796
9.505749
8.974671
9.283423
9.268522
10.024905
9.751916
10.627508
10.585785
10.640621
10.530949
10.348558
10.089874
10.719895
11.325479
10.862947
11.787415
11.488795
11.780858
11.966825
13.209581
12.799501
13.148785
12.825727
12.540817
12.278557
11.117458
10.401607
10.181665
10.361671
9.490848
9.075999
9.061694
8.487701
8.825660
8.656979
7.953644
7.991791
8.189678
7.857680
7.890463
7.667542
7.822514
7.288456
##ZVALUE=270
1.012683
1.056790
1.094937
1.415610
1.121759
1.154542
1.080632
1.259446
1.267791
1.209974
1.395941
1.678467
1.559854
1.751781
1.738667
2.139807
2.315640
10.426641
32.174587
104.230642
210.909843
384.194851
698.359013
955.390930
1015.793681
1015.793681
1015.793681
1015.793681
988.700390
760.352612
524.833798
275.795460
155.541897
77.415705
63.992739
82.799792
106.188655
131.997466
145.478845
152.844787
147.189498
130.971670
110.672712
79.984665
59.302449
36.387444
23.826957
14.896989
11.232495
8.797646
8.521676
9.116530
9.327531
9.429455
10.447502
10.562539
10.402799
10.988712
11.301637
10.922551
12.135506
11.218786
10.924935
11.279583
10.487437
11.285543
11.189580
11.270642
11.392832
11.571646
12.155771
11.721849
12.833476
13.074875
12.861490
12.680888
12.302995
11.612773
11.618733
10.434985
9.971857
9.667873
9.295940
8.720756
8.106828
8.434653
7.826686
7.924438
7.355809
7.107854
7.461905
7.530451
7.463694
7.395744
7.086992
7.051826
##ZVALUE=275
1.037717
0.895858
1.062751
0.994802
0.961423
0.940561
1.004934
1.099706
1.338720
1.298785
1.161695
1.156926
1.340508
1.357794
1.522899
1.567602
1.781583
1.795888
1.778603
5.234480
19.252896
56.909919
171.082616
332.201719
642.179847
883.870721
1015.794873
1015.794873
1015.794873
1015.794873
1015.794873
957.755446
689.058900
370.585918
212.988853
94.345808
59.099793
60.834885
79.427958
107.173920
126.882792
147.562623
152.662992
145.537853
131.402612
107.109547
84.487796
59.009790
43.316483
25.972724
17.895699
13.279915
11.184812
10.164976
10.450482
10.388494
10.898709
11.420846
11.984706
12.332797
12.320876
11.709929
12.696981
12.058616
11.981726
11.232495
11.446476
11.739731
11.953712
12.668967
12.558699
12.829900
12.930632
12.235641
12.781620
13.163686
12.339950
11.381507
11.298656
10.771751
10.302663
9.471774
9.048581
8.265972
8.547902
7.871985
7.965565
7.674694
7.346869
7.257462
6.855726
7.303953
6.747842
6.556511
6.575584
6.594658
##ZVALUE=280
1.024604
0.924468
1.093745
1.033545
1.028776
1.057982
1.099706
1.151562
1.398921
1.178980
1.221895
1.332760
1.442432
1.376867
1.337528
1.489520
1.735687
1.767874
2.015829
1.837611
2.162457
2.663732
13.179779
44.503808
141.957402
264.863968
507.171750
752.539635
1015.911698
1015.911698
1015.911698
1015.911698
1015.911698
1015.911698
803.166628
459.938645
274.649858
122.478604
64.037442
44.374466
55.815578
79.973936
103.411674
131.111741
143.461823
150.279999
141.877532
129.356980
110.700727
81.926584
61.655641
41.083694
29.391646
19.105673
15.396476
13.061762
12.159944
12.105703
12.596846
12.667775
12.951493
13.078451
13.042688
12.720823
12.741685
12.587905
12.505651
12.427568
12.487769
12.549758
12.967587
13.131499
12.816787
12.672544
12.330413
12.311935
12.305975
11.850595
11.114478
9.926558
10.142922
9.673834
8.829832
8.462667
8.134842
7.990599
7.459521
7.622838
7.296801
7.112622
7.270575
6.559491
6.500483
6.548762
6.204844
6.592870
##ZVALUE=285
0.963807
0.908971
0.854731
0.953674
0.805855
1.049638
1.054406
0.921488
0.957847
1.002550
1.044869
1.135468
1.067519
1.163483
1.300573
1.045465
1.380444
1.346469
1.318455
1.408458
1.622438
1.849532
2.241731
2.326965
6.838441
23.888946
85.825920
176.668763
377.862453
609.752536
879.869461
1015.793681
1015.793681
1015.793681
1015.793681
1015.793681
995.178819
638.132691
400.374532
187.973976
94.450712
41.629672
36.328435
52.482486
73.043704
102.298856
121.412873
139.882565
145.988464
141.930580
131.508708
107.475519
87.370872
62.605739
44.551492
29.477477
21.765828
16.403794
14.571548
13.971925
13.609529
13.929605
13.497472
13.133883
13.295412
13.410449
12.489557
13.469458
13.078451
13.330579
12.945533
13.211966
13.206601
13.106465
13.141632
12.254715
11.573434
11.328459
10.951757
10.055900
9.951591
9.097457
8.206964
8.258820
8.336902
7.607937
7.350445
7.457733
7.218719
6.726980
6.869435
6.794930
6.372929
6.506443
5.969405
5.990863
##ZVALUE=290
0.764728
0.908971
0.786781
0.719428
0.731945
0.808835
0.864863
0.879765
0.844598
0.960827
1.098514
0.986457
1.207590
0.935793
1.093745
1.086593
1.210570
1.055598
1.166463
1.095533
1.389980
1.428723
1.628995
1.754761
2.005696
2.165437
3.083944
8.794665
43.590665
109.104514
222.475529
484.728813
761.160851
1015.793681
1015.793681
1015.793681
1015.793681
1015.793681
1015.793681
843.389630
565.526485
285.099745
149.119496
55.827498
30.865669
35.211444
48.716664
71.247816
90.597868
117.768645
132.158995
144.060850
142.480731
129.538774
112.119913
85.106492
65.605640
45.729876
32.939911
22.530556
18.348694
15.853643
14.489889
13.705492
14.063716
13.121963
13.035536
13.270974
13.449788
13.281703
13.875961
13.274550
12.948513
12.573600
12.390614
11.986494
11.451840
10.945797
10.384917
9.631515
9.348989
8.944869
8.265972
8.066893
8.435845
7.556677
6.928444
7.140636
6.921887
6.828904
6.597638
6.012917
6.210804
6.056428
6.106496
5.747676
##ZVALUE=295
0.864863
0.790954
0.514984
0.696778
0.771880
0.658631
0.772476
0.660419
0.921488
1.015663
0.786781
0.884533
0.745654
1.017451
0.935793
0.963807
0.919700
0.957847
1.044869
1.227856
1.372695
1.276731
1.472831
1.488924
1.604557
1.904964
1.860857
1.851916
2.466440
4.356503
21.998882
64.436793
192.048550
367.861390
704.181790
985.726714
1015.802622
1015.802622
1015.802622
1015.802622
1015.802622
1015.802622
691.725612
436.262488
200.946927
98.239779
35.447478
23.295879
32.423735
45.822859
69.627762
88.447928
114.385486
128.996968
140.806437
137.111545
124.209523
108.685493
83.629489
66.110492
46.926737
34.294724
23.858547
19.023418
15.460849
14.916658
13.989806
13.822913
13.780594
13.690591
13.335943
12.891889
13.034940
12.723804
12.600422
12.348890
11.487603
10.830760
10.186434
9.034872
9.160638
8.863807
8.541942
8.038878
7.094741
7.400513
7.111430
6.870627
6.735921
6.498694
6.359816
6.169677
5.816817
5.785823
5.510449
5.574822
##ZVALUE=300
0.652671
0.695586
0.650883
0.772476
0.842810
0.785589
0.793934
0.715852
0.744462
0.702739
0.619888
0.803471
0.689626
0.812411
0.826716
0.958443
0.758767
0.888705
0.949502
1.086593
1.126528
1.155734
1.094937
1.305938
1.276731
1.457930
1.588464
1.704693
1.954436
1.980662
2.288818
2.632737
10.506511
36.164522
125.007629
257.062912
543.567538
839.235783
1015.793681
1015.793681
1015.793681
1015.793681
1015.793681
1015.793681
836.330652
559.268594
286.179781
151.890516
55.342913
26.083589
22.465587
29.947758
46.034455
62.565804
87.619424
106.314421
127.297640
133.209825
132.409930
124.850869
106.110573
87.852478
64.431429
48.263669
32.372475
24.050474
17.886758
15.697479
13.975501
13.569593
13.456941
13.152957
12.780428
12.467504
11.940598
11.872649
11.228919
10.547638
9.901524
9.703636
8.873940
8.506775
8.152723
8.063912
7.464886
7.153749
7.145405
6.315708
6.632805
6.114841
6.242990
6.190538
5.814433
5.471706
5.314946
5.351901
##ZVALUE=305
0.596642
0.571609
0.662804
0.712872
0.790954
0.821948
0.704527
0.528693
0.717640
0.727773
0.884533
0.869632
0.712872
0.651479
0.866652
0.751615
0.711679
0.798702
0.823736
0.906587
1.076460
1.030564
1.135468
1.010895
1.077652
1.320839
1.216531
1.416802
1.317859
1.540780
1.780987
1.973510
2.018809
2.583861
4.081726
24.536848
70.888996
206.605792
385.886431
730.616450
1003.931761
1015.793681
1015.793681
1015.793681
1015.793681
1015.793681
996.289849
654.173493
415.641665
193.718672
94.564557
34.214854
20.312667
22.245646
30.192733
45.627952
61.960816
86.256862
103.602409
120.693445
128.441453
126.069784
119.253993
100.548863
83.121657
60.093999
44.399500
30.508637
22.356510
16.550422
14.571548
12.918711
12.463927
12.098551
11.919737
10.934472
10.548830
10.067821
9.277463
8.701682
8.741617
8.009672
7.902980
7.517934
7.338524
6.839633
6.890893
6.401539
6.281734
5.956888
5.792975
5.541444
5.250573
5.552769
5.338788
4.773736
##ZVALUE=310
0.381470
0.558496
0.419617
0.452995
0.691414
0.702739
0.517964
0.723600
0.636578
0.695586
0.693798
0.561476
0.855923
0.800490
0.800490
0.688434
0.845790
0.807643
0.641942
0.797510
0.769496
0.848770
0.956655
1.043677
0.900626
1.059771
1.211762
1.106858
1.270771
1.095533
1.374483
1.421571
1.634955
1.918674
2.002716
2.264977
2.872944
7.801652
39.758682
106.255412
284.566879
495.571494
884.476900
1015.791893
1015.791893
1015.791893
1015.791893
1015.791893
1015.791893
913.739800
527.000427
308.012962
127.584934
60.720444
22.671819
17.414689
21.006465
26.661754
40.661693
54.220557
76.760650
93.352795
110.131502
118.312836
120.082498
112.396479
95.546842
79.992414
56.283474
42.478442
28.253794
21.555424
15.148520
12.419820
10.735989
9.960532
9.306669
8.977652
8.493662
8.214712
7.797480
7.400513
6.780624
6.768703
6.327629
6.378889
6.222725
5.807877
5.978942
5.759597
5.445480
5.399585
5.186796
5.057454
4.792809
4.658699
##ZVALUE=315
0.534654
0.465512
0.544786
0.600815
0.480413
0.548959
0.522733
0.564456
0.601411
0.417829
0.456572
0.612736
0.763535
0.699759
0.731945
0.745654
0.666976
0.781417
0.650883
0.809431
0.804663
0.935793
0.858903
0.844598
0.961423
0.930429
0.948906
0.947714
1.093745
1.101494
1.168847
1.202822
1.340508
1.470447
1.483560
1.702905
1.798868
2.021790
2.472997
4.774928
17.642975
77.458620
179.054737
425.231457
696.414709
1015.793681
1015.793681
1015.793681
1015.793681
1015.793681
1015.793681
1013.412476
753.615499
402.084589
219.279528
81.363916
33.663511
15.494823
15.118718
18.807650
24.609566
36.790967
49.398541
68.835616
84.245801
102.314949
110.028982
112.786889
106.371641
89.681745
75.170994
55.077672
42.297840
26.168823
18.678904
12.630820
10.317564
8.059740
7.726550
7.019639
6.792545
6.529689
6.216764
6.029606
5.894899
5.781651
5.580783
5.463958
5.472898
5.160570
5.143881
5.057454
4.724860
4.834533
4.665852
4.567504
##ZVALUE=320
0.420809
0.407696
0.503659
0.480413
0.500679
0.364780
0.401735
0.471473
0.515580
0.470877
0.408888
0.499487
0.638962
0.436902
0.651479
0.554919
0.523925
0.666976
0.677705
0.514984
0.650883
0.743866
0.673532
0.580549
0.659823
0.763535
0.732541
0.632405
0.927448
0.986457
0.807643
0.707507
1.071692
1.110435
1.154542
1.155734
1.330972
1.545548
1.492500
1.913905
2.141595
2.765656
7.617474
43.982863
115.114450
308.417678
525.227785
909.176469
1015.727520
1015.727520
1015.727520
1015.727520
1015.727520
1015.727520
958.672762
540.217757
304.463506
128.857493
56.390762
18.375516
12.323856
12.769699
14.920831
21.078587
29.323697
44.415593
58.835745
77.149868
90.584755
101.024508
104.002953
97.505450
87.473989
66.943765
52.649975
34.917593
24.846792
15.677810
11.245608
7.449985
6.304979
5.461574
5.728602
5.301833
5.125999
5.280972
5.007982
4.899502
4.744530
4.889965
4.531741
4.441738
4.526973
4.325509
4.263520
4.116893
##ZVALUE=325
0.195503
0.322461
0.227690
0.136495
0.259876
0.156760
0.138879
0.355840
0.331998
0.315905
0.344515
0.288486
0.330806
0.423789
0.369549
0.317693
0.332594
0.331998
0.460744
0.363588
0.569820
0.412464
0.393987
0.578761
0.241995
0.597835
0.639558
0.875592
0.698566
0.868440
0.692606
0.845790
0.593662
0.804663
0.835657
0.841618
0.999570
1.049638
1.261830
1.350641
1.354814
1.724958
1.708865
2.233982
4.142523
28.361678
75.279474
208.370686
382.927656
740.195513
1011.825800
1015.576720
1015.576720
1015.576720
1015.576720
1015.576720
1015.576720
648.191571
398.529768
176.692009
83.207488
24.376512
11.440516
9.111762
9.552836
12.351871
16.876459
27.038455
38.778782
56.309700
71.507692
87.255836
93.879700
95.193982
89.340806
76.280832
63.043833
44.085979
32.468438
19.717813
13.076663
8.305907
6.376505
5.281568
4.733801
4.620552
4.300475
4.292727
4.247427
4.161596
4.135966
3.867745
3.594756
4.059672
3.903508
3.633499
##ZVALUE=330
0.380874
0.337958
0.462532
0.434518
0.423789
0.477433
0.416636
0.467896
0.666976
0.562668
0.415444
0.557899
0.560880
0.473857
0.565648
0.562668
0.437498
0.543594
0.573993
0.626445
0.677705
0.619888
0.613928
0.578761
0.706911
0.735521
0.566840
0.836849
0.712872
0.762939
0.842810
0.806451
0.961423
0.904799
0.915527
1.023412
0.999570
1.335740
1.080632
1.072884
1.339912
1.487732
1.596808
1.822710
1.925826
2.275705
2.835989
9.421706
51.028728
132.577419
326.534510
547.443628
942.613482
1015.794873
1015.794873
1015.794873
1015.794873
1015.794873
1015.794873
897.303820
500.932932
284.365416
114.023685
47.990680
13.468862
8.064508
7.373691
8.487701
11.349916
16.184449
26.409626
36.828518
52.790642
66.843629
80.492496
87.470412
89.673996
83.664656
69.871545
57.938695
40.645599
30.223727
19.609928
13.601780
8.336902
6.471872
5.194545
4.717708
4.372597
4.184842
3.795624
3.877878
3.896952
3.753901
3.624558
3.608465
##ZVALUE=335
0.382662
0.341535
0.425577
0.422597
0.508428
0.453591
0.508428
0.595450
0.541806
0.457764
0.493526
0.410676
0.595450
0.525713
0.512600
0.410676
0.591874
0.447631
0.560880
0.680685
0.477433
0.557899
0.563860
0.607967
0.682473
0.711679
0.464916
0.713468
0.693798
0.706911
0.627637
0.692606
0.864863
0.833869
0.954866
0.920892
0.842810
1.132488
0.990629
1.170635
1.054406
1.244545
1.193881
1.361966
1.445413
1.654625
1.787543
2.030730
2.419949
6.358624
23.727417
96.825957
203.171968
450.164676
728.472471
1015.793681
1015.793681
1015.793681
1015.793681
1015.793681
1015.793681
951.446891
647.482872
341.437459
177.442431
58.541894
22.188425
8.793473
7.504821
7.455945
8.066893
10.406971
14.573932
24.021864
34.292936
49.457550
61.759949
74.322820
80.641508
81.541538
76.459646
64.582825
54.325461
41.141510
30.178428
19.916892
13.503432
8.594990
6.167889
4.748702
4.165769
3.876686
3.674626
3.732443
3.788471
3.592968
##ZVALUE=340
0.379682
0.328422
0.421405
0.353456
0.359416
0.349879
0.306964
0.645518
0.471473
0.471473
0.498891
0.490546
0.317693
0.518560
0.585914
0.499487
0.469685
0.529885
0.589490
0.453591
0.365973
0.416636
0.471473
0.563860
0.476837
0.628829
0.633597
0.563860
0.530481
0.639558
0.727773
0.748634
0.717640
0.683665
0.818968
0.852942
0.801682
0.883937
0.764728
0.949502
1.016855
0.999570
1.210570
1.073480
1.308918
1.436472
1.314878
1.575947
1.721978
1.818538
2.081990
3.343821
11.534691
58.142543
140.622854
351.227522
611.250997
998.021960
1015.793681
1015.793681
1015.793681
1015.793681
1015.793681
1015.793681
795.556903
414.862633
225.833654
91.171861
34.845471
10.115504
7.530451
7.025599
7.383823
7.752776
9.755492
15.165806
21.259785
33.454895
44.437647
59.956908
69.044828
76.995492
76.345801
72.419643
64.917803
51.062703
40.151477
27.524829
20.032525
13.263822
8.896589
6.024837
4.800558
4.079938
3.862977
3.735423
##ZVALUE=345
0.332594
0.324845
0.289679
0.490546
0.529885
0.563860
0.506639
0.261664
0.368953
0.304580
0.398755
0.435710
0.337958
0.480413
0.691414
0.552535
0.383854
0.491738
0.511408
0.310540
0.458956
0.298619
0.508428
0.666976
0.449419
0.626445
0.609756
0.593662
0.650883
0.642538
0.673532
0.750422
0.693798
0.595450
0.657439
0.691414
0.870824
0.806451
0.863671
0.894666
0.756979
0.877976
0.895858
0.877976
0.895858
1.067519
1.226664
1.188517
1.433492
1.334548
1.718998
1.632571
2.039671
2.194643
6.183982
26.225448
109.427571
223.192573
468.421578
729.120970
1015.805006
1015.805006
1015.805006
1015.805006
1015.805006
1015.805006
925.690532
613.586903
281.643867
136.998892
43.599606
16.681552
8.234978
7.262826
6.623864
6.519556
6.868839
8.562803
13.070703
19.090772
30.859709
40.192604
53.035617
61.448812
69.133639
70.719719
67.780614
60.786605
48.908591
39.453506
27.816892
19.778609
12.597442
8.807778
5.762577
4.875660
##ZVALUE=350
0.276566
0.195503
0.328422
0.414848
0.396967
0.262856
0.131726
0.301600
0.276566
0.341535
0.224710
0.286698
0.243783
0.464916
0.326633
0.347495
0.246763
0.325441
0.350475
0.286698
0.452995
0.331998
0.460744
0.435710
0.459552
0.470877
0.518560
0.312924
0.515580
0.542998
0.526905
0.536442
0.644922
0.462532
0.592470
0.514984
0.503659
0.589490
0.568628
0.606775
0.697970
0.845790
0.737906
0.864863
0.834465
0.738502
0.887513
0.925660
0.994802
1.178980
1.057982
1.316667
1.480579
1.573563
1.766682
1.961589
2.838969
17.022491
57.048798
179.189444
335.221887
657.930970
949.294567
1015.697718
1015.697718
1015.697718
1015.697718
1015.697718
1015.697718
658.758879
408.476591
182.601810
82.401633
21.791458
9.177923
6.876588
6.031990
5.702972
5.703568
6.129742
7.758737
12.539625
17.364621
25.863647
34.358501
46.818852
54.720640
62.678456
65.111518
63.028932
57.384968
46.121478
37.726760
25.971532
19.066930
12.394786
##ZVALUE=355
0.427961
0.423789
0.298619
0.265837
0.553727
0.689626
0.355840
0.239611
0.276566
0.448823
0.392795
0.451803
0.472665
0.524521
0.483990
0.484586
0.486970
0.501871
0.401735
0.551939
0.444651
0.693798
0.421405
0.437498
0.403523
0.601411
0.544786
0.688434
0.506639
0.559688
0.588894
0.665784
0.454783
0.715852
0.552535
0.679493
0.725985
0.694990
0.797510
0.741482
0.718832
0.709891
0.782609
0.778437
0.819564
0.957847
0.873804
1.030564
0.982881
1.253486
1.223683
1.357794
1.456738
1.399517
1.363754
1.758933
1.644492
1.924634
2.442598
5.938411
37.267804
110.524893
303.029418
529.100895
950.340629
1015.793681
1015.793681
1015.793681
1015.793681
1015.793681
1015.793681
845.627785
486.794710
268.633962
101.225972
41.367412
11.302829
6.925464
6.055832
5.781651
5.314946
5.422831
6.023645
7.035732
10.545850
14.565587
23.006797
30.688643
41.394830
49.439669
56.904554
58.346987
57.526827
53.707957
43.686628
36.656857
##ZVALUE=360
0.514984
0.453591
0.430942
0.457764
0.370741
0.448823
0.385642
0.277758
0.305772
0.409484
0.431538
0.374913
0.383854
0.476837
0.401735
0.504851
0.532866
0.401735
0.340939
0.503659
0.629425
0.524521
0.536442
0.466704
0.567436
0.435710
0.594854
0.605583
0.673532
0.730753
0.523925
0.623465
0.493526
0.576973
0.606775
0.671744
0.770688
0.646710
0.546575
0.584722
0.836849
0.703931
0.607967
0.878572
0.813603
0.880957
0.972748
0.849962
0.959635
1.076460
1.141429
1.297593
1.275539
1.291633
1.347661
1.335740
1.441836
1.642704
1.826882
2.199411
2.182722
3.591776
11.869669
54.528713
128.616691
322.265029
560.288429
965.795517
1015.793681
1015.793681
1015.793681
1015.793681
1015.793681
972.817540
665.675998
326.839685
167.109966
58.215857
20.554662
7.516742
6.114841
5.703568
5.514622
5.103946
4.974604
5.357862
5.827546
8.249879
11.613965
18.240809
25.253892
35.734773
41.924715
49.837828
53.021908
52.821636
##ZVALUE=365
0.372529
0.447631
0.610948
0.532866
0.394583
0.471473
0.549555
0.360608
0.330806
0.376701
0.424981
0.456572
0.444651
0.349879
0.451803
0.492930
0.500679
0.503659
0.485778
0.492930
0.497699
0.555515
0.617504
0.459552
0.493526
0.616908
0.492930
0.585914
0.506639
0.641942
0.590682
0.569820
0.544786
0.526905
0.593662
0.749826
0.571609
0.660419
0.655651
0.742674
0.603795
0.799894
0.754595
0.631809
0.645518
0.761747
0.736713
0.848770
0.975728
0.898838
1.023412
1.047850
1.097918
1.198649
1.209974
1.246929
1.497865
1.456738
1.488924
1.502633
1.798868
1.917481
2.309680
2.341866
5.312562
31.452775
85.281730
223.251581
421.695709
807.139874
1015.794873
1015.794873
1015.794873
1015.794873
1015.794873
1015.794873
819.574594
455.755591
247.756839
86.838603
31.907558
8.778572
6.021857
5.505681
5.331635
4.864931
4.728436
4.426837
4.548430
5.095601
6.907582
10.755658
14.784932
22.772551
29.202700
37.545562
##ZVALUE=370
0.387430
0.318885
0.365973
0.319481
0.548959
0.372529
0.432730
0.410676
0.448823
0.426769
0.510812
0.386834
0.280738
0.320673
0.392795
0.392795
0.477433
0.290871
0.468493
0.500679
0.413656
0.423789
0.634789
0.478625
0.585914
0.500679
0.561476
0.600815
0.546575
0.571609
0.535846
0.475645
0.679493
0.595450
0.668764
0.605583
0.688434
0.760555
0.660419
0.641942
0.597835
0.766516
0.711679
0.740886
0.769496
0.655651
0.637770
0.847578
0.801682
0.801682
0.956655
0.914931
0.882745
0.913739
0.806451
0.999570
1.030564
1.169443
1.215935
1.282692
1.292825
1.257658
1.656413
1.916885
1.854897
2.217889
3.022552
16.437769
55.380464
169.549584
325.469971
647.211671
960.636735
1015.793681
1015.793681
1015.793681
1015.793681
1015.793681
996.446013
595.156550
341.324806
134.615898
57.104826
14.265776
6.794930
5.426407
5.077720
4.633665
4.410744
3.984571
3.816485
3.860593
4.520416
5.995631
8.217692
12.718439
##ZVALUE=375
0.312924
0.369549
0.364780
0.402927
0.319481
0.361800
0.359416
0.319481
0.388622
0.392795
0.466704
0.453591
0.493526
0.450611
0.525713
0.516772
0.410676
0.233650
0.345707
0.414848
0.422597
0.459552
0.419617
0.443459
0.458956
0.476837
0.443459
0.487566
0.457764
0.502467
0.417829
0.409484
0.531673
0.561476
0.617504
0.534654
0.507832
0.582933
0.563860
0.516772
0.562668
0.541806
0.562668
0.568628
0.551939
0.700951
0.612736
0.630617
0.555515
0.734925
0.699759
0.683665
0.807643
0.788569
0.893474
0.808835
0.750422
0.880957
1.087785
0.986457
0.971556
1.154542
1.312494
1.274943
1.440644
1.574755
1.742840
1.988411
2.319813
7.704496
31.708479
124.482512
270.092487
595.991015
900.682807
1015.793681
1015.793681
1015.793681
1015.793681
1015.793681
1015.793681
654.976964
413.424969
201.023817
100.573897
29.402971
10.689497
5.049706
4.531741
4.269481
3.882647
3.766418
3.657937
3.418922
3.363490
3.901720
##ZVALUE=380
0.387430
0.367761
0.469685
0.467896
0.349879
0.373721
0.305772
0.203848
0.285506
0.444651
0.199676
0.315905
0.321865
0.454783
0.460744
0.414848
0.347495
0.287890
0.287890
0.363588
0.364780
0.420809
0.247955
0.362992
0.412464
0.381470
0.503659
0.462532
0.532866
0.494719
0.506639
0.475645
0.520945
0.535846
0.489950
0.388622
0.595450
0.489950
0.483990
0.428557
0.425577
0.514984
0.404716
0.600815
0.592470
0.509620
0.663996
0.590682
0.551939
0.620484
0.709891
0.760555
0.720620
0.657439
0.645518
0.862479
0.769496
0.863671
0.719428
0.947714
1.006722
0.955462
0.864863
0.829697
1.209974
1.268983
1.317859
1.356602
1.763701
1.993775
2.544522
3.534555
20.872951
69.610476
218.405724
409.296751
790.284872
1015.790701
1015.790701
1015.790701
1015.790701
1015.790701
1015.790701
933.016539
549.850464
324.656963
136.775970
59.764981
15.243888
6.157756
4.485846
4.094839
3.714561
3.649592
3.309846
3.184676
##ZVALUE=385
0.215769
0.157952
0.188947
0.276566
0.155568
0.184774
0.342727
0.290871
0.199676
0.214577
0.314713
0.053644
0.246763
0.250936
0.206828
0.094771
0.178814
0.225902
0.083447
0.202656
0.244975
0.325441
0.294447
0.354648
0.350475
0.259876
0.388622
0.303984
0.236630
0.266433
0.259876
0.247955
0.256896
0.232458
0.286698
0.335574
0.440478
0.222921
0.254512
0.159740
0.145435
0.262856
0.312924
0.404716
0.351667
0.354648
0.299811
0.333786
0.347495
0.505447
0.437498
0.502467
0.520945
0.447631
0.473857
0.602603
0.625849
0.730753
0.644922
0.642538
0.684857
0.666976
0.645518
0.740886
0.705719
0.924468
0.893474
1.099706
1.241565
1.509786
1.638532
1.902580
2.036691
2.468824
6.912947
37.891865
105.877519
298.183560
537.108779
955.138803
1015.654802
1015.654802
1015.654802
1015.654802
1015.654802
1015.654802
766.931772
419.954658
234.533548
90.916753
34.939647
8.186698
4.398823
3.740788
3.441572
3.296733
##ZVALUE=390
0.279546
0.413656
0.213981
0.323653
0.292659
0.295639
0.279546
0.211596
0.368953
0.440478
0.274777
0.294447
0.396967
0.253916
0.400543
0.301600
0.440478
0.331998
0.412464
0.377893
0.337958
0.223517
0.368953
0.411868
0.358820
0.400543
0.395775
0.499487
0.303984
0.258684
0.406504
0.509620
0.316501
0.325441
0.431538
0.417829
0.346899
0.421405
0.416636
0.396967
0.463724
0.421405
0.382662
0.614524
0.343919
0.494719
0.354648
0.608563
0.477433
0.608563
0.500679
0.638962
0.661612
0.680685
0.552535
0.542998
0.547767
0.551939
0.701547
0.810623
0.724792
0.800490
0.656843
0.717640
0.971556
1.099706
0.950694
1.166463
1.344681
1.459718
1.567602
1.840591
1.724958
1.871586
1.939535
2.158880
3.215671
21.264553
69.371462
220.432878
428.139567
820.377469
1015.793681
1015.793681
1015.793681
1015.793681
1015.793681
1015.793681
950.943828
578.182936
332.831740
134.140849
58.606863
14.490485
5.746484
3.901720
##ZVALUE=395
0.211596
0.167489
0.333786
0.244975
0.309944
0.359416
0.302792
0.208616
0.295639
0.483990
0.223517
0.355840
0.241995
0.263453
0.181794
0.207424
0.192523
0.342727
0.358820
0.424981
0.348687
0.524521
0.348687
0.247955
0.465512
0.296831
0.219941
0.293851
0.292659
0.288486
0.476837
0.382662
0.362992
0.402927
0.442863
0.359416
0.388622
0.368953
0.374913
0.342727
0.407696
0.364780
0.462532
0.486970
0.561476
0.528693
0.427961
0.447631
0.650883
0.449419
0.693798
0.453591
0.516772
0.552535
0.741482
0.830889
0.677705
0.587702
0.692606
0.614524
0.672936
0.605583
0.700951
0.756979
0.998974
0.887513
0.890493
0.994802
1.057982
1.368523
1.467466
1.460910
1.567602
1.693964
1.745820
1.617670
1.880527
2.053976
2.450943
11.326671
43.314695
154.027939
304.874778
629.040003
950.388908
1015.793681
1015.793681
1015.793681
1015.793681
1015.793681
1015.793681
736.256838
468.375683
96.604824
87.479949
29.206872
##ZVALUE=400
0.330806
0.192523
0.277758
0.200868
0.324845
0.240803
0.359416
0.251532
0.276566
0.182986
0.183582
0.310540
0.246763
0.307560
0.159740
0.281930
0.336766
0.329614
0.460744
0.363588
0.540614
0.302792
0.393987
0.484586
0.408888
0.454783
0.338554
0.367761
0.293851
0.386834
0.446439
0.371933
0.436902
0.322461
0.363588
0.560880
0.370741
0.524521
0.441670
0.437498
0.420809
0.471473
0.432730
0.212789
0.454783
0.535846
0.377893
0.547767
0.422597
0.497699
0.391603
0.587702
0.640750
0.478625
0.589490
0.473857
0.553727
0.588894
0.522733
0.542998
0.744462
0.553727
0.730753
0.887513
0.673532
0.942945
0.877976
1.022816
1.024604
1.220703
1.495481
1.434684
1.444817
1.488924
1.297593
1.314878
1.447797
1.498461
1.583695
1.830459
2.178550
4.671812
27.565956
82.264543
242.482424
449.796915
846.526027
1015.794873
1015.794873
1015.794873
1015.794873
1015.794873
1015.794873
915.503502
534.862876
317.511559
##END
