##TITLE=DWSECONDAY
##FORMAT=SPECTACLE-ASCII V-1.2
##DATA TYPE=ULTRAVIOLET SPECTRUM
##SECOND TYPE=ULTRAVIOLET SPECTRUM
##DATE=10/25/17
##TIME=10:25:52
##SPECTROMETER/DATA SYSTEM=SPECTACLE
##XUNITS=NM EM
##YUNITS=ENERGY
##YFACTOR=1
##FIRSTX=220
##LASTX=410
##NPOINTS=96
##3DDATA=Equidistant
##ZUNITS=NM EX
##FIRSTZ=210
##LASTZ=400
##ZPOINTS=39
##XYDATA=(Y..Y)
##ZVALUE=210
20.497441
19.217730
14.727712
11.976957
10.580420
9.299517
10.651946
9.700656
9.102821
8.065701
5.807877
5.599856
5.593896
4.957914
4.836917
6.741881
6.108880
7.155538
5.458593
7.107854
6.714463
7.928610
8.220673
9.077787
9.757876
9.038448
9.551644
10.135770
10.275841
9.933710
9.424686
10.140538
10.691881
10.500550
9.655952
10.804534
11.067986
11.452436
11.893511
10.981560
10.074973
10.350943
10.874867
10.792613
11.250973
11.199713
10.398626
10.446906
10.955930
11.154413
11.102557
10.973811
10.505915
10.997653
10.410547
12.020469
10.572672
11.670589
10.432601
10.438561
11.886954
12.151599
11.612773
10.322928
11.809468
12.429953
14.590621
16.232729
19.294620
22.073984
23.822784
29.602647
30.850768
31.232834
31.606555
30.921698
27.564764
27.789474
26.675463
23.403764
21.457672
17.799735
16.650558
13.844967
12.192726
10.254979
8.896589
9.900928
9.522438
10.133982
14.397502
14.944673
19.382834
24.309754
28.598905
32.946467
##ZVALUE=215
83.648562
81.416965
53.088665
35.899878
26.436448
20.411611
17.432570
17.159581
16.555786
15.798807
13.992786
11.706948
9.422898
7.674694
7.162690
6.248951
7.096529
7.364750
6.839633
7.640719
7.853508
8.449554
8.135438
9.612441
9.525418
9.148717
10.581613
9.949803
9.931922
10.275841
10.551810
11.224747
10.069609
11.446476
10.587573
10.987520
11.978745
12.001991
10.583997
11.174679
10.575652
11.265874
11.213422
11.449456
11.046529
10.947585
11.989474
11.178851
10.439754
11.012554
11.649728
11.787415
11.421442
11.960864
11.423826
11.090636
12.058616
10.567904
11.890531
12.610555
11.647940
12.701750
11.509657
12.181997
12.853742
12.357831
13.686419
16.104579
19.524693
21.691918
23.444891
26.996732
28.561950
28.449893
28.657913
29.575825
26.927590
27.563572
23.626685
22.379756
19.770861
17.946959
15.796423
13.725758
12.094975
10.919571
9.107590
8.824468
9.610653
9.210706
9.145737
7.762909
8.111596
10.243654
12.740493
14.764667
##ZVALUE=220
233.223438
232.489705
216.509700
163.603425
117.469430
68.994761
51.647425
35.991669
28.859973
26.883483
27.180910
26.282668
24.067760
20.503998
16.144514
14.181733
11.943579
10.706782
9.101629
9.209514
9.409785
8.291602
8.690953
10.188818
9.759665
10.190606
11.347532
11.468530
11.080503
10.849833
11.707544
12.599826
12.186766
12.495518
12.676716
12.781620
12.528896
12.038946
11.610985
12.507439
12.170672
11.448860
13.006926
12.461543
12.149811
13.007522
12.355447
12.045503
13.126731
12.608767
13.600588
13.725758
14.524460
13.079643
12.688637
12.231469
13.271570
13.480783
12.260675
12.373924
14.123917
12.659431
13.243556
13.057590
13.655424
14.876723
15.340447
17.623901
18.731952
22.688508
24.461746
28.383732
30.762553
27.634501
32.716990
30.891895
28.109550
26.054978
25.786757
22.966862
20.977855
18.806458
16.216636
13.678670
12.829900
11.526942
10.191798
10.234714
9.421706
8.983612
8.871555
9.045601
9.298921
9.072423
8.588433
8.325577
##ZVALUE=225
319.202542
336.971879
409.216881
454.151630
426.105857
333.824754
247.628689
141.937733
96.619725
62.844753
44.931769
42.061806
40.496588
40.747523
36.907792
35.747886
30.676723
25.231838
19.449592
13.298988
10.428429
11.221766
10.443926
11.410713
11.275411
11.500716
10.487437
12.694597
11.244416
12.675524
13.253689
13.566613
14.579892
12.324452
12.767911
14.251471
14.005899
12.040734
13.050437
12.875795
13.271570
12.292862
14.055967
14.077425
13.517737
13.255477
12.373924
12.235641
13.105869
15.080571
14.571548
13.959408
14.500618
14.604926
13.659596
12.850761
14.525652
14.153719
15.561581
15.229583
16.535521
15.923977
16.140938
15.547872
16.062856
16.420484
16.903877
18.322468
21.134615
22.199750
25.952458
26.960969
29.401779
31.060576
29.794574
27.104616
28.214455
25.417805
22.450686
19.934773
19.340515
17.057657
16.464591
13.852715
12.957454
13.245940
12.292862
11.265874
10.755658
9.718537
9.324551
10.523796
10.009408
9.978414
10.438561
9.043813
##ZVALUE=230
244.829655
259.974599
388.928652
600.382686
726.620555
801.787972
791.334510
616.864562
452.794433
305.018425
167.603493
112.273693
69.619417
61.117411
62.419772
64.954758
62.836409
60.665607
52.246451
45.644641
34.250617
24.160743
20.272732
14.803410
13.121963
12.300611
13.510585
12.805462
12.903810
13.381839
14.197826
13.571978
14.662743
13.672709
13.483763
13.948679
14.903545
13.474822
14.583468
13.478994
14.027953
14.254451
13.991594
13.661981
13.119578
15.243888
14.251471
14.568567
13.827682
14.758706
16.311407
14.429688
14.556646
14.038682
14.987588
16.312599
17.101765
16.533732
15.438795
17.287731
16.660690
17.697811
16.540885
17.412901
18.825531
19.223690
19.200444
20.008683
23.949742
27.227998
27.483702
30.250549
31.917691
31.631589
31.189919
29.900670
27.885437
27.470589
25.100708
22.561550
19.528866
19.459724
17.699599
16.403794
15.146732
13.473630
13.819933
13.328791
12.077689
11.638999
11.802912
11.298656
11.027455
11.711717
11.158586
11.042953
##ZVALUE=235
84.660649
104.506612
208.595991
450.683832
683.036447
997.992754
1015.830636
1015.830636
1015.830636
1015.830636
769.670606
500.805974
284.935832
186.010599
116.072893
94.466805
86.770654
90.466738
96.005797
95.225573
88.355541
73.524714
63.680410
43.233633
35.224557
24.804473
18.668771
15.370846
15.715957
14.394522
14.126897
13.652444
14.788508
17.136931
15.571713
15.552640
16.434789
15.551448
16.522408
14.701486
15.845895
15.374422
14.838576
14.302731
14.757514
16.651750
14.695525
14.960766
15.093684
15.829802
15.042424
15.275478
17.116666
18.473864
19.191504
18.469691
18.231869
19.855499
21.255612
18.967986
17.636418
19.437671
19.593835
19.552708
21.313429
20.438433
21.043420
23.427606
25.830865
29.259920
30.355453
32.550693
35.139918
34.745932
34.204721
33.308864
31.103492
28.291941
26.653409
25.156736
21.423697
19.629598
20.106435
18.725991
16.352534
16.667843
15.138984
14.398694
14.006495
14.273524
13.220906
13.476610
13.477802
12.137890
10.680556
11.613965
##ZVALUE=240
4.710555
5.762577
23.749471
90.254545
304.926634
569.273829
998.171568
1015.878916
1015.878916
1015.878916
1015.878916
1015.878916
1015.878916
756.592751
514.362454
284.786820
187.402964
122.477412
106.548667
108.713508
120.187998
121.932626
119.288564
109.712481
92.441440
74.224472
54.009557
41.760802
28.897524
21.081567
20.062923
15.453696
16.934872
17.830729
16.877651
16.757846
16.120672
16.649961
15.298724
15.481710
15.434623
15.986562
15.300512
14.559627
16.019940
15.759468
15.035868
15.795827
15.449524
18.215775
14.697909
16.444921
16.840696
17.680526
18.704534
18.676519
17.468929
20.378828
19.208789
19.403696
21.730661
21.537542
20.546913
22.027493
19.877553
21.286607
22.655725
25.393963
26.763678
29.605627
30.556917
35.825968
34.882426
35.194755
34.125447
31.972528
31.451583
28.499961
26.128888
25.545955
23.699999
21.298528
20.017624
18.266439
17.960668
15.810728
14.994740
14.863610
14.959574
14.632940
13.543963
13.900995
13.657808
13.949871
13.585687
12.520552
##ZVALUE=245
3.942847
4.163980
3.846884
4.260540
8.347631
60.235858
211.350918
634.183884
1014.769673
1015.830636
1015.830636
1015.830636
1015.830636
1015.830636
1015.830636
1015.830636
701.296926
456.295609
250.680447
161.539912
117.352605
105.282664
118.938684
135.027766
135.414600
128.551722
119.415522
102.253556
84.001422
59.946775
45.133829
29.168725
22.687912
17.150640
16.015768
15.494823
15.565753
15.710592
15.363693
14.942884
15.069842
14.431477
13.537407
14.645457
13.064742
13.168454
13.618469
13.665557
13.740659
14.271736
14.978647
17.867684
15.237927
15.016794
16.127825
17.462969
16.737580
17.618537
18.319488
19.268990
19.196868
17.682910
18.420815
17.906427
19.254684
20.295978
20.411611
22.175908
23.921728
26.133657
27.465820
28.136969
30.057430
28.828979
27.608871
26.729703
26.834607
24.673939
22.252798
20.790696
20.361543
18.374920
18.201470
16.558766
15.828609
13.396740
14.010668
13.125539
13.368726
13.356805
12.126565
11.945963
13.124943
11.409521
11.733770
11.474490
##ZVALUE=250
3.005862
3.322959
3.643632
3.319979
3.812909
5.241632
6.744862
19.416809
193.336010
526.449680
1015.830636
1015.830636
1015.830636
1015.830636
1015.830636
1015.830636
1015.830636
1015.830636
984.280705
585.839748
363.156796
219.342709
127.684474
105.115771
110.470653
124.136806
139.343739
144.421458
137.840509
127.127767
110.607743
82.071424
63.781738
41.888952
30.667782
20.137429
15.927553
14.427900
13.650656
14.257431
12.938976
12.868643
13.379455
13.821721
12.300611
12.812614
13.264418
12.550950
12.913942
13.355613
13.453960
12.819767
12.915730
14.376640
14.777780
14.995933
14.287829
14.875531
15.796423
15.390515
15.579462
15.219450
14.936924
15.578866
17.002821
16.507506
16.950965
17.941594
20.075440
21.251440
22.028685
24.546981
25.804639
24.137497
24.562478
22.508502
22.376776
20.202994
18.487573
17.767549
16.998649
13.798475
14.290810
13.527870
12.544990
12.564659
11.820793
12.553930
11.689663
10.345578
11.215806
10.241866
9.878874
10.457635
9.827614
9.926558
##ZVALUE=255
3.207922
3.446937
3.221631
3.483891
3.440976
4.249811
4.489422
5.348921
6.131530
9.284616
108.374953
413.570404
925.638676
1015.830636
1015.830636
1015.830636
1015.830636
1015.830636
1015.830636
1015.830636
1015.830636
895.472765
483.988523
287.870765
149.749517
106.347799
97.592473
108.894706
129.517913
143.005848
147.583485
144.018531
133.275986
108.846426
88.356733
60.676932
42.479634
25.887489
20.823479
15.191436
12.793541
12.341738
11.800528
12.221932
11.851788
12.516975
10.914803
12.682676
12.061000
11.776686
12.307763
12.187958
12.264848
11.760592
13.496876
12.680888
12.287498
12.090802
12.824535
12.915730
12.996793
13.106465
13.817549
14.269948
13.921857
13.488531
13.562441
15.454888
15.955567
17.896891
18.804669
19.944906
20.712614
19.940734
18.935800
18.291473
17.855763
15.929937
15.037656
14.282465
13.142824
11.874437
11.198521
11.159778
10.357499
9.761453
9.740591
8.998513
9.285808
9.532571
9.137988
8.482933
8.464456
8.062720
8.671880
9.021759
##ZVALUE=260
2.870560
2.668500
3.329515
3.719926
3.214478
3.804564
3.877878
4.203916
4.499555
4.706979
5.782843
7.389784
31.875968
190.256834
798.628926
1015.830636
1015.830636
1015.830636
1015.830636
1015.830636
1015.830636
1015.830636
1015.830636
1002.165675
695.092678
369.420648
222.715735
123.258829
92.463493
89.328885
108.495951
131.654739
143.157840
151.746869
148.893595
134.662986
115.498900
85.444450
65.864921
41.871667
29.925704
19.763708
15.145540
12.478828
12.047887
11.190772
10.735989
10.297894
11.363626
11.515617
11.084676
11.297464
11.546612
11.519790
11.745691
11.511445
11.569858
11.569858
12.407899
11.440516
12.002587
11.987686
11.642575
12.279749
12.577772
12.526512
12.462735
13.959408
15.166998
15.974641
16.527772
17.220974
17.070770
16.509891
16.712546
15.925765
14.745593
14.241934
14.093518
12.467504
11.491776
10.883808
10.001659
9.728670
9.089708
8.712411
8.267760
8.418560
8.033514
8.275509
7.748604
7.698536
7.524490
7.261634
7.216930
7.518530
##ZVALUE=265
2.809763
2.508759
3.021955
2.811551
3.139973
3.275871
3.302693
3.673434
3.772974
4.043579
4.958510
5.326867
5.931854
6.709695
12.381673
118.199587
500.340462
1015.840769
1015.840769
1015.840769
1015.840769
1015.840769
1015.840769
1015.840769
1015.840769
1015.840769
879.524946
564.035773
295.738578
171.924829
106.824636
77.790618
84.943771
113.852620
135.283470
152.118802
155.811906
148.897767
135.788918
110.520720
87.629557
60.700774
42.331815
26.349425
18.540621
12.920499
11.271834
11.340976
11.459589
11.125803
10.990500
11.449456
11.372566
11.340976
11.034608
11.859536
11.620522
12.587905
11.799932
11.971593
11.837482
11.744499
11.805892
11.017919
12.092590
12.362599
12.943745
12.768507
13.744831
14.787912
15.212893
15.293956
16.216636
15.251637
14.803410
14.151931
13.699532
12.746453
12.032986
10.831952
10.108948
9.303689
8.626580
8.777976
8.855462
8.111596
7.016659
7.279515
7.671714
7.682443
6.641746
7.323623
7.101893
6.922483
7.640719
7.088780
##ZVALUE=270
2.553463
2.570748
2.494454
2.837777
2.905726
3.101826
3.016591
3.512502
3.587604
3.916621
3.871918
4.486442
4.576445
5.482435
6.253719
6.488562
9.692907
26.235580
164.839625
931.503773
1015.830636
1015.830636
1015.830636
1015.830636
1015.830636
1015.830636
1015.830636
1015.830636
1015.830636
729.030967
466.538668
230.184793
131.969452
74.051619
67.613721
88.346601
108.587742
135.506988
148.524642
156.905651
153.214931
133.765936
113.813877
84.458590
63.825846
40.435791
28.800964
18.148422
14.502406
11.846423
11.031628
11.709929
11.470914
11.190772
11.697412
11.694431
11.960864
12.296438
11.956692
12.698770
12.108684
12.122989
11.924505
11.850595
11.881590
12.465715
11.765957
12.439489
13.612509
14.440417
14.410615
14.440417
15.339851
14.590621
13.752580
12.942553
13.268590
12.074709
11.314750
10.869503
9.742975
9.071827
8.303523
8.457899
7.545948
7.806420
7.394552
7.536411
7.213950
7.030964
6.962419
6.560683
6.158948
6.615520
6.418824
7.024407
##ZVALUE=275
2.687573
2.616644
2.716780
2.768636
2.802610
3.209710
2.995729
3.348589
3.196597
3.813505
3.553629
3.713965
4.142523
4.402995
4.916787
5.671978
6.163716
6.716847
8.544922
15.999675
101.064444
536.108613
1015.831828
1015.831828
1015.831828
1015.831828
1015.831828
1015.831828
1015.831828
1015.831828
1015.831828
982.095599
652.527809
322.641730
181.165934
85.267425
58.698654
62.642694
80.711842
108.996630
129.735470
148.018599
153.001547
146.941543
135.184526
107.127428
87.935925
61.815977
44.681430
28.038621
20.704865
14.555454
12.784600
12.128949
11.790991
12.421608
12.354851
12.398958
12.263656
12.787580
13.494492
12.987852
13.169646
13.401508
12.498498
12.700558
12.553930
13.560653
13.513565
14.531612
14.913678
15.405416
15.468597
14.327765
14.190674
13.034940
13.379455
11.587739
11.594892
10.161996
9.794831
9.049773
8.942485
8.026958
7.784963
7.689595
7.743835
6.831884
7.211566
6.563663
6.648898
6.257892
6.269813
6.358624
6.350875
6.354451
##ZVALUE=280
2.489686
2.412796
2.692938
2.499819
2.563596
2.702475
2.874732
2.952814
2.815723
3.038645
3.566742
3.547668
3.746748
3.711581
3.865957
4.322529
5.090833
5.266666
5.768538
6.805658
7.518530
10.080934
58.010817
365.556479
1015.827656
1015.827656
1015.827656
1015.827656
1015.827656
1015.827656
1015.827656
1015.827656
1015.827656
1015.827656
787.291527
411.017537
238.307714
107.367635
61.771870
47.714710
58.786869
83.219409
104.749799
129.822493
143.706799
150.164962
146.742463
128.263831
112.782717
85.542798
64.006448
41.346550
30.904412
20.788908
15.890598
13.695955
13.185740
13.449788
13.273954
13.377666
13.643503
13.481975
13.207793
13.222694
13.378859
13.496876
13.644695
13.581514
14.449954
14.507771
14.750957
15.465617
15.110970
14.120936
14.232993
13.222694
12.533665
11.948943
11.169910
10.506511
9.374619
9.263754
8.662939
7.759929
8.011460
7.293820
7.308722
7.542968
7.359982
6.683469
6.764531
6.490946
6.702542
6.395578
6.003976
6.184578
##ZVALUE=285
2.359748
2.466440
2.360940
2.239943
2.515912
2.383590
2.545714
2.651811
2.890825
2.929568
3.182888
3.031492
3.329515
3.336668
3.763437
3.735423
4.275441
4.359484
4.618764
5.141497
6.151795
7.104874
8.269548
9.566545
24.745464
158.167481
841.946006
1015.830636
1015.830636
1015.830636
1015.830636
1015.830636
1015.830636
1015.830636
1015.830636
1015.830636
984.960794
571.732521
344.249606
159.395933
81.921816
42.023659
39.246678
55.909753
75.163841
104.471445
121.929646
137.895942
145.453811
144.497752
134.960413
110.894442
91.991425
65.480471
48.251748
30.605793
23.152828
18.046498
15.206933
15.558600
14.737844
14.942884
14.881492
14.894605
14.042854
14.465451
14.451742
14.912486
15.342832
15.303493
15.835762
15.772581
15.104413
14.534593
13.955832
12.948513
12.299418
11.964440
10.960698
10.167956
9.667873
9.093881
9.253621
8.181930
7.688999
7.765889
7.834435
7.035732
7.452965
7.214546
6.698966
6.521940
6.505847
6.053448
6.379485
5.944967
##ZVALUE=290
1.956820
1.959801
1.978874
2.044439
2.063513
2.217889
2.341866
2.352595
2.316833
2.337694
2.746582
2.648830
2.627969
2.672672
2.907515
3.176928
3.563762
3.601909
3.821850
4.498959
4.650950
5.011559
5.487800
6.695986
7.629991
8.785725
11.938810
50.500035
452.080965
1015.667915
1015.667915
1015.667915
1015.667915
1015.667915
1015.667915
1015.667915
1015.667915
1015.667915
1015.667915
753.738880
470.989943
229.236484
116.492510
45.327544
31.557679
38.040876
49.713850
72.666407
92.428923
118.307471
134.050846
144.147873
144.253969
129.576921
111.031532
85.939765
67.243576
46.226978
35.093427
24.701953
20.011663
16.827583
16.451478
15.814900
15.020967
15.222430
15.408993
15.668869
15.492439
16.329885
16.303658
15.941858
15.774965
14.719963
13.260841
12.793541
12.255907
11.877418
11.047721
9.802580
9.925961
9.362698
8.516908
8.169413
8.151531
7.994771
7.677674
7.352829
7.033944
7.167459
6.666780
6.274581
6.461740
6.478429
6.203651
6.053448
##ZVALUE=295
2.090931
2.176762
2.387762
2.467632
2.329946
2.386570
2.483726
2.374649
2.351999
2.705455
2.405643
2.523661
2.791882
2.861619
2.766848
2.725720
3.056526
3.380775
3.429651
3.792644
3.963709
4.443526
4.536510
5.276799
5.895495
6.698966
7.131696
8.598566
9.728670
25.007725
149.512887
831.671953
1015.830636
1015.830636
1015.830636
1015.830636
1015.830636
1015.830636
1015.830636
1015.830636
1015.830636
939.887762
608.765483
308.498740
168.975592
64.280629
33.062696
26.510954
34.070611
51.387548
67.909956
93.670487
112.777948
132.024884
139.174461
136.416554
127.896667
104.901791
89.359879
66.300631
50.202608
34.275651
27.005672
21.113753
18.183589
17.287731
16.342998
16.450882
16.546845
16.733408
16.183853
15.413761
15.428662
15.271902
13.971925
13.284683
12.674928
12.011528
11.262894
10.622740
10.379553
9.142756
8.698702
8.512735
8.562803
7.912517
7.960796
7.480979
7.063746
7.091761
6.869435
6.447434
6.182790
6.391406
6.114841
6.187558
##ZVALUE=300
2.129674
2.026558
1.975894
2.284646
2.089739
2.202988
1.987815
2.121925
2.057552
2.247691
2.232790
2.436638
2.305508
2.541542
2.669692
2.662539
2.643466
2.874732
3.256798
3.140569
3.591776
3.643632
4.017949
4.164577
4.418492
4.982948
5.281568
5.581975
6.594658
7.387996
8.479953
11.107922
41.703582
428.867936
1002.880931
1015.830636
1015.830636
1015.830636
1015.830636
1015.830636
1015.830636
1015.830636
1015.830636
1015.830636
781.682730
413.996577
239.055753
105.366707
51.219463
25.624633
24.304986
33.495426
45.560002
65.783858
85.455775
108.651519
124.997497
134.749413
134.356618
122.058988
108.716488
84.583759
67.488551
48.798919
36.555529
25.720596
20.834804
18.591881
17.691851
16.906857
15.996695
15.771985
15.581846
14.808774
13.835430
12.676716
12.614727
11.376739
10.838509
10.120869
9.633899
9.453893
9.003878
8.743405
7.881522
7.783771
7.524490
7.444620
7.541776
7.209778
6.929636
6.707907
6.395578
6.303787
6.009936
6.376505
##ZVALUE=305
1.865625
1.811981
1.809597
1.884699
1.963973
1.877546
2.090931
2.045631
2.236962
2.350807
2.365708
2.096891
2.350807
2.322793
2.392530
2.277493
2.308488
2.580881
2.704859
2.876520
3.047585
3.212690
3.257990
3.591776
3.604889
4.147887
4.342794
4.803538
5.142689
5.737543
5.758405
6.888509
8.125901
9.876490
20.833015
249.764919
778.949857
1015.830636
1015.830636
1015.830636
1015.830636
1015.830636
1015.830636
1015.830636
1015.830636
1015.830636
965.868831
559.275746
338.193774
157.526731
79.070926
31.574965
22.225976
25.912523
32.266974
48.003793
63.298941
85.662603
102.922916
120.135546
128.205419
126.647949
117.981434
101.239681
84.640980
62.263608
47.976971
33.522844
25.176406
20.590425
17.513633
15.758872
15.038848
13.718605
13.354421
12.352467
11.538863
10.845661
10.079741
9.258986
9.194613
8.729696
8.781552
8.154511
7.905960
7.345676
7.473826
6.969571
6.813407
6.619692
6.249547
6.340742
6.240606
5.599856
5.694628
5.916953
##ZVALUE=310
1.819730
1.728535
1.823902
1.827478
1.808405
1.809597
1.815557
1.749992
1.837611
1.967549
2.207756
1.903772
1.986623
2.134442
2.135634
2.289414
2.234578
2.399683
2.530813
2.652407
2.788901
2.708435
2.951622
3.066659
3.391504
3.449917
3.551841
3.577471
4.054904
4.560947
4.451871
4.944801
5.402565
6.173849
6.780624
8.132458
10.265708
93.456507
407.173038
1015.830636
1015.830636
1015.830636
1015.830636
1015.830636
1015.830636
1015.830636
1015.830636
1015.830636
1015.830636
785.992742
499.003530
241.812468
127.520561
48.564672
25.285482
20.120740
22.727847
30.667782
40.766001
58.249831
74.069500
95.107555
108.173490
117.615461
119.015574
110.653639
99.001527
79.133511
62.688589
43.344498
33.022761
23.344755
17.905831
13.695955
12.564659
11.298656
10.232925
9.396672
9.445548
8.281469
8.074641
7.809997
7.599592
7.206798
7.320642
6.712675
6.621480
6.347895
6.130934
6.091595
5.686879
5.785823
5.810857
5.387664
5.590916
5.136728
##ZVALUE=315
1.762509
1.714826
1.691580
1.479983
1.818538
1.729727
1.828671
1.788735
1.903772
2.077818
1.801848
2.161860
2.085567
1.947880
2.018809
2.314448
2.226830
2.244711
1.849532
2.180934
2.507567
2.267957
2.699494
2.520680
3.051758
3.066659
3.235936
3.245473
3.511906
3.832579
3.704429
4.118681
4.443526
4.925728
5.195737
5.492568
6.107688
7.723570
8.749962
32.197833
198.648572
866.037607
1015.830636
1015.830636
1015.830636
1015.830636
1015.830636
1015.830636
1015.830636
1015.830636
1015.830636
969.750881
657.137632
338.728428
182.233453
66.433549
31.393766
18.406510
17.746687
21.985769
26.564598
38.235784
49.840808
68.054795
83.636642
100.943446
108.830929
110.227466
104.590654
88.633895
74.651837
55.806637
42.500496
27.232766
20.100474
13.464689
10.380745
9.101629
8.163452
7.710457
7.205606
6.841421
6.632805
6.384850
6.333590
6.206632
6.002784
5.871654
5.704761
5.711913
5.502701
5.411506
5.394816
5.107522
4.806519
4.784465
##ZVALUE=320
1.521707
1.538992
1.401901
1.502633
1.467466
1.624823
1.679659
1.549721
1.769662
1.810789
1.746416
1.746416
1.994967
1.876950
1.842976
1.902580
2.111793
1.975894
1.931787
2.022982
2.226830
2.189875
2.200603
2.318621
2.360940
2.637506
2.954602
2.954602
3.065467
3.091693
3.371835
3.325939
3.536940
3.895760
4.100800
4.632473
4.670620
5.136728
5.728602
6.537437
7.616878
12.951493
78.374743
533.822775
1015.830636
1015.830636
1015.830636
1015.830636
1015.830636
1015.830636
1015.830636
1015.830636
1015.830636
1015.830636
843.313932
444.784760
248.541832
103.000402
45.744777
18.526912
14.854670
15.074611
16.485453
21.559596
28.820634
43.212771
57.379603
77.289939
90.311766
101.814866
102.786422
94.247460
85.833669
66.995621
52.495599
34.630895
25.112629
16.156435
11.245608
7.980466
7.217526
6.082654
5.726814
5.490780
5.443692
5.362630
5.102754
5.220771
4.978776
4.820824
4.805923
4.808903
4.681945
4.807711
4.800558
4.587770
##ZVALUE=325
1.430511
1.458526
1.389980
1.444817
1.522899
1.551509
1.563430
1.603961
1.391768
1.388788
1.509786
1.409650
1.383424
1.556873
1.555681
1.723766
1.660585
1.737475
1.867414
1.864433
2.001524
2.010465
2.062917
2.199411
2.082586
2.296567
2.461672
2.444983
2.451539
2.686977
2.766848
2.818704
3.009439
2.959967
3.304482
3.509521
3.593564
4.159808
4.232526
4.971623
5.225539
5.861521
6.700754
8.904934
34.513474
360.772610
865.848660
1015.731692
1015.731692
1015.731692
1015.731692
1015.731692
1015.731692
1015.731692
1015.731692
1015.731692
960.289836
551.672578
325.202942
137.760639
64.053535
21.575689
13.023615
11.306405
11.386871
14.308691
18.485785
28.105974
39.847493
57.871938
70.501566
85.887909
92.686415
94.409585
88.649988
74.476600
61.341524
44.802427
32.782555
19.811988
13.481975
8.576512
6.728768
5.498528
5.081892
4.759431
4.845858
4.470944
4.327893
4.487634
4.226565
4.098415
4.035830
4.415512
4.073977
3.788471
##ZVALUE=330
1.324415
1.413822
1.398921
1.402497
1.270771
1.500845
1.356602
1.504421
1.472831
1.385808
1.547933
1.536608
1.528859
1.701713
1.740456
1.627803
1.613498
1.658797
1.638532
1.674891
1.828671
1.734495
1.968741
2.010465
2.024770
2.260804
2.203584
2.424717
2.363920
2.558827
2.615452
2.560616
2.597570
2.838969
2.738833
3.086925
3.114939
3.299713
3.629923
3.848672
3.890991
4.191995
4.713535
5.516410
6.058812
7.551908
14.210939
152.073503
509.124994
1015.822887
1015.822887
1015.822887
1015.822887
1015.822887
1015.822887
1015.822887
1015.822887
1015.822887
1015.822887
698.385835
433.328748
196.350813
95.748901
32.219887
14.941692
10.040998
10.027885
10.675788
13.212562
18.377900
25.685430
38.178563
49.425960
66.883564
76.169968
85.489750
86.698532
80.074668
70.930719
55.102706
43.025613
28.802752
19.972920
12.729764
9.177923
6.484985
5.193949
4.442930
4.388690
4.078746
4.150867
3.936887
3.998876
3.999472
3.919601
4.040599
##ZVALUE=335
1.231432
1.303554
1.238585
1.295805
1.288652
1.407862
1.442432
1.534820
1.463890
1.514554
1.291633
1.361966
1.307726
1.345873
1.534820
1.583695
1.558661
1.790524
1.813769
1.760721
1.675487
1.805425
1.884699
1.867414
1.803637
1.926422
2.002716
1.906753
2.193451
2.179742
2.310872
2.483726
2.364516
2.450943
2.656579
2.622604
2.787709
2.959967
2.831817
2.887845
3.489852
3.657937
3.793836
4.165769
4.421473
5.070567
5.405545
6.721616
7.951856
59.765577
279.635787
922.991633
1015.830636
1015.830636
1015.830636
1015.830636
1015.830636
1015.830636
1015.830636
1015.830636
1015.830636
856.445432
557.965636
281.607509
141.362548
45.105815
19.618869
10.944605
10.168552
9.986758
10.377765
12.435913
15.734434
23.926497
32.929778
48.078895
58.912635
72.058439
77.914596
78.467727
75.504780
62.757730
53.479671
40.169954
30.513406
19.734502
13.251901
9.011626
6.711483
5.133748
4.590750
4.000664
4.023910
3.999472
3.846884
3.710985
##ZVALUE=340
1.329780
1.369715
1.295805
1.169443
1.245737
1.206994
1.300573
1.324415
1.318455
1.379848
1.330972
1.434684
1.412630
1.533628
1.572967
1.465678
1.456738
1.606941
1.631975
1.605749
1.637936
1.659989
1.730919
1.530647
1.663566
1.923442
1.921654
1.818538
1.959801
1.967549
2.035499
2.029538
2.077818
2.293587
2.285838
2.280474
2.363920
2.490878
2.518892
2.807975
2.714992
3.003478
3.082752
3.312826
3.843904
3.962517
4.264712
4.720688
4.882812
5.833507
7.102489
21.874905
131.810904
617.754459
1015.830636
1015.830636
1015.830636
1015.830636
1015.830636
1015.830636
1015.830636
1015.830636
1015.830636
990.322828
685.404539
344.216824
184.517503
70.680976
27.737617
12.017488
9.912848
9.340644
8.855462
9.196997
10.848641
15.257597
20.994544
32.068491
42.692423
57.553649
66.155791
74.017644
73.642731
70.324540
62.922835
50.166845
40.061474
28.116703
20.642877
13.044477
8.999705
6.282926
5.257726
4.537702
4.132986
4.054904
##ZVALUE=345
1.246929
1.349449
1.410842
1.502633
1.332760
1.381636
1.393557
1.339912
1.449585
1.294613
1.475811
1.401901
1.400709
1.513958
1.346469
1.250505
1.374483
1.387596
1.505613
1.535416
1.561642
1.508594
1.555681
1.722574
1.603961
1.760721
1.756549
1.745820
1.888871
1.941919
1.964569
2.094507
2.149940
2.101660
2.245903
2.253652
2.326965
2.181530
2.337694
2.607703
2.511740
2.861619
2.679825
2.831817
2.917647
3.164411
3.128648
3.621578
3.753901
4.307628
4.599690
5.309582
5.851984
9.038448
49.740672
384.373665
878.281593
1015.827656
1015.827656
1015.827656
1015.827656
1015.827656
1015.827656
1015.827656
1015.827656
1015.827656
843.755603
475.714803
260.931849
96.980929
41.865706
15.362501
10.960698
9.115934
8.316636
7.710457
8.160472
9.510517
12.570620
20.422935
28.376579
40.786862
49.966574
60.477853
65.799952
68.885684
67.143440
58.551431
50.487518
38.619637
29.089451
18.921494
13.791919
8.461475
6.624460
4.905462
##ZVALUE=350
1.487732
1.537800
1.398921
1.465678
1.481771
1.529455
1.401901
1.430511
1.527667
1.432896
1.561642
1.516938
1.297593
1.553893
1.681447
1.683831
1.549721
1.566410
1.640916
1.743436
1.750588
1.656413
1.846552
1.551509
1.743436
1.785755
1.766682
1.952648
1.877546
1.873970
1.985431
2.105832
2.009869
2.028942
2.058744
2.169609
2.354980
2.348423
2.359748
2.251863
2.517700
2.393723
2.561808
2.753735
2.834797
2.889633
2.935529
3.160834
3.591776
3.639460
3.656745
4.139543
4.422665
5.161762
5.695820
6.857514
19.593835
201.251507
572.632551
1015.830636
1015.830636
1015.830636
1015.830636
1015.830636
1015.830636
1015.830636
1015.830636
1015.830636
980.072618
564.306974
339.052677
148.691535
65.473914
18.779635
10.509491
8.678436
7.871985
7.016659
6.870627
7.541776
8.736849
12.564659
17.587543
25.535822
34.069419
44.901967
53.519607
60.642958
63.389540
60.818791
55.795908
45.493841
37.909746
27.265549
20.361543
13.423562
##ZVALUE=355
1.559854
1.622438
1.569986
1.485944
1.758933
1.586676
1.514554
1.503825
1.647472
1.525879
1.653433
1.721978
1.634955
1.680851
1.826882
1.824498
1.900792
1.783967
1.782775
1.823902
1.987815
2.079606
1.924634
1.859665
2.123713
2.135634
1.996756
2.088547
2.085567
2.127886
2.227426
2.173781
2.101660
2.205968
2.344847
2.452731
2.376437
2.705455
2.405643
2.599955
2.519488
2.656579
2.529621
2.514720
2.878904
2.985597
2.970695
3.114939
3.071427
3.249645
3.545880
3.929734
4.146695
4.102588
4.657507
4.928708
5.361438
6.239414
9.498000
90.983510
341.569781
944.636464
1015.836000
1015.836000
1015.836000
1015.836000
1015.836000
1015.836000
1015.836000
1015.836000
1015.836000
704.970956
430.969000
181.206465
83.843470
24.901628
12.233853
9.213686
8.210540
7.265806
6.764531
6.586909
7.007718
8.330941
10.704994
15.990734
21.592975
30.847788
38.841963
48.227906
53.976774
56.866407
56.441426
51.004887
44.858456
35.932660
##ZVALUE=360
1.657605
1.481771
1.347661
1.547933
1.605749
1.539588
1.695752
1.690984
1.783967
1.553893
1.688600
1.719594
1.547933
1.680851
1.678467
1.767874
1.644492
1.748800
1.777411
1.752973
1.818538
1.903772
1.880527
1.965761
2.025962
1.975894
2.067685
2.185702
2.130866
2.123713
1.989603
2.103448
2.172589
2.389550
2.169609
2.332926
2.317429
2.268553
2.282858
2.501607
2.416968
2.522469
2.754927
2.507567
2.757907
2.846718
2.999902
3.187656
3.172755
3.032684
3.429651
3.403425
3.701448
3.705621
3.833771
4.005432
4.445910
5.069971
6.517768
8.106828
9.320974
31.698942
155.205727
597.313643
1014.252901
1015.828848
1015.828848
1015.828848
1015.828848
1015.828848
1015.828848
1015.828848
1015.828848
857.972503
551.067591
258.062482
129.279494
44.381618
17.858744
8.738637
7.747412
7.104874
6.455779
6.085634
6.038547
6.190538
6.860495
9.283423
11.874437
17.681718
24.240613
33.550858
40.318966
47.505498
51.073432
51.153898
##ZVALUE=365
1.584888
1.682639
1.624823
1.634955
1.819730
1.662970
1.583695
1.743436
1.715422
1.670718
1.804829
1.684427
1.890659
1.598597
1.720786
1.870990
1.665950
1.961589
1.776814
1.774430
1.911521
2.001524
1.851916
1.671910
1.812577
1.957417
1.821518
1.975894
2.130866
2.058744
2.002716
2.037883
2.002716
2.151728
2.136827
2.046824
2.191663
2.097487
2.161860
2.087951
2.211928
2.236962
2.140999
2.476573
2.359748
2.416968
2.422929
2.499819
2.630949
2.662539
2.656579
2.872944
2.794862
2.822876
3.178716
3.555417
3.373623
4.256964
5.408525
6.026626
6.823540
7.592440
8.358955
11.627674
57.173967
372.450948
788.479447
1015.916467
1015.916467
1015.916467
1015.916467
1015.916467
1015.916467
1015.916467
1015.916467
981.451869
682.615638
360.432863
186.873674
61.404705
22.890568
8.761883
6.955862
6.471872
6.120801
5.817413
5.332828
5.078912
5.047917
5.753636
6.787777
10.430813
14.274716
21.534562
27.795434
35.894513
##ZVALUE=370
1.288652
1.317859
1.330972
1.541972
1.303554
1.399517
1.403689
1.364946
1.406670
1.344681
1.354814
1.369715
1.408458
1.395941
1.503825
1.524687
1.528859
1.342893
1.366735
1.556873
1.480579
1.462698
1.403689
1.498461
1.670718
1.688600
1.707673
1.658797
1.571774
1.540780
1.582503
1.453757
1.662970
1.620650
1.735687
1.642704
1.787543
1.742840
1.819730
1.726747
1.731515
1.755953
1.795888
1.753569
1.823902
1.927614
1.955628
1.892447
2.027750
2.178550
2.167821
2.165437
2.201796
2.236962
2.263784
2.549887
2.504587
2.959967
3.162622
3.705621
3.955960
3.923774
4.570484
5.147457
5.599856
7.240772
22.400618
218.283534
581.287742
1015.830636
1015.830636
1015.830636
1015.830636
1015.830636
1015.830636
1015.830636
1015.830636
1015.830636
827.685595
447.098017
244.851708
88.944435
36.321878
11.492968
7.299781
6.238818
5.681515
5.240440
5.107522
4.574656
4.583597
4.394650
4.875660
6.159544
7.996559
12.155771
##ZVALUE=375
1.061559
1.153946
1.272559
1.225471
1.254678
1.487732
1.228452
1.008511
1.355410
1.281500
1.182556
1.233816
1.198649
1.118779
1.166463
1.173615
1.093745
1.278520
1.351833
1.066923
1.121759
1.398921
1.489520
1.299977
1.202822
1.308918
1.389980
1.445413
1.182556
1.223683
1.276731
1.371503
1.408458
1.403689
1.507998
1.419783
1.339912
1.568794
1.608729
1.496673
1.619458
1.460910
1.529455
1.656413
1.674891
1.637936
1.660585
1.631975
1.697540
1.699924
1.728535
1.846552
1.986623
1.904964
1.796484
2.111793
2.059937
2.317429
2.285838
2.746582
2.574921
2.816916
2.754927
3.137589
3.467798
4.214644
4.826784
6.181002
9.776950
104.296803
368.785858
936.100483
1015.830636
1015.830636
1015.830636
1015.830636
1015.830636
1015.830636
1015.830636
1015.830636
972.743630
565.414429
345.427990
159.903765
74.086785
21.364689
9.201765
5.954504
5.711913
5.265474
4.660487
4.609823
4.559755
4.212856
4.079938
4.277825
##ZVALUE=380
1.073480
1.061559
0.968575
1.010895
1.018643
0.946522
0.931621
1.090765
1.109838
0.971556
1.072884
1.061559
1.132488
0.963807
1.066923
0.911951
1.079440
1.074672
1.012683
1.173615
1.170635
1.059771
1.100898
1.084805
1.271963
1.318455
1.274943
1.210570
1.236796
1.302958
1.299977
1.183748
1.251698
1.282692
1.272559
1.299977
1.377463
1.450777
1.500845
1.297593
1.368523
1.497865
1.441836
1.443624
1.638532
1.445413
1.643896
1.631975
1.621842
1.582503
1.613498
1.703501
1.601577
1.874566
1.869798
1.899600
1.868606
2.061725
1.974702
2.100468
2.187490
2.343655
2.492666
2.674460
2.938509
3.413558
3.690720
4.280806
4.951954
5.835891
7.037520
40.485859
208.072662
717.217922
1015.838981
1015.838981
1015.838981
1015.838981
1015.838981
1015.838981
1015.838981
1015.838981
1015.838981
731.227994
472.018719
220.487714
107.506514
33.387542
13.559461
6.664991
5.542636
5.057454
4.723668
4.496574
4.261732
3.986955
##ZVALUE=385
0.985861
0.838637
0.948906
1.006722
0.941753
1.017451
1.139641
0.979900
1.007915
1.083612
1.022816
1.086593
0.943542
1.009703
0.871420
0.998974
1.018643
0.862479
1.085997
1.004934
1.227856
1.140833
0.993609
1.238585
1.187921
1.144409
1.273751
1.118779
1.248717
1.102686
1.218915
1.134872
1.302958
1.158714
1.116991
1.259446
1.307726
1.385808
1.478791
1.220703
1.484752
1.359582
1.268983
1.332760
1.372695
1.429915
1.359582
1.507998
1.340508
1.547933
1.409650
1.531839
1.659989
1.830459
1.731515
1.882911
1.628995
1.923442
1.906753
2.059937
2.047420
2.224445
2.194643
2.271533
2.352595
2.662539
2.950430
3.371835
3.752708
4.322529
4.612803
4.790425
5.776882
14.513731
101.227760
487.157702
912.193656
1015.830636
1015.830636
1015.830636
1015.830636
1015.830636
1015.830636
1015.830636
1015.830636
955.615640
647.405982
333.532691
178.467631
66.707730
24.569631
7.736683
5.514622
4.888773
4.820824
4.346967
##ZVALUE=390
0.987649
0.882745
0.953674
0.844598
1.096725
1.066923
0.990629
0.952482
1.006722
1.109838
0.940561
0.846982
1.047850
1.052618
0.930429
1.054406
1.075864
0.958443
1.088977
1.240969
1.070499
1.113415
1.067519
1.217723
1.244545
1.041889
1.194477
1.311898
1.245737
0.995994
1.181960
1.117587
1.283884
1.118779
1.353621
1.245737
1.262426
1.329780
1.308918
1.396537
1.247525
1.176000
1.375675
1.535416
1.397729
1.380444
1.487732
1.311898
1.480579
1.655817
1.499653
1.403689
1.550913
1.544952
1.526475
1.722574
1.683831
1.666546
1.628995
1.920462
1.886487
1.768470
1.902580
2.032518
2.155900
2.599955
2.800822
3.171563
3.059506
3.543496
3.622770
3.813505
4.077554
4.643798
4.926920
7.276535
41.253567
294.116735
678.211451
1015.829444
1015.829444
1015.829444
1015.829444
1015.829444
1015.829444
1015.829444
1015.829444
1015.829444
853.205919
494.983792
275.434852
102.600455
42.443871
11.268854
6.194711
5.099773
##ZVALUE=395
0.988841
0.945926
0.862479
0.911951
1.047850
0.966787
1.023412
0.931621
1.093745
0.955462
0.832677
1.102686
1.034737
1.007915
0.915527
1.027584
0.928640
1.002550
1.030564
0.995994
1.127720
1.020432
1.059771
0.989437
1.129508
1.191497
1.062751
1.155734
1.046658
1.222491
1.151562
1.260638
1.350641
1.208782
1.357794
1.339912
1.123548
1.344681
1.148582
1.341701
1.261830
1.464486
1.374483
1.451969
1.392961
1.354814
1.550913
1.381636
1.336932
1.487732
1.563430
1.489520
1.475811
1.506805
1.631975
1.610518
1.748800
1.693964
1.851916
1.890659
2.016425
1.893640
1.966953
2.057552
2.153516
2.211928
2.483726
2.885461
3.071427
3.316998
3.190637
3.349781
3.280640
3.558993
3.413558
4.210472
4.554987
5.716681
15.126467
172.590613
494.266748
1006.563902
1015.830636
1015.830636
1015.830636
1015.830636
1015.830636
1015.830636
1015.830636
1015.830636
987.616777
594.804883
362.370014
159.744620
70.364475
20.408630
##ZVALUE=400
1.284480
1.232624
1.293421
1.257658
1.038909
1.194477
0.923872
1.191497
0.905991
1.012683
1.063943
1.130700
1.295805
1.182556
0.892878
1.165867
1.095533
1.156926
1.259446
1.120567
1.152754
1.030564
1.225471
1.239777
1.189709
1.196861
1.256466
1.249909
1.215935
1.258850
1.418591
1.331568
1.344681
1.284480
1.610518
1.418591
1.316667
1.475811
1.404881
1.537800
1.303554
1.495481
1.481771
1.510978
1.460910
1.443624
1.469851
1.480579
1.541972
1.530647
1.630783
1.648664
1.425743
1.569986
1.548529
1.704693
1.757741
1.775622
1.966953
1.836419
2.130866
2.161860
2.209544
2.227426
2.161860
2.533793
2.545714
2.783537
3.005862
3.000498
3.076792
3.155470
2.980828
3.085732
3.248453
3.323555
3.394485
3.832579
4.356503
5.493760
8.379817
96.313953
319.079757
768.184662
1015.958786
1015.958786
1015.958786
1015.958786
1015.958786
1015.958786
1015.958786
1015.958786
1015.958786
747.621655
477.682948
226.730704
##END
