##TITLE=FAAI0501
##FORMAT=SPECTACLE-ASCII V-1.2
##DATA TYPE=ULTRAVIOLET SPECTRUM
##SECOND TYPE=ULTRAVIOLET SPECTRUM
##DATE=10/24/17
##TIME=15:32:31
##SPECTROMETER/DATA SYSTEM=SPECTACLE
##XUNITS=NM EM
##YUNITS=ENERGY
##YFACTOR=1
##FIRSTX=220
##LASTX=410
##NPOINTS=96
##3DDATA=Equidistant
##ZUNITS=NM EX
##FIRSTZ=210
##LASTZ=400
##ZPOINTS=39
##XYDATA=(Y..Y)
##ZVALUE=210
7.676482
6.103516
5.115867
4.130602
4.240870
4.519820
5.145669
4.900694
5.352497
5.756617
5.992651
5.272627
6.350875
5.711913
6.746650
6.056428
7.210970
8.731484
9.559989
8.864999
10.323524
9.875894
9.363890
12.407899
12.219548
13.276935
12.521744
13.799667
14.218688
14.208555
16.333461
15.434623
15.547872
17.619729
17.864704
17.277598
17.492771
18.566847
18.121600
19.507408
17.944574
18.921494
19.979477
21.021962
21.341443
20.446777
21.330714
21.773577
21.375418
21.566749
21.271706
22.329688
23.686886
22.753477
22.656918
23.526549
24.695992
23.590922
25.957823
24.074912
24.361610
24.079680
25.206804
26.133657
26.062727
26.984811
27.168989
31.080842
38.242936
40.756464
51.407814
57.837963
70.549846
77.545643
89.652538
94.052553
102.847815
104.147792
105.211735
104.718804
96.659660
86.267591
76.589584
69.078803
53.544641
43.058991
34.764409
29.303432
26.232600
22.913814
24.519563
22.934675
24.838448
22.376776
23.662448
25.621653
##ZVALUE=215
29.351711
26.951432
23.347735
19.128919
14.475584
9.713769
9.323955
7.109642
8.673668
8.581877
7.538795
7.864833
6.637573
6.186962
6.930828
6.887913
6.681681
7.089972
7.126927
8.495450
9.613633
9.174943
11.167526
11.017919
11.665821
10.855794
12.402534
12.613535
13.609529
14.211535
15.104413
15.749931
16.552806
16.566515
16.615987
17.531514
17.029643
18.332601
20.535588
20.538568
18.903613
20.698905
20.353794
20.415783
19.915700
19.504428
20.760894
20.140409
20.322800
20.198822
21.343827
20.929575
21.068454
21.118522
22.067428
20.365715
19.901991
22.062659
23.589730
22.253990
20.063519
20.631552
21.457672
21.230578
21.820664
21.719933
23.923516
25.039911
28.786659
31.605959
35.496950
40.527582
50.107837
53.534508
59.795976
65.103769
68.693757
66.102743
69.209933
67.757964
61.656833
55.909753
49.359798
41.909814
34.237504
29.740930
23.710728
20.344853
18.453598
18.968582
16.407967
17.726421
17.594695
17.553568
16.666651
17.909408
##ZVALUE=220
82.946420
86.007714
84.101558
78.320503
65.356493
52.855611
37.936568
24.220943
16.704798
14.658570
15.462637
14.214516
15.144944
13.873577
12.334585
11.338592
9.541512
7.947683
6.268620
7.892847
8.098483
7.896423
9.124875
10.103583
10.025501
11.454821
12.668967
11.704564
12.036562
13.477802
13.674498
17.011762
19.179583
20.816922
20.636916
21.086931
22.829771
22.659898
24.550557
23.915768
24.078488
23.544431
24.111867
25.369525
26.156902
24.950504
24.101734
24.095774
23.009777
23.839474
22.113919
22.978783
23.437738
23.866892
25.183558
23.031831
23.786426
25.625825
24.397969
22.924542
23.407936
23.606420
21.798611
23.390651
23.624897
25.315881
23.306608
26.536584
25.149584
30.515790
34.165978
38.155913
42.598844
49.866438
51.164627
54.175854
55.456758
58.152676
59.162974
59.892535
56.234598
53.956509
47.662854
41.136742
34.649968
28.410554
25.168657
21.611452
19.064546
18.455982
16.988516
16.722679
17.882586
16.477704
16.581416
16.831756
##ZVALUE=225
129.624605
134.208798
168.597698
205.514431
215.314627
209.728479
181.349516
140.072703
96.964836
67.933798
39.949417
29.056668
29.493570
27.219653
29.241443
30.068755
22.532940
21.185875
16.712546
12.324452
10.213852
9.595752
9.359717
9.442568
9.895563
11.289716
12.291670
12.980700
13.770461
14.226437
19.005537
20.339489
23.042560
25.522709
28.966665
31.753778
34.114718
34.002662
35.654902
37.390590
36.478639
36.921501
36.897659
35.841465
36.072731
33.434629
34.792423
34.031868
36.239624
33.470988
33.207536
33.234954
32.665730
32.634735
31.755567
31.355619
32.687783
30.545592
32.047629
30.674934
31.494498
28.307438
30.993819
32.219887
31.575561
31.930804
30.331612
33.497810
35.181642
38.365722
38.877726
41.338801
46.702623
50.090551
51.773787
52.956939
58.255792
57.223439
55.262446
54.575801
51.021576
48.802495
43.746829
37.709475
35.225749
31.376481
27.268529
25.633574
24.093986
23.628473
21.800995
20.302534
21.964908
21.714568
21.388531
21.104813
##ZVALUE=230
116.414428
122.991800
185.679793
299.560428
369.746685
449.561477
464.492440
449.854732
401.126742
304.940939
218.899846
128.183961
84.731579
57.615638
49.729943
49.522519
54.788589
53.493977
48.911572
40.376782
31.572580
23.230910
16.486645
11.534691
11.478662
12.656450
12.300611
13.514757
15.586615
19.014478
19.003749
24.483800
26.814938
31.213760
35.192966
40.172935
41.996837
45.899749
47.300458
51.619411
50.707459
51.741600
50.763488
55.124760
51.998496
51.729679
53.527951
50.978661
49.236417
47.832727
48.694611
48.523545
47.279000
47.713518
45.866966
44.979453
45.564771
42.308569
49.347878
44.376850
44.976473
43.466687
43.144822
41.825771
40.030479
43.130517
41.720867
45.276880
45.101643
49.194694
50.722957
54.093599
58.732629
59.893727
64.119697
65.921545
68.297982
65.823793
67.144632
66.818595
59.691668
54.721832
50.853491
45.924783
44.453740
37.865639
35.459995
32.938719
32.621622
29.993653
30.690432
29.643774
27.666688
32.676458
27.411580
28.650761
##ZVALUE=235
36.450624
43.211579
88.403821
202.503800
316.663980
492.797494
634.479523
803.627968
859.246850
877.135992
766.137838
614.825487
414.265990
288.717747
168.917775
111.127496
79.986453
79.522729
83.494782
81.988573
80.558658
67.485571
55.701733
39.935708
30.916929
20.620823
16.803741
15.991926
16.776919
19.050837
21.792650
25.876760
30.077696
37.205815
40.441751
43.033957
47.165751
51.715970
54.660439
57.165623
58.287978
59.937835
59.861541
63.828826
62.270761
59.235692
63.671470
63.979626
61.600804
61.340928
63.489676
64.916611
63.287616
60.119629
60.033798
58.844686
59.822798
61.553717
57.512522
61.522722
58.597922
58.352947
58.227777
54.696798
55.812001
55.975914
58.136582
60.412884
60.003996
61.326623
66.544414
67.086816
68.087578
74.649453
77.849627
77.341795
78.413486
77.950954
79.318881
73.775649
70.104599
67.020655
62.106848
58.664680
55.179000
51.332712
47.399998
45.659542
41.966438
41.534901
42.066574
39.724708
39.503574
38.330555
37.911534
36.851764
##ZVALUE=240
3.868937
4.566908
14.308691
60.405731
127.907991
271.297693
439.969897
727.587938
942.245722
1015.775800
1015.775800
1015.775800
1015.775800
974.077582
738.773942
530.118942
297.867656
191.718936
117.253661
103.922486
109.786987
116.620660
112.037659
98.135471
86.963773
70.463419
52.123666
39.158463
29.173493
25.629997
22.187829
24.988651
29.092431
31.970739
34.109950
39.824843
43.101907
43.775439
45.478940
50.365925
52.396655
54.784417
56.009889
58.483481
60.687661
62.661767
60.686469
62.372684
68.483949
66.350698
67.261457
69.073439
68.610907
71.476698
70.498586
70.747733
68.260431
69.420934
73.041916
70.472956
71.803927
74.124932
71.466565
70.705414
72.247982
68.876743
70.091486
72.418451
73.770881
74.125528
74.258447
77.783465
84.948540
83.491802
88.006854
87.930560
89.850426
89.439750
88.676810
85.340738
78.805685
75.188875
72.467923
67.846775
64.841509
59.000850
56.857467
54.606795
50.641894
48.863888
47.317743
45.710802
45.776963
44.531822
43.031573
42.535663
##ZVALUE=245
2.618432
2.650619
2.798438
3.607869
8.685589
41.638613
105.022788
261.832476
460.856557
693.334937
1015.793681
1015.793681
1015.793681
1015.793681
1015.793681
1015.793681
970.941782
705.226660
472.073555
244.441628
153.308511
106.831789
113.017559
127.999783
130.570531
126.537681
112.147927
95.005631
78.761578
57.475567
44.784546
33.946633
27.366877
25.884509
24.315715
26.907921
29.522777
31.019449
33.508539
36.480427
37.369728
39.216876
43.373704
45.528412
47.347546
49.233437
51.236749
52.127838
55.406690
59.098601
62.493682
62.035918
65.484643
66.916943
70.580840
69.805980
69.648623
72.660446
70.382953
72.936416
71.054697
70.228577
72.011948
69.630742
68.878531
72.431564
70.707798
68.028569
70.851445
72.697997
75.054765
74.455738
78.492761
80.790520
80.897808
81.396699
81.312656
77.960491
77.214837
73.829889
72.440505
67.233443
66.892505
60.665607
58.609843
55.309534
51.141977
52.152872
47.826767
46.187639
46.789646
44.637918
43.668747
43.186545
41.720867
41.859746
##ZVALUE=250
2.386570
2.297759
3.043413
2.716780
2.946854
3.266931
5.359650
27.338862
78.817606
217.026472
405.506492
780.164003
1015.793681
1015.793681
1015.793681
1015.793681
1015.793681
1015.793681
1015.793681
876.000524
586.174726
362.207890
175.853968
117.627978
108.184814
121.100545
135.332942
142.169595
135.580897
125.355721
102.409720
83.514452
67.589879
46.332479
35.356879
27.644634
26.055574
26.135445
26.768446
29.120445
32.260418
34.732819
36.440492
39.359927
42.173862
45.110583
49.031973
49.006939
54.530501
59.910417
61.246753
61.603785
64.553618
67.773461
66.010952
69.329739
67.812800
69.108605
69.393516
69.317818
68.848729
69.369674
68.125725
67.317486
67.852736
65.796971
63.530803
64.385533
66.820979
65.391660
65.082908
67.283511
68.443418
74.425936
69.988966
70.987940
71.368814
68.905950
66.432953
66.693425
63.335896
60.040951
56.887865
53.574443
49.877763
47.923923
45.082569
45.015812
42.654872
41.179657
40.980577
40.802956
39.260983
36.585927
40.246844
37.878752
##ZVALUE=255
2.271533
2.327561
2.366900
2.238750
2.704859
2.485514
3.019571
3.190637
4.070997
12.136698
70.557594
171.650648
343.124866
707.960725
1009.603739
1015.793681
1015.793681
1015.793681
1015.793681
1015.793681
1015.793681
1015.793681
775.804520
468.534827
226.678848
138.356686
101.513863
106.546879
126.155615
143.838525
151.119828
148.026943
135.475993
112.014413
95.227957
69.328547
55.550933
41.341782
36.007762
33.149719
32.252669
34.309626
38.207769
40.250421
41.098595
45.959949
48.498511
51.533580
54.152608
55.881739
58.248639
60.390830
60.610771
63.908696
64.664483
63.415766
66.635609
64.725876
66.784620
66.150427
65.778494
66.500902
66.597462
65.827966
65.080523
61.668754
62.749982
61.136484
61.977506
60.676932
61.922669
62.369704
63.199997
63.952804
63.980818
62.474608
63.846707
62.360764
62.391758
57.512522
54.952502
52.196980
51.594973
47.901869
45.454502
43.449998
42.531490
41.141510
37.386417
38.262606
37.016869
36.039948
35.906434
35.146475
33.854842
34.654737
##ZVALUE=260
2.093911
1.679659
2.035499
1.798868
2.473593
2.212524
2.371669
2.744794
2.877712
3.150702
3.483891
5.723834
24.450421
117.473602
267.205834
620.906949
969.934464
1015.793681
1015.793681
1015.793681
1015.793681
1015.793681
1015.793681
1015.793681
995.652676
677.824020
367.475748
206.994414
109.165907
94.564557
105.822682
131.982565
152.606964
161.408782
159.426928
145.695806
126.681924
102.544427
83.590746
63.210726
53.047538
44.526458
42.970777
42.629838
43.715835
46.284795
47.395825
51.346421
50.551891
53.180456
54.462552
56.291819
57.108998
58.164001
56.958795
58.586597
57.765841
59.998631
59.847832
59.327483
59.016943
60.325861
57.854652
56.840777
54.923892
56.405663
56.211948
56.491494
55.335760
55.853724
56.617856
56.176782
56.365728
56.743622
56.798458
55.997968
56.126714
54.469705
52.731633
50.340891
48.963428
45.995712
43.596625
43.056607
40.553808
38.640499
37.428737
36.461949
35.353899
34.613609
33.044815
32.855868
31.781793
31.183958
30.807853
30.353665
##ZVALUE=265
1.834631
1.532435
1.931787
1.733899
1.922846
1.920462
2.360940
2.118945
2.256632
2.780557
2.904534
3.448725
3.252625
3.870726
15.541911
57.533979
215.615630
419.867039
831.986666
1015.793681
1015.793681
1015.793681
1015.793681
1015.793681
1015.793681
1015.793681
1015.793681
877.265930
560.271740
281.373858
156.361461
94.470978
95.533729
123.275518
144.274831
166.118741
174.528956
170.681477
157.837868
134.953856
114.412904
89.296699
74.107647
59.728622
54.070950
48.913956
47.912598
48.775673
50.485730
51.398873
51.471591
53.399801
52.237511
51.998496
52.984953
52.850842
53.449869
52.779913
52.572489
52.705407
51.535964
51.878691
50.934553
50.930977
49.902797
49.448609
51.172972
49.219728
47.866702
48.708916
49.408674
49.868822
49.420595
48.563480
49.324632
47.549605
47.102571
45.554638
45.179725
44.029951
42.026639
39.526820
38.647652
37.334561
34.847856
34.360886
32.045841
33.083558
31.676888
29.624701
29.267669
29.887557
28.894544
28.765798
27.950406
28.093457
##ZVALUE=270
1.592636
1.586676
1.563430
1.603961
1.813769
1.681447
1.817942
1.736879
1.964569
1.978874
2.029538
2.602935
2.527833
2.844930
2.885461
3.375411
4.863739
25.926828
83.167553
265.261531
515.794754
883.232951
1015.793681
1015.793681
1015.793681
1015.793681
1015.793681
1015.793681
1015.793681
1015.793681
871.490836
443.313718
240.892768
110.739470
86.583495
104.568005
128.487945
158.652663
177.031755
184.608698
180.237889
165.182948
146.712661
120.204687
99.579692
77.244639
65.797567
56.897998
53.887963
52.125454
50.773621
50.663948
50.995946
49.637556
51.878691
48.712492
50.048828
48.129559
48.741698
50.061941
47.690868
48.609972
47.318935
47.413707
46.244860
45.560598
45.142770
44.320822
45.391917
45.835972
45.570731
45.131445
44.027567
44.174790
45.000911
43.879747
43.538809
41.605830
40.923953
37.310719
37.229657
35.894513
34.702420
33.271909
32.474995
29.993653
30.128956
29.025674
28.905869
27.663708
27.648807
26.941895
25.784969
26.130676
25.049448
24.953485
##ZVALUE=275
1.313686
1.652837
1.455545
1.552701
1.642704
1.579523
1.792908
1.750588
1.987815
1.836419
1.736879
2.153516
2.060533
2.276897
2.455711
2.722740
2.876520
3.220439
3.906488
11.003613
45.009851
133.819580
391.932726
736.320019
1015.794873
1015.794873
1015.794873
1015.794873
1015.794873
1015.794873
1015.794873
1015.794873
1015.794873
572.462678
322.877765
144.360662
90.621710
86.838603
105.751753
134.755969
155.695677
176.036954
185.167789
182.219744
168.105960
142.372847
121.135712
97.952485
79.780817
65.748692
57.052970
51.249862
50.503612
48.530698
47.542453
47.012568
46.193600
48.571825
47.331452
47.011971
47.298670
46.664476
46.484470
45.693517
45.653582
44.229627
44.367909
44.420958
43.515563
44.535995
44.272542
43.078661
44.445992
44.743419
43.864846
43.940544
42.366982
41.517615
39.808750
37.236810
36.518574
34.829974
33.660531
30.513406
30.875802
30.615926
29.037595
29.375553
27.892590
26.069880
26.675463
26.881695
25.274754
25.161505
24.749637
24.742484
##ZVALUE=280
1.157522
1.301765
1.457930
1.363754
1.120567
1.264811
1.519918
1.419783
1.700521
1.618862
1.853704
1.859665
1.857877
1.881719
2.189875
2.324581
2.353787
2.538562
2.853870
3.448725
3.507733
4.787445
30.573606
102.429390
336.840749
622.938871
1015.793681
1015.793681
1015.793681
1015.793681
1015.793681
1015.793681
1015.793681
1015.793681
1015.793681
745.533109
438.717008
194.218755
104.263425
70.299506
78.965425
107.205510
129.512548
157.053471
172.617435
178.182721
177.200437
159.533620
141.832829
115.162730
94.283819
73.405504
63.001513
52.936673
49.206614
45.239925
46.361685
45.802593
45.584440
44.842958
46.293736
45.474768
44.352412
44.399500
44.976473
44.183731
43.609738
44.422746
44.117570
43.905973
42.963624
44.159889
44.424534
42.555928
43.714643
42.166710
41.437745
40.204525
39.916635
37.270784
35.224557
33.101439
33.688545
31.562448
31.006932
31.223893
29.660463
28.043985
27.479529
27.515888
25.965571
25.959611
24.864674
24.778843
24.290681
24.397969
##ZVALUE=285
1.117587
1.014471
0.898838
1.158714
1.121759
1.246929
1.358986
1.252890
1.462698
1.232624
1.502633
1.540780
1.366735
1.994967
1.759529
1.567602
1.984835
2.163649
2.456903
2.390742
2.807975
3.186464
3.701448
3.987551
15.195608
56.597590
151.704550
411.878824
722.653866
1015.779972
1015.779972
1015.779972
1015.779972
1015.779972
1015.779972
1015.779972
1015.779972
980.517864
631.046891
297.660828
149.120688
67.498684
55.826902
70.839524
91.708899
121.408701
141.238570
160.191655
168.153644
164.779425
154.592991
131.550431
112.924576
89.077950
71.960688
56.272745
49.050450
44.765472
42.460561
41.144490
42.874813
42.083859
41.394830
43.267608
41.346550
42.277575
42.620897
41.657686
41.960478
41.888952
42.556524
41.662455
40.987730
42.062998
41.279793
40.706992
39.386749
38.169622
37.705898
35.483837
34.557581
32.689571
33.016801
31.422973
31.259656
29.498935
28.934479
28.733611
27.322769
26.775599
26.114583
25.393963
25.041699
24.869442
24.081469
23.230910
##ZVALUE=290
1.049638
1.075864
1.057982
1.028776
1.309514
1.162887
1.283884
1.192689
1.251698
1.255870
1.387596
1.524687
1.756549
1.526475
1.616478
1.631975
1.721978
1.922846
2.061725
2.035499
2.325773
2.308488
2.864599
2.945662
3.458858
3.903508
6.173849
23.049712
105.335712
247.040987
487.725735
983.458757
1015.793681
1015.793681
1015.793681
1015.793681
1015.793681
1015.793681
1015.793681
1015.793681
865.062475
421.458483
217.803717
81.967711
45.303702
47.883987
61.493516
84.847808
106.694698
132.638812
148.884654
158.497691
157.736540
147.207975
130.271912
104.611516
85.275769
64.974427
54.942966
45.186877
42.022467
39.122701
38.033724
38.231611
37.285686
37.837625
38.489699
37.906766
38.486719
38.233995
38.235784
38.510561
39.122701
38.865805
37.787557
38.516521
36.514997
36.236644
34.913421
34.205914
33.640862
31.085610
30.984879
30.138493
29.934645
29.140711
28.153658
27.145743
26.643872
26.892424
26.164651
25.029778
24.510622
24.158955
23.323894
23.252964
##ZVALUE=295
1.181960
1.073480
1.196861
1.183748
1.197457
1.193881
1.246929
1.091957
1.162887
0.986457
1.431704
1.275539
1.229644
1.378655
1.543760
1.525879
1.721978
1.434684
1.614690
1.919866
1.894832
2.109408
2.242923
2.548695
2.909899
2.839565
3.263950
3.537536
4.590750
9.438992
37.573576
164.935589
364.253521
844.388008
1015.781760
1015.781760
1015.781760
1015.781760
1015.781760
1015.781760
1015.781760
1015.781760
1015.781760
573.852658
305.720568
107.342601
50.635934
32.986999
38.987994
58.437586
74.895620
102.037787
121.610761
140.537620
150.444508
149.604678
139.825940
119.500756
102.304816
78.958869
63.912868
49.209595
42.812824
35.735965
34.470558
33.293962
33.844709
33.051968
33.341646
34.018755
34.926534
34.196973
35.680532
34.738779
34.819841
33.371449
34.007430
32.744408
32.092929
30.913949
30.109882
29.490590
28.272867
28.615594
27.970672
27.451515
26.524663
25.841594
25.570989
25.674701
24.344921
23.925900
23.901463
23.523569
23.547411
22.370815
##ZVALUE=300
0.924468
0.870824
1.089573
1.014471
1.124740
0.993609
0.997782
1.192689
1.204610
1.098514
1.116991
1.039505
1.242757
1.149774
1.308918
1.528859
1.298785
1.459718
1.295805
1.680851
1.540780
1.494884
1.616478
2.199411
2.200603
2.507567
2.594590
2.827644
2.904534
3.526807
3.828406
4.996657
17.050505
101.748705
248.643756
608.090758
986.599922
1015.793681
1015.793681
1015.793681
1015.793681
1015.793681
1015.793681
1015.793681
1015.793681
788.483620
454.070568
193.741918
87.480545
33.948421
28.785467
38.143992
50.341487
72.847605
91.587901
117.541552
132.705569
142.148733
143.000484
131.956935
117.817521
96.094608
78.960657
59.902668
48.382878
37.904978
34.083724
30.358434
30.465722
30.531883
30.971766
30.661821
31.199455
30.795932
30.736923
30.506849
30.195713
30.671954
30.289888
28.757453
28.462410
28.391480
28.186440
26.896596
26.961565
26.455522
26.414990
25.218725
24.539828
24.789572
23.519993
23.519993
23.728609
22.540689
22.276640
22.599697
##ZVALUE=305
1.025796
1.150966
1.058578
1.026988
0.998974
1.040697
1.066923
1.104474
1.246929
1.264811
1.232624
1.353621
1.379848
1.352429
1.520514
1.372695
1.573563
1.280904
1.677871
1.527667
1.464486
1.706481
1.818538
2.074838
2.155900
2.121925
2.198815
2.276897
2.781749
2.728701
3.309846
3.500581
3.605485
4.549623
9.775758
69.917440
190.929174
488.217473
829.975009
1015.996933
1015.996933
1015.996933
1015.996933
1015.996933
1015.996933
1015.996933
1015.996933
1001.406908
655.188560
288.736820
137.332678
46.738982
26.790500
28.153658
36.549568
52.626729
68.870783
91.711879
107.781887
129.040480
136.511922
135.617852
128.405690
111.146569
93.897581
72.024465
57.863593
44.484735
37.277937
31.372905
30.431747
29.424429
28.922558
29.088855
29.141903
28.525591
28.261542
28.450489
28.287768
27.849674
27.856827
27.104616
26.877522
26.509762
26.584864
26.225448
26.310682
26.299953
25.036931
24.929643
24.450421
24.244785
23.429990
23.166537
22.675991
22.911429
##ZVALUE=310
0.792742
0.842810
0.929832
0.956655
0.838637
0.880957
0.926852
0.808835
0.969768
0.894666
1.160502
0.914931
1.049638
0.850558
1.058578
1.119971
1.233816
1.239777
1.234412
1.302958
1.324415
1.434684
1.418591
1.506805
1.491904
1.860857
1.748800
1.942515
2.080798
2.155900
2.219677
2.475977
2.788901
3.049970
3.177524
3.670454
4.925728
28.953552
103.311539
333.245993
622.742772
1015.793681
1015.793681
1015.793681
1015.793681
1015.793681
1015.793681
1015.793681
1015.793681
1015.793681
891.311765
436.988473
227.383971
80.421567
35.010576
21.990538
25.817752
35.259724
44.341683
62.560439
79.527497
102.167726
114.913583
126.687884
127.757788
120.072961
107.796788
88.845491
71.813464
54.837465
44.488907
35.209656
31.324625
28.084517
27.500987
27.186871
26.377439
26.649833
25.806427
25.892854
26.178956
25.667548
25.879741
25.918484
25.971532
26.022792
25.478601
25.368929
25.560856
24.873614
24.022460
24.228692
23.558736
22.857785
22.661686
22.436976
##ZVALUE=315
0.866652
0.738502
0.913739
0.781417
0.771880
0.856519
0.774860
0.717640
0.811815
0.940561
0.897646
0.941753
0.967979
1.041889
0.987649
1.002550
1.059771
0.954866
1.015663
1.111627
1.007915
1.155734
1.324415
1.204610
1.589656
1.653433
1.616478
1.666546
1.646876
1.721978
2.066493
1.950860
2.030730
2.363920
2.542734
2.875924
2.974868
3.565550
4.044771
10.513663
44.865608
188.771486
422.882438
934.937596
1015.794873
1015.794873
1015.794873
1015.794873
1015.794873
1015.794873
1015.794873
1015.794873
1015.794873
616.094470
328.544974
117.853880
48.964620
22.330880
20.146966
24.478436
30.293465
43.197870
54.900646
75.290799
90.840459
109.654665
117.735863
119.793415
114.403963
99.815726
86.694956
66.837668
54.457784
40.743947
34.516454
28.423667
26.147962
25.395751
25.684834
24.885535
24.755597
24.562478
24.687648
24.929643
24.950504
25.213957
24.413466
24.237633
24.691820
24.173856
23.944974
23.946762
23.450851
23.412704
23.255944
22.519827
##ZVALUE=320
0.701547
0.692606
0.741482
0.726581
0.649691
0.704527
0.868440
0.659823
0.680685
0.890493
0.757575
0.798702
0.883937
0.944734
0.844598
0.842810
0.975728
0.931621
0.946522
1.063943
1.046658
1.120567
1.083612
1.163483
1.293421
1.266599
1.400709
1.482964
1.457930
1.707673
1.751781
1.611710
1.845956
1.959801
2.085567
2.365708
2.109408
2.693534
2.841949
3.354549
3.662705
5.211830
17.777681
99.614859
255.240798
651.665926
1004.722714
1015.789509
1015.789509
1015.789509
1015.789509
1015.789509
1015.789509
1015.789509
1015.789509
810.302496
451.774597
184.547901
79.381466
25.863647
17.379522
17.945766
20.551682
26.193857
34.954548
51.856637
66.036582
85.583925
98.657608
112.118721
114.283562
108.028650
98.138452
79.784989
66.119432
48.859715
38.520694
31.174421
27.123690
24.317503
23.751855
23.384690
23.152828
23.765564
23.712516
24.118423
24.122596
24.514794
24.267435
24.046898
23.757815
23.555756
22.843480
22.787452
22.923946
22.606850
##ZVALUE=325
0.677705
0.654459
0.639558
0.712872
0.718832
0.669956
0.643730
0.809431
0.788569
0.654459
0.797510
0.688434
0.815988
0.858903
0.746846
0.866652
0.883937
0.824928
0.870824
0.868440
0.784993
1.097918
1.036525
0.930429
1.230836
1.478791
1.390576
1.339912
1.480579
1.406670
1.253486
1.444817
1.590848
1.501441
1.724958
1.900792
1.786947
2.148747
2.356768
2.509952
2.525449
2.979636
3.277659
4.120469
8.800626
62.168837
165.615678
431.999564
766.963959
1015.789509
1015.789509
1015.789509
1015.789509
1015.789509
1015.789509
1015.789509
1015.789509
964.636803
589.506626
252.754688
117.684603
34.619570
17.116666
14.089942
15.034676
18.341541
23.708940
33.824444
46.290755
65.267682
79.297423
95.336437
103.859901
105.482936
101.546645
87.645650
74.394941
58.733821
46.537519
35.141706
29.092431
25.493503
23.428798
23.203492
23.142695
22.784472
22.884607
22.641420
22.665858
23.215413
22.847652
22.203922
22.489429
22.023916
22.051930
22.439957
##ZVALUE=330
0.704527
0.683665
0.617504
0.607967
0.726581
0.649691
0.727773
0.675917
0.674725
0.727773
0.726581
0.629425
0.727773
0.776649
0.623465
0.789762
0.898838
0.760555
0.763535
0.845790
1.014471
0.967979
0.850558
0.941753
1.072884
1.091957
1.135468
0.979900
1.186728
1.241565
1.229644
1.241565
1.344681
1.283884
1.520514
1.520514
1.610518
1.801848
1.822710
1.980662
2.155900
2.268553
2.459884
2.819896
3.241897
3.532767
5.201697
25.251508
85.830688
282.344818
546.084642
1010.794640
1015.793681
1015.793681
1015.793681
1015.793681
1015.793681
1015.793681
1015.793681
1015.793681
776.871443
356.181860
175.514817
58.558583
23.114681
13.093948
12.449622
14.598966
16.805530
23.573637
31.513572
45.853853
58.914423
77.572465
89.524984
98.871589
100.228786
94.622970
85.462928
69.519877
56.897998
43.327808
35.868883
29.167533
25.847554
23.057461
22.092462
22.042990
21.708608
21.701455
21.714568
20.874739
21.069646
21.476746
20.657778
21.269917
##ZVALUE=335
0.470877
0.459552
0.475645
0.653863
0.416636
0.607967
0.581741
0.529885
0.688434
0.646710
0.802875
0.609756
0.561476
0.773668
0.804663
0.687838
0.668764
0.741482
0.611544
0.689626
0.900626
0.885725
0.983477
0.939965
0.873804
0.967979
1.017451
0.984669
0.897646
1.035929
1.046658
1.153946
1.185536
1.186728
1.250505
1.321435
1.459718
1.528859
1.552701
1.587868
1.733899
1.838803
2.008677
2.243519
2.295971
2.644658
2.726912
3.435612
4.117489
11.515617
43.913722
179.453492
377.832651
834.443569
1015.793681
1015.793681
1015.793681
1015.793681
1015.793681
1015.793681
1015.793681
1015.793681
971.547961
508.903861
264.696479
92.859864
35.042763
14.184713
12.920499
13.794899
14.743805
18.706918
22.995472
33.264756
43.782592
60.318708
71.494579
84.930658
91.988444
93.695521
89.420676
78.002810
68.166852
54.382682
45.099854
34.678578
29.246807
24.072528
22.087693
21.180511
20.684600
19.919872
20.186901
19.915700
20.339489
20.352602
##ZVALUE=340
0.492930
0.651479
0.732541
0.570416
0.502467
0.560880
0.617504
0.668764
0.521541
0.566840
0.605583
0.589490
0.657439
0.737906
0.631809
0.686646
0.648499
0.725985
0.716448
0.904799
0.682473
0.787973
0.772476
0.966787
0.998974
0.904799
0.940561
0.968575
1.099706
1.030564
1.020432
1.109838
0.949502
1.060963
1.163483
1.364946
1.310706
1.425743
1.404881
1.452565
1.644492
1.658797
1.630783
1.810789
1.837611
2.109408
2.165437
2.343655
2.792478
3.166795
3.395677
4.771948
27.901530
92.718005
297.722816
587.585568
1015.793681
1015.793681
1015.793681
1015.793681
1015.793681
1015.793681
1015.793681
1015.793681
1015.793681
701.891780
323.209763
150.529742
41.144490
17.543435
13.440847
13.588667
14.314651
15.087724
17.997622
22.225976
30.819774
40.568709
55.379868
66.975951
80.517530
86.631775
88.167787
85.122585
74.759722
65.646768
52.604675
43.199658
32.828450
27.754903
23.458600
21.357536
19.642711
19.321442
18.868446
18.898845
##ZVALUE=345
0.692606
0.493526
0.645518
0.605583
0.411868
0.489950
0.544786
0.591874
0.463724
0.591874
0.526905
0.565648
0.770688
0.724792
0.769496
0.742674
0.772476
0.565648
0.689626
0.644922
0.685453
0.659823
0.740886
0.653863
0.702739
0.920892
0.890493
0.934601
0.928640
0.852942
0.867844
0.846982
0.907779
0.882745
0.900626
1.129508
1.042485
1.305938
1.426935
1.204610
1.340508
1.335740
1.395941
1.460910
1.534820
1.838803
1.715422
1.969934
2.229810
2.471805
2.660751
2.916455
3.162622
3.972650
9.020567
62.202811
175.394416
462.498665
821.720958
1015.793681
1015.793681
1015.793681
1015.793681
1015.793681
1015.793681
1015.793681
1015.793681
846.247673
470.248461
180.277824
78.879595
24.376512
14.737844
13.472438
13.084412
13.057590
14.119744
16.293526
19.831657
28.267503
37.270784
51.642656
61.527491
72.158575
78.220963
81.251860
78.812838
72.401762
63.154697
51.527619
41.956902
31.857491
26.420951
22.057891
19.852519
18.489957
##ZVALUE=350
0.610948
0.494719
0.590682
0.596642
0.485778
0.595450
0.578761
0.466704
0.653863
0.595450
0.460744
0.491738
0.695586
0.713468
0.587702
0.673532
0.543594
0.650883
0.718832
0.666976
0.906587
0.778437
0.782609
0.772476
0.826716
0.763535
0.793934
0.847578
0.732541
0.864863
0.998974
0.816584
0.864863
0.968575
0.956655
1.093745
0.965595
1.077652
1.128912
1.231432
1.197457
1.310706
1.322627
1.646876
1.517534
1.451969
1.662970
1.778603
1.873970
1.838803
2.367496
2.262592
2.880692
2.764463
3.145933
3.493428
5.139709
32.040477
101.383924
314.342976
595.639944
1015.793681
1015.793681
1015.793681
1015.793681
1015.793681
1015.793681
1015.793681
1015.793681
962.553620
596.926808
268.414617
118.518472
32.279491
15.027523
12.443662
11.856556
12.134910
12.231469
13.189912
15.142560
19.513965
25.478601
34.939647
44.384599
56.235790
64.306855
71.164966
73.703527
72.760582
67.454576
57.323575
49.711466
38.037896
31.175613
25.174618
##ZVALUE=355
0.570416
0.666976
0.585914
0.754595
0.803471
0.596642
0.676513
0.685453
0.653863
0.664592
0.803471
0.608563
0.634789
0.848770
0.801682
0.695586
0.696778
0.783801
0.747442
0.712872
0.775456
0.782609
0.967979
0.918508
0.744462
0.820756
0.911951
0.793934
0.817776
0.930429
1.056790
1.035929
0.993609
1.035929
1.147985
1.016855
1.041889
1.153946
1.101494
1.186728
1.437664
1.458526
1.464486
1.423955
1.473427
1.523495
1.442432
1.610518
1.620650
1.942515
1.837611
2.176762
2.233982
2.395511
2.574921
2.551675
3.091693
3.337860
4.038811
10.479689
67.413449
180.352926
473.600626
830.141902
1015.841961
1015.841961
1015.841961
1015.841961
1015.841961
1015.841961
1015.841961
1015.841961
706.591010
383.210778
141.998529
58.109760
17.562509
11.677742
11.346936
11.171699
11.183619
11.472702
12.484789
13.367534
17.527938
21.742582
30.272603
38.513541
49.605966
57.330728
64.598918
68.647861
67.445636
62.908530
53.767562
46.614408
##ZVALUE=360
0.585914
0.655651
0.604987
0.644922
0.648499
0.678897
0.700951
0.619888
0.739694
0.632405
0.788569
0.575781
0.536442
0.778437
0.694990
0.677705
0.608563
0.730753
0.887513
0.802875
0.594854
0.705719
0.934601
0.840425
0.703931
0.752807
0.873804
0.907779
0.707507
0.944734
1.089573
1.028776
0.932813
1.003742
0.972748
1.017451
0.989437
1.029968
1.042485
1.109838
1.293421
1.300573
1.150966
1.267791
1.268983
1.591444
1.316667
1.443624
1.542568
1.521707
1.726747
1.775622
1.885891
1.923442
2.140999
2.169609
2.515912
2.851486
3.059506
3.323555
4.058480
6.882548
24.126768
115.751624
280.019641
685.810447
1015.794873
1015.794873
1015.794873
1015.794873
1015.794873
1015.794873
1015.794873
1015.794873
954.491496
462.485552
234.943628
81.835985
30.506849
12.405515
10.865927
10.912418
10.850430
10.242462
10.792613
11.160970
12.404919
14.962554
18.515587
25.086999
32.444596
42.514801
50.213933
57.894588
61.029792
61.290860
##ZVALUE=365
0.341535
0.361800
0.354648
0.518560
0.308752
0.325441
0.358820
0.525713
0.411868
0.510812
0.577569
0.413656
0.452995
0.383854
0.512600
0.618696
0.586510
0.547767
0.395775
0.309944
0.450611
0.425577
0.413656
0.571609
0.369549
0.732541
0.713468
0.558496
0.773668
0.805855
0.751615
0.669956
0.644922
0.873804
0.989437
0.833869
0.938773
0.922680
0.963807
0.929832
0.907779
1.113415
0.959635
1.223683
1.081824
1.173615
1.161695
1.111627
1.218915
1.361966
1.418591
1.480579
1.465678
1.754761
1.783967
1.877546
1.827478
2.075434
2.375841
2.611876
2.840757
3.481507
3.648996
4.397631
10.212660
62.992573
172.559619
453.995466
831.675529
1015.585661
1015.585661
1015.585661
1015.585661
1015.585661
1015.585661
1015.585661
1015.585661
643.756986
347.272754
123.259425
48.046708
14.302731
10.482669
9.927750
9.841919
9.639859
9.462833
9.879470
9.999871
10.926723
12.656450
16.334653
20.412803
27.846694
34.481883
43.387413
##ZVALUE=370
0.600815
0.588894
0.565648
0.608563
0.551939
0.728965
0.618696
0.669956
0.594854
0.741482
0.514984
0.647902
0.638962
0.544786
0.587702
0.664592
0.625849
0.641942
0.656843
0.647902
0.821948
0.802875
0.639558
0.684857
0.797510
0.861883
0.740886
0.868440
0.893474
0.826716
0.967979
0.956655
0.774860
0.898838
1.031756
0.875592
0.977516
1.007915
1.125932
1.011491
1.093745
1.025796
1.037717
1.148582
0.953674
1.075864
1.297593
1.163483
1.397729
1.466870
1.610518
1.520514
1.488924
1.577735
1.542568
1.874566
1.633763
1.975894
1.967549
2.128482
2.283454
2.602935
2.817512
2.913475
3.383756
3.850460
5.773902
32.509565
107.491016
332.481861
636.242032
1015.793681
1015.793681
1015.793681
1015.793681
1015.793681
1015.793681
1015.793681
1015.793681
804.204941
448.923707
172.836781
73.873997
20.808578
11.055470
9.166598
9.134412
9.124875
9.143949
8.751750
9.039640
9.297729
9.966493
11.481643
13.864636
18.787980
##ZVALUE=375
0.543594
0.603795
0.555515
0.589490
0.654459
0.522733
0.546575
0.584722
0.579953
0.625849
0.682473
0.596642
0.672936
0.527501
0.675917
0.628829
0.764728
0.497699
0.594854
0.584722
0.875592
0.706911
0.664592
0.719428
0.628829
0.733733
0.804663
0.816584
0.878572
0.837445
0.747442
0.725985
0.772476
0.827909
0.850558
0.725985
0.961423
0.914931
0.843406
0.888705
1.131892
1.001954
1.062751
0.937581
1.067519
1.147985
1.129508
1.156926
1.121759
1.264811
1.262426
1.229644
1.450777
1.374483
1.332760
1.369715
1.549721
1.576543
1.812577
1.770854
1.820922
2.031922
2.061725
2.195835
2.249479
2.640486
2.939701
3.441572
4.180670
14.882684
54.963827
206.102729
440.973043
959.851742
1015.793681
1015.793681
1015.793681
1015.793681
1015.793681
1015.793681
1015.793681
978.341103
632.267594
301.588774
145.756602
43.675900
15.993714
9.031892
8.404851
8.301735
8.039474
7.961988
8.182526
8.190870
8.350611
8.925796
##ZVALUE=380
0.511408
0.344515
0.460744
0.382662
0.490546
0.590682
0.692606
0.483990
0.457764
0.449419
0.566840
0.729561
0.488758
0.517964
0.353456
0.575781
0.407696
0.655651
0.532866
0.657439
0.436902
0.700951
0.585914
0.577569
0.764728
0.657439
0.755787
0.757575
0.734925
0.622869
0.706911
0.798702
0.786781
1.068711
0.817776
0.796914
0.853539
0.845790
0.776649
0.749826
0.755787
0.849962
0.989437
0.846982
0.723600
0.892878
1.081824
0.756979
1.043677
0.943542
1.138449
0.865459
1.117587
1.181960
1.170635
1.203418
1.274943
1.391768
1.412630
1.521707
1.441836
1.547933
1.554489
1.677871
1.832843
2.018809
2.343655
2.828836
3.188848
3.827810
4.107952
7.682443
29.288530
146.248937
342.459679
801.391602
1015.780568
1015.780568
1015.780568
1015.780568
1015.780568
1015.780568
1015.780568
1015.780568
889.477730
426.973701
213.980675
70.525408
26.329756
9.995699
7.924438
7.686615
7.564425
7.747412
7.373691
7.620454
##ZVALUE=385
0.441670
0.429749
0.514984
0.493526
0.581741
0.480413
0.373721
0.268817
0.496507
0.548959
0.584722
0.608563
0.615716
0.388622
0.500679
0.638962
0.500679
0.447631
0.509620
0.443459
0.658631
0.433922
0.585914
0.547767
0.613928
0.523925
0.555515
0.625849
0.712872
0.734925
0.638962
0.734925
0.694990
0.763535
0.700951
0.788569
0.813603
0.819564
0.977516
0.783801
0.712872
0.855923
0.804663
0.721812
0.713468
0.864863
0.804663
0.887513
0.885725
0.894666
0.828505
1.060963
1.047850
1.201630
1.067519
1.204610
1.188517
1.099706
1.197457
1.351833
1.369715
1.382828
1.319647
1.485944
1.615882
1.702905
1.987815
2.264977
2.535582
2.837777
3.126860
3.497601
3.991723
4.645586
13.476610
82.914829
218.733549
555.977821
957.728028
1015.793681
1015.793681
1015.793681
1015.793681
1015.793681
1015.793681
1015.793681
1015.793681
617.326498
341.255665
133.203864
50.709844
12.902617
7.831454
7.063746
7.213950
6.870627
##ZVALUE=390
0.381470
0.427961
0.305772
0.683665
0.415444
0.362992
0.374913
0.347495
0.635982
0.626445
0.462532
0.368953
0.487566
0.405908
0.469685
0.573993
0.653863
0.399947
0.631809
0.420809
0.595450
0.572801
0.504851
0.450611
0.639558
0.716448
0.622869
0.396967
0.578761
0.604987
0.703931
0.639558
0.560880
0.701547
0.590682
0.755787
0.772476
0.789762
0.619888
0.645518
0.931621
0.724792
0.894666
0.766516
0.773668
0.797510
0.870824
0.782609
0.855923
0.797510
0.984669
0.901818
0.959635
0.945926
0.974536
1.022816
1.006722
1.006722
1.090765
1.140833
1.231432
1.222491
1.359582
1.487732
1.426935
1.593828
1.854897
2.019405
2.381802
2.309680
2.872944
3.055930
3.161430
3.196597
3.339648
3.914833
6.706715
43.391585
135.142803
414.087772
770.372748
1015.793681
1015.793681
1015.793681
1015.793681
1015.793681
1015.793681
1015.793681
1015.793681
879.811645
499.583483
195.124745
86.432695
24.179816
9.577870
7.118583
##ZVALUE=395
0.420809
0.468493
0.536442
0.350475
0.585914
0.377893
0.420809
0.410676
0.333786
0.467896
0.436902
0.383854
0.317693
0.376701
0.416636
0.498891
0.697970
0.555515
0.374913
0.538826
0.469685
0.486970
0.501871
0.560880
0.601411
0.626445
0.629425
0.558496
0.506639
0.637770
0.640750
0.540614
0.553727
0.612736
0.579953
0.730753
0.647902
0.794530
0.737906
0.697970
0.741482
0.683665
0.800490
0.827909
0.870824
0.857711
0.875592
0.767708
0.925660
0.777841
0.788569
0.997782
0.935793
0.908971
1.091957
1.012683
1.048446
1.097918
1.206994
1.102686
1.177788
1.307726
1.346469
1.407862
1.402497
1.578927
1.663566
1.880527
2.051592
2.389550
2.404451
2.547503
2.757907
2.871752
2.740622
2.995729
3.027916
3.388524
4.450679
22.959709
86.300969
304.145813
590.465665
1015.793681
1015.793681
1015.793681
1015.793681
1015.793681
1015.793681
1015.793681
1015.793681
1011.115909
673.713684
303.747654
138.909817
41.782856
##ZVALUE=400
0.416636
0.413656
0.522733
0.298619
0.390410
0.341535
0.492930
0.465512
0.220537
0.370741
0.449419
0.512600
0.420809
0.319481
0.437498
0.466704
0.406504
0.423789
0.512600
0.423789
0.479817
0.492930
0.417829
0.552535
0.609756
0.502467
0.414848
0.623465
0.439882
0.549555
0.428557
0.611544
0.611544
0.729561
0.565648
0.572801
0.723600
0.742674
0.739694
0.824928
0.794530
0.705719
0.663996
0.888705
0.770688
0.933409
0.832677
0.898838
0.725985
0.937581
0.829697
0.860691
0.936985
1.070499
0.863671
1.058578
1.071692
1.133680
1.014471
0.980496
0.988841
1.153946
1.264811
1.263618
1.427531
1.471639
1.620650
1.898408
1.960993
2.107620
2.249479
2.603531
2.381802
2.422929
2.481937
2.360940
2.574921
2.786517
2.944469
3.259778
3.872514
12.387633
47.723651
179.433823
386.696458
855.752826
1015.793681
1015.793681
1015.793681
1015.793681
1015.793681
1015.793681
1015.793681
1015.793681
831.745863
400.676727
##END
