##TITLE=FAAI0852
##FORMAT=SPECTACLE-ASCII V-1.2
##DATA TYPE=ULTRAVIOLET SPECTRUM
##SECOND TYPE=ULTRAVIOLET SPECTRUM
##DATE=10/24/17
##TIME=16:17:40
##SPECTROMETER/DATA SYSTEM=SPECTACLE
##XUNITS=NM EM
##YUNITS=ENERGY
##YFACTOR=1
##FIRSTX=220
##LASTX=410
##NPOINTS=96
##3DDATA=Equidistant
##ZUNITS=NM EX
##FIRSTZ=210
##LASTZ=400
##ZPOINTS=39
##XYDATA=(Y..Y)
##ZVALUE=210
4.297495
4.610419
3.924966
3.530979
3.810525
3.963709
4.060864
3.972650
3.895760
4.012585
3.629923
3.126860
2.858639
3.223419
3.239512
3.384948
4.276633
3.842711
4.434586
4.458427
4.728436
5.214810
5.658865
5.147457
6.367564
5.769730
6.032586
6.176829
6.749630
6.942749
6.910563
7.124543
7.680655
6.886721
7.338524
7.257462
7.749796
6.991625
7.489920
7.808805
8.597970
8.012652
8.754730
8.066893
7.984638
9.110570
7.236600
8.226633
8.048415
8.910894
8.175969
9.063482
8.665919
9.927750
8.302927
9.420514
9.675622
9.402633
10.189414
9.914637
9.023547
9.912848
9.163618
9.161830
9.409785
9.417534
11.302829
11.203885
12.132525
14.782548
17.182827
20.876527
22.444725
24.671555
29.151440
29.159784
31.666756
34.066439
30.002594
30.531883
28.126836
25.797486
23.112893
21.341443
17.295480
14.075637
11.522770
9.531975
9.927750
8.042455
8.877516
8.215904
8.296967
9.395480
8.897781
8.983612
##ZVALUE=215
14.162660
12.778640
12.696981
10.605454
9.049773
7.672906
5.840659
6.483793
7.618666
6.445646
6.996989
6.198883
5.723834
4.412532
3.982782
4.540682
4.291534
3.667474
4.347563
4.460812
4.659891
4.854798
5.044937
5.536675
5.906820
5.352497
5.543828
7.427931
7.813573
7.294416
7.603765
7.486939
7.546544
8.279681
8.572936
8.278489
8.080602
8.325577
8.200407
9.472966
8.365512
7.919669
8.563995
9.085536
9.247661
9.148717
8.882880
8.791685
9.575486
9.373426
8.652806
9.310842
9.883642
10.107756
9.832978
9.056926
9.848475
10.179877
9.701848
10.197759
9.767413
9.759665
11.317730
9.209514
9.654760
10.814667
11.012554
11.034608
11.352897
14.845729
16.240478
17.639995
20.657778
21.844506
23.166537
25.741458
27.752519
27.386546
28.429627
26.690960
26.049614
26.231408
21.754503
18.790960
15.982985
12.776852
10.777712
10.888577
8.881688
8.671880
8.329749
7.831454
8.296967
7.568598
8.439422
8.036494
##ZVALUE=220
39.926767
38.616657
43.930411
43.035746
39.401650
35.264492
26.282668
20.472407
15.589595
15.068650
14.415979
16.279817
13.464689
12.537837
11.865497
8.635521
8.013844
5.814433
6.075501
5.644560
5.518794
5.943775
5.502701
4.728436
6.563663
6.053448
6.567836
7.476807
7.904768
8.403659
9.637475
8.693933
8.289814
9.006858
10.266900
9.693503
9.545684
9.917617
10.251999
9.671450
9.383559
10.057688
9.544492
10.196567
10.177493
9.818673
9.003878
9.799600
10.859966
10.156631
10.575652
10.906458
10.481477
9.037852
9.765625
11.028647
10.994673
10.297894
10.649562
10.630488
11.403561
11.112690
10.448694
11.713505
10.667443
11.960864
11.702776
12.491941
13.062954
15.621781
16.452670
16.586781
19.605756
21.033883
24.498701
25.431514
25.493503
25.691986
26.213527
25.009513
25.137663
23.181438
21.739602
18.186569
16.330481
13.970733
11.883974
10.580420
9.001493
9.926558
7.694960
8.342862
8.869767
8.005500
8.502603
7.688999
##ZVALUE=225
54.994822
62.305927
82.959533
107.142925
114.913583
120.893717
115.440488
93.125701
69.288611
53.411722
35.133958
28.069615
27.101636
30.791759
27.617812
29.372573
22.071600
20.087957
12.791753
10.764599
8.764863
7.013679
5.993843
6.540418
6.714463
6.593466
7.317662
8.483529
7.464886
7.455945
8.437634
8.940697
9.838939
10.139942
9.724498
9.428859
10.532737
9.901524
11.005998
10.757446
10.212660
10.873675
10.524988
11.633635
11.697412
10.298491
10.962486
11.412501
12.219548
12.280941
11.907816
11.693835
12.855530
11.748672
12.772679
12.332797
13.318658
12.662411
12.111664
14.441609
13.153553
13.704896
14.116764
12.926459
14.586449
13.396740
13.873577
14.907718
15.078783
16.166568
18.523932
19.381642
21.128654
22.240877
24.687648
25.615692
26.928782
26.839972
25.024414
24.971962
22.683740
20.098686
20.470619
16.124845
16.040802
14.187694
11.262894
10.915995
10.422468
10.703802
9.956956
9.941459
10.075569
8.802414
9.605885
8.569956
##ZVALUE=230
42.461753
49.570799
80.828667
142.178535
191.683769
245.932937
277.669430
282.846689
270.617008
233.730674
166.756511
118.615627
74.096918
57.104826
51.118731
49.962997
54.289699
51.489472
46.751499
39.177537
29.975772
21.148920
14.774799
10.308623
8.134842
7.805824
7.593632
7.904768
7.849932
9.386539
9.357929
9.347796
10.320544
9.865761
10.350943
10.764599
11.175871
11.199713
10.681748
12.038946
11.708736
12.091994
13.468862
12.530684
13.024807
13.200641
13.155937
15.475750
14.769435
15.086532
16.495585
14.781952
14.687777
16.657710
16.441941
16.549826
15.500784
17.058849
17.344952
19.219518
17.939806
16.061664
16.637444
18.010736
16.957521
18.778443
18.941760
20.544529
19.159913
21.459460
22.852421
24.973750
24.814606
30.293465
30.038953
30.312538
29.931664
28.745532
27.721524
29.767752
26.044846
23.413897
22.538900
22.480488
18.828511
16.660690
16.119480
14.724731
14.199615
12.775660
12.877584
12.588501
12.213588
12.198687
11.794567
12.918711
##ZVALUE=235
15.709996
17.637610
40.513873
96.064806
159.174800
270.653963
365.193486
490.405560
555.694699
573.308468
546.800494
462.862849
318.471789
236.746669
152.603984
106.449723
84.843636
78.783631
83.309412
84.922910
78.576803
66.457987
53.929687
37.898421
27.713776
16.955733
13.754964
12.813807
10.869503
9.519458
10.045767
10.333657
11.113882
10.574460
10.384917
11.460781
12.213588
11.427999
11.993647
13.970733
13.575554
14.979839
15.284419
15.322566
16.796589
16.319752
17.398000
19.681454
19.625425
21.465421
20.264983
21.044612
22.112727
21.647811
23.665428
22.735000
22.314787
22.607446
22.353530
24.537444
25.135875
23.918748
23.674965
24.622679
23.962855
24.433732
26.095510
25.341511
26.250482
25.631785
28.490424
30.384660
32.045841
36.328435
36.423802
35.030842
36.458969
37.521720
34.510493
33.292770
30.987859
28.793812
27.049780
26.302934
23.447871
20.923615
19.914508
18.758774
17.363429
17.606616
15.833974
15.836954
16.124845
15.397668
14.139414
13.367534
##ZVALUE=240
2.426505
2.205968
7.927418
19.993782
56.067705
107.653737
234.396458
372.110009
597.910881
737.620592
889.448524
919.677615
880.423784
749.609470
607.355833
389.398932
267.296433
165.961981
120.167732
106.666684
105.378628
113.055706
112.893581
100.537539
84.652901
68.775415
46.489835
35.039783
22.603869
14.950633
13.002753
10.831952
11.473894
10.615587
11.928678
11.268854
11.329651
12.619495
13.798475
14.083982
14.656782
17.464757
17.112494
19.409657
19.320846
19.503832
20.879507
21.963716
23.750663
23.716688
26.476979
26.868582
28.028488
27.968884
27.997494
29.792786
29.709935
30.166507
30.167699
30.163527
29.502511
28.862953
30.826926
30.475855
29.834509
29.337406
30.407906
31.957626
30.332804
31.664968
33.108592
33.701658
37.895441
38.751960
39.410591
41.265488
42.404532
42.569637
38.548708
36.385655
36.114454
31.024814
30.783415
27.482510
24.598837
23.856759
21.640658
21.230578
20.854473
19.180775
17.980933
18.139482
17.150640
17.516613
15.053749
14.842749
##ZVALUE=245
2.231598
2.232790
1.840591
2.677441
5.140901
16.623735
50.249696
107.925534
260.074735
405.695438
672.727823
873.800516
1015.650034
1015.793681
1015.793681
987.385511
819.125772
560.916662
388.957858
223.629475
145.913959
115.478635
114.666820
125.959516
130.280852
127.334595
112.291574
96.151829
73.821545
54.279566
39.718747
25.220513
18.465519
13.047457
12.615919
12.734532
12.847781
13.787746
14.560819
15.943646
16.177893
16.207695
19.000769
19.285679
20.610690
20.470619
23.343563
24.460554
25.029778
26.782751
27.954578
30.314922
32.083988
29.986501
31.221509
29.360652
31.845570
31.842589
31.665564
31.930804
31.423569
32.693744
29.302835
30.833483
31.182766
31.363964
30.022860
31.268597
31.843781
32.246709
33.251643
33.698678
34.263730
36.786795
37.339926
39.099455
37.547946
36.419630
36.009550
34.786463
32.751560
29.235482
26.384592
24.399757
23.929477
21.062493
20.490885
19.052625
18.785596
19.099712
17.988682
17.216802
17.801523
16.489625
16.819835
15.970469
##ZVALUE=250
1.931787
2.429485
2.234578
2.389550
2.424717
2.323985
6.175637
9.695888
83.253980
98.853707
200.954676
431.512594
643.355846
1015.793681
1015.793681
1015.793681
1015.793681
1015.793681
1015.793681
785.104036
543.746948
296.911597
185.148716
119.070411
106.273890
123.770833
133.757591
138.915777
135.638714
120.360851
100.364685
82.228780
59.608817
41.706562
26.452541
18.849969
14.562607
13.821721
13.321638
14.482737
15.183687
16.907454
17.493963
18.853545
21.183491
21.723509
24.366975
24.849772
25.007725
28.190613
28.740764
27.063489
29.975772
30.820966
29.960871
31.362772
30.335784
29.706955
28.586984
29.930472
29.962659
28.770566
29.155612
27.941465
27.213693
26.909709
26.896000
27.573705
27.618408
28.027892
28.891563
29.838681
30.698776
30.956864
31.918883
31.885505
32.024980
30.401945
29.756427
29.408932
26.763678
26.641488
23.779869
22.469759
20.272732
19.136667
18.658638
17.539859
16.449690
16.972423
16.261935
15.036464
14.540553
14.912486
14.865994
14.674664
##ZVALUE=255
1.750588
1.900792
1.928806
2.053976
2.010465
2.364516
2.413988
2.791882
2.757907
7.292628
23.447871
90.321898
185.771585
414.064527
654.788017
995.475650
1015.793681
1015.793681
1015.793681
1015.793681
1015.793681
1015.793681
748.190880
471.074581
238.147974
148.067474
101.029873
107.292533
126.660466
138.362646
146.209598
142.606497
128.505826
110.085607
82.101822
62.329769
40.439963
29.226542
19.667745
16.698837
14.500618
15.848875
16.520619
17.939806
19.432902
19.822717
20.632744
22.253990
22.377968
22.168756
24.267435
25.335550
26.470423
26.521683
25.095940
24.990439
25.783777
25.485754
24.939775
26.996732
25.008917
23.790598
23.418665
22.388697
22.174716
23.647547
22.337437
22.774935
22.186637
23.362637
23.465753
24.919510
25.958419
26.480556
26.693940
26.494861
27.571917
26.617646
24.244785
22.243857
22.510886
21.189451
19.131899
19.349456
16.597509
16.514659
15.489459
14.660954
14.616847
14.215708
14.071465
13.534427
12.674928
12.549758
12.493730
12.152791
##ZVALUE=260
1.772642
1.675487
1.755953
1.984835
1.818538
1.554489
2.092719
2.059937
2.271533
2.334714
2.631545
3.534555
9.307861
46.323538
115.733743
304.283500
521.489978
919.641852
1015.793681
1015.793681
1015.793681
1015.793681
1015.793681
1015.793681
980.633497
678.102970
374.316573
219.811797
113.886595
94.464421
99.339485
126.368403
143.790841
154.524446
148.969889
132.323503
113.537908
85.001588
64.664483
42.089820
30.630827
21.685958
18.337965
15.939474
16.579628
17.601848
17.545819
18.793941
18.430948
20.193458
20.966530
21.203756
21.063685
21.760464
21.289587
20.319819
20.564795
21.399856
21.177530
20.284653
21.501780
19.862652
18.796921
18.970966
18.520951
18.548965
18.150806
18.937588
18.827915
19.036531
19.454956
20.572543
20.286441
22.843480
22.816658
22.111535
20.896792
21.383762
20.459890
19.003749
19.101501
18.090606
17.256737
14.763474
14.343858
12.841821
13.599992
12.205839
12.994409
12.258887
11.417866
11.925697
10.919571
11.334419
11.400580
10.278821
##ZVALUE=265
1.456738
1.519918
1.743436
1.583695
1.761913
1.739860
1.828671
1.828671
1.997948
1.971722
2.379417
2.038479
2.995729
2.971888
5.259514
25.970936
68.568587
199.424028
376.067758
773.428679
1015.793681
1015.793681
1015.793681
1015.793681
1015.793681
1015.793681
1015.793681
938.335657
526.324511
306.086540
167.195797
90.263486
84.051490
112.784505
130.709410
149.151683
157.048702
150.582790
135.498643
111.428499
88.819861
61.739683
44.552684
29.915571
21.446943
17.481446
16.027689
16.137958
15.012622
16.340613
17.173886
17.895699
17.626882
17.850995
18.194914
17.436743
16.799569
17.663836
17.511845
17.756820
17.434955
17.154813
17.015934
15.401840
16.300678
15.909672
16.094446
15.725493
15.683770
16.627908
17.738938
17.625690
18.619895
18.548965
18.015504
18.191934
18.655658
18.091798
17.094612
15.409589
15.004873
14.200807
14.322996
12.876987
12.040734
11.278987
11.692643
10.891557
10.588765
10.799766
10.441542
10.061860
9.680986
10.027885
9.641647
10.184646
##ZVALUE=270
1.416802
1.505613
1.382828
1.152754
1.482964
1.554489
1.479983
1.490712
2.019405
1.594424
1.895428
1.763701
2.161860
2.361536
2.349615
2.786517
3.223419
12.807846
37.027597
125.459433
269.984007
504.497886
959.929824
1015.784740
1015.784740
1015.784740
1015.784740
1015.784740
1015.784740
1015.784740
862.498879
446.733832
242.132545
102.460980
73.816776
86.649656
108.868480
137.931705
148.079991
158.054829
155.811906
137.669444
116.920471
86.956620
64.701438
42.054653
30.933619
21.189451
17.355680
15.383959
15.793443
15.878677
14.735460
15.845895
15.211701
15.048981
15.680790
16.246438
15.642643
15.030503
15.320778
15.521646
15.013814
14.538765
14.724731
14.878511
14.991760
13.841987
14.785528
14.257431
15.076995
16.033649
15.186667
16.599894
16.668439
16.581416
15.746951
14.677644
14.568567
13.169646
12.905598
12.095571
11.495948
11.251569
10.967851
10.070801
10.222793
9.818673
9.087920
9.383559
8.623600
8.537769
8.312464
8.308887
8.635521
8.379817
##ZVALUE=275
1.059771
1.102686
1.276731
1.263618
1.183748
1.376867
1.522899
1.200438
1.403689
1.550913
1.462698
1.837611
1.580715
1.816750
1.779795
2.237558
2.149940
2.302527
2.718568
8.935928
33.981800
90.022683
246.479511
456.903577
872.704983
1015.793681
1015.793681
1015.793681
1015.793681
1015.793681
1015.793681
1015.793681
998.175740
567.619801
325.335860
133.978724
74.375868
63.209534
80.811977
107.744932
128.103495
149.399638
155.420899
148.571730
135.860443
109.788775
87.043643
63.738823
46.378970
30.425787
23.188591
18.384457
16.342998
15.222430
15.060902
15.083551
14.764667
15.232563
14.790893
15.276670
15.348792
15.824437
14.912486
14.309883
14.078617
14.605522
14.911890
13.744831
13.849735
15.281439
14.490485
15.269518
15.089512
15.307665
15.616417
15.381575
15.762448
14.605522
14.378428
13.440847
12.718439
12.290478
11.097789
10.860562
10.062456
9.990931
9.295940
8.865595
8.866787
8.556843
8.143783
8.080602
7.996559
7.472634
7.667542
7.560849
##ZVALUE=280
1.213551
1.079440
1.068711
0.978708
1.224875
1.167655
1.110435
1.357794
1.500845
1.337528
1.364946
1.483560
1.305938
1.665950
1.639724
1.805425
1.852512
1.987815
2.269745
2.532601
2.578497
3.707409
23.612976
75.065494
218.282938
382.143855
709.493756
1008.597612
1015.793681
1015.793681
1015.793681
1015.793681
1015.793681
1015.793681
1015.793681
712.553859
418.825746
181.096792
90.079904
51.242709
57.519674
81.921816
105.648637
130.298734
144.279003
154.766440
147.763491
131.389499
111.827850
87.429881
65.784454
45.822859
32.484531
21.910667
18.293858
15.383959
15.100837
14.347434
14.953613
14.644861
14.686584
15.293956
15.046597
15.207529
15.072823
14.564991
14.775991
14.292598
14.776587
14.284849
14.742613
15.101433
15.120506
15.567541
16.319752
15.200973
15.032887
13.868809
14.171600
13.158917
12.018681
11.818409
10.712743
9.840727
9.412766
9.118915
8.680820
8.602738
8.621812
8.117557
8.051991
7.325411
7.738471
7.603765
7.319450
7.267594
##ZVALUE=285
1.148582
1.082420
0.999570
1.076460
1.181960
1.219511
1.247525
1.128912
1.147985
0.997782
1.274943
1.456738
1.242757
1.309514
1.492500
1.541972
1.732707
1.785755
1.850724
2.048612
1.954436
2.534986
2.993941
3.234744
7.327795
42.120814
110.079646
289.822817
505.851507
923.129916
1015.793681
1015.793681
1015.793681
1015.793681
1015.793681
1015.793681
1015.793681
962.830782
618.302822
286.397934
141.003728
54.345727
40.840507
56.192875
74.953437
105.673671
124.875903
143.857002
148.196816
144.747496
133.914948
111.250877
91.954470
65.830946
48.334599
31.773448
23.834705
18.549562
16.229749
15.734434
15.426874
15.498996
15.775561
15.258789
14.914870
14.319420
14.813542
14.713407
14.647841
14.975667
14.389753
15.021563
15.231967
14.999509
14.898777
14.938712
14.554858
13.325810
13.907552
12.741685
11.964440
10.853410
10.688901
9.863973
10.064840
8.761883
8.462667
8.066893
8.172989
7.900000
7.523894
7.710457
7.502437
7.463694
6.887913
6.711483
##ZVALUE=290
1.127720
0.976920
1.155734
1.022816
1.041889
1.034737
1.119971
1.328588
1.135468
1.376867
1.299977
1.344681
1.284480
1.312494
1.301765
1.513958
1.384616
1.434684
1.705885
1.619458
1.904964
1.948476
2.304912
2.344847
2.675653
2.985597
3.986955
11.524558
53.435564
136.659741
292.625427
660.575032
1000.403762
1015.876532
1015.876532
1015.876532
1015.876532
1015.876532
1015.876532
1015.876532
830.392838
421.330929
219.030976
78.992844
38.493872
37.715435
50.183535
73.969960
93.481541
120.563507
137.814879
147.478580
143.869519
129.484534
113.621950
86.776614
67.128539
46.455860
35.420656
24.410486
19.997954
17.421842
16.222596
15.632510
15.166998
15.156865
15.001893
15.400648
15.023947
15.537739
15.043616
15.044808
15.184879
14.936924
14.914870
14.502406
14.157891
13.220906
12.275577
11.598468
10.694861
9.891987
10.144711
8.734465
9.020567
8.831620
8.093715
7.819533
7.970929
7.760525
7.252693
7.177591
7.102489
6.834865
6.617904
6.432533
##ZVALUE=295
0.869632
0.984669
0.927448
0.902414
0.885725
0.718832
0.912547
1.089573
1.098514
1.107454
0.966787
1.112819
1.089573
1.077652
1.050830
0.977516
1.182556
1.382828
1.272559
1.399517
1.542568
1.726747
1.769662
2.147555
2.079606
2.342463
2.358556
2.674460
2.825856
5.440712
17.494559
81.551671
196.078420
502.942801
853.222013
1015.793681
1015.793681
1015.793681
1015.793681
1015.793681
1015.793681
1015.793681
991.222858
556.818843
307.589769
112.932920
51.580667
27.551651
32.552481
50.339699
69.175959
95.857978
112.691522
134.056807
140.457749
139.033794
130.071640
107.087493
89.400411
64.265728
49.565434
33.164620
25.829673
19.390583
16.995668
15.370846
15.186667
14.674664
14.832616
14.943480
14.340878
15.018582
14.843941
14.435649
14.166832
13.526678
12.967587
12.338758
11.851788
11.187792
10.234714
10.057688
9.366870
9.047985
8.823872
8.358955
8.010864
7.843971
8.123517
7.551908
6.996989
6.968975
6.448627
6.415844
6.336570
6.261468
##ZVALUE=300
0.860691
0.757575
0.924468
0.827909
0.967979
0.677705
0.551939
0.746846
0.715852
0.781417
0.956655
0.881553
0.899434
1.074672
0.919700
1.007915
1.130700
1.350641
1.190901
1.346469
1.206994
1.356602
1.547933
1.435876
1.556873
1.784563
2.077818
2.034903
2.124906
2.544522
2.637506
3.503561
12.083650
41.441917
151.319504
308.592916
662.766695
995.304585
1015.794873
1015.794873
1015.794873
1015.794873
1015.794873
1015.794873
1015.794873
784.662962
403.596759
220.612884
80.507994
34.570694
24.618506
31.443834
47.211647
63.407421
88.292956
107.268691
127.364993
135.886669
135.063529
126.314759
106.094480
86.900592
64.599514
49.708486
32.721758
25.650859
19.061565
16.220808
14.390945
14.476776
14.356971
13.431907
13.676882
13.744831
13.021827
12.420416
12.209415
11.636615
11.095405
10.292530
9.762645
9.187460
9.140968
8.627772
8.581877
7.979870
7.825494
7.620454
6.797910
6.674528
6.857514
6.305575
6.162524
6.361604
5.878806
5.873442
##ZVALUE=305
0.736713
0.766516
0.667572
0.734925
0.742674
0.495911
0.628829
0.690818
0.816584
0.703931
0.892878
0.820756
0.785589
0.988841
1.009703
0.927448
1.101494
0.940561
0.928640
1.130700
0.998974
1.230836
1.291633
1.539588
1.250505
1.435876
1.549721
1.585484
1.843572
2.151728
2.059937
2.362728
2.536774
2.919436
6.357431
22.446513
91.230869
213.304758
502.494574
831.756592
1015.793681
1015.793681
1015.793681
1015.793681
1015.793681
1015.793681
1015.793681
936.684608
586.450696
327.626467
127.239823
55.159926
22.484660
22.228956
31.842589
43.947697
64.898729
83.431602
105.257630
120.813847
130.300522
128.588676
118.780732
103.495717
79.594851
63.011646
43.836832
32.694936
22.698641
18.094778
15.074611
13.827682
13.403893
12.802482
12.394786
12.645721
12.006760
11.230707
10.134578
9.802580
9.403825
9.031892
8.516908
8.646846
7.974505
7.670522
7.280707
7.321835
6.959438
6.504655
6.213784
6.004572
5.875826
6.049871
5.729795
5.683899
##ZVALUE=310
0.576973
0.558496
0.584722
0.560880
0.786781
0.525713
0.658631
0.713468
0.717640
0.657439
0.677705
0.600815
0.748634
0.711679
0.647902
0.866652
0.557899
0.816584
0.908971
0.821948
0.905991
1.161695
1.093745
1.019835
1.067519
1.374483
1.306534
1.354814
1.624823
1.672506
1.777411
1.696944
1.829863
2.086759
2.262592
2.707839
3.167987
9.366870
47.449470
115.965605
294.014812
522.830486
965.543985
1015.747786
1015.747786
1015.747786
1015.747786
1015.747786
1015.747786
1015.747786
752.195716
453.833938
197.716951
90.472698
30.092597
18.080473
22.745728
27.327538
41.263700
55.438876
76.048970
92.721581
110.747814
118.635893
119.913816
113.374591
97.742677
80.860853
57.771802
43.458939
28.901696
21.851659
16.025901
12.908578
11.897683
11.111498
10.093451
9.777546
9.337664
8.788705
8.438826
8.050799
8.009672
7.774830
7.584691
7.265806
7.086992
6.637573
6.876588
6.391406
6.145835
6.349683
5.713701
5.846620
5.218983
5.362630
##ZVALUE=315
0.483990
0.681877
0.549555
0.680685
0.641942
0.716448
0.612736
0.497699
0.548959
0.552535
0.584722
0.752807
0.538826
0.852942
0.812411
0.671744
0.759959
0.692606
0.799894
0.940561
0.788569
0.807643
0.987649
1.010895
0.964999
1.144409
1.212955
1.217723
1.538992
1.303554
1.407862
1.615882
1.430511
1.550913
1.930594
1.895428
1.950860
2.445579
2.712607
5.759597
19.263625
82.294941
188.249946
443.953872
734.807849
1015.793681
1015.793681
1015.793681
1015.793681
1015.793681
1015.793681
1015.793681
999.628901
573.990941
316.289663
117.698908
47.407746
17.468929
16.164780
20.055771
25.548935
37.391782
49.366951
68.707466
85.019469
102.617741
110.803843
112.645626
106.868744
90.604424
75.589418
56.232810
42.307973
26.888847
19.567609
13.618469
11.005998
9.643435
8.758903
8.153915
7.892847
7.591844
7.186532
6.871819
6.853938
6.628633
6.856918
6.524920
6.287694
5.984902
5.663633
5.792975
5.550981
5.415678
5.512834
5.364418
##ZVALUE=320
0.509620
0.562668
0.605583
0.492930
0.789762
0.635982
0.630617
0.416636
0.623465
0.562668
0.822544
0.584722
0.743866
0.699759
0.625849
0.715852
0.646710
0.820756
0.821948
0.664592
0.758767
0.701547
0.920892
0.871420
1.031756
0.934601
0.982881
1.073480
1.210570
1.176596
1.325607
1.236796
1.396537
1.397729
1.439452
1.725554
1.645684
1.877546
2.079606
2.366900
2.581477
3.172755
9.095669
50.811768
130.525827
333.227515
560.546517
964.191556
1015.802026
1015.802026
1015.802026
1015.802026
1015.802026
1015.802026
1015.801430
738.863945
428.862572
183.474422
80.455542
23.494959
13.564825
13.413429
15.363693
21.409988
29.558539
45.853853
59.939623
79.312921
91.546774
103.253722
104.493499
98.081827
86.661577
68.409443
52.958727
36.557913
25.819540
16.737580
12.093782
8.804798
7.446408
7.067919
6.757975
6.450415
6.181598
5.955696
6.181598
5.745888
5.741715
5.688667
5.678535
5.551577
5.456805
5.281568
4.919767
5.216599
##ZVALUE=325
0.791550
0.725985
0.796914
0.814795
0.729561
0.787973
0.709891
0.738502
0.719428
0.755787
0.783801
0.789762
0.789762
0.819564
0.903606
0.934601
0.889897
1.029968
1.009703
0.874996
1.077652
1.096725
0.998974
0.947714
1.101494
1.150966
1.233816
1.295805
1.139641
1.307726
1.408458
1.130700
1.458526
1.414418
1.404881
1.706481
1.644492
1.966953
1.900792
2.011657
2.204776
2.362728
2.695918
2.885461
4.938841
28.820634
77.828765
213.389993
391.858816
768.287778
1016.022563
1016.022563
1016.022563
1016.022563
1016.022563
1016.022563
1016.022563
885.571837
555.007458
256.209970
121.125579
34.340620
13.999939
9.872913
10.461807
13.593435
17.921925
27.745962
39.280653
58.970451
71.325898
88.475943
95.709562
95.773935
90.483427
78.109503
64.611435
46.019554
34.183860
21.324754
14.785528
9.874701
7.831454
6.449819
6.140471
6.054640
5.912781
5.691648
5.567670
5.700588
5.531907
5.283952
5.265474
5.239844
5.305409
5.226731
##ZVALUE=330
0.460744
0.334978
0.479817
0.517964
0.549555
0.517964
0.424981
0.563860
0.564456
0.406504
0.470877
0.428557
0.438690
0.611544
0.651479
0.585914
0.632405
0.517964
0.544786
0.756979
0.827909
0.781417
0.723600
0.757575
0.672936
0.729561
0.881553
0.859499
0.938773
0.976920
0.968575
0.887513
1.083612
1.118779
0.959635
1.106858
1.151562
1.399517
1.379848
1.430511
1.647472
1.752973
1.811981
2.106428
2.219677
2.434850
3.108978
12.082458
39.379597
135.668516
271.193981
575.941801
902.654529
1015.793681
1015.793681
1015.793681
1015.793681
1015.793681
1015.793681
1015.793681
718.614459
343.308449
173.859000
59.357882
21.048784
9.238720
8.712411
9.304881
11.498928
17.687678
25.447607
38.806796
51.870942
69.185495
80.622435
89.884996
90.112686
83.150864
73.572993
56.742430
43.280721
28.331876
20.949841
14.031529
10.240674
7.160902
6.414652
5.359650
5.325675
5.202889
5.002618
4.772544
4.733801
4.750490
4.912615
4.757643
##ZVALUE=335
0.549555
0.441670
0.466704
0.526905
0.501871
0.456572
0.540614
0.528693
0.510812
0.519753
0.691414
0.634789
0.657439
0.666976
0.671744
0.616908
0.681877
0.628829
0.655651
0.736713
0.705719
0.724792
0.803471
0.784993
0.677705
0.693798
0.794530
0.694990
0.830889
0.837445
1.052618
0.961423
1.067519
0.880957
1.015663
1.126528
1.132488
1.154542
1.209974
1.436472
1.371503
1.505613
1.479983
1.718998
1.940727
1.900792
2.193451
2.352595
2.622604
5.532503
19.783974
83.248615
182.692409
426.650643
721.122622
1015.864015
1015.864015
1015.864015
1015.864015
1015.864015
1015.864015
1015.864015
900.384784
481.156707
253.953934
85.479617
31.898618
10.550618
8.227825
8.376837
9.131432
11.421442
15.910864
25.353432
35.098791
51.318407
63.225627
76.053739
82.946420
83.277822
79.215765
66.504478
54.652691
40.368438
21.782517
21.496415
14.231801
10.338426
7.313490
6.000996
5.409718
5.189776
4.904866
4.650950
4.941821
4.687905
##ZVALUE=340
0.411868
0.335574
0.469685
0.419617
0.520945
0.602603
0.346899
0.348687
0.295639
0.545979
0.408888
0.393987
0.499487
0.386834
0.488758
0.482798
0.414848
0.664592
0.435710
0.553727
0.506639
0.558496
0.575781
0.571609
0.571609
0.670552
0.544786
0.646710
0.607967
0.722408
0.630617
0.748634
0.851750
0.727773
0.895858
0.894666
0.920892
0.989437
0.986457
1.088977
0.954866
0.961423
1.180768
1.180768
1.559854
1.329780
1.581907
1.881719
1.945496
2.044439
2.239943
3.090501
13.121963
42.005777
140.691400
290.856361
637.863874
967.322588
1015.793681
1015.793681
1015.793681
1015.793681
1015.793681
1015.793681
983.058810
652.840734
308.593512
146.754980
39.282441
13.756752
8.787513
8.229613
8.134842
8.910894
10.856986
14.916658
23.046732
31.848550
47.378540
59.019923
70.779920
76.852441
77.441931
73.399544
64.570904
54.366589
40.342808
30.865669
20.017624
14.399886
9.315610
6.992817
5.812645
5.264878
4.886985
4.603863
##ZVALUE=345
0.388622
0.370741
0.456572
0.281930
0.434518
0.378489
0.455976
0.399947
0.470877
0.480413
0.311732
0.413656
0.571609
0.471473
0.495911
0.346899
0.381470
0.568628
0.439882
0.516772
0.561476
0.533462
0.623465
0.677705
0.730753
0.667572
0.556707
0.701547
0.737906
0.717640
0.688434
0.819564
0.863671
0.818968
0.709891
0.747442
0.740886
0.909567
0.955462
1.089573
1.089573
0.990629
1.060963
1.066923
1.097918
1.232624
1.231432
1.507998
1.508594
1.734495
1.777411
1.976490
2.220869
2.686977
4.714727
27.052760
77.623725
219.351053
397.020578
770.182610
1015.793681
1015.793681
1015.793681
1015.793681
1015.793681
1015.793681
1015.793681
748.546720
436.944962
184.040666
78.801513
21.502972
10.285974
8.101463
7.772446
7.499456
7.762909
9.899735
13.453960
21.051764
29.710531
43.152571
53.123832
64.327717
69.827437
71.222782
69.433451
61.528683
52.971840
39.547682
29.699802
19.847751
14.433861
9.399652
7.252693
5.486608
##ZVALUE=350
0.315905
0.430942
0.403523
0.552535
0.405908
0.437498
0.224710
0.492930
0.449419
0.365973
0.580549
0.502467
0.317693
0.578761
0.427961
0.528693
0.508428
0.360608
0.323653
0.516772
0.482798
0.589490
0.606775
0.632405
0.661612
0.629425
0.467896
0.661612
0.563860
0.685453
0.582933
0.638962
0.708699
0.774860
0.815988
0.735521
0.834465
0.759959
0.801682
0.805855
0.814795
1.054406
0.781417
1.033545
1.178980
1.176000
1.216531
1.361966
1.284480
1.421571
1.354814
1.466870
1.610518
1.924634
1.820922
2.176762
3.323555
10.533929
49.903989
120.508671
302.952528
529.502630
951.856971
1015.793681
1015.793681
1015.793681
1015.793681
1015.793681
1015.793681
938.642621
485.581756
270.152688
102.479458
37.278533
10.598898
7.880926
7.193685
6.526709
6.517768
6.944537
8.888841
12.151599
18.587708
25.852919
36.729574
45.857430
57.643652
62.617660
66.316724
64.128637
56.845546
48.818588
37.684441
29.034615
19.540787
14.235973
##ZVALUE=355
0.474453
0.371933
0.459552
0.290871
0.495911
0.377893
0.370741
0.409484
0.475645
0.455976
0.338554
0.378489
0.469685
0.386834
0.373721
0.441670
0.452995
0.496507
0.382662
0.681877
0.402927
0.582933
0.470877
0.578761
0.523925
0.523925
0.637770
0.602603
0.511408
0.614524
0.682473
0.574589
0.538826
0.717640
0.567436
0.661612
0.695586
0.643730
0.745654
0.678897
0.790954
0.825524
0.946522
0.852942
0.912547
1.023412
1.160502
1.025796
1.330972
1.017451
1.349449
1.396537
1.399517
1.340508
1.810789
1.745820
1.885891
2.196431
2.481937
6.480813
23.040771
94.365478
197.926760
435.484648
723.112822
1015.793681
1015.793681
1015.793681
1015.793681
1015.793681
1015.793681
1015.793681
704.357028
320.732594
155.617595
44.574738
15.622973
7.466674
6.861687
6.333590
6.133914
5.893707
6.667972
8.152723
10.824800
16.522408
22.351742
32.220483
40.263534
49.980879
55.599809
59.515834
58.182478
53.149462
46.478510
36.532879
##ZVALUE=360
0.341535
0.395775
0.425577
0.324845
0.382662
0.460744
0.347495
0.316501
0.413656
0.431538
0.410676
0.450611
0.545979
0.467896
0.308752
0.372529
0.404716
0.453591
0.381470
0.435710
0.402927
0.522733
0.711679
0.545979
0.550747
0.591874
0.554919
0.668764
0.664592
0.556707
0.555515
0.820756
0.759959
0.718832
0.772476
0.734925
0.961423
0.814795
0.785589
0.804663
0.883937
0.930429
0.740886
0.855923
0.990629
1.088977
1.069903
1.045465
1.004934
0.893474
1.161695
1.154542
1.362562
1.427531
1.486540
1.594424
1.708865
1.847744
2.032518
2.259612
2.517700
3.493428
10.654926
47.620535
120.897889
312.448740
540.395975
948.375463
1015.793681
1015.793681
1015.793681
1015.793681
1015.793681
1015.793681
851.180553
456.718802
239.985585
79.042912
28.334856
8.951426
7.181764
6.653666
6.329417
6.006956
5.704761
6.099939
6.526709
9.031892
12.096763
18.630624
25.102496
35.321712
42.920709
50.512552
53.464770
53.667426
##ZVALUE=365
0.489950
0.375509
0.420809
0.304580
0.326633
0.380874
0.539422
0.358820
0.293851
0.499487
0.399947
0.368953
0.469685
0.430942
0.387430
0.372529
0.621676
0.544786
0.596642
0.505447
0.564456
0.590682
0.577569
0.524521
0.583529
0.565648
0.493526
0.467896
0.661612
0.742674
0.501871
0.719428
0.676513
0.794530
0.708699
0.682473
0.835657
0.779629
0.807643
0.810623
0.836849
0.730753
0.933409
0.947714
1.046658
1.058578
0.978708
1.009703
1.067519
1.053810
1.029968
1.157522
1.292825
1.443624
1.372695
1.414418
1.691580
1.649857
1.507998
1.851916
2.054572
2.285838
2.476573
3.114939
5.128980
27.103424
73.472857
201.824903
389.287472
773.863792
1015.793681
1015.793681
1015.793681
1015.793681
1015.793681
1015.793681
997.141004
591.554642
330.812931
122.843981
48.179626
12.322664
7.678866
6.983876
6.469488
5.959868
5.538464
5.079508
5.174875
5.799532
7.260442
10.731816
15.023947
22.365451
28.771758
37.210584
##ZVALUE=370
0.470877
0.477433
0.375509
0.549555
0.256896
0.480413
0.488758
0.381470
0.516772
0.460744
0.458956
0.512600
0.408888
0.556707
0.565648
0.544786
0.500679
0.521541
0.497699
0.536442
0.638962
0.791550
0.349879
0.518560
0.457764
0.708699
0.594854
0.688434
0.694990
0.626445
0.530481
0.555515
0.724792
0.721812
0.796914
0.690818
0.745654
0.826716
0.631809
0.803471
0.786781
0.879765
0.901818
0.884533
1.001954
0.951886
0.911951
0.853539
1.004934
1.037717
1.093745
1.069903
1.207590
1.064539
1.164675
1.190901
1.296997
1.353621
1.450777
1.616478
1.603961
1.921654
2.037883
2.109408
2.139807
2.591610
3.442764
13.555884
44.966936
153.092742
296.219587
598.765612
932.047963
1015.800834
1015.800834
1015.800834
1015.800834
1015.800834
1015.800834
703.780651
401.724577
159.779787
71.590543
21.812916
9.049773
6.444454
5.862713
5.379915
4.826784
4.509687
4.458427
4.508495
4.981756
6.587505
9.144545
13.946891
##ZVALUE=375
0.468493
0.569820
0.327826
0.293851
0.459552
0.499487
0.527501
0.438690
0.566840
0.425577
0.379682
0.554919
0.469685
0.438690
0.487566
0.602603
0.578761
0.666976
0.474453
0.488758
0.537634
0.628829
0.522733
0.658631
0.440478
0.531673
0.610948
0.618696
0.730753
0.825524
0.739694
0.727773
0.796914
0.772476
0.737906
0.640750
0.762939
0.508428
0.660419
0.686646
0.781417
0.903606
0.910759
0.695586
0.709891
0.871420
0.680685
0.937581
0.805855
0.939965
0.871420
1.012683
1.045465
0.958443
1.054406
1.043677
1.107454
1.206994
1.273751
1.223683
1.249909
1.424551
1.482964
1.640916
1.777411
1.640916
2.026558
2.100468
2.457500
6.954670
23.314953
88.173747
197.187662
461.686850
763.682723
1015.792489
1015.792489
1015.792489
1015.792489
1015.792489
1015.792489
894.181728
578.881502
287.938714
144.617558
43.208599
13.919473
5.846620
5.166531
4.791617
4.389882
4.375577
4.142523
3.828406
3.751516
4.222989
##ZVALUE=380
0.294447
0.427961
0.374913
0.346899
0.469685
0.401735
0.414848
0.439882
0.336766
0.439882
0.377893
0.486970
0.426769
0.504851
0.364780
0.457764
0.411868
0.510812
0.370741
0.472665
0.478625
0.336766
0.316501
0.464916
0.430942
0.420809
0.549555
0.641942
0.604987
0.529885
0.428557
0.567436
0.497699
0.501871
0.545979
0.540614
0.500679
0.633597
0.453591
0.652671
0.504851
0.628829
0.748634
0.652671
0.661612
0.605583
0.636578
0.860691
0.695586
0.810623
0.804663
0.993609
0.748634
1.004934
0.845790
0.739694
0.891685
0.957847
0.933409
1.038909
0.912547
1.176000
1.055598
1.227856
1.203418
1.337528
1.430511
1.556873
1.801848
2.263784
2.617836
3.986955
12.606978
62.170625
148.810744
369.519591
629.196763
1015.720963
1015.720963
1015.720963
1015.720963
1015.720963
1015.720963
1015.720963
789.343715
397.060513
204.660892
69.848895
25.194883
7.183552
4.941821
4.363656
4.085898
3.975630
3.699660
3.453493
##ZVALUE=385
0.387430
0.502467
0.423789
0.435710
0.364780
0.510812
0.384450
0.421405
0.452995
0.316501
0.493526
0.382662
0.370741
0.421405
0.448823
0.394583
0.508428
0.328422
0.400543
0.448823
0.452995
0.400543
0.528693
0.399947
0.571609
0.525713
0.458956
0.646710
0.477433
0.514984
0.500679
0.404716
0.570416
0.537634
0.387430
0.615716
0.614524
0.560880
0.638962
0.622869
0.707507
0.710487
0.536442
0.552535
0.681877
0.500679
0.653863
0.698566
0.664592
0.531673
0.742674
0.724792
0.738502
0.713468
0.721812
0.595450
0.703931
0.777841
0.826716
0.905991
0.990629
0.972748
1.218915
0.965595
0.991821
1.098514
1.293421
1.365542
1.596808
1.662970
1.838803
2.179742
2.257824
2.756715
5.985498
33.793449
91.176629
243.566632
452.922583
873.546600
1015.794873
1015.794873
1015.794873
1015.794873
1015.794873
1015.794873
976.653695
558.748841
319.979787
129.525661
50.955415
11.157990
5.275607
4.297495
3.967881
3.763437
##ZVALUE=390
0.414848
0.426769
0.405908
0.435710
0.490546
0.420809
0.334978
0.363588
0.512600
0.549555
0.417829
0.496507
0.325441
0.428557
0.467896
0.357628
0.401735
0.530481
0.418425
0.384450
0.341535
0.309944
0.381470
0.568628
0.413656
0.554919
0.369549
0.509620
0.542998
0.382662
0.641942
0.488758
0.484586
0.521541
0.469685
0.554919
0.679493
0.581741
0.482798
0.474453
0.587702
0.649691
0.461936
0.634789
0.581741
0.503659
0.627637
0.611544
0.687838
0.469685
0.714660
0.594854
0.650883
0.655651
0.643730
0.782609
0.753999
0.676513
0.797510
0.732541
0.817776
0.855923
0.866652
0.901818
0.793934
0.992417
1.158714
1.424551
1.322627
1.758933
1.774430
1.958609
1.990795
2.148747
2.131462
2.389550
3.411770
17.607808
56.838989
184.369683
362.774730
731.077790
1009.801030
1015.793681
1015.793681
1015.793681
1015.793681
1015.793681
1015.793681
772.519708
457.381606
187.835693
85.468888
23.288727
7.429719
4.306436
##ZVALUE=395
0.084639
0.138879
0.188947
0.195503
0.036955
0.099540
0.099540
0.219941
-0.010729
0.037551
0.133514
0.067949
0.221729
-0.004768
0.201464
0.144839
0.203848
0.286698
0.135899
0.034571
0.297427
0.094771
0.242591
0.252724
0.198483
0.101924
0.316501
0.020862
0.069737
-0.011921
0.003576
0.175834
0.193715
0.267625
0.160933
0.145435
0.210404
0.435710
0.273585
0.352859
0.310540
0.227690
0.195503
0.261664
0.221729
0.219941
0.301600
0.420809
0.318885
0.338554
0.365973
0.353456
0.319481
0.484586
0.353456
0.416636
0.590682
0.497699
0.448823
0.498891
0.603795
0.415444
0.638962
0.647902
0.630617
0.721812
0.854731
0.871420
1.070499
1.346469
1.247525
1.472831
1.482964
1.479983
1.702905
1.637936
1.739860
1.902580
2.336502
9.812713
37.152767
133.418441
261.686444
526.475906
824.952722
1015.581489
1015.581489
1015.581489
1015.581489
1015.581489
1015.581489
927.640796
587.347746
259.443521
122.376680
36.619902
##ZVALUE=400
0.297427
0.333786
0.333786
0.235438
0.351667
0.213981
0.431538
0.350475
0.226498
0.424981
0.268817
0.397563
0.220537
0.195503
0.362992
0.214577
0.359416
0.467896
0.439882
0.357628
0.444651
0.405908
0.303984
0.341535
0.340939
0.290871
0.327826
0.409484
0.213981
0.404716
0.371933
0.404716
0.430942
0.523925
0.440478
0.538826
0.478625
0.501871
0.546575
0.415444
0.526905
0.448823
0.578761
0.518560
0.484586
0.635982
0.592470
0.532866
0.587702
0.618696
0.477433
0.665784
0.442863
0.738502
0.598431
0.706911
0.820756
0.778437
0.804663
0.803471
0.702739
0.822544
0.810623
0.970960
0.877976
0.906587
1.040697
1.089573
1.204610
1.519918
1.505613
1.420975
1.509786
1.571774
1.667738
1.550913
1.621842
1.653433
1.811981
1.992583
2.292991
5.333424
19.011497
73.105693
163.421631
384.909511
642.997026
1015.806794
1015.806794
1015.806794
1015.806794
1015.806794
1015.806794
1009.388566
713.573694
364.770889
##END
