##TITLE=FAAI0552
##FORMAT=SPECTACLE-ASCII V-1.2
##DATA TYPE=ULTRAVIOLET SPECTRUM
##SECOND TYPE=ULTRAVIOLET SPECTRUM
##DATE=10/24/17
##TIME=16:33:59
##SPECTROMETER/DATA SYSTEM=SPECTACLE
##XUNITS=NM EM
##YUNITS=ENERGY
##YFACTOR=1
##FIRSTX=220
##LASTX=410
##NPOINTS=96
##3DDATA=Equidistant
##ZUNITS=NM EX
##FIRSTZ=210
##LASTZ=400
##ZPOINTS=39
##XYDATA=(Y..Y)
##ZVALUE=210
3.992915
4.402995
3.652573
4.013777
3.678799
3.599524
3.161430
3.409982
3.328919
4.035830
4.025698
3.031492
3.745556
4.548430
3.990531
4.607439
4.322529
5.423427
5.332828
5.730987
6.146431
6.840825
6.418824
7.001758
7.581711
8.256435
7.881522
7.668734
8.724928
9.984970
9.081960
9.575486
9.662509
10.105968
9.623766
11.017919
10.489821
11.439919
10.174513
10.811687
11.665821
12.601614
11.722445
11.639595
11.645555
12.977719
12.928843
12.743473
12.863874
13.962984
13.439655
12.509823
14.194846
13.091564
14.036894
13.913512
14.004707
13.280511
13.659000
15.476942
15.354753
14.761686
15.610456
15.130639
16.719699
16.629696
18.453598
19.225478
23.623705
24.444461
31.133890
37.150979
43.551922
48.283935
53.379536
58.059692
59.105754
61.683655
59.023499
60.067773
55.647492
50.764680
45.642853
37.549734
31.427741
26.817918
19.383430
16.468763
15.835762
15.196800
14.254451
13.402700
13.782978
14.400482
14.992952
14.477968
##ZVALUE=215
15.490651
15.535951
13.283491
10.550618
8.016825
7.175803
6.851554
7.392764
6.714463
5.859733
6.943941
6.629825
5.530715
4.805923
4.437566
4.800558
5.052686
5.057454
4.115701
5.857944
5.304813
5.902648
6.302595
6.588697
7.082820
6.243587
7.245541
7.666945
8.727908
8.311868
9.294748
9.108782
9.264946
9.583831
9.844899
10.506511
10.224581
10.092854
11.453629
10.741949
10.645986
10.691881
11.485815
12.048483
11.587739
11.951923
12.111664
11.706948
11.957884
13.338923
13.362765
13.451576
12.872815
14.020801
13.686419
12.773871
14.680624
12.348890
12.811422
13.621449
12.643933
14.068484
12.923479
13.573766
13.460517
13.492703
14.952421
15.610456
19.588470
20.821691
25.372505
29.525757
33.593774
36.828518
39.314628
43.101907
43.518543
43.870807
42.155981
43.067932
38.061738
34.442544
31.065941
25.247931
20.643473
17.200708
15.046597
13.931990
13.113618
11.726618
11.398792
10.962486
11.646748
12.239814
11.817813
12.486577
##ZVALUE=220
43.731928
46.239495
48.913956
46.408772
41.218996
34.999847
24.862885
17.729998
14.979839
13.717413
13.828874
14.172792
13.735890
12.828708
11.225939
8.825660
7.240772
6.120801
5.849600
5.394816
5.071759
5.081892
6.291866
6.194711
6.494522
7.590652
7.765889
8.414984
8.419752
8.907914
9.079576
9.419918
9.380579
10.025501
10.093451
10.147691
10.638833
11.379719
11.624694
10.665655
10.185838
11.617541
11.107922
11.185408
10.709763
11.190772
12.175441
11.149645
12.912750
11.746883
12.481809
11.960864
11.742711
11.875629
13.231635
12.936592
12.324452
13.053417
12.822747
12.809634
13.518929
13.186932
13.794899
12.050867
14.132857
13.480783
13.215542
15.026927
16.910434
19.439459
22.231936
25.793910
29.206872
34.008622
36.849976
38.105845
37.851930
40.181875
37.830472
36.901832
32.300949
28.715730
27.277470
22.095442
19.645691
16.826987
16.151667
14.034510
12.149811
11.686683
11.581779
11.560917
9.966493
11.786819
10.832548
10.232925
##ZVALUE=225
70.647001
75.014830
97.451806
123.860836
134.883523
132.011771
117.421746
90.008974
64.784884
48.621893
30.557513
26.492476
28.180480
27.424693
29.098988
28.299689
21.735430
19.344687
16.327500
11.159778
9.153485
6.722808
6.540418
7.270575
6.625652
7.337928
6.808639
7.893443
7.836819
8.943677
9.707808
8.949637
9.558797
9.884834
9.421706
10.433793
10.528564
10.078549
11.635423
10.332465
11.016726
12.177825
11.315942
12.389421
14.155507
13.226867
12.927651
12.941957
13.703704
12.948513
13.221502
14.042854
13.477802
14.759898
13.564825
14.976859
13.083816
13.966560
14.278889
13.678670
14.123917
13.824701
13.279915
15.532970
14.859438
14.630556
14.938712
16.334653
18.113852
20.717978
22.443533
25.000572
28.495789
29.409528
34.270883
32.864809
32.605529
34.844875
32.921433
30.082464
29.398799
24.078488
21.673441
21.343827
18.354654
15.306473
15.306473
13.842583
14.153719
11.940598
13.586879
11.285543
11.911988
11.826754
11.768937
11.307597
##ZVALUE=230
54.608583
60.942769
99.128485
163.329840
207.247734
258.562565
277.192593
273.916721
245.060921
251.382589
134.140849
96.226931
61.032772
48.255920
47.358871
50.005913
52.318573
49.698949
44.881701
36.614537
30.213594
19.721985
14.016628
11.294484
8.581877
8.327961
7.847548
9.223819
8.130670
9.312630
8.727908
8.691549
10.552406
9.898543
12.307763
10.974407
10.812879
11.851788
12.007952
10.689497
12.061000
13.042688
12.872815
14.913678
14.229417
15.012622
15.155673
15.234947
15.518665
16.274452
15.893579
17.189980
17.439723
15.585423
16.027689
17.180443
16.137958
15.077591
16.001463
15.909672
17.153621
18.029809
15.753508
17.252564
17.349720
17.272830
17.204881
19.159913
20.423532
20.924807
25.330782
27.072430
29.313564
34.097433
35.383701
35.859942
34.436584
34.621954
32.856464
30.591488
28.767586
26.668906
23.651719
22.784472
20.301938
17.784834
16.939640
14.739633
14.910698
15.811920
16.206503
14.240742
14.444590
13.815761
12.619495
13.463497
##ZVALUE=235
18.573999
22.728443
49.717426
113.499761
180.072784
292.497873
381.324887
493.075848
547.750592
544.010997
497.035980
396.822691
268.491507
189.249516
121.235847
90.886950
75.323582
78.326464
81.661940
86.196661
80.083609
68.563819
57.141781
40.493608
27.694702
18.713474
13.777614
10.105968
11.858940
8.825660
10.718703
11.261702
10.794997
10.194778
10.720491
13.637543
12.096763
13.410449
13.637543
13.361573
14.610887
14.490485
15.090704
16.612411
16.442537
17.383695
16.962886
18.980503
18.638968
20.077825
19.800663
20.750761
21.680593
18.805861
20.544529
19.777417
21.576881
20.906925
21.659732
20.260811
21.265745
20.748973
21.908879
21.272898
20.980835
21.884441
20.801425
24.474859
24.062991
25.238991
29.722452
31.874776
34.733415
39.193630
40.337443
44.305921
42.417645
38.649440
40.578842
37.078857
36.469698
29.689670
28.798580
24.891496
23.850799
22.016764
21.120906
19.864440
17.802715
20.022988
18.707514
15.892982
16.792417
18.353462
18.737912
17.341971
##ZVALUE=240
3.042817
3.147721
7.907748
24.020672
56.238770
147.719979
256.778002
447.650552
607.618690
785.140991
874.437690
892.090797
829.231739
659.818649
513.182878
336.878896
220.718980
143.273473
112.619996
102.884769
109.813809
117.516518
114.105940
104.533434
83.620548
68.588853
52.236915
35.215616
23.466945
18.678904
13.001561
12.638569
12.252927
12.820959
13.165474
12.887716
13.484955
15.232563
14.917850
16.576648
16.704798
17.953515
18.189549
19.085407
19.127727
22.172928
21.513700
21.335483
22.998452
23.188591
24.170876
25.296807
23.487806
23.478866
23.857951
25.009513
25.779605
23.490787
26.476979
24.723411
24.678707
23.043752
24.287701
24.908781
23.140907
23.556948
25.529861
27.476549
27.597547
29.439926
33.127666
36.947727
36.395788
39.260983
42.611957
42.713881
41.783452
41.167736
40.652752
39.358735
38.370490
33.582449
32.544732
27.055740
24.406910
23.481846
22.227764
21.934509
21.196604
22.497773
19.268990
19.777417
19.825697
18.423796
19.466877
18.559694
##ZVALUE=245
2.067685
2.023578
1.982450
2.512932
6.649494
20.057559
68.645477
143.669844
319.366455
483.333468
739.960670
928.319693
1015.793681
1015.793681
1015.793681
860.750675
690.253973
448.002815
304.780602
169.632435
123.107433
103.865862
115.031600
124.778748
132.620931
126.303434
116.251707
96.979737
77.544451
57.047606
40.850639
26.635528
19.371510
13.510585
13.102889
12.261868
13.124943
13.489723
15.667677
15.477538
16.883612
17.466545
17.607808
20.455718
20.519495
21.410584
22.668839
21.738410
24.307966
23.838878
25.360584
24.686456
26.036501
25.525689
26.719570
25.489926
24.043918
24.941564
24.588704
24.666786
25.134683
23.765564
23.660660
24.814606
24.055839
23.989677
24.948716
25.209785
25.356412
27.784705
32.621622
32.531619
36.357641
36.588907
39.021969
39.723516
36.503673
38.007498
37.772655
34.768581
32.637715
29.717684
28.448701
26.269555
22.908449
20.486712
20.548701
19.983649
20.397902
20.179749
19.538999
17.978549
17.216802
17.952919
18.108487
16.927719
##ZVALUE=250
1.714826
1.910925
1.672506
1.940727
2.155900
2.604723
3.495812
12.280941
60.009956
129.949450
318.113565
509.486794
745.920539
1015.793681
1015.793681
1015.793681
1015.793681
1015.793681
985.140800
665.034652
441.017747
275.931954
147.025585
109.083652
105.932951
117.680430
136.145949
139.345527
135.185719
127.778649
111.610889
80.079436
61.938763
40.566921
28.826594
20.274520
17.062426
15.213490
14.651418
15.252829
16.635656
16.883612
17.506480
18.461943
19.312501
21.320581
22.552609
21.351576
22.787452
22.422671
22.859573
22.919774
25.214553
24.566650
24.477839
25.171638
23.205876
23.170710
23.294687
23.570657
23.058653
21.933913
21.572709
22.331476
20.928979
22.523999
23.069978
22.532940
23.838878
26.388764
25.442839
27.060509
31.628609
32.606721
34.039617
33.671856
33.129454
33.287406
32.825470
30.922890
28.773546
25.255680
23.556948
22.638440
21.538734
19.253492
18.373728
18.613935
17.617941
16.521811
17.582774
16.590953
15.556812
17.292500
15.613437
16.718507
##ZVALUE=255
1.906753
1.683831
2.053976
1.850724
1.902580
1.912713
2.414584
2.441406
2.617836
6.609559
44.094920
114.424825
235.227942
490.619540
750.803947
1015.793681
1015.793681
1015.793681
1015.793681
1015.793681
1015.793681
999.909639
630.541444
394.175649
190.250874
123.396516
100.373626
101.227760
125.175714
139.249563
146.196485
143.916607
135.156512
108.096600
88.449717
58.351755
44.925809
29.610991
21.420717
18.100739
15.354753
16.063452
15.843511
16.526580
17.587543
18.821955
19.522905
19.584894
20.238757
20.628572
21.209717
21.553636
21.158457
21.142960
22.051930
20.756721
20.829439
20.388961
19.881725
21.738410
19.158721
18.977523
19.035935
18.895864
19.422770
20.003915
18.677711
18.934608
19.745827
22.209883
23.064613
24.226904
25.498867
27.311444
28.300881
29.190779
28.693676
27.715564
26.488900
25.676489
22.970438
23.001432
20.643473
17.939806
16.449690
16.576648
14.916658
14.750957
15.651584
15.403628
15.276670
14.707446
14.678836
14.770627
13.244748
14.704466
##ZVALUE=260
1.487732
1.648664
1.791716
1.569986
1.661777
1.815557
2.026558
1.913905
2.341866
2.601743
2.920628
4.399419
15.605688
75.597763
178.051591
428.119898
692.428946
1015.793681
1015.793681
1015.793681
1015.793681
1015.793681
1015.793681
1015.793681
882.812738
583.227873
315.291882
182.600617
101.399422
90.178847
101.980567
128.444433
146.108866
153.428912
150.370002
134.490728
117.929578
86.672902
66.098571
41.923523
31.426549
21.299720
18.258691
15.579462
15.228987
16.259551
16.890764
17.260909
17.376542
18.751621
18.314719
17.921925
18.566847
17.872453
17.982721
18.810630
17.155409
17.352700
17.769933
16.945601
16.156435
15.995502
15.856624
16.499758
14.790893
16.022921
16.716719
15.857816
17.161965
17.931461
18.447638
19.810796
22.209883
24.171472
24.773479
24.807453
24.039745
23.965836
22.821426
21.837950
20.324588
17.662644
17.586946
16.477704
14.714599
14.592409
14.071465
12.829900
13.942719
14.194846
12.801886
12.981892
12.323856
12.677908
12.593865
12.394786
##ZVALUE=265
1.489520
1.414418
1.597404
1.778603
1.491904
1.818538
1.920462
2.025962
2.121925
1.984835
2.255440
2.619624
2.685785
3.294945
7.350445
49.332976
130.148530
334.321856
585.301518
1008.185744
1015.793681
1015.793681
1015.793681
1015.793681
1015.793681
1015.793681
1015.793681
840.043426
438.530445
260.979533
150.266886
84.398985
86.969733
107.886791
131.231546
152.380466
159.320831
153.004527
140.688419
115.524530
92.094541
62.537789
45.748949
29.553771
22.472739
17.112494
16.213655
14.901757
15.592575
15.329719
15.427470
15.258789
15.687943
15.596747
15.952587
15.470982
14.886856
14.601946
13.992786
13.826489
13.603568
13.280511
13.206601
13.756752
12.956858
13.222694
13.242960
14.087558
14.169812
14.535785
16.826987
18.198490
18.993616
20.141602
20.386577
19.435883
19.917488
19.086599
17.728806
17.190576
17.054677
14.835000
14.008880
12.643933
12.742877
12.155771
11.863708
11.795759
11.379719
11.640787
11.215806
10.766983
10.334849
10.686517
11.008978
10.795593
##ZVALUE=270
1.377463
1.123548
1.167655
1.284480
1.294613
1.273751
1.532435
1.436472
1.482964
1.536608
1.920462
1.948476
2.008677
2.199411
2.407432
3.193617
3.624558
25.017858
87.143779
269.978642
505.139828
831.944942
1015.665531
1015.665531
1015.665531
1015.665531
1015.665531
1015.665531
1015.665531
1015.665531
812.296867
404.965878
218.215585
92.937946
69.732666
85.857511
106.298923
136.489868
150.504708
158.529878
154.821873
138.141513
118.144751
87.738633
66.836476
43.073893
32.189488
22.189617
18.338561
14.351606
13.878942
13.465881
13.174415
13.214946
12.855530
12.457967
12.231469
12.234449
12.578964
11.296868
11.767745
11.924505
11.381507
11.258721
11.472702
11.111498
11.337996
12.055635
12.516975
13.229847
13.422966
14.803410
16.117692
17.344952
18.052459
17.429590
17.353892
16.723871
16.387701
14.474988
14.048815
12.291670
11.882782
10.760427
10.701418
10.402799
9.777546
10.058880
10.009408
9.582639
9.366870
9.861588
9.325743
9.172559
9.027719
9.101629
##ZVALUE=275
1.210570
1.311898
1.427531
1.126528
1.197457
1.257658
1.247525
1.617670
1.603961
1.578927
1.565814
1.714826
1.834631
1.858473
2.278686
2.359748
2.829432
2.665520
3.244877
7.538795
52.462816
152.023435
423.095822
727.862716
1015.812755
1015.812755
1015.812755
1015.812755
1015.812755
1015.812755
1015.812755
1015.812755
988.649726
542.875528
303.347707
127.453804
71.679950
64.813495
81.488490
109.740496
130.152702
150.579810
155.902505
151.054859
135.588646
111.807585
90.589523
65.437555
48.123002
31.005740
21.861792
16.249418
14.063716
12.776852
12.740493
12.113452
11.997819
11.877418
11.476874
11.621714
11.297464
11.032820
10.960698
11.396408
10.958910
11.104941
10.724664
11.205673
11.910796
12.205839
12.895465
14.262795
14.624000
16.391873
16.092658
17.551780
16.646981
16.261935
15.272498
13.778806
13.348460
12.168884
11.476874
10.170937
10.174513
9.294748
10.160804
9.526610
9.424686
9.074807
9.029508
8.713603
8.623600
8.767843
8.328557
8.501410
##ZVALUE=280
1.302958
1.092553
1.260638
1.153946
1.205802
1.194477
1.142621
1.230836
1.487732
1.328588
1.559854
1.664758
1.510978
1.573563
1.670718
1.847744
2.000928
2.528429
2.221465
2.626777
2.998710
3.938675
26.588440
95.566511
298.382640
548.328757
987.817645
1015.793681
1015.793681
1015.793681
1015.793681
1015.793681
1015.793681
1015.793681
1015.793681
750.368834
435.719490
181.950927
88.056922
51.060915
57.932734
82.594752
104.697943
132.036805
144.990683
152.235627
148.359537
133.109689
112.905502
86.152554
66.181421
43.611526
31.228662
20.420551
14.959574
12.548566
11.428595
10.988712
10.506511
10.396838
10.778904
10.477901
10.209680
10.478497
10.711551
10.400414
10.562539
10.483861
10.776520
11.800528
11.992455
13.208985
14.210939
14.863610
15.337467
15.442967
14.998913
15.024543
13.695955
13.051629
12.002587
11.504889
10.282993
9.758472
9.333491
8.590817
8.816719
8.465648
8.525848
8.508563
8.549690
8.262992
8.155704
8.453727
8.115768
8.361936
##ZVALUE=285
0.922680
1.060963
0.985861
1.067519
1.019835
1.105666
1.238585
1.371503
1.311898
1.098514
1.124740
1.250505
1.403689
1.378655
1.613498
1.504421
1.581907
2.092719
2.229810
2.162457
2.543926
2.564788
3.237724
3.420711
12.978911
49.291849
179.728866
375.540853
821.931958
1015.708447
1015.708447
1015.708447
1015.708447
1015.708447
1015.708447
1015.708447
1015.708447
1015.709043
586.023927
326.645970
130.254626
62.382817
42.864680
53.436756
77.366829
99.884868
124.034882
138.403773
147.370696
145.918727
131.460428
113.999844
86.231828
67.439675
45.189857
30.381680
18.373728
14.179945
11.191964
10.198951
9.828806
9.728670
9.815693
9.476542
9.634495
10.259748
10.039806
10.205507
10.502934
11.069775
11.681914
12.272000
13.162494
13.776422
14.191866
14.494658
13.729930
12.423992
12.376904
11.538863
10.931492
10.509491
9.914637
9.485483
9.055734
8.604527
8.332729
8.299947
7.755756
7.870793
7.845759
7.858872
7.666945
7.575750
7.546544
7.799864
##ZVALUE=290
0.847578
1.031756
1.169443
1.145601
1.035929
1.159906
0.944734
1.311898
1.033545
1.195669
1.229644
1.262426
1.250505
1.444817
1.472831
1.628995
1.578927
1.729727
1.831651
1.890659
1.917481
2.197623
2.708435
2.681613
3.330708
3.424883
5.309582
18.855929
97.940564
235.866904
461.663604
941.152573
1015.793681
1015.793681
1015.793681
1015.793681
1015.793681
1015.793681
1015.793681
1015.793681
955.703855
466.030836
234.652758
82.313418
40.006638
38.114786
49.937963
73.299408
93.233585
119.272470
134.325624
144.631863
141.457915
128.724575
110.308528
82.226992
62.296987
41.917562
29.735565
18.266439
13.748407
10.867715
9.797812
9.500980
9.388924
8.786917
8.887649
9.585619
9.288788
10.537505
11.328459
11.726618
12.216568
12.336969
12.589693
12.652874
11.711717
10.883808
10.721684
10.581613
9.611845
9.258986
8.762479
8.451939
8.205771
8.340478
7.814765
7.935762
7.786751
7.740855
7.216930
7.456541
7.107854
7.157922
7.390976
6.700754
##ZVALUE=295
0.847578
1.014471
0.865459
1.120567
0.969768
1.065731
0.974536
1.214743
1.227856
1.076460
1.098514
1.143813
0.961423
1.284480
1.344681
1.335740
1.496673
1.466870
1.539588
1.742840
1.845956
1.713634
1.983643
2.227426
2.489686
2.552867
3.035665
3.333688
3.857613
7.508993
32.796860
152.785778
336.928964
765.388012
1015.795469
1015.795469
1015.795469
1015.795469
1015.795469
1015.795469
1015.795469
1015.795469
1015.796065
631.234646
331.315994
116.032958
51.053762
26.910901
32.267570
48.684478
64.808726
90.988874
109.781623
127.857924
135.165453
134.509802
122.735500
103.091598
83.583593
58.047771
42.543411
26.700497
18.802881
12.825727
10.384917
8.479953
8.826852
8.615851
8.799434
9.300709
10.049939
10.542870
10.970831
11.428595
10.805726
11.176467
10.607839
9.665489
9.772778
8.629560
8.880496
8.482933
8.187890
7.591844
8.293986
7.089972
7.293820
7.086992
7.071495
6.892681
7.079840
6.851554
7.041693
6.914735
6.671548
6.619692
##ZVALUE=300
0.917912
0.936985
0.893474
0.879765
0.894666
0.906587
0.756979
0.851750
0.939965
1.042485
0.926852
1.141429
1.067519
1.014471
1.090765
0.935793
1.124740
1.184940
1.323819
1.328588
1.532435
1.489520
1.624823
1.437664
1.691580
2.059937
2.407432
2.495646
2.798438
3.106594
3.167987
4.282594
12.413859
83.415508
216.900706
547.325611
924.347639
1015.793681
1015.793681
1015.793681
1015.793681
1015.793681
1015.793681
1015.793681
1015.793681
821.324587
481.456518
208.510756
92.858672
30.769706
21.465421
29.865503
40.272474
60.664415
79.634786
103.830695
120.102763
129.856467
128.824711
117.027760
101.798773
78.273416
61.078668
41.709542
28.421879
17.456412
12.872815
9.763837
8.455515
8.709431
9.111762
9.929538
9.978414
10.047555
10.207891
9.888411
9.912848
8.986592
8.429885
8.585453
7.531643
7.815957
7.460713
7.264614
7.000566
7.243752
6.675720
6.802678
6.696582
6.609559
6.543994
6.310940
6.581545
6.415844
6.322861
6.279945
##ZVALUE=305
0.742674
0.614524
0.721812
0.714660
0.878572
0.692606
0.811815
0.917912
0.959635
1.110435
0.938773
1.136661
0.956655
1.083612
1.107454
0.923872
1.151562
1.233816
1.184940
1.119971
1.261830
1.130700
1.508594
1.712441
1.591444
1.652837
1.665950
1.910925
2.165437
2.532601
2.733469
3.012419
3.260970
3.879666
6.486773
43.798685
133.118629
388.633609
706.384778
1015.793681
1015.793681
1015.793681
1015.793681
1015.793681
1015.793681
1015.793681
1015.793681
1015.793681
782.265663
336.160660
151.811838
44.465661
20.741820
19.890666
26.290417
41.236877
56.648850
78.780651
96.356869
114.599466
121.629834
120.350718
113.307834
95.064640
79.682469
55.508614
41.475892
26.123524
18.267632
12.339950
10.307431
9.510517
9.287596
9.835958
9.373426
9.102821
8.581877
8.286834
7.902980
7.846951
7.397532
7.414818
6.906986
7.038713
7.055998
6.611943
6.538630
6.548762
6.361604
6.169677
6.267428
6.226897
6.163716
6.038547
5.930662
5.884767
##ZVALUE=310
0.698566
0.735521
0.841618
0.881553
0.855923
0.832677
0.915527
0.823736
0.944734
0.753999
0.904799
0.799894
0.885725
0.928640
1.028776
1.108646
0.966787
1.248717
1.171827
1.047850
1.318455
1.318455
1.252890
1.290441
1.327991
1.494884
1.602769
1.607537
1.825690
1.859665
1.936555
2.196431
2.240539
2.635717
2.922416
3.402829
4.180670
18.551946
68.013668
236.465335
478.583574
964.564681
1015.793681
1015.793681
1015.793681
1015.793681
1015.793681
1015.793681
1015.793681
1015.793681
1015.793681
579.742789
301.298499
96.816421
33.263564
15.431643
17.212629
25.482774
34.499764
52.639842
67.883730
91.116428
104.042888
114.588737
116.283894
108.335614
95.119476
76.254606
58.928728
39.065480
28.348565
18.450618
14.635921
10.809898
9.676814
9.148717
8.566976
7.800460
7.661581
6.956458
6.863475
7.051826
6.620884
6.660819
6.361604
6.499887
6.469488
6.295443
6.394982
6.384850
6.101727
6.315708
6.189942
5.968809
5.817413
5.882978
##ZVALUE=315
0.586510
0.723600
0.946522
0.784993
0.756979
0.798702
0.660419
0.773668
0.931621
0.851750
0.913739
0.818968
0.895858
0.802875
0.841618
0.955462
0.980496
0.991821
1.048446
1.050830
1.120567
0.913739
1.154542
1.090765
1.152754
1.364946
1.405478
1.622438
1.700521
1.580715
1.841784
1.786947
1.963973
2.181530
2.527833
2.629757
2.719760
3.173947
3.748536
8.543730
36.108494
161.201954
376.710892
848.217010
1015.794873
1015.794873
1015.794873
1015.794873
1015.794873
1015.794873
1015.794873
1015.794873
1015.794873
765.819550
434.973836
162.140727
58.361888
15.996695
13.007522
15.984774
21.335483
33.766627
45.649409
65.001845
80.822706
99.376440
106.137991
109.199882
103.342533
88.286996
73.989630
55.107474
41.499734
26.116967
18.637776
12.466908
10.004640
8.248687
7.513762
6.640553
6.968975
6.605983
6.273985
6.437898
6.382465
6.341934
6.294847
6.371737
6.207824
6.525517
5.817413
6.043911
5.989671
5.868673
5.703568
5.593896
##ZVALUE=320
0.439882
0.378489
0.344515
0.317693
0.521541
0.527501
0.582933
0.621676
0.604987
0.684857
0.763535
0.660419
0.701547
0.606775
0.535846
0.576973
0.714660
0.841618
0.753999
0.718832
0.698566
0.686646
0.795722
0.976920
0.915527
1.001954
1.001954
1.229644
1.348853
1.262426
1.229644
1.292825
1.549721
1.647472
1.791716
1.850724
1.879930
2.241731
2.583861
2.758503
3.241897
4.603863
17.658472
105.270743
260.666609
653.545856
1007.483006
1015.666723
1015.666723
1015.666723
1015.666723
1015.666723
1015.666723
1015.666723
1015.666723
857.561827
496.906638
214.502811
95.045567
25.237799
12.155771
11.589527
13.550520
19.144416
27.534962
42.551756
56.444407
75.589418
89.723468
101.636648
103.299618
98.462701
87.213516
69.568753
54.448843
36.283731
26.209950
16.335845
11.829734
8.202791
6.960630
6.660819
6.632805
6.120801
6.112456
5.866885
5.902648
5.832911
6.136894
6.091595
5.777478
5.896688
5.719662
5.356669
5.372763
5.560517
##ZVALUE=325
0.565648
0.649691
0.606775
0.557899
0.534654
0.677705
0.614524
0.742674
0.697970
0.683665
0.647902
0.409484
0.695586
0.792742
0.742674
0.859499
0.792742
0.903606
1.020432
0.777841
1.036525
0.961423
0.892878
0.818968
0.950694
0.939965
1.072884
1.078844
1.009703
1.189709
1.353621
1.349449
1.283884
1.519918
1.553893
1.579523
1.647472
1.976490
2.007484
2.379417
2.636909
2.821684
3.020763
3.831983
7.870793
64.143538
178.989768
474.259853
845.456719
1015.793681
1015.793681
1015.793681
1015.793681
1015.793681
1015.793681
1015.793681
1015.793681
968.679786
601.785779
265.091658
127.113461
36.667585
14.696717
10.284781
10.693669
13.459921
17.844439
27.799606
39.346814
57.481527
72.172880
87.587833
94.731450
98.430514
92.489719
78.564882
64.509511
47.668815
34.778714
22.098422
15.540719
10.020733
8.295774
7.013679
6.257892
6.521940
5.945563
5.788803
5.864501
5.762577
5.505681
5.580783
5.648732
5.611777
5.502701
5.439520
##ZVALUE=330
0.482798
0.625849
0.764728
0.605583
0.599623
0.480413
0.676513
0.613928
0.523925
0.561476
0.744462
0.569820
0.793934
0.760555
0.667572
0.641942
0.807643
0.783801
0.710487
0.892878
0.853539
0.777841
0.835657
0.807643
0.954866
0.894666
0.964999
0.923872
0.998974
1.133680
1.333952
1.202822
1.104474
1.147985
1.545548
1.667738
1.448989
1.805425
1.789927
1.715422
1.817942
2.175570
2.243519
2.491474
3.020763
3.554821
4.812479
22.772551
82.625747
296.309590
584.941506
1015.794873
1015.794873
1015.794873
1015.794873
1015.794873
1015.794873
1015.794873
1015.794873
1015.794873
799.304843
366.015434
180.300474
59.065819
21.363497
10.059476
9.668469
10.404587
12.448430
18.179417
25.494695
38.855672
52.151680
70.794821
81.314445
90.183616
91.448426
84.659457
75.614452
57.996511
45.599937
30.372739
22.295713
14.820695
10.994673
7.811785
6.737709
5.983710
6.073713
6.091595
5.480647
5.679727
5.634427
5.494952
5.077720
5.421638
##ZVALUE=335
0.552535
0.399947
0.447631
0.671744
0.627637
0.630617
0.684857
0.593662
0.488758
0.566840
0.366569
0.450611
0.728965
0.777841
0.655651
0.623465
0.802875
0.519753
0.755787
0.779629
0.636578
0.746846
0.728965
0.806451
0.849962
0.963807
0.959635
0.836849
0.993609
0.889897
0.818968
1.095533
0.971556
1.178980
1.113415
1.299977
1.308918
1.432896
1.364946
1.539588
1.708865
1.599789
1.781583
1.938939
2.264977
2.550483
2.671480
3.076792
3.400445
10.700822
43.012500
178.225636
389.918685
869.996548
1015.793681
1015.793681
1015.793681
1015.793681
1015.793681
1015.793681
1015.793681
1015.793681
996.430516
540.605783
274.761915
89.290738
33.268929
12.015700
9.638667
9.619594
10.412931
12.994409
16.826987
26.926994
35.961866
50.901771
62.597990
76.314807
82.296729
83.404779
79.124570
68.033934
57.175756
42.532682
32.204986
21.827817
15.363693
10.575652
8.300543
6.547570
5.930662
5.658865
5.255938
5.305409
5.035996
5.045533
##ZVALUE=340
0.568628
0.401735
0.562668
0.440478
0.567436
0.507832
0.571609
0.448823
0.567436
0.613928
0.546575
0.675917
0.601411
0.627637
0.542998
0.647902
0.587702
0.679493
0.685453
0.591874
0.718832
0.895858
0.736713
0.836849
0.777841
0.933409
0.872612
0.771880
0.831485
0.770688
0.968575
0.985861
0.913739
1.097918
1.108646
1.078844
1.062751
1.227856
1.249909
1.539588
1.403689
1.513958
1.726747
1.677871
1.864433
2.220869
2.244711
2.217889
2.578497
2.886653
3.312826
5.243421
18.387437
110.151768
283.987522
705.457926
1015.793681
1015.793681
1015.793681
1015.793681
1015.793681
1015.793681
1015.793681
1015.793681
1015.793681
718.608499
396.399498
155.891776
58.802962
15.356541
10.296702
9.862781
9.725690
10.448694
12.082458
16.441941
22.924542
34.295917
45.324564
60.399771
70.820451
77.612996
78.598857
74.515939
66.917539
53.703785
42.830706
30.043721
22.865534
14.669895
10.585785
7.591844
6.261468
5.381703
5.096793
5.146861
##ZVALUE=345
0.472665
0.624657
0.555515
0.474453
0.477433
0.483990
0.433922
0.538826
0.506639
0.426769
0.370741
0.500679
0.408888
0.698566
0.530481
0.716448
0.542998
0.611544
0.747442
0.494719
0.698566
0.706911
0.646710
0.849962
0.743866
0.796914
0.851750
0.903606
0.743866
0.911951
0.784993
0.865459
0.760555
0.999570
0.896454
1.110435
1.045465
0.997782
1.129508
0.987649
1.181960
1.377463
1.266599
1.450777
1.453757
1.401901
1.627803
1.616478
1.897812
2.090931
2.493858
2.536774
2.887845
3.525615
7.302761
48.993826
142.305493
392.886996
715.668797
1015.793681
1015.793681
1015.793681
1015.793681
1015.793681
1015.793681
1015.793681
1015.793681
954.105854
545.947552
205.902457
86.293817
24.092793
11.536479
10.005832
9.295940
8.575916
8.906722
10.185838
13.729930
21.438599
30.352473
43.945909
53.614974
63.024759
69.974661
72.446465
70.100427
62.123537
53.448677
41.177869
31.194687
20.143986
14.807582
10.302663
8.008480
5.979538
##ZVALUE=350
0.491738
0.507832
0.500679
0.393987
0.534654
0.411868
0.472665
0.593662
0.314713
0.353456
0.468493
0.490546
0.457764
0.660419
0.560880
0.580549
0.640750
0.628829
0.659823
0.645518
0.497699
0.484586
0.633597
0.393987
0.694990
0.850558
0.672936
0.751615
0.784993
0.887513
0.815988
0.811815
0.765920
0.789762
0.765920
0.819564
0.747442
0.830889
0.856519
1.084805
1.034737
1.042485
1.321435
1.116991
1.205802
1.542568
1.382828
1.538992
1.380444
1.650453
1.895428
2.045631
2.192855
2.430677
2.705455
3.249645
4.253983
23.313761
82.702637
268.802643
520.831943
987.513661
1015.783548
1015.783548
1015.783548
1015.783548
1015.783548
1015.783548
1015.783548
998.159051
656.002760
292.427540
133.394003
34.132600
12.951493
9.095669
7.919669
7.481575
7.046461
7.626414
8.823872
13.173819
18.377900
27.475953
35.560727
47.777891
55.586696
63.651800
65.255761
64.100623
58.498979
48.261881
39.839745
28.978586
21.335483
14.288425
##ZVALUE=355
0.556707
0.546575
0.551939
0.552535
0.476837
0.555515
0.500679
0.490546
0.461936
0.515580
0.463724
0.547767
0.656843
0.541806
0.676513
0.668764
0.552535
0.445843
0.674725
0.670552
0.700951
0.752807
0.686646
0.605583
0.856519
0.713468
0.400543
0.815988
0.757575
0.873804
0.720620
0.914931
0.883937
0.922680
0.806451
0.798702
1.003742
0.862479
0.856519
0.922680
1.015663
0.954866
1.142621
1.216531
1.220703
1.248717
1.138449
1.231432
1.481771
1.556873
1.528859
1.827478
1.868606
2.044439
2.208948
2.271533
2.448559
2.848506
3.472567
10.863543
44.570565
187.731385
393.378735
838.569999
1015.793681
1015.793681
1015.793681
1015.793681
1015.793681
1015.793681
1015.793681
1015.793681
793.168545
360.700488
175.528526
51.016808
17.591715
8.807778
7.859468
7.035732
6.796718
6.493926
7.038713
8.564591
10.848641
16.257763
22.315979
32.379627
40.034652
49.886703
56.382418
59.878826
59.999824
53.767562
46.597719
37.477612
##ZVALUE=360
0.634789
0.492930
0.644922
0.680685
0.685453
0.593662
0.505447
0.670552
0.565648
0.647902
0.649691
0.765920
0.815988
0.897646
0.738502
0.717640
0.697970
0.875592
0.626445
0.940561
0.664592
0.689626
0.835657
0.893474
0.958443
0.702739
0.834465
0.898838
0.795722
0.924468
0.781417
0.923872
0.938773
0.969768
1.020432
1.005530
0.942945
1.026988
1.138449
1.056790
1.072884
1.280904
1.328588
1.233816
1.355410
1.375675
1.225471
1.520514
1.369715
1.721978
1.630783
1.736879
1.839995
2.124906
2.117753
2.168417
2.324581
2.825856
2.870560
3.240705
3.673434
5.299449
16.991496
87.593794
237.724781
658.152699
1015.897989
1015.897989
1015.897989
1015.897989
1015.897989
1015.897989
1015.897989
1015.897989
947.927833
468.156934
245.037675
88.492632
31.577945
10.316968
8.232594
7.498860
7.023811
6.681681
6.508827
6.531477
7.374883
9.554625
12.636781
19.224882
25.625825
35.385489
43.004751
50.648451
53.951740
54.958463
##ZVALUE=365
0.502467
0.529885
0.520945
0.533462
0.413656
0.553727
0.461936
0.550747
0.688434
0.454783
0.577569
0.646710
0.540614
0.673532
0.537634
0.618696
0.419617
0.629425
0.589490
0.669956
0.666976
0.747442
0.566840
0.657439
0.795722
0.643730
0.849962
0.715852
0.749826
0.805855
0.886917
0.882745
0.732541
0.825524
0.857711
0.922680
0.819564
0.872612
0.943542
0.914931
1.096725
1.054406
1.104474
1.280904
1.111627
0.951886
1.110435
1.190901
1.210570
1.318455
1.340508
1.752973
1.464486
1.751781
1.739860
1.807809
1.973510
2.087951
2.324581
2.255440
2.619624
3.070831
3.296733
4.210472
7.756948
48.146844
140.728354
394.846797
760.689974
1015.793681
1015.793681
1015.793681
1015.793681
1015.793681
1015.793681
1015.793681
1015.793681
641.596913
349.816680
126.983523
47.811866
12.544990
8.304715
7.284880
6.895661
6.045699
6.074905
5.678535
5.661845
6.267428
7.505417
11.272430
15.053749
22.746921
29.507875
37.899613
##ZVALUE=370
0.596642
0.594854
0.419617
0.589490
0.595450
0.473857
0.374913
0.425577
0.641942
0.546575
0.544786
0.623465
0.614524
0.588894
0.570416
0.515580
0.556707
0.528693
0.623465
0.568628
0.554919
0.613928
0.635982
0.711679
0.519753
0.672936
0.639558
0.820756
0.559688
0.654459
0.734925
0.820756
0.818968
0.862479
0.799894
0.794530
0.839829
0.861883
0.866652
0.718832
0.959635
0.763535
1.144409
1.002550
0.893474
0.891685
0.958443
1.090765
1.087785
1.216531
1.126528
1.262426
1.187921
1.305938
1.419783
1.441836
1.714826
1.757741
1.669526
1.983643
2.046824
2.261996
2.581477
2.604723
3.066659
3.550649
4.856586
24.622679
88.784695
293.909907
560.137630
1015.244722
1015.793681
1015.793681
1015.793681
1015.793681
1015.793681
1015.793681
1015.793681
811.131001
454.688668
173.542500
77.195764
23.183823
9.535551
6.699562
6.271601
5.719662
5.392432
5.266666
4.912615
5.019903
5.377531
6.965995
9.290576
13.685822
##ZVALUE=375
0.529885
0.428557
0.539422
0.346899
0.479817
0.529885
0.461936
0.418425
0.508428
0.502467
0.511408
0.398755
0.532866
0.287890
0.332594
0.787973
0.632405
0.744462
0.619888
0.501871
0.735521
0.608563
0.615716
0.634789
0.643730
0.793934
0.572801
0.606775
0.610948
0.813603
0.702739
0.594854
0.672936
0.858903
0.523925
0.616908
0.709891
0.797510
0.730753
0.835657
0.828505
0.922680
0.841618
0.857711
0.826716
0.729561
0.880957
0.956655
1.038909
1.057982
0.966787
1.006722
1.078844
1.158714
1.172423
1.117587
1.316667
1.496673
1.243949
1.524687
1.655817
1.719594
1.736879
1.971722
2.229810
2.481937
2.544522
3.128648
4.110932
13.018847
50.013661
195.912123
419.494510
922.187567
1015.800834
1015.800834
1015.800834
1015.800834
1015.800834
1015.800834
1015.800834
1015.800834
693.739653
316.105485
156.225562
46.926737
15.909672
6.698966
6.073713
5.600452
5.070567
4.957914
4.654527
4.428625
4.335642
4.602671
##ZVALUE=380
0.475645
0.601411
0.491738
0.443459
0.399947
0.511408
0.476837
0.467896
0.407696
0.426769
0.544786
0.532866
0.432730
0.510812
0.506639
0.491738
0.493526
0.511408
0.650883
0.641942
0.621676
0.483990
0.488758
0.480413
0.684857
0.573993
0.587702
0.635982
0.538826
0.482798
0.689626
0.669956
0.691414
0.783801
0.566840
0.681877
0.693798
0.645518
0.727773
0.731945
0.738502
0.726581
0.593662
0.727773
0.779629
0.622869
0.774860
0.942945
0.799894
0.979900
1.118779
1.035929
1.023412
1.171827
0.960827
1.171827
1.343489
1.214743
1.220703
1.215935
1.455545
1.374483
1.553893
1.695752
1.750588
2.010465
2.166629
2.261996
2.877712
3.282428
3.738403
6.871819
28.367639
149.801970
348.379612
775.907636
1015.845537
1015.845537
1015.845537
1015.845537
1015.845537
1015.845537
1015.845537
1015.845537
976.016521
504.680872
257.503986
84.728599
30.293465
8.546710
6.040931
5.481839
4.918575
4.873872
4.557967
4.337430
##ZVALUE=385
0.459552
0.464916
0.422597
0.466704
0.428557
0.272989
0.449419
0.470877
0.319481
0.456572
0.457764
0.422597
0.446439
0.673532
0.550747
0.378489
0.350475
0.433922
0.452995
0.349879
0.526905
0.399947
0.390410
0.330806
0.401735
0.510812
0.267625
0.415444
0.478625
0.471473
0.490546
0.645518
0.566840
0.540614
0.604987
0.613928
0.631809
0.723600
0.575781
0.699759
0.755787
0.400543
0.732541
0.846982
0.567436
0.770688
0.648499
0.856519
0.669956
0.874996
0.701547
0.737906
0.835657
0.921488
0.931621
1.084805
1.092553
0.752807
1.048446
1.124740
1.091957
1.170635
1.174808
1.384616
1.503825
1.674891
1.731515
2.005696
2.386570
2.717972
3.114939
3.358722
3.446937
4.282594
11.735559
84.241629
233.671665
597.205758
981.094837
1015.787721
1015.787721
1015.787721
1015.787721
1015.787721
1015.787721
1015.787721
1015.787721
689.545870
392.837524
160.891414
63.687563
13.239980
6.410480
5.288720
5.042553
4.437566
##ZVALUE=390
0.492930
0.479817
0.506639
0.476837
0.573993
0.526905
0.510812
0.443459
0.411868
0.434518
0.452995
0.605583
0.545979
0.699759
0.702739
0.446439
0.460744
0.550747
0.653863
0.406504
0.607967
0.484586
0.457764
0.448823
0.511408
0.597835
0.627637
0.592470
0.684857
0.626445
0.611544
0.664592
0.667572
0.405908
0.529885
0.517964
0.646710
0.686646
0.597835
0.646710
0.801682
0.796914
0.693798
0.814795
0.829697
0.818968
0.743866
0.833869
0.863671
0.875592
0.939965
0.875592
0.900626
1.014471
0.901818
1.010895
1.042485
1.119971
1.010895
1.099706
1.259446
1.152754
1.376867
1.310706
1.327991
1.437664
1.690984
1.907945
2.217889
2.424717
2.703667
2.939701
2.948642
3.188848
3.145933
3.564954
5.655885
35.943985
127.539635
431.393981
835.987926
1015.895009
1015.895009
1015.895009
1015.895009
1015.895009
1015.895009
1015.895009
1015.895009
922.687650
537.014008
218.216777
98.742843
24.407506
8.356571
5.497932
##ZVALUE=395
0.586510
0.546575
0.535846
0.513792
0.567436
0.405908
0.398755
0.492930
0.611544
0.525713
0.570416
0.456572
0.615716
0.623465
0.442863
0.588894
0.589490
0.550747
0.579953
0.441670
0.529885
0.595450
0.678897
0.544786
0.576973
0.481606
0.727773
0.623465
0.725985
0.706911
0.763535
0.613928
0.607967
0.607967
0.767708
0.722408
0.677705
0.781417
0.647902
0.756979
0.734925
0.723600
0.779629
0.745654
0.863671
0.950694
1.009703
0.908971
0.927448
0.968575
1.035929
0.947714
0.920892
1.062751
1.070499
1.041889
1.109838
1.180768
1.068711
1.237988
1.215935
1.323819
1.319647
1.450777
1.492500
1.578927
1.626611
1.827478
1.998544
2.550483
2.621412
2.806783
2.824664
2.623796
2.697706
2.859831
3.287792
3.624558
4.240870
21.358728
85.426569
310.230851
613.647699
1015.961766
1015.961766
1015.961766
1015.961766
1015.961766
1015.961766
1015.961766
1015.961766
1015.961766
740.897059
345.027447
163.673759
51.108599
##ZVALUE=400
0.286698
0.292659
0.431538
0.333786
0.446439
0.436902
0.383854
0.206828
0.578761
0.397563
0.381470
0.345707
0.330806
0.363588
0.408888
0.410676
0.519753
0.207424
0.413656
0.459552
0.491738
0.405908
0.336766
0.315905
0.566840
0.391603
0.541806
0.622869
0.555515
0.529885
0.580549
0.536442
0.675917
0.587702
0.640750
0.546575
0.418425
0.694990
0.619888
0.599623
0.680685
0.775456
0.718832
0.635982
0.709891
0.919700
0.802875
0.815988
0.868440
0.764728
0.855923
0.858903
0.881553
0.876784
0.810623
0.712872
0.858903
1.140833
0.969768
1.059771
1.008511
1.079440
1.158714
1.279712
1.304746
1.560450
1.485944
1.835823
1.953840
2.298951
2.482533
2.660751
2.635717
2.622604
2.466440
2.507567
2.828836
2.830625
2.955794
3.653765
4.309416
10.648966
49.344897
222.454667
487.163663
999.479890
1015.793681
1015.793681
1015.793681
1015.793681
1015.793681
1015.793681
1015.793681
1015.793681
984.992981
508.741736
##END
