##TITLE=FAAI0502
##FORMAT=SPECTACLE-ASCII V-1.2
##DATA TYPE=ULTRAVIOLET SPECTRUM
##SECOND TYPE=ULTRAVIOLET SPECTRUM
##DATE=10/24/17
##TIME=15:36:09
##SPECTROMETER/DATA SYSTEM=SPECTACLE
##XUNITS=NM EM
##YUNITS=ENERGY
##YFACTOR=1
##FIRSTX=220
##LASTX=410
##NPOINTS=96
##3DDATA=Equidistant
##ZUNITS=NM EX
##FIRSTZ=210
##LASTZ=400
##ZPOINTS=39
##XYDATA=(Y..Y)
##ZVALUE=210
4.399419
3.879666
3.939867
3.074408
2.627969
3.722906
3.124475
4.371405
3.654957
3.768802
3.626943
3.832579
3.580451
3.761649
4.222989
3.973842
3.805757
4.644990
4.385710
5.055666
5.052686
5.626678
5.328655
6.011724
5.480647
6.648898
6.366968
6.855726
7.071495
7.646680
7.855892
8.639693
7.048845
8.342862
8.600950
9.551644
10.226965
8.774996
9.146929
9.980798
8.931756
10.925531
9.384751
10.690689
10.160804
10.396838
10.222793
10.990500
10.979772
11.590719
11.601448
11.574626
11.704564
10.987520
11.620522
12.338758
12.352467
11.343956
10.478497
12.544990
11.122823
11.469722
11.955500
13.601780
11.593699
12.532473
13.848543
13.842583
15.797615
16.924739
21.414757
24.872422
27.605891
32.816529
34.249425
38.252473
36.339760
41.660666
41.684508
41.289926
38.116574
33.666492
26.395917
23.969412
21.081567
15.892982
13.428926
11.479855
11.020899
9.144545
10.153651
9.519458
10.494590
10.548830
9.887815
10.371804
##ZVALUE=215
14.578700
14.335513
12.865663
8.898973
7.426739
6.428957
7.075667
6.292462
6.918907
6.062984
6.801486
6.166697
5.164742
5.079508
5.193949
4.475713
3.882647
4.382730
4.968643
4.968643
5.122423
5.346537
6.193519
5.481839
5.464554
6.182790
6.379485
7.620454
7.128716
8.100867
7.781982
8.351803
8.669496
10.268688
9.612441
10.454655
10.898709
11.222959
11.489987
10.714531
10.662675
11.702776
11.182427
11.805892
10.488629
10.999441
13.031960
12.036562
11.937618
12.268424
11.145473
10.804534
11.815429
10.175705
10.380745
10.675788
12.259483
11.183619
10.746717
11.407733
10.975599
11.500716
11.626482
9.589791
11.166930
12.058616
12.223721
12.635589
13.462901
14.960766
16.074777
20.565987
23.401976
24.236441
25.332570
28.455853
27.427673
29.580593
27.848482
26.720762
24.868846
20.324588
17.850995
15.773773
14.300942
11.700988
11.080503
10.513663
8.749962
8.200407
8.851886
8.465648
8.941889
8.768439
8.305907
8.312464
##ZVALUE=220
46.211481
46.556592
50.081611
48.245788
39.625764
30.862689
23.445487
17.429590
14.182925
13.638735
12.961626
14.126897
13.698936
12.512803
11.231899
8.899570
7.317662
6.748438
4.825592
4.862547
5.759597
4.456639
5.571842
6.222725
5.903840
5.792975
6.858706
7.558465
7.735491
8.367896
8.723736
9.722710
11.485815
13.182759
13.577938
14.033914
14.168620
16.472936
15.933514
16.540885
17.326474
17.754436
18.318892
16.699433
15.842915
17.782450
16.426444
17.402768
16.238689
15.677810
16.075969
14.341474
16.022921
15.502572
15.924573
14.454722
14.817715
14.215708
14.775991
13.320446
13.837814
14.166832
13.655424
12.810826
14.424920
13.977885
13.713837
14.693737
15.920997
14.709830
17.509460
20.185709
22.565722
23.560524
24.233460
26.603937
26.227832
26.612878
28.148890
26.289821
25.407672
21.743774
20.119548
18.671751
15.375614
14.042854
12.084842
11.417866
11.442900
10.855794
9.248853
10.558963
10.555983
9.413958
10.873675
10.166764
##ZVALUE=225
75.348616
78.634620
99.756718
118.966699
125.719905
116.536617
106.816888
78.670979
59.709549
45.070648
31.531453
26.647449
26.269555
26.610494
26.607513
25.202632
23.577809
18.021464
15.966892
10.948777
7.413626
5.822778
5.819798
6.246567
6.242990
5.829930
7.215738
8.232594
9.178519
9.819865
12.636781
13.352633
16.087890
18.180609
21.361709
23.039579
24.354458
27.330518
27.484894
29.308796
29.273629
29.337406
27.938485
27.849674
28.116703
27.740598
27.162433
25.443435
26.237965
24.747849
24.681687
23.144484
23.280978
23.324490
22.691488
24.246573
21.867752
23.052692
21.623969
19.923449
21.120906
19.762516
22.322536
19.832850
20.800829
20.477772
19.291639
22.151470
20.255446
21.756887
23.068786
24.975538
24.774671
26.865602
28.164983
29.301643
29.696822
29.659867
28.420687
25.332570
26.234984
22.460818
19.976497
19.677877
16.159415
16.806722
15.374422
14.353991
15.861988
13.011694
13.324618
13.947487
13.282895
12.680888
12.984872
12.557507
##ZVALUE=230
70.958734
75.026751
114.683509
179.519653
227.895975
277.223587
288.452506
281.186700
240.952969
187.876821
134.225488
95.392466
58.494806
51.171780
45.936704
48.294663
52.354932
47.845840
41.762590
37.380457
27.685761
21.216869
13.630986
9.702444
8.263588
7.734895
8.516908
8.686781
9.830594
12.405515
14.819503
16.670823
21.382570
24.497509
29.434562
33.212900
36.753416
37.616491
39.387941
42.509437
42.745471
44.338703
42.727590
44.877529
41.024685
39.521456
39.868951
39.652586
38.488507
37.422776
34.143925
37.169456
34.995675
32.221675
32.405853
32.753944
32.414794
32.009482
30.147433
31.093955
30.118823
29.980540
30.269623
29.423833
27.047992
28.478503
28.196573
27.493834
27.791858
27.934909
27.847886
29.213428
31.067729
33.330917
33.370852
34.575462
34.420490
37.305951
34.954548
35.597682
31.033754
29.359460
25.819540
26.072860
25.035739
23.014545
22.236705
19.697547
18.911958
19.678473
19.089580
17.534494
17.711520
17.954707
16.555786
18.634796
##ZVALUE=235
22.769570
28.417706
58.857799
133.616924
218.702555
329.803824
429.530740
521.379709
567.276478
542.607903
474.056005
378.696918
249.642730
173.190832
109.681487
89.419484
75.579882
78.763962
80.801845
79.864860
74.113607
63.964725
51.438808
35.783648
26.169419
18.133521
14.259815
11.030436
11.969805
14.556646
16.481876
20.688772
24.404526
31.534433
34.353733
37.611723
42.545795
44.585466
46.307445
47.743917
49.883723
47.809482
49.048662
49.356818
47.036409
47.065616
47.609806
44.553876
46.177506
44.142604
44.729710
43.070912
41.022897
42.043924
40.679574
41.075945
40.009618
41.057467
41.205883
39.368868
39.512515
38.413405
38.750768
38.514733
37.818551
38.179755
38.192868
36.616921
38.283467
38.118958
41.490793
40.494800
41.003823
44.982433
43.453574
46.649575
45.457482
43.666959
43.038726
42.110682
37.953854
35.615563
35.139918
33.517480
31.108856
30.511618
30.231476
28.197765
26.711822
27.490854
25.726557
24.642944
23.980737
25.389791
24.002790
23.857951
##ZVALUE=240
3.242493
3.335476
13.370514
33.010840
90.181828
163.832903
318.410993
468.428731
661.166906
785.776973
867.711902
839.164853
757.094026
583.452582
442.214608
276.292562
189.255476
118.619800
101.926923
101.282001
110.746622
112.768412
109.498501
100.673437
80.248713
62.038898
46.441555
34.689903
23.841858
21.109581
18.455982
19.280910
21.780729
25.507808
29.566884
31.725764
33.982992
37.571788
39.368868
38.753748
43.783784
43.039918
42.308569
44.235587
42.894483
40.845871
42.069554
43.952465
45.256615
43.015480
42.358637
43.764710
42.334795
43.396950
42.285919
41.016936
41.494966
44.411421
45.252442
42.705536
41.842461
42.060614
43.015480
42.093992
42.391419
43.719411
43.232441
44.139624
46.694875
44.311881
47.621727
48.426986
47.749877
50.480962
50.196648
52.111745
51.401854
48.971772
47.242641
45.841932
46.338439
43.216944
40.673614
38.346648
36.802888
35.697818
34.104586
35.152435
33.056736
30.778646
29.559731
28.534532
28.903484
30.246973
29.044747
31.945705
##ZVALUE=245
2.606511
1.989603
2.364516
2.636909
8.245707
25.634766
80.364943
159.986615
333.039761
491.441488
723.102689
892.838836
991.838574
1015.544534
942.835808
772.503018
618.698597
407.820940
278.687477
161.039829
117.675662
99.507570
109.980702
122.234821
126.373768
120.967627
109.106898
96.114874
73.620677
55.477619
41.526556
29.125810
22.802949
18.698573
19.831657
21.142960
22.518635
23.933649
25.923848
25.722980
26.982427
27.249455
28.232932
28.733611
29.889941
28.951764
31.719804
30.899644
34.158826
32.489896
34.180880
35.766959
37.864447
37.775636
39.201975
39.467812
39.367676
39.168596
41.262507
41.622519
42.695999
41.443706
43.006539
41.809678
43.258667
43.756962
42.464733
43.595433
43.118596
42.617917
45.044422
46.327710
46.149492
45.828819
47.837496
48.401952
46.725869
47.245622
45.813918
45.370460
42.243600
39.406419
40.040612
38.717985
35.119653
33.743978
34.049749
32.422543
31.903982
29.743910
28.066635
29.873848
29.009581
26.625991
29.098988
27.172565
##ZVALUE=250
2.064705
1.892447
2.228618
2.062917
2.072453
2.628565
4.720688
15.686750
65.836906
136.471987
313.483477
486.398935
697.283745
927.886963
1015.793681
1015.793681
1015.793681
983.882546
820.139647
559.374690
371.716619
240.650773
131.791830
100.792646
103.777647
114.963651
132.833719
134.571791
127.925873
119.982958
104.814768
79.684854
60.144663
41.371584
31.080842
21.133423
19.824505
17.574430
18.008947
19.470453
20.834804
21.746755
22.729635
23.074746
22.919774
24.431944
25.941730
26.695728
29.044747
30.219555
29.650927
33.189654
32.883883
34.609437
36.551952
38.045645
38.526654
39.583445
39.558411
40.432811
40.351748
42.599440
39.318800
42.255521
41.237473
40.928721
41.244626
41.383505
40.491819
41.269660
42.157769
43.681860
42.934418
42.773485
42.559505
43.690801
43.118000
43.066740
39.850473
38.707852
38.147569
36.061406
35.011768
33.774972
32.371879
30.969977
31.400919
29.636621
29.804707
28.499961
28.307438
26.477575
27.687550
26.386976
24.915934
25.852919
##ZVALUE=255
1.945496
1.911521
1.838803
2.197623
2.081990
2.348423
2.317429
2.563596
3.244877
10.603666
36.967993
124.456882
244.918466
470.982790
670.614839
937.523842
1016.021967
1016.021967
1016.021967
1016.021967
1010.445952
825.479031
519.725680
323.373675
168.783665
112.149715
93.527436
105.675459
122.870803
135.786533
143.199563
142.073631
132.883787
105.718970
86.971521
62.803626
48.699975
33.468604
26.713610
22.714734
22.528768
21.756887
23.204684
24.124980
24.738908
25.668740
26.035905
28.072000
28.709769
28.446913
31.998754
33.101439
33.607483
34.221411
34.871697
36.701560
38.612485
38.984418
39.241910
40.180683
39.651990
41.446686
38.495660
42.886734
39.933920
40.852427
41.330457
41.969419
43.036938
39.710999
41.008592
41.891932
41.745901
41.830540
40.902495
41.263700
39.784908
40.012598
38.972497
37.319660
34.298897
33.199787
32.073855
32.070875
30.422807
29.467940
27.934909
27.404428
27.564764
27.607679
26.304722
25.138855
26.056767
24.840832
24.605989
24.407506
##ZVALUE=260
1.657605
1.968741
1.390576
1.762509
1.649857
1.866817
1.993775
2.066493
2.167821
2.155900
3.760457
5.121827
21.550655
96.112490
341.185927
398.340821
823.462605
914.198756
1015.793681
1015.793681
1015.793681
1015.793681
1015.793681
803.076625
626.818538
446.295738
177.963972
143.846869
86.457729
85.625648
106.631517
128.105879
155.254602
155.365467
149.107575
142.683983
119.633675
78.064799
72.727799
42.652488
41.998625
30.952692
30.001998
28.215647
28.372407
29.558539
28.996468
30.057430
32.657981
30.486584
34.069419
33.516884
32.380819
34.249425
36.605597
37.760735
35.478473
39.015412
37.990808
38.590431
39.694905
38.987994
39.234757
40.430427
38.516521
38.476586
38.470626
38.690567
39.762855
38.654804
39.686561
39.054751
38.785934
38.408637
39.274693
38.180947
37.694573
36.466718
37.314892
34.803748
32.047629
31.412840
30.081868
27.913451
29.093623
28.981566
26.652813
26.254654
25.990605
24.351478
24.856925
22.317767
22.971630
23.315549
22.401810
21.662712
##ZVALUE=265
1.332760
1.445413
1.390576
1.597404
1.560450
1.729727
1.629591
2.008677
1.425743
2.455711
2.210736
2.496839
2.327561
8.994937
10.353923
136.540532
159.871578
351.169705
568.397641
1015.793681
1015.793681
1015.793681
1015.793681
1015.793681
1015.793681
1015.793681
686.299801
609.919429
352.726579
210.683942
87.901950
81.923604
87.478757
118.610859
140.419006
156.525970
166.794658
166.078806
148.459673
128.861666
101.830959
81.740618
61.213970
47.886968
40.608644
35.555959
34.385920
33.103824
34.087896
34.104586
34.337640
34.626722
34.036636
34.720898
35.388470
36.294460
35.078526
35.697818
37.151575
37.373900
37.419796
37.883520
36.727786
35.444498
38.055778
36.397576
37.083626
36.583543
36.942959
36.792755
36.524534
36.893487
35.267472
36.259890
35.293698
35.707951
35.484433
33.932924
32.053590
31.102896
31.093955
28.533936
28.165579
27.075410
26.053786
25.364757
24.485588
24.029613
23.577809
24.014711
22.123456
22.677779
22.214651
19.767880
21.751523
20.995736
##ZVALUE=270
1.489520
1.539588
1.450777
1.865625
1.546741
1.527667
1.540780
1.762509
1.831651
1.847744
1.969934
2.302527
2.177954
2.244711
2.611876
2.754927
3.785491
23.300648
68.598986
207.955837
388.883948
636.298656
1006.326675
1015.997529
1015.997529
1015.997529
1015.997529
1015.997529
1015.997529
860.396624
589.659810
311.016440
174.768567
93.435645
79.397559
100.879669
125.419497
153.534412
169.391632
179.864764
176.863670
159.141421
137.516856
110.768676
87.908506
67.042708
53.425431
43.581724
39.693713
37.691593
36.867857
36.565661
36.290884
35.385489
36.237836
37.012696
36.876798
36.405921
36.951900
36.405921
36.732554
36.735535
36.468506
36.909580
35.815835
36.541820
35.543442
34.964681
35.238862
36.298633
35.190582
35.762787
34.883618
34.902692
33.637881
33.534765
32.958984
31.704903
30.794740
29.034615
29.325485
27.310848
27.378798
25.557876
25.345683
25.303960
23.547411
23.323894
22.654533
21.503568
21.821856
21.212697
21.285415
19.592643
20.358562
19.575953
##ZVALUE=275
1.300573
1.164675
1.187921
1.140833
1.364946
1.452565
1.323819
1.407862
1.229644
1.637936
1.707673
1.345873
1.783967
1.669526
1.830459
2.066493
2.124906
2.586842
2.694726
8.640885
33.418536
97.479820
275.752544
499.660969
887.266994
1015.859842
1015.859842
1015.859842
1015.859842
1015.859842
1015.859842
1014.138460
750.038624
406.636000
235.327482
110.749602
78.859925
80.546737
101.440549
129.996538
149.257779
171.534419
177.494884
174.991488
160.515904
132.989883
111.910701
86.995959
70.445538
52.654743
45.793653
39.942861
37.881732
36.432743
36.271811
36.786795
36.844611
36.985874
37.968755
37.125945
37.809610
37.124753
36.670566
37.077665
36.759973
35.169721
35.064816
34.766793
34.975410
34.211874
35.491586
34.576654
34.566522
34.717917
34.189820
33.536553
32.272935
31.229854
30.533671
29.609799
28.468966
27.867556
26.450753
25.543571
25.005937
24.817586
23.760796
22.699833
22.513866
21.440983
20.731688
21.359921
20.785928
19.906759
19.383430
19.790530
##ZVALUE=280
1.058578
0.912547
1.155734
1.231432
1.130700
1.048446
1.201630
1.106858
1.457930
1.322627
1.319647
1.269579
1.428723
1.595616
1.641512
1.457930
1.741648
1.720786
2.207756
2.114773
2.401471
3.386736
18.887520
62.402487
191.982388
349.195600
649.712682
940.783024
1015.793681
1015.793681
1015.793681
1015.793681
1015.793681
1015.793681
902.808905
521.841645
311.528444
146.386623
83.566904
63.984990
74.321628
102.226734
123.416781
150.413513
162.564516
171.559453
164.303780
149.206519
131.546855
105.997920
85.386634
63.558817
53.035617
41.940808
37.876964
36.337972
36.174655
35.977960
36.275983
36.617517
36.935806
36.647916
37.085414
35.847425
35.817623
36.755800
36.873817
37.014484
35.869479
35.654902
35.850406
36.134720
35.832524
34.522414
34.835935
33.194423
32.968521
32.124519
31.610727
29.982924
28.231740
27.150512
27.188659
27.108788
25.628805
24.943948
24.353862
23.075938
22.056699
22.046566
21.168590
21.107793
19.716620
19.971728
19.647479
19.640923
##ZVALUE=285
0.919700
1.121759
1.008511
0.955462
1.158714
1.160502
1.094937
0.938773
1.038909
1.141429
1.369715
1.387596
1.269579
1.168847
1.520514
1.512766
1.496673
1.776814
1.439452
1.709461
1.954436
1.886487
2.234578
2.820492
10.278821
35.961866
119.912624
239.362717
493.319631
771.818757
1015.850902
1015.850902
1015.850902
1015.850902
1015.850902
1015.850902
1015.850902
709.328651
448.311567
213.582516
111.248493
54.908991
49.127936
65.631866
86.181760
115.419626
134.399533
152.052641
159.550905
157.479644
147.472620
126.393437
107.030869
81.709623
63.930750
49.412847
41.822791
35.735965
35.765767
34.121871
35.586953
35.321712
35.434961
35.925508
36.077499
36.157966
35.943985
36.584735
35.919547
35.990477
35.421848
35.412908
35.147667
34.494996
33.789873
33.273697
32.900572
30.766726
30.852556
29.779673
29.359460
28.615594
26.647449
25.619864
25.828481
24.265647
23.812652
23.554564
22.583604
21.721721
21.364689
20.259619
21.476746
19.536614
19.602776
19.264817
##ZVALUE=290
0.939965
0.947714
0.984669
0.946522
0.877976
0.992417
0.817776
0.976920
0.923872
0.951886
1.188517
1.236796
1.171827
1.384616
1.348853
1.273751
1.301765
1.305938
1.598597
1.458526
1.548529
1.752973
1.880527
2.185702
2.377629
2.470613
3.888607
13.554692
64.954758
157.851577
308.820605
631.330609
945.233703
1015.794873
1015.794873
1015.794873
1015.794873
1015.794873
1015.794873
907.062888
608.699918
307.210684
161.717534
63.485503
37.727952
41.566491
55.565834
78.838468
99.227428
127.203465
142.347813
154.234767
153.885484
139.983892
124.619603
98.874569
80.417991
60.725808
48.638582
39.646626
36.046505
33.264756
32.535791
33.009648
33.344626
32.670498
32.803416
33.285618
33.543706
32.500625
32.877922
32.560825
32.224655
32.125711
31.659603
30.665994
30.523539
29.644966
29.057860
27.666688
27.425885
26.239753
25.259852
24.107695
24.699569
23.496747
22.731423
22.611618
21.636486
21.159649
20.759702
20.160675
19.685626
19.466877
18.926859
18.120408
##ZVALUE=295
0.943542
0.822544
1.054406
0.877976
0.790954
0.830889
0.823736
0.948906
0.996590
0.727773
1.023412
0.909567
0.978708
1.008511
1.099706
1.120567
1.069903
1.259446
1.365542
1.325607
1.462698
1.458526
1.584888
1.635551
1.772642
1.997948
2.093911
2.304912
2.767444
5.545616
23.384690
96.781850
213.916898
485.765934
774.608850
1015.795469
1015.795469
1015.795469
1015.795469
1015.795469
1015.795469
1015.795469
766.279697
405.626893
221.099854
80.895424
39.341450
28.486848
34.908652
52.539706
72.551966
97.881556
118.703842
138.322711
146.951675
145.635605
136.854649
116.159916
97.797513
75.930953
61.138868
46.114922
37.796497
33.155680
30.896664
29.328465
28.934479
28.852820
29.851794
29.061437
28.597713
28.481483
28.515458
28.705001
28.375983
28.055906
27.247667
27.423501
26.657581
25.155544
24.685860
24.428964
23.340583
23.283958
22.757649
21.977425
21.690726
20.867586
20.275712
20.294785
19.475818
19.144416
18.643737
18.124580
17.368793
17.903447
##ZVALUE=300
0.659823
0.733733
0.698566
0.858903
0.725985
0.829697
0.790954
0.911951
0.920892
0.957847
1.110435
1.037717
0.893474
0.883937
0.944734
0.989437
1.027584
1.063943
0.857711
1.204610
1.319647
1.263618
1.469851
1.291633
1.467466
1.752973
1.615882
1.836419
2.082586
2.096891
2.544522
2.821684
12.536645
47.600865
161.740780
313.422084
637.609959
965.732932
1015.794873
1015.794873
1015.794873
1015.794873
1015.794873
1015.794873
913.309455
600.971580
300.426483
160.587430
58.238506
29.229522
26.025772
33.450723
50.840974
66.313744
90.328455
111.231804
131.683946
139.136910
140.742660
132.692456
114.688873
96.100569
72.881579
59.244633
43.394566
36.679506
30.100942
27.205944
26.080608
26.522875
26.078820
26.302934
26.025772
25.792718
25.326610
25.573969
24.783611
24.194717
23.426414
23.091435
22.959709
22.477508
22.070408
21.623969
21.339655
20.877719
20.529628
19.831657
19.209981
19.549727
18.638968
18.501878
17.731786
17.333627
17.509460
17.472506
##ZVALUE=305
0.612736
0.609756
0.679493
0.772476
0.725985
0.740886
0.729561
0.759959
0.847578
0.709891
0.959635
0.844598
0.821948
0.924468
0.845790
0.897646
0.811815
0.824928
1.037717
1.124740
1.150966
1.094937
1.115799
1.242757
1.373887
1.402497
1.543760
1.617670
1.602769
1.877546
1.792908
2.251863
2.329946
2.789497
5.049706
30.955672
89.381933
258.824825
465.123653
856.033564
1015.793681
1015.793681
1015.793681
1015.793681
1015.793681
1015.793681
1015.793681
705.369711
435.929894
208.107829
103.294849
37.873983
22.723675
25.601983
32.984614
49.404502
66.141486
90.126991
106.523633
126.346946
133.736730
132.536888
124.423504
108.259916
91.626644
68.500638
54.315925
40.108562
33.120513
27.458668
25.250912
24.079680
23.693442
22.982955
23.759604
22.698641
22.914410
21.826625
21.873713
21.397471
21.537542
21.154881
21.007657
21.382570
20.263791
19.627810
19.599795
18.931627
19.336939
18.378496
18.415451
18.047690
17.631650
17.256737
17.162561
16.359687
##ZVALUE=310
0.645518
0.802875
0.841618
0.703931
0.753999
0.693798
0.838637
0.686646
0.695586
0.759959
0.648499
0.642538
0.711679
0.721812
0.626445
0.854731
0.853539
0.900626
0.894666
1.017451
0.936985
1.026988
1.066923
1.088977
1.214743
1.202822
1.339912
1.252890
1.428723
1.596808
1.603961
1.661777
1.881719
2.206564
2.176762
2.394915
2.924800
12.985468
44.572949
151.573420
306.523442
635.601878
966.588855
1015.793681
1015.793681
1015.793681
1015.793681
1015.793681
1015.793681
958.567858
636.705756
313.367844
166.613460
61.403513
28.151870
19.670725
23.220778
32.551885
43.131709
62.382817
78.020692
100.602508
113.216639
127.252936
125.706792
118.276477
105.936527
86.025596
70.791841
50.248504
39.995909
31.046867
25.671721
22.282600
21.238923
20.745993
20.606518
20.295978
20.064712
20.247698
19.931793
19.428730
19.645691
18.887520
19.342899
19.119978
19.059777
18.805861
18.431544
18.143654
17.445683
17.354488
17.661452
17.293692
16.581416
16.728640
##ZVALUE=315
0.705719
0.560880
0.636578
0.594854
0.625849
0.647902
0.685453
0.560880
0.694990
0.658631
0.695586
0.675917
0.778437
0.873804
0.823736
0.754595
0.793934
0.974536
0.741482
0.802875
0.796914
1.042485
0.949502
1.072884
1.043677
1.097918
1.107454
1.086593
1.266599
1.240969
1.277924
1.428723
1.528859
1.635551
1.749992
1.910925
2.023578
2.364516
2.589822
6.096959
23.548603
98.870993
220.686793
502.258539
817.624927
1015.793681
1015.793681
1015.793681
1015.793681
1015.793681
1015.793681
1015.793681
802.220106
426.442623
232.033730
86.508989
37.766695
18.714666
17.803907
22.466779
28.218627
40.436983
54.410696
73.797703
88.963509
107.404590
116.730928
117.233992
111.172795
96.907616
82.005858
63.110590
49.478412
35.125613
28.007627
22.116899
20.615458
18.561482
18.310547
18.364787
17.717481
18.218756
18.367767
18.167496
17.347932
17.815828
18.096566
17.866492
17.876625
17.578602
17.229915
17.210841
16.922951
16.469955
16.522408
16.274452
##ZVALUE=320
0.597835
0.560880
0.540614
0.509620
0.518560
0.699759
0.536442
0.437498
0.684857
0.453591
0.620484
0.692606
0.676513
0.652671
0.818968
0.924468
0.661612
0.709891
0.782609
0.775456
0.907779
0.769496
0.733733
0.846982
0.858903
0.948906
0.995994
1.028776
1.040697
1.056790
1.196861
1.180768
1.198649
1.476407
1.559854
1.633763
1.596808
1.853704
1.738667
2.342463
2.464652
3.468990
10.505915
58.714747
145.912766
373.280048
623.419881
1002.401710
1015.794873
1015.794873
1015.794873
1015.794873
1015.794873
1015.794873
971.891880
551.541448
312.584639
125.155449
58.453679
21.659732
14.654994
15.374422
17.805696
24.435520
32.928586
48.335791
63.326955
81.699491
95.891953
107.355714
108.516812
101.910830
91.417432
74.052811
59.254766
43.148994
33.528805
24.814606
20.307899
17.694831
17.097592
16.130805
16.837716
16.833544
16.404986
16.512871
16.900897
16.276836
16.444921
16.403794
16.036630
16.126633
15.824437
15.657544
15.325546
15.694499
##ZVALUE=325
0.535846
0.525713
0.515580
0.543594
0.642538
0.494719
0.690818
0.538826
0.408888
0.591874
0.582933
0.609756
0.456572
0.629425
0.617504
0.676513
0.737906
0.622869
0.778437
0.778437
0.864863
0.705719
0.826716
0.831485
0.810623
0.816584
0.995994
1.001954
1.059771
0.901818
0.968575
0.982881
1.230836
1.221895
1.209974
1.367927
1.406670
1.355410
1.610518
1.813769
1.790524
2.122521
2.053976
2.708435
5.595684
35.927892
97.253919
259.620547
465.157628
861.290693
1015.787721
1015.787721
1015.787721
1015.787721
1015.787721
1015.787721
1015.787721
690.301657
419.756770
182.663798
86.543560
26.197433
13.746619
11.655688
11.982918
15.928745
20.036697
30.855536
42.759776
62.087774
76.124668
91.583729
99.238753
100.924969
96.225739
82.148910
69.602728
52.464604
41.270852
29.358864
22.929907
17.870665
16.284585
15.920997
14.997721
15.563965
15.402436
15.291572
15.081763
15.322566
15.153885
15.101433
15.080571
15.068650
14.824867
14.891624
##ZVALUE=330
0.582933
0.823736
0.546575
0.764728
0.690818
0.519753
0.579953
0.489950
0.495911
0.721812
0.607967
0.759959
0.615716
0.675917
0.741482
0.829697
0.842810
0.720620
0.668764
0.727773
0.759959
0.871420
0.828505
0.917912
0.875592
0.858903
1.048446
1.018643
0.814795
1.044869
1.016855
1.302958
1.049638
1.070499
0.972748
1.304746
1.288652
1.285672
1.430511
1.610518
1.807809
1.804829
1.881719
1.853704
2.291799
2.714992
3.486872
15.327930
51.965714
172.057748
334.495902
673.608780
979.811549
1015.908718
1015.908718
1015.908718
1015.908718
1015.908718
1015.908718
841.619968
544.343591
255.376697
128.905773
44.130683
17.969608
10.401607
10.205507
11.338592
13.778806
20.698905
28.469563
41.980743
54.927468
73.429942
84.191561
92.294812
94.156861
87.974668
78.885555
63.437819
50.216913
37.063956
28.894544
22.173524
18.861890
15.830994
15.082955
14.679432
14.409423
14.790893
14.621615
14.680624
14.470816
14.081597
14.580488
14.064908
##ZVALUE=335
0.354648
0.350475
0.431538
0.489950
0.444651
0.483990
0.461936
0.599623
0.515580
0.442863
0.587702
0.593662
0.510812
0.507832
0.582933
0.478625
0.449419
0.673532
0.810623
0.693798
0.607967
0.564456
0.498891
0.635982
0.608563
0.660419
0.701547
0.780821
0.853539
0.906587
0.779629
0.949502
0.708699
0.862479
0.931621
1.006722
1.062751
1.079440
1.197457
1.107454
1.391768
1.352429
1.494884
1.543760
1.760721
1.754761
2.049804
2.293587
2.637506
6.783605
26.455522
107.829571
228.231549
506.158471
807.573795
1015.793681
1015.793681
1015.793681
1015.793681
1015.793681
1015.793681
981.313586
685.817599
361.070633
189.543962
63.576698
25.498867
11.243820
9.950995
10.005832
10.904670
13.936758
18.951893
28.586984
38.246512
54.391623
67.341924
80.603957
87.023973
88.232756
83.740950
72.115660
62.253475
48.892498
38.497448
28.742552
22.862554
18.025637
16.181469
14.611483
14.180541
13.878942
14.193654
13.585687
13.608932
13.376474
##ZVALUE=340
0.444651
0.515580
0.435710
0.417829
0.604987
0.445843
0.442863
0.534654
0.518560
0.474453
0.600815
0.505447
0.394583
0.744462
0.541806
0.501871
0.547767
0.445843
0.560880
0.532866
0.535846
0.662804
0.676513
0.664592
0.724792
0.747442
0.725985
0.540614
0.685453
0.721812
0.734925
0.726581
0.814795
0.767708
0.730753
0.838637
1.019835
0.964999
0.957847
1.018643
1.070499
1.123548
1.171827
1.213551
1.382828
1.536608
1.537800
1.716614
1.847744
2.009869
2.272725
3.518462
12.733936
67.043900
166.008472
403.772593
676.908493
1015.793681
1015.793681
1015.793681
1015.793681
1015.793681
1015.793681
1015.793681
823.794007
433.304906
242.713690
98.429918
38.267970
12.670755
9.890795
10.091662
10.219812
11.271834
13.425946
19.386411
26.033521
37.622452
49.212575
64.843893
75.123906
82.390904
83.676577
78.788996
71.653724
58.919787
48.970580
35.975575
28.631687
21.443963
17.893910
15.009642
14.130473
13.274550
13.419986
13.110638
##ZVALUE=345
0.457764
0.480413
0.446439
0.463724
0.371933
0.339746
0.377893
0.390410
0.561476
0.482798
0.450611
0.457764
0.511408
0.497699
0.588894
0.552535
0.489950
0.541806
0.431538
0.607967
0.464916
0.352859
0.754595
0.608563
0.510812
0.612736
0.580549
0.412464
0.726581
0.753999
0.671744
0.581741
0.701547
0.780821
0.747442
0.745654
0.827909
0.842810
0.759959
0.915527
1.108646
0.882745
0.961423
1.049638
1.106858
1.317859
1.432896
1.492500
1.488924
1.568794
1.744628
2.009869
2.067685
2.578497
5.323887
36.602616
104.279518
278.682709
494.576693
886.289477
1015.794873
1015.794873
1015.794873
1015.794873
1015.794873
1015.794873
973.460674
582.721829
331.178904
131.555796
57.518482
18.334985
10.756850
9.817481
9.578466
9.953976
10.503531
12.381673
16.494989
24.860501
34.223795
47.728419
58.051944
68.378448
74.497461
77.074766
74.616671
66.527724
58.711767
46.107769
36.921501
26.657581
21.412969
16.802549
14.503598
13.036728
##ZVALUE=350
0.357628
0.412464
0.406504
0.402927
0.438690
0.456572
0.428557
0.552535
0.398755
0.409484
0.413656
0.643730
0.399947
0.587702
0.617504
0.462532
0.580549
0.482798
0.474453
0.512600
0.402927
0.491738
0.651479
0.526905
0.556707
0.595450
0.684857
0.468493
0.522733
0.695586
0.579953
0.764728
0.748634
0.702739
0.603795
0.745654
0.881553
0.726581
0.740886
0.922680
0.943542
0.962615
1.067519
0.974536
0.951886
1.116991
0.947714
1.211762
1.317859
1.429915
1.558661
1.664758
1.476407
1.802444
2.160668
2.191663
3.229976
17.516613
57.973862
186.125636
353.005528
701.412559
990.409851
1015.793681
1015.793681
1015.793681
1015.793681
1015.793681
1015.793681
669.602752
413.022637
188.560486
87.072849
24.679899
11.505485
9.271502
8.825660
8.866787
8.925796
9.850860
11.703968
16.541481
21.794438
30.866861
39.434433
52.074790
60.078502
68.344474
70.731640
68.932772
63.316822
52.842498
44.602752
34.272671
27.515888
20.531416
##ZVALUE=355
0.507832
0.410676
0.377893
0.430942
0.540614
0.491738
0.353456
0.430942
0.368953
0.491738
0.398755
0.458956
0.391603
0.475645
0.434518
0.400543
0.583529
0.558496
0.563860
0.619888
0.504851
0.576973
0.789762
0.501871
0.662804
0.370741
0.577569
0.681877
0.619888
0.626445
0.638962
0.634789
0.614524
0.624657
0.701547
0.720620
0.716448
0.742674
0.942945
0.794530
0.863671
0.907779
0.905991
0.930429
1.072884
1.099706
0.910759
1.090765
1.156926
1.178980
1.191497
1.198649
1.384616
1.459718
1.623631
1.775622
2.015829
2.110600
2.435446
8.155704
31.757951
125.620961
258.470774
531.418920
822.361708
1015.790701
1015.790701
1015.790701
1015.790701
1015.790701
1015.790701
810.284615
521.816611
234.023929
113.673806
34.243464
13.663769
8.641481
8.564591
8.213520
8.309484
8.441806
8.958578
11.300445
14.087558
19.582510
26.207566
36.013722
44.304729
54.647923
60.469508
64.066648
63.521862
57.953596
51.358938
41.986704
##ZVALUE=360
0.462532
0.393987
0.462532
0.300407
0.351667
0.459552
0.551939
0.362992
0.549555
0.439882
0.661612
0.457764
0.515580
0.594854
0.614524
0.342727
0.462532
0.598431
0.533462
0.480413
0.565648
0.460744
0.558496
0.549555
0.326633
0.635982
0.544786
0.544786
0.523925
0.698566
0.611544
0.646710
0.671744
0.695586
0.725985
0.745654
0.725985
0.835657
0.710487
0.786781
0.930429
0.888705
0.841618
0.998974
0.867844
1.207590
0.900626
1.139641
1.195669
0.969768
1.105666
1.249909
1.295805
1.438856
1.464486
1.566410
1.628995
1.866817
1.923442
2.082586
2.533793
3.930926
13.492703
64.146519
156.936049
388.804674
638.067722
993.778706
1015.791893
1015.791893
1015.791893
1015.791893
1015.791893
954.659581
644.763708
316.718817
166.542530
61.125755
23.430586
8.942485
8.222461
8.026958
8.166432
7.786751
7.928610
8.695722
9.513497
11.962652
15.447736
22.051930
28.585792
39.112568
46.802759
54.515600
57.883859
58.180690
##ZVALUE=365
0.513792
0.472665
0.619888
0.328422
0.533462
0.442863
0.487566
0.530481
0.396967
0.375509
0.416636
0.430942
0.234842
0.440478
0.395775
0.372529
0.639558
0.311732
0.451803
0.563860
0.683665
0.478625
0.590682
0.520945
0.547767
0.539422
0.565648
0.628829
0.537634
0.474453
0.705719
0.953674
0.693798
0.531673
0.654459
0.763535
0.770688
0.734925
0.709891
0.845790
0.822544
0.860691
0.666976
0.909567
0.858903
0.858903
1.049638
1.020432
0.849962
0.914931
1.034737
1.110435
1.232624
1.109838
1.238585
1.322627
1.394749
1.588464
1.594424
1.846552
2.056956
2.307892
2.468824
2.760887
5.847812
35.479665
98.510981
260.347724
476.470590
876.934528
1015.794873
1015.794873
1015.794873
1015.794873
1015.794873
1015.794873
779.061913
434.129834
238.137841
86.965561
34.120679
10.534525
8.099675
7.686615
7.795691
7.246733
7.132888
7.263422
7.358789
8.245707
9.882450
13.694763
18.237829
25.799870
32.457709
41.399002
##ZVALUE=370
0.352859
0.290871
0.419617
0.262856
0.448823
0.418425
0.459552
0.425577
0.393987
0.458956
0.400543
0.558496
0.441670
0.506639
0.574589
0.640750
0.529885
0.610948
0.400543
0.467896
0.636578
0.562668
0.534654
0.445843
0.603795
0.507832
0.454783
0.629425
0.616908
0.654459
0.478625
0.594854
0.683665
0.578761
0.563860
0.641942
0.603795
0.842810
0.675917
0.712872
0.794530
0.766516
0.755787
0.795722
0.968575
0.781417
0.790954
0.829697
0.813603
0.904799
1.021624
0.976920
0.910759
1.088977
1.091957
0.981688
1.292825
1.319647
1.314878
1.548529
1.476407
1.604557
1.770854
1.967549
2.127886
2.314448
3.318787
16.940832
59.036016
198.171735
368.975997
697.391629
988.470912
1015.794873
1015.794873
1015.794873
1015.794873
1015.794873
917.028785
520.785451
296.701789
118.318796
53.888559
17.627478
8.863807
6.918907
6.954670
6.805658
6.788969
6.344914
6.487966
6.638765
7.618666
9.317994
11.896491
16.743541
##ZVALUE=375
0.416636
0.371933
0.466704
0.410676
0.479817
0.437498
0.531673
0.387430
0.282526
0.320673
0.524521
0.370741
0.295639
0.433922
0.513792
0.395775
0.434518
0.362992
0.363588
0.467896
0.511408
0.500679
0.411868
0.633597
0.524521
0.405908
0.594854
0.545979
0.550747
0.468493
0.472665
0.447631
0.608563
0.454783
0.513792
0.633597
0.620484
0.603795
0.612736
0.786781
0.555515
0.844598
0.655651
0.674725
0.753999
0.667572
0.699759
0.811815
0.807643
0.784993
0.772476
0.826716
0.777841
0.934601
0.926852
0.894666
1.082420
1.080632
0.912547
1.127720
0.999570
1.250505
1.297593
1.530647
1.452565
1.661777
1.846552
2.008677
2.449751
8.877516
33.614635
121.094584
258.492827
563.686490
864.982009
1015.780568
1015.780568
1015.780568
1015.780568
1015.780568
1015.780568
661.631823
418.847799
207.865834
104.012489
32.537580
12.235641
6.745458
6.411672
6.066561
6.206632
5.934834
5.898476
6.104708
6.215572
6.798506
##ZVALUE=380
0.436902
0.377893
0.477433
0.383854
0.456572
0.288486
0.261664
0.285506
0.367761
0.288486
0.210404
0.288486
0.421405
0.269413
0.352859
0.430942
0.431538
0.469685
0.307560
0.370741
0.356436
0.280738
0.520945
0.531673
0.357628
0.494719
0.618696
0.544786
0.512600
0.578761
0.547767
0.618696
0.476837
0.499487
0.563860
0.688434
0.491738
0.557899
0.473857
0.582933
0.741482
0.644922
0.619888
0.625849
0.657439
0.686646
0.603795
0.608563
0.562668
0.649691
0.639558
0.759959
0.599623
0.858903
0.823736
0.779629
0.975728
0.863671
0.862479
1.100898
1.012683
0.936985
1.167655
1.227856
1.141429
1.509786
1.569986
1.621842
2.133846
2.464652
2.729893
5.025864
78.411698
84.971786
227.169991
425.683856
816.031694
1015.800834
1015.800834
1015.800834
1015.800834
1015.800834
1015.800834
900.046825
527.881980
315.583944
142.380595
65.630674
17.916560
7.791519
5.965829
5.925894
5.669594
5.923510
5.597472
5.567670
##ZVALUE=385
0.215769
0.394583
0.264645
0.375509
0.267625
0.311732
0.483990
0.447631
0.305772
0.327826
0.399947
0.306964
0.499487
0.375509
0.369549
0.282526
0.393987
0.321865
0.335574
0.428557
0.529885
0.474453
0.497699
0.413656
0.312924
0.572801
0.468493
0.281930
0.510812
0.593662
0.460744
0.616908
0.456572
0.426769
0.516772
0.571609
0.570416
0.426769
0.444651
0.500679
0.457764
0.585914
0.657439
0.479817
0.445843
0.577569
0.573993
0.676513
0.624657
0.725985
0.659823
0.767708
0.605583
0.687838
0.762939
0.917912
0.924468
1.057982
0.850558
0.730753
0.778437
0.903606
0.974536
0.900626
0.984669
1.204610
1.281500
1.580715
1.567602
1.801848
2.010465
2.187490
2.388954
2.965927
8.562803
52.990913
141.974688
355.947614
623.074770
1012.097597
1015.800834
1015.800834
1015.800834
1015.800834
1015.800834
1011.039615
751.260519
409.102440
231.555700
94.319582
37.682652
10.090470
6.071925
5.508661
5.107522
5.156994
##ZVALUE=390
0.322461
0.332594
0.309944
0.272989
0.433922
0.430942
0.354648
0.560880
0.404716
0.334978
0.351667
0.319481
0.341535
0.214577
0.363588
0.305772
0.432730
0.329614
0.297427
0.394583
0.421405
0.258684
0.386834
0.468493
0.535846
0.550747
0.494719
0.459552
0.420809
0.420809
0.384450
0.355840
0.498891
0.384450
0.501871
0.471473
0.437498
0.568628
0.591874
0.537634
0.550747
0.437498
0.344515
0.351667
0.616908
0.573993
0.584722
0.634789
0.553727
0.705719
0.784993
0.536442
0.655651
0.541806
0.624657
0.710487
0.696778
0.870824
0.866652
0.858903
0.859499
0.755787
0.816584
0.956655
0.947714
0.914931
1.050830
1.228452
1.537800
1.592636
1.809597
1.779795
1.980662
1.855493
2.104640
2.404451
3.736615
23.226738
77.764988
245.457888
464.372635
871.048570
1015.793681
1015.793681
1015.793681
1015.793681
1015.793681
1015.793681
954.806805
578.123927
337.169766
137.758851
61.566830
16.131997
6.974936
5.373955
##ZVALUE=395
0.352859
0.343919
0.438690
0.164509
0.356436
0.345707
0.295639
0.204444
0.339746
0.226498
0.407696
0.409484
0.323653
0.280738
0.439882
0.359416
0.365973
0.273585
0.339746
0.345707
0.369549
0.412464
0.442863
0.431538
0.434518
0.408888
0.434518
0.350475
0.512600
0.399947
0.402927
0.487566
0.464916
0.402927
0.514984
0.317693
0.536442
0.544786
0.513792
0.596642
0.464916
0.562668
0.494719
0.479817
0.544786
0.663996
0.546575
0.539422
0.591874
0.728965
0.520945
0.477433
0.523925
0.565648
0.784993
0.567436
0.701547
0.694990
0.783801
0.703931
0.670552
0.736713
0.791550
0.940561
0.856519
1.030564
1.103878
1.306534
1.348853
1.269579
1.561642
1.674891
1.576543
1.639724
1.724958
1.759529
1.826882
2.190471
2.972484
10.106564
59.871674
147.495866
347.583890
585.078597
973.379016
1015.798450
1015.798450
1015.798450
1015.798450
1015.798450
1015.542746
749.893785
400.283933
215.372443
80.185533
34.053922
##ZVALUE=400
0.319481
0.250936
0.314713
0.177622
0.005960
0.282526
0.193715
0.279546
0.286698
0.336766
0.333786
0.373721
0.242591
0.358820
0.350475
0.325441
0.274777
0.216961
0.347495
0.316501
0.280738
0.390410
0.253916
0.306964
0.346899
0.282526
0.413656
0.394583
0.438690
0.460744
0.411868
0.415444
0.359416
0.613928
0.517964
0.512600
0.404716
0.476837
0.536442
0.487566
0.471473
0.478625
0.674725
0.690818
0.614524
0.550747
0.636578
0.672936
0.605583
0.603795
0.600815
0.589490
0.668764
0.692606
0.704527
0.602603
0.757575
0.639558
0.645518
0.573993
0.653863
0.809431
0.670552
0.760555
0.814795
0.853539
0.959635
1.102686
1.270771
1.546741
1.525879
1.469851
1.402497
1.477599
1.587868
1.543760
1.459718
1.543760
1.947880
1.834631
2.324581
5.263686
29.323697
83.911419
239.999890
436.778665
800.717473
1015.793681
1015.793681
1015.793681
1015.793681
1015.793681
1015.793681
866.971016
499.359965
297.517776
##END
