##TITLE=FAAI0851
##FORMAT=SPECTACLE-ASCII V-1.2
##DATA TYPE=ULTRAVIOLET SPECTRUM
##SECOND TYPE=ULTRAVIOLET SPECTRUM
##DATE=10/24/17
##TIME=16:14:15
##SPECTROMETER/DATA SYSTEM=SPECTACLE
##XUNITS=NM EM
##YUNITS=ENERGY
##YFACTOR=1
##FIRSTX=220
##LASTX=410
##NPOINTS=96
##3DDATA=Equidistant
##ZUNITS=NM EX
##FIRSTZ=210
##LASTZ=400
##ZPOINTS=39
##XYDATA=(Y..Y)
##ZVALUE=210
3.881454
3.892779
3.349781
3.250837
3.565550
3.770590
3.653765
4.107952
3.889799
2.663732
3.322959
3.769994
3.338456
3.036857
3.330708
3.007650
3.337860
3.808737
3.259778
4.416704
3.492832
4.373789
4.516840
5.016923
5.107522
5.157590
5.711913
5.853772
5.473495
6.186962
6.660819
6.513000
6.895661
6.793737
7.418990
7.031560
7.783771
7.957816
7.666945
7.756948
8.307695
7.532835
7.587671
7.368922
7.115602
8.148551
8.255839
8.669496
8.031726
7.601976
8.044839
9.026527
7.418990
8.156896
9.149909
8.619428
7.788539
7.448792
8.132458
8.309484
8.553863
9.074807
8.880496
8.611679
9.328723
8.937716
9.465814
9.745955
10.857582
12.831688
13.963580
15.579462
19.039512
19.377470
21.606684
22.617579
23.870468
24.544001
23.420453
21.777749
19.697547
17.911792
16.198754
14.185905
12.041926
9.467602
8.581877
9.133816
7.422566
8.066893
7.633567
6.603599
7.525682
7.487535
8.474588
8.105636
##ZVALUE=215
12.754798
12.133718
10.259748
9.835958
8.593798
7.071495
6.587505
7.112622
7.169843
6.176829
5.858541
5.522966
5.611777
4.616976
4.673600
4.247427
4.029870
4.081726
3.409982
3.856421
4.445910
4.344583
4.901886
4.846454
5.120635
5.648732
6.536841
8.118749
8.181930
6.621480
6.961823
6.857514
8.877516
8.712411
8.024573
7.739663
8.879900
8.895993
8.404851
9.214878
8.824468
8.120537
8.740425
8.937716
8.176565
8.719563
9.657741
8.868575
9.016991
8.722544
9.285808
8.503795
10.422468
8.313656
9.158850
10.469556
10.710955
9.198785
8.372664
8.709431
10.092854
9.057522
8.974671
9.556413
9.741783
9.095669
10.952950
10.699630
10.504723
12.569427
13.787746
16.882420
18.466711
19.112825
19.622445
21.086931
20.773411
21.475554
17.905831
17.804503
18.060803
15.594959
15.098453
12.398958
11.638999
10.553598
8.700490
8.023977
8.039474
7.583499
7.180572
7.616878
7.037520
7.258654
6.847978
6.447434
##ZVALUE=220
39.078593
39.973855
42.801499
42.263865
38.187504
31.220913
24.967790
17.109513
14.627576
15.453696
14.582872
14.056563
15.162826
12.040734
10.277629
8.329749
6.076694
5.970597
5.172491
4.678965
4.749894
5.472898
5.329847
6.047487
5.895495
5.527735
6.112456
6.783605
7.757545
8.668900
8.943677
8.081794
9.118915
10.647774
9.867549
10.362864
10.286570
9.777546
10.928512
9.501576
10.385513
10.674596
10.542870
10.603666
10.262728
10.087490
9.872913
9.358525
10.449886
9.683967
10.348558
11.239648
10.748506
10.999441
11.726618
10.095835
9.504557
11.407733
10.589957
10.372996
10.852814
10.663867
11.506677
10.602474
10.870695
11.344552
11.043549
12.777448
12.633801
13.458729
15.116930
16.498566
17.770529
20.235777
20.629764
21.222830
21.891594
21.920800
20.211935
19.249916
19.062757
16.898513
16.003847
14.966726
14.778972
10.882616
10.522604
9.155869
8.510947
9.161830
8.579493
8.072853
7.340908
8.086562
7.800460
7.735491
##ZVALUE=225
62.874556
65.713525
85.720420
107.030869
115.273595
112.659931
105.172992
78.254938
62.660575
45.854449
32.579899
25.746822
28.273463
30.212998
28.831959
26.347637
24.109483
18.648505
14.426708
9.159446
7.521510
7.143617
5.505681
5.542636
6.468892
6.513000
7.484555
7.880926
7.205606
8.589625
9.775758
10.096431
10.861754
10.006428
11.390448
11.835694
11.528730
11.229515
10.914803
11.392832
10.957718
11.473894
12.061000
11.975765
11.840463
11.794567
12.295842
12.904406
13.133883
12.993813
13.018847
12.604594
13.872981
14.058948
13.753772
14.092922
14.804602
14.324784
14.320612
14.214516
13.986826
14.555454
13.328791
13.623834
14.821887
14.894605
15.256405
15.996695
17.102957
16.037822
16.944408
18.427968
22.038817
20.555854
22.530556
23.145676
21.776557
22.761822
20.837784
21.068454
19.001961
19.182563
15.874505
15.336871
15.146732
14.284849
10.557771
11.594892
10.320544
10.379553
9.903908
9.068847
9.630919
9.905696
8.862615
8.266568
##ZVALUE=230
47.657490
52.859783
85.493922
144.253969
183.132887
231.104493
250.477791
250.201821
230.319500
190.135837
127.256513
89.927912
59.613585
51.396489
49.241781
50.858855
51.345825
48.303604
45.546889
38.667917
27.116537
19.744635
14.382601
9.754896
7.480979
6.583929
6.577969
8.234978
7.605553
8.736849
8.514524
9.977818
9.839535
9.828806
9.974837
10.838509
11.220574
10.728836
11.794567
12.516975
13.815761
13.525486
12.971759
16.022921
15.243888
15.486479
16.921759
15.836954
17.009974
18.180609
16.375780
19.062757
18.030405
21.744967
19.251704
19.328594
21.364689
20.594001
18.983483
21.831989
22.204518
19.389987
19.982457
21.198988
21.530986
20.591617
20.524859
21.194816
22.689700
23.024678
22.823811
25.802851
25.645494
28.640628
28.290749
30.373931
27.724504
26.728511
26.258826
25.382638
22.938848
22.551417
20.189881
18.388629
16.579628
16.671419
15.866756
13.722777
14.908910
14.253855
14.264584
13.060570
13.695955
12.236834
11.093616
10.658503
##ZVALUE=235
15.736818
18.626451
38.444996
92.428923
148.178935
237.190723
313.224792
415.381789
452.706814
459.998846
420.330763
346.530676
235.724449
171.562433
109.634995
87.195635
74.171424
75.774789
83.395839
81.430674
79.272985
63.438416
54.394603
35.286546
23.558736
16.643405
13.897419
9.575486
8.922815
8.503795
8.690953
9.152889
9.161830
10.072589
10.036826
11.820793
10.384917
11.591911
12.712479
13.903975
13.555884
14.712811
17.829537
18.615723
19.468665
21.517873
24.034977
24.398565
25.144815
27.147532
27.881861
28.511882
28.466582
29.213428
29.444695
30.550957
32.732487
32.132864
30.117631
32.672882
32.866597
32.173991
30.720830
32.631755
32.373667
31.669736
32.667518
32.896996
35.335422
32.252669
34.908652
35.244823
36.583543
36.442876
38.214922
36.482811
35.707951
36.205649
34.211874
33.992529
30.104518
29.520988
27.349591
26.188493
24.693608
22.958517
20.931959
20.042658
22.495985
19.166470
18.109679
19.344687
18.171668
16.754866
17.286539
16.843677
##ZVALUE=240
2.554655
2.439618
7.282495
18.456578
52.785873
103.925467
202.935934
315.046906
484.247804
596.863627
708.772540
705.058575
662.726760
531.764627
408.735871
261.518955
183.482766
119.735003
94.998479
99.626780
106.308460
115.196705
110.217929
103.511810
82.276464
62.940717
47.472715
34.411550
22.126436
14.969707
13.528466
10.056496
11.607409
10.976791
10.683537
12.026429
12.098551
13.443828
14.267564
16.568899
18.878579
19.727945
22.707582
26.052594
28.789639
28.371811
29.944777
30.979514
36.096573
39.009452
37.576556
40.796995
39.737821
43.323636
43.017864
42.381883
43.468475
42.286515
42.757988
43.964982
42.549968
43.707490
44.314861
43.991804
42.008758
42.283535
43.742657
41.602850
45.432448
41.727424
42.877793
45.963526
43.659806
45.083761
44.673681
44.011474
45.700669
43.303967
41.648746
37.827492
38.206577
38.461685
35.401583
31.301975
29.677749
28.686523
26.924610
24.645925
25.096536
23.925900
22.434592
22.377968
22.034645
21.778941
20.054579
21.645427
##ZVALUE=245
2.059937
2.132654
2.314448
2.313852
3.910661
18.459558
40.430427
109.345913
198.047757
313.266516
524.093509
689.426661
840.919018
891.878009
839.207768
744.435787
558.877587
406.594872
286.982656
169.113874
117.209554
100.773573
107.500553
123.035908
126.670599
121.941566
107.463598
87.829828
72.872639
50.264597
38.679838
23.916960
17.213821
12.354851
11.696815
12.826920
12.705922
14.370680
14.746785
18.654466
19.351840
21.114945
22.915602
27.120709
29.029846
31.774640
34.863949
37.517548
39.994717
42.971969
44.076443
46.817660
44.799447
47.032833
48.052669
49.763918
48.968792
47.363639
51.484704
48.291683
50.566792
46.523809
47.690868
46.069622
45.779943
45.124888
45.230985
44.651628
43.557882
42.423606
41.463971
44.459701
42.831898
43.736696
42.714477
43.411851
41.963458
40.565729
39.893985
36.546588
35.207868
32.209754
29.510856
30.498505
28.668642
26.871562
24.181604
24.041533
23.832917
23.431778
22.231936
20.677447
20.614862
19.237995
20.756721
19.662976
##ZVALUE=250
1.629591
2.204776
2.089739
1.825690
1.925826
2.332926
3.249645
10.085702
40.768981
85.097551
207.595825
342.018008
514.689684
749.689937
914.428830
1015.685797
1015.685797
954.732895
811.820626
566.875935
382.237434
245.661736
134.232640
103.288889
100.496411
116.138458
133.163929
134.461522
134.666562
122.580528
104.249716
79.841614
58.054924
38.941503
27.338862
17.949939
15.539527
14.794469
16.013980
17.456412
19.260645
22.454858
24.317503
27.243495
29.862523
34.310818
35.630465
40.383935
40.146708
42.575002
44.034719
46.232939
48.480630
47.712922
46.312809
47.959685
47.238469
47.523975
48.068762
47.525764
46.105981
44.466853
43.008924
42.288899
41.657686
41.166544
40.401816
38.835406
38.725734
37.419796
36.512613
38.467646
36.403537
36.787987
37.207603
38.449764
34.790635
34.853816
32.410622
30.068755
29.166937
28.764606
27.649999
25.313497
22.909641
22.592545
22.073984
21.734834
20.849705
20.433664
18.409491
18.640757
18.970966
18.042922
17.831922
17.089844
##ZVALUE=255
1.717806
1.919866
1.684427
1.698732
1.448989
1.853704
1.694560
2.124906
2.451539
7.020831
24.604797
80.314875
158.041716
339.009762
515.620708
720.394850
991.953611
1015.793681
1015.793681
1015.793681
1015.793681
831.743479
514.039993
325.893760
173.918009
113.211870
92.563629
103.327632
119.916797
138.888955
143.717527
139.737725
128.814578
102.531910
83.335638
59.678555
41.755438
29.054880
21.570921
18.494725
18.628836
20.564795
22.942424
24.834871
26.235580
30.389428
31.980872
35.554767
36.833882
36.799908
38.617849
39.345622
42.673945
42.902827
42.031407
41.844845
41.223764
41.282773
41.073561
41.010976
39.684772
38.517714
38.211942
36.438704
36.511421
35.957694
34.329891
32.970905
31.977892
31.712651
33.110976
31.734705
29.877424
32.404661
31.633973
31.160712
30.407906
29.754639
28.099418
27.247667
25.970936
23.182631
22.890568
20.978451
19.578934
19.947886
18.923879
18.589497
16.613603
15.946627
16.117692
15.180707
14.352798
14.726520
15.160441
14.232993
##ZVALUE=260
1.277924
1.575947
1.647472
1.671910
1.744628
1.546741
1.980662
2.010465
1.929998
2.006888
2.276897
3.648996
14.478564
65.479875
139.248967
314.624906
507.510900
817.195773
1015.793681
1015.793681
1015.793681
1015.793681
1015.793681
1015.793681
739.578605
505.302548
278.779864
165.943503
97.407699
87.703466
100.039840
126.066804
141.179562
152.537823
148.041844
132.452846
113.040805
83.321929
64.491630
45.657754
34.574866
24.337769
21.692514
22.512674
22.651553
25.274754
26.039481
27.407408
29.424429
28.953552
30.483603
32.285452
32.135844
32.241940
33.045411
32.915473
33.081770
32.834411
32.601953
30.853748
30.854940
29.039979
30.002594
27.941465
28.642416
27.000904
25.674701
26.059747
25.824904
24.534464
25.473833
25.397539
25.282502
24.823546
25.411844
24.933815
24.968982
22.359490
22.356510
22.305846
21.263957
20.825863
19.426942
17.473698
17.171502
15.798807
15.577674
15.318990
15.052557
14.310479
13.184547
12.549758
12.850761
12.267828
12.342930
12.155771
##ZVALUE=265
1.410842
1.440644
1.601577
1.310706
1.526475
1.577735
1.568794
2.033710
1.978874
2.104640
1.841784
2.083778
2.273917
3.204942
6.056428
35.309792
92.398524
231.202841
407.837629
752.415657
1015.805006
1015.805006
1015.805006
1015.805006
1015.805006
1015.805006
986.245871
706.118941
381.744504
223.406553
111.256838
80.260634
83.141923
111.414790
133.235455
152.462721
156.079531
149.044991
136.708617
113.175511
90.122819
65.040588
48.106909
32.658577
27.796626
22.800565
22.135973
22.088885
22.577643
23.955703
24.345517
24.897456
25.490522
25.260448
25.524497
24.805665
25.659800
24.648905
24.903417
25.078654
23.316741
23.579597
24.029613
22.226572
22.008419
21.107793
22.058487
21.860600
21.403432
21.590590
20.670891
21.697879
22.409558
21.521449
21.137595
20.606518
20.164847
20.419955
20.132661
17.100573
17.745495
16.778708
15.851855
15.505552
14.841557
13.584495
12.824535
13.153553
12.247562
12.369752
12.179613
12.074709
11.713505
10.717511
10.602474
11.139512
##ZVALUE=270
1.225471
1.212955
1.206994
1.158714
1.193881
1.439452
1.256466
1.558661
1.534820
1.286864
1.418591
1.807809
1.780987
1.993775
2.142787
2.341866
3.567934
9.757876
30.636787
107.221603
229.043961
504.188538
791.292787
1015.793681
1015.793681
1015.793681
1015.793681
1015.793681
1015.793681
850.951672
570.451617
293.285847
161.449909
80.391765
67.824721
86.841583
106.637478
132.871866
150.807500
156.151652
152.822733
136.456490
117.063522
88.487864
69.185495
45.426488
35.104752
26.623607
23.124814
20.411611
21.511912
21.444559
21.385550
20.758510
21.451712
20.483732
20.966530
20.634532
21.183491
20.369887
20.273924
19.399524
19.692779
19.658804
19.064546
18.395782
18.915534
18.723607
18.448830
18.512607
17.515421
17.979741
19.531846
18.442869
18.066764
17.416477
17.321706
16.722679
16.540885
15.055537
15.342832
13.827682
14.252663
12.195706
11.799932
11.700988
11.271834
10.690689
11.085868
10.967851
10.470748
9.725690
9.767413
9.522438
9.407997
10.026693
##ZVALUE=275
1.026988
0.882745
1.115799
1.090765
0.965595
1.016855
1.085997
1.114607
1.295805
1.149774
1.412630
1.382828
1.611710
1.416802
1.377463
1.810789
1.850724
1.846552
2.383590
5.288720
19.906759
59.103966
185.287595
357.069969
682.677031
959.628820
1015.725732
1015.725732
1015.725732
1015.725732
1015.725732
1015.662551
760.236979
405.027866
230.549574
98.855495
61.427951
61.507821
79.086423
110.527873
132.117867
149.361491
155.365467
151.604414
136.463642
108.382702
90.111494
65.565705
50.806999
34.892559
27.184486
21.813512
20.108819
18.967986
19.156933
19.272566
19.809604
20.128489
19.933581
18.990636
19.114614
19.363761
18.998981
18.179417
18.592477
17.215610
17.899871
17.618537
17.413497
17.068982
17.661452
17.544627
17.873645
17.616749
17.434955
17.908812
15.942454
15.936494
14.939904
14.688969
14.671683
13.444424
12.968779
11.609793
11.611581
11.055470
10.591745
11.073947
10.286570
9.854436
9.117723
9.193420
8.907914
8.956790
8.711815
9.134412
##ZVALUE=280
0.901818
0.875592
0.929832
0.888705
1.017451
1.016855
1.041889
1.133680
1.394749
1.264811
1.177788
1.404881
1.504421
1.369715
1.363754
1.591444
1.608729
1.721978
1.798868
1.980662
2.338886
2.929568
12.578964
45.064688
149.936676
281.610489
545.772910
802.858472
1015.793681
1015.793681
1015.793681
1015.793681
1015.793681
1015.793681
878.206491
506.395698
299.355984
132.646561
69.198608
47.297478
57.397485
82.675815
104.862452
131.905675
144.799948
152.359605
148.515701
132.496953
114.850998
88.262558
69.510937
46.589971
36.397576
26.546717
21.790862
19.034743
18.938780
18.588901
18.847585
18.226504
18.530488
18.876791
18.368959
18.552542
17.842650
18.380880
18.094778
18.078685
17.522573
17.168522
17.682910
17.887950
17.040968
16.925931
17.160773
16.365647
16.511679
15.479922
14.897585
14.284849
13.633966
12.592673
12.504458
12.118816
11.100769
10.824800
10.744929
10.274649
9.639859
9.097457
9.465814
9.116530
9.132624
8.635521
8.614659
7.996559
##ZVALUE=285
0.984669
0.726581
0.958443
0.866652
0.952482
0.904799
0.973940
1.038909
1.099706
1.143813
1.223683
1.222491
0.977516
1.181960
1.280904
1.283884
1.217723
1.315475
1.583695
1.487732
1.958609
1.925826
2.117753
2.429485
7.693768
24.671555
88.276863
184.961557
405.275822
640.787482
990.336537
1015.793681
1015.793681
1015.793681
1015.793681
1015.793681
987.734795
709.793568
376.759768
217.328668
90.621710
47.553778
40.331483
52.731633
78.159571
99.626780
127.346516
140.541792
150.307417
149.386525
134.773850
116.394758
90.537667
71.003437
49.725771
37.394762
25.485754
21.822453
19.006729
18.372536
17.581582
17.938614
17.792583
18.112659
17.437935
17.609596
17.485619
17.818809
17.408729
17.234683
17.486811
17.084479
16.699433
16.503930
16.708970
15.867949
15.548468
14.916658
14.254451
13.426542
12.884736
12.283921
11.362433
11.355877
11.126995
10.200739
10.091662
9.714961
9.440780
9.069443
9.227991
8.745790
8.388758
8.199811
7.886887
7.465482
##ZVALUE=290
0.766516
0.762939
0.773668
0.777841
0.950694
1.069903
0.829697
1.107454
0.969768
0.847578
1.004934
0.847578
0.968575
1.108646
1.086593
1.122952
1.095533
1.371503
1.435876
1.297593
1.500845
1.630783
1.512766
1.986623
2.134442
2.123713
2.961755
12.790561
39.154887
120.972991
236.023664
509.185791
779.824853
1015.791893
1015.791893
1015.791893
1015.791893
1015.791893
1015.791893
845.950842
557.377934
279.660821
145.901442
55.668950
32.500625
37.459731
51.972866
74.817538
96.716881
121.066570
137.359500
144.613981
143.293738
132.263899
115.093589
87.090731
68.487525
47.904849
35.878420
26.310682
22.314787
18.717647
18.220544
17.242432
17.338991
16.785860
16.868711
17.004609
16.798973
16.990900
17.534494
16.566515
16.917586
15.833974
15.786886
15.240908
14.558434
13.810992
13.526678
12.642741
12.872815
11.645555
11.100769
10.662675
10.456443
10.060668
9.705424
9.238720
8.682609
8.914471
8.481741
8.317828
8.025765
8.035898
7.761717
7.526875
##ZVALUE=295
0.734925
0.758767
0.724792
0.770688
0.840425
0.725985
0.782609
0.818968
0.898838
0.973940
0.849962
0.683665
1.013875
0.800490
1.028776
1.112819
1.025796
1.008511
1.148582
1.273751
1.286864
1.313686
1.301765
1.446605
1.656413
1.738667
1.947880
1.999736
2.658963
5.796552
24.557710
94.425678
193.997622
430.055857
684.096813
1015.793681
1015.793681
1015.793681
1015.793681
1015.793681
1015.793681
997.333527
719.071031
382.474661
205.109715
75.907707
35.984516
24.985671
32.231808
49.922466
67.131519
94.394684
112.871528
133.441687
140.868425
137.933493
128.227472
108.006001
87.210536
65.515637
49.983859
34.732819
26.684999
20.848513
17.948747
16.487837
15.680790
16.394854
15.917420
14.975667
15.807748
15.127659
15.696883
15.428662
14.753938
14.358759
14.023781
13.390779
12.835860
12.279749
11.318922
11.245608
10.616779
10.421872
9.676814
9.304881
9.345412
8.545518
8.648634
8.473992
8.411407
8.050799
7.581711
7.564425
7.002950
6.734729
##ZVALUE=300
0.706911
0.717640
0.563860
0.809431
0.874996
0.777841
0.786781
0.808835
0.896454
0.741482
0.605583
0.808835
0.824928
0.945926
0.845790
1.051426
0.800490
0.857711
1.111627
1.184940
1.270771
1.366735
1.242757
1.509786
1.517534
1.736879
1.870990
1.766682
1.816750
1.939535
2.313852
3.063679
13.089776
50.567985
160.644650
305.956602
607.114434
911.736488
1015.793681
1015.793681
1015.793681
1015.793681
1015.793681
1015.793681
875.172615
567.221642
286.932588
148.482919
53.373575
26.002526
23.678541
30.958652
48.336983
63.147545
88.880658
106.936693
127.322674
134.527683
133.658648
125.654936
106.065869
87.472796
63.804984
49.920678
34.013987
25.792718
19.261837
17.125607
15.035868
15.081763
14.959574
14.838576
14.242530
14.086962
14.192462
13.219714
13.176799
12.355447
11.979938
11.447668
10.880828
10.785460
10.270476
9.883642
9.325743
9.087920
8.810759
8.610487
8.270741
8.135438
7.729530
7.650852
7.176995
7.341504
6.981492
6.663799
##ZVALUE=305
0.654459
0.496507
0.599623
0.656843
0.642538
0.643730
0.692606
0.716448
0.768900
0.803471
0.572801
0.557899
0.678897
0.772476
0.605583
0.794530
0.943542
0.912547
0.796914
0.813603
0.861883
0.848770
0.981688
1.018643
1.106858
1.180768
1.319647
1.464486
1.559854
1.706481
1.608729
1.806617
2.211928
2.430677
4.822612
33.621788
91.272593
236.174464
415.178537
764.832497
1015.708447
1015.708447
1015.708447
1015.708447
1015.708447
1015.708447
1015.708447
687.127709
425.914526
195.111632
94.607472
33.636689
20.164847
22.477508
29.746890
46.216846
62.729716
87.066889
104.304552
120.883584
127.549767
125.811696
118.774772
100.745559
84.110498
61.086416
45.924783
31.903982
23.842454
17.486811
15.648603
14.465451
14.090538
13.334751
12.541413
12.355447
11.591911
11.649728
11.311769
10.918975
10.538697
9.975433
9.837747
9.225607
8.945465
8.713603
8.155704
8.041859
8.237958
7.760525
7.511973
7.246733
7.076859
6.893873
6.839633
6.562471
##ZVALUE=310
0.554919
0.455976
0.481606
0.393987
0.540614
0.663996
0.547767
0.521541
0.464916
0.662804
0.465512
0.563860
0.490546
0.691414
0.534654
0.654459
0.675917
0.801682
0.481606
0.869632
0.753999
0.718832
0.984669
0.933409
0.737906
0.933409
1.125932
1.164675
1.225471
1.377463
1.326799
1.299977
1.528859
1.779795
1.817942
2.044439
2.592802
12.246966
41.023493
135.167837
264.509916
534.400940
808.740854
1015.653610
1015.653610
1015.653610
1015.653610
1015.653610
1015.653610
899.279714
600.101948
300.596952
157.581568
56.365728
25.376678
17.034411
20.274520
28.326511
39.606690
57.953000
73.847771
97.416639
110.634565
120.499730
121.550560
110.729933
98.935962
79.254508
62.323809
42.016506
31.435490
22.212863
17.219782
13.692975
12.080669
11.400580
11.041760
10.544658
10.254979
9.705424
9.414554
9.162426
8.837581
8.890629
8.498430
8.638501
8.212924
7.791519
7.809997
7.255673
7.454753
6.906986
6.782413
6.567836
6.491542
6.099939
##ZVALUE=315
0.494719
0.543594
0.493526
0.545979
0.597835
0.589490
0.660419
0.720620
0.673532
0.580549
0.553727
0.598431
0.646710
0.557899
0.781417
0.637770
0.848770
0.966787
0.696778
0.686646
0.757575
0.870824
0.744462
0.806451
0.839829
0.946522
0.999570
0.985861
1.150966
1.131892
1.196861
1.379848
1.236796
1.506805
1.725554
1.709461
1.836419
2.103448
2.216697
4.753470
17.920732
73.358417
162.431598
377.949476
619.361997
993.135571
1015.793681
1015.793681
1015.793681
1015.793681
1015.793681
996.095538
730.040669
393.206477
214.700699
80.360770
34.135580
15.930533
15.155673
18.935800
24.510622
37.718415
50.106645
69.487691
84.650517
102.269650
110.481977
111.414790
105.690956
90.063810
74.375868
56.119561
41.554570
27.259588
20.411611
13.720989
11.987686
10.229945
9.773970
9.192824
9.265542
8.466840
8.430481
8.446574
8.072853
7.583499
8.015633
7.531643
7.579923
7.660985
7.531643
6.814599
6.914735
6.815791
6.602407
6.624460
##ZVALUE=320
0.567436
0.563860
0.544786
0.438690
0.478625
0.548959
0.514984
0.691414
0.495911
0.616908
0.613928
0.682473
0.746846
0.721812
0.722408
0.596642
0.655651
0.619888
0.537634
0.627637
0.545979
0.794530
0.739694
0.933409
0.914931
0.828505
0.862479
0.814795
0.744462
0.891685
0.980496
1.065731
1.246929
0.952482
1.270771
1.304746
1.541972
1.600981
1.625419
1.844764
2.074838
2.420545
9.431839
32.864809
116.045475
237.416029
492.675900
751.684904
1015.794873
1015.794873
1015.794873
1015.794873
1015.794873
1015.794873
859.766603
564.251542
263.478756
137.082934
48.953891
21.081567
12.245774
12.882948
15.352964
20.507574
31.643510
43.465495
61.611533
76.433420
93.822479
100.680590
102.572441
97.040534
84.439516
72.128773
51.690936
39.397478
25.780797
18.253922
12.531877
10.132790
8.561611
8.281469
7.981658
7.799864
7.834435
7.613897
7.529855
7.122755
7.264614
7.028580
7.163882
6.959438
6.815791
6.917715
6.474853
6.483793
##ZVALUE=325
0.520945
0.439882
0.593662
0.527501
0.338554
0.457764
0.174642
0.379682
0.498891
0.560880
0.487566
0.470877
0.410676
0.575781
0.491738
0.581741
0.676513
0.673532
0.547767
0.599623
0.581741
0.695586
0.554919
0.631809
0.752807
0.771880
0.708699
1.068711
0.870824
0.822544
1.004934
0.823736
1.060963
1.060963
1.168847
1.011491
1.263618
1.168847
1.451969
1.531839
1.662970
1.577735
2.034903
2.260804
4.196763
25.848746
70.400834
186.380744
341.140032
661.435723
948.204994
1015.787721
1015.787721
1015.787721
1015.787721
1015.787721
982.186794
620.371699
377.935767
168.075562
78.843832
23.973584
11.941791
9.476542
10.270476
12.953877
18.055439
28.817654
40.747523
58.001876
71.439743
87.342858
95.569491
96.496940
91.106892
77.368617
64.081550
46.738982
34.932494
22.776723
16.167760
11.282563
9.315610
7.934570
7.299781
7.112622
6.865859
7.143617
6.912947
6.873608
6.734729
6.381869
6.602407
6.401539
6.627440
6.503463
##ZVALUE=330
0.513792
0.535846
0.548959
0.531673
0.422597
0.456572
0.491738
0.462532
0.518560
0.620484
0.688434
0.612736
0.489950
0.510812
0.686646
0.732541
0.634789
0.768900
0.648499
0.627637
0.636578
0.463724
0.543594
0.699759
0.766516
0.791550
0.745654
0.882745
0.902414
0.985861
0.995994
0.976920
0.964999
0.945926
1.056790
1.139641
1.048446
1.109838
1.106858
1.314878
1.215935
1.481771
1.378655
1.719594
1.836419
2.269745
2.721548
11.497736
37.858486
124.148726
244.461894
500.567555
758.830905
1015.865803
1015.865803
1015.865803
1015.865803
1015.865803
1015.865803
747.154951
486.160517
229.552984
115.647912
39.571524
15.545487
8.441806
8.397698
9.421706
11.834502
17.913580
25.179982
39.187670
52.514672
69.731474
81.478953
89.674592
90.832710
83.436966
74.196458
57.447553
44.522882
30.340552
22.164583
15.315413
11.871457
9.168983
7.753968
7.140636
6.848574
6.775856
6.732941
6.691813
6.423593
6.283522
6.249547
6.416440
##ZVALUE=335
0.575781
0.542998
0.701547
0.692606
0.666976
0.646710
0.573993
0.637770
0.846982
0.694990
0.691414
0.606775
0.654459
0.702739
0.792742
0.665784
0.943542
0.778437
0.888705
0.842810
0.863671
0.976920
0.871420
0.846982
0.874996
0.845790
0.883937
0.995994
0.767708
0.946522
0.993609
1.071692
1.104474
1.013875
1.161695
1.068711
1.196861
1.166463
1.262426
1.366735
1.331568
1.439452
1.468658
1.620650
1.675487
1.967549
1.872778
2.107620
2.422929
6.275773
21.930933
86.123943
179.742575
394.513607
631.052852
988.149643
1016.037464
1016.037464
1016.037464
1016.037464
1016.038060
905.748606
623.836517
329.417586
172.114968
57.176948
22.303462
9.475946
8.364916
8.305907
9.182692
11.715889
15.703440
25.621653
35.695434
51.648617
63.339472
76.507926
83.563924
83.692670
79.565644
67.039728
56.076646
42.705536
33.040643
22.169948
16.698837
11.119843
9.143949
7.715821
7.083416
6.785989
6.545782
6.415844
6.510615
6.341934
##ZVALUE=340
0.385642
0.412464
0.524521
0.486970
0.414848
0.417829
0.294447
0.443459
0.424981
0.378489
0.345707
0.369549
0.351667
0.423789
0.322461
0.618696
0.478625
0.463724
0.564456
0.441670
0.509620
0.539422
0.544786
0.529885
0.409484
0.533462
0.559688
0.521541
0.646710
0.693798
0.810623
0.613928
0.744462
0.694990
0.727773
0.804663
0.716448
0.841618
0.959635
1.005530
0.861883
1.007915
1.023412
1.176596
1.276731
1.212955
1.235604
1.574755
1.666546
1.804829
1.964569
2.769828
10.585785
55.850744
133.808851
330.561996
552.679896
902.581811
1015.793681
1015.793681
1015.793681
1015.793681
1015.793681
1002.185941
752.578974
414.444804
227.208734
83.576441
32.331944
10.722876
8.030534
7.917881
8.056760
8.891821
10.782480
16.159415
22.884607
34.534931
46.298504
61.870813
70.916414
78.121424
78.240633
73.341727
65.679550
53.432584
42.548776
29.599667
22.266507
15.378594
11.611581
8.429885
7.122755
6.308556
6.267428
6.421804
##ZVALUE=345
0.334978
0.343919
0.350475
0.517964
0.447631
0.470877
0.444651
0.636578
0.565648
0.345707
0.400543
0.415444
0.495911
0.492930
0.320673
0.471473
0.574589
0.512600
0.551939
0.484586
0.472665
0.617504
0.391603
0.425577
0.469685
0.573993
0.547767
0.465512
0.580549
0.555515
0.596642
0.567436
0.746846
0.844598
0.839829
0.802875
0.731945
0.812411
0.738502
0.861883
0.873804
1.014471
0.799894
0.855923
0.883937
1.158714
1.016855
1.228452
1.172423
1.229644
1.464486
1.496673
1.642704
2.072453
5.166531
21.112561
90.807676
187.416673
408.660769
644.795895
993.606448
1015.794873
1015.794873
1015.794873
1015.794873
1015.794873
843.849778
563.442707
261.293650
128.169656
40.786862
16.749501
8.459687
7.694960
7.421970
7.319450
7.779598
9.784698
14.172792
20.603538
32.032728
42.568445
54.665804
63.593984
70.955753
72.757602
69.621801
63.323975
51.670671
41.819811
30.065775
22.202730
14.935732
11.085868
8.139610
7.012486
##ZVALUE=350
0.265837
0.411868
0.355840
0.367761
0.409484
0.479817
0.347495
0.425577
0.471473
0.346899
0.354648
0.418425
0.276566
0.556707
0.516772
0.504851
0.530481
0.404716
0.328422
0.439882
0.502467
0.504851
0.374913
0.564456
0.378489
0.605583
0.425577
0.340939
0.529885
0.776649
0.655651
0.453591
0.429749
0.566840
0.595450
0.552535
0.665784
0.829697
0.681877
0.776649
0.689626
0.802875
0.833869
0.779629
0.919700
0.754595
1.044869
1.155734
0.986457
1.012683
1.208782
1.210570
1.486540
1.552701
1.768470
1.977682
2.590418
13.044477
41.358471
130.627751
251.855850
514.794588
764.395595
1015.793681
1015.793681
1015.793681
1015.793681
1015.793681
968.987942
615.530610
377.768874
168.227553
77.431798
20.933747
9.254813
7.050633
6.805658
6.469488
6.436706
7.228851
8.609891
13.207793
18.364787
28.518438
36.548972
48.531890
56.713820
64.785480
66.067576
64.155459
57.818890
47.645569
39.692521
29.079914
22.210479
14.914870
##ZVALUE=355
0.403523
0.279546
0.305772
0.458956
0.394583
0.429749
0.364780
0.321865
0.408888
0.347495
0.356436
0.462532
0.424981
0.370741
0.359416
0.255704
0.390410
0.522733
0.425577
0.544786
0.632405
0.405908
0.416636
0.416636
0.451803
0.422597
0.607967
0.518560
0.643730
0.467896
0.470877
0.500679
0.666976
0.661612
0.573993
0.686646
0.480413
0.673532
0.603795
0.682473
0.645518
0.808835
0.814795
0.873804
0.777841
0.852942
0.938773
0.853539
1.039505
0.859499
0.961423
1.109838
1.178980
1.176596
1.374483
1.622438
1.481771
1.641512
2.134442
5.803704
21.158457
84.093809
173.097849
370.246768
594.763756
947.085619
1015.794873
1015.794873
1015.794873
1015.794873
1015.794873
714.250803
461.711884
210.574865
101.518631
29.447675
11.451840
6.892681
6.387830
5.929470
5.948544
5.769730
6.359816
8.549690
10.783672
16.223788
22.880435
32.727718
40.821433
51.148534
56.232810
60.048699
59.582591
53.340793
46.538711
36.428571
##ZVALUE=360
0.357628
0.396967
0.235438
0.392795
0.464916
0.385642
0.293851
0.417829
0.253916
0.381470
0.444651
0.405908
0.479817
0.375509
0.453591
0.354648
0.325441
0.309944
0.496507
0.415444
0.558496
0.435710
0.370741
0.435710
0.333786
0.475645
0.388622
0.444651
0.403523
0.573993
0.456572
0.550747
0.522733
0.497699
0.615716
0.568628
0.557899
0.580549
0.770688
0.641942
0.689626
0.758767
0.873804
0.819564
0.755787
0.826716
0.728965
0.855923
0.945926
0.927448
1.006722
0.989437
1.088977
1.131892
1.111627
1.313686
1.278520
1.564622
1.500845
1.678467
1.778603
2.869964
9.350777
43.052435
105.234981
264.574885
447.252989
749.142766
994.571447
1015.793681
1015.793681
1015.793681
1015.793681
825.731754
567.459464
282.094479
148.966908
52.799582
19.501448
7.466674
6.307960
5.799532
5.876422
5.659461
5.508661
5.710721
6.751418
9.186864
12.545586
18.756986
25.883913
36.559701
42.771697
50.388575
54.295659
54.187775
##ZVALUE=365
0.308752
0.295639
0.436902
0.295639
0.313520
0.462532
0.472665
0.482798
0.489950
0.342727
0.360608
0.243783
0.382662
0.342727
0.529885
0.359416
0.302792
0.367761
0.484586
0.481606
0.439882
0.318885
0.455976
0.422597
0.455976
0.404716
0.514984
0.494719
0.499487
0.429749
0.655651
0.528693
0.634789
0.584722
0.688434
0.659823
0.505447
0.665784
0.781417
0.660419
0.541806
0.739694
0.703931
0.665784
0.647902
0.905991
0.832677
0.750422
0.719428
0.785589
0.724792
1.059771
0.932813
0.919700
0.853539
1.002550
1.063943
1.296997
1.443624
1.348853
1.639724
1.789927
1.864433
2.442598
4.319549
23.814440
64.597726
172.781944
323.317647
614.509583
865.768790
1015.794873
1015.794873
1015.794873
1015.794873
939.188004
685.718656
372.300744
206.522942
74.718595
28.603673
8.703470
6.515980
5.833507
5.784631
5.283952
5.017519
4.995465
5.015731
5.862713
7.702708
11.048913
15.593767
23.303628
29.928684
38.040876
##ZVALUE=370
0.248551
0.315905
0.421405
0.342727
0.284910
0.278950
0.303984
0.216961
0.509620
0.455976
0.282526
0.208616
0.386834
0.409484
0.575781
0.270605
0.336766
0.197887
0.405908
0.328422
0.389814
0.477433
0.400543
0.376701
0.450611
0.373721
0.262856
0.418425
0.456572
0.404716
0.471473
0.570416
0.426769
0.447631
0.627637
0.636578
0.608563
0.464916
0.659823
0.483990
0.567436
0.647902
0.577569
0.677705
0.670552
0.633597
0.855923
0.826716
0.630617
0.606775
0.893474
0.801682
0.842810
0.835657
0.949502
1.059771
0.880957
1.078844
1.077652
1.055598
1.223683
1.346469
1.357794
1.458526
1.589656
2.157688
2.550483
11.600852
39.077997
128.257871
245.386958
485.098958
725.862980
1015.793681
1015.793681
1015.793681
1015.793681
1005.439758
783.619881
449.757576
258.702636
102.624893
46.198964
14.441609
7.117987
5.491972
5.168915
4.864931
4.742742
4.389882
4.284978
4.590750
5.231500
6.837845
9.263754
14.000535
##ZVALUE=375
0.248551
0.378489
0.406504
0.289679
0.276566
0.397563
0.339746
0.330806
0.447631
0.213981
0.463724
0.419617
0.361800
0.494719
0.448823
0.432730
0.484586
0.443459
0.465512
0.286698
0.437498
0.357628
0.453591
0.573993
0.429749
0.439882
0.620484
0.512600
0.277758
0.429749
0.309944
0.470877
0.434518
0.451803
0.417829
0.547767
0.553727
0.605583
0.526905
0.516772
0.591874
0.569820
0.497699
0.594854
0.515580
0.647902
0.583529
0.530481
0.701547
0.657439
0.591874
0.799894
0.757575
0.728965
0.762939
0.855923
0.847578
0.959635
0.842810
0.936985
1.083612
1.083612
1.147985
1.137853
1.216531
1.221895
1.411438
1.796484
2.076626
6.093979
21.160841
77.456832
166.830420
377.759933
598.428845
927.792788
1015.793681
1015.793681
1015.793681
1015.793681
904.420018
567.087531
363.692641
179.535747
89.204907
27.162433
9.945631
5.346537
4.615784
4.670620
4.240870
4.076958
3.827810
3.935695
4.050732
4.683733
##ZVALUE=380
0.279546
0.237823
0.315905
0.337958
0.245571
0.218749
0.293851
0.222921
0.322461
0.439882
0.294447
0.307560
0.379682
0.261664
0.270605
0.360608
0.407696
0.373721
0.311732
0.531673
0.389814
0.500679
0.369549
0.401735
0.314713
0.365973
0.448823
0.416636
0.441670
0.257492
0.459552
0.634789
0.542998
0.555515
0.330806
0.507832
0.397563
0.402927
0.580549
0.497699
0.386834
0.535846
0.532866
0.546575
0.598431
0.610948
0.641942
0.727773
0.452995
0.576973
0.547767
0.530481
0.581741
0.740886
0.651479
0.634789
0.695586
0.591874
0.879765
0.870824
0.908971
0.792742
1.187921
0.980496
1.088977
1.079440
1.212955
1.534820
1.477599
1.726747
2.029538
3.364682
11.362433
55.309534
129.607916
309.593678
507.165790
820.045471
1015.793681
1015.793681
1015.793681
1015.793681
1010.918617
743.042827
507.817864
252.556801
130.042434
43.493509
16.349554
5.761981
4.579425
4.091859
4.050732
3.766418
3.689528
3.509521
##ZVALUE=385
0.228882
0.219941
0.256896
0.278950
0.320673
0.190735
0.224710
0.234842
0.331998
0.278950
0.355840
0.405908
0.260472
0.289679
0.309944
0.432730
0.371933
0.262856
0.331998
0.350475
0.331998
0.375509
0.379682
0.358820
0.332594
0.272989
0.302792
0.525713
0.249743
0.395775
0.407696
0.336766
0.376701
0.365973
0.356436
0.431538
0.507832
0.535846
0.497699
0.508428
0.406504
0.520945
0.373721
0.442863
0.502467
0.450611
0.398755
0.448823
0.464916
0.425577
0.506639
0.574589
0.517964
0.543594
0.566840
0.713468
0.643730
0.707507
0.722408
0.670552
0.739694
0.782609
0.669956
0.791550
0.693798
0.826716
0.984669
1.120567
1.262426
1.521707
1.480579
1.524687
1.924634
2.192855
5.548596
30.841827
80.833435
206.765532
374.825001
689.775944
941.661596
1015.793681
1015.793681
1015.793681
1015.793681
869.077444
631.913543
352.618694
201.602578
80.956817
31.655431
8.051991
4.569888
3.915429
3.789663
3.553629
##ZVALUE=390
0.176430
0.148416
0.130534
0.126958
0.257492
0.199676
0.250936
0.144839
0.318885
0.310540
0.098944
0.275970
0.345707
0.314713
0.270605
0.188947
0.135899
0.296831
0.139475
0.124574
0.220537
0.255704
0.188947
0.345707
0.167489
0.121593
0.174642
0.282526
0.301600
0.292659
0.314713
0.352859
0.360608
0.264645
0.369549
0.516772
0.360608
0.340939
0.386834
0.334978
0.458956
0.524521
0.226498
0.322461
0.446439
0.240803
0.373721
0.429749
0.321865
0.453591
0.520945
0.376701
0.562668
0.415444
0.431538
0.408888
0.423789
0.520945
0.497699
0.541806
0.473857
0.633597
0.702739
0.598431
0.727773
0.753999
0.849962
0.855923
0.989437
1.108646
1.108646
1.466870
1.284480
1.516938
1.579523
1.641512
2.838969
16.085505
50.414801
159.465671
307.489634
593.350530
823.428035
1015.698910
1015.698910
1015.698910
1015.698910
996.178985
790.258646
492.054820
289.996862
120.327473
52.685738
13.148785
5.235672
3.824830
##ZVALUE=395
-0.026822
0.043511
0.100732
-0.128746
0.050664
0.080466
0.030994
0.116825
0.058413
0.186563
-0.051856
-0.102520
0.111461
0.001788
0.057817
0.195503
0.002980
0.125766
0.215769
0.094771
0.150800
0.134706
0.226498
0.082850
0.173450
0.045896
0.253916
0.051856
0.175834
0.148416
0.244975
0.138879
0.046492
0.183582
0.115633
0.181794
0.136495
0.086427
0.165701
0.166893
0.339746
0.197887
0.214577
0.255704
0.259876
0.122786
0.279546
0.343919
0.376701
0.315905
0.349879
0.288486
0.270605
0.232458
0.187755
0.205636
0.310540
0.304580
0.324845
0.337958
0.385642
0.452995
0.559688
0.586510
0.438690
0.564456
0.573993
0.601411
0.759959
0.931621
0.931621
1.075864
1.177788
1.119971
1.136661
1.313686
1.319647
1.364946
1.918674
9.038448
33.160448
115.066767
219.073892
423.416495
644.917488
966.015458
1015.583873
1015.583873
1015.583873
1015.583873
913.380980
582.058430
368.062854
161.480904
77.148676
23.342967
##ZVALUE=400
0.151992
0.283718
0.231862
0.158548
0.144839
0.305772
0.301600
0.284910
0.174642
0.264645
0.375509
0.386834
0.195503
0.361800
0.318885
0.195503
0.170469
0.283718
0.148416
0.243783
0.292659
0.339746
0.308752
0.225902
0.251532
0.269413
0.305772
0.292659
0.264645
0.277758
0.353456
0.346899
0.337958
0.295639
0.305772
0.354648
0.437498
0.456572
0.342727
0.432730
0.445843
0.504851
0.291467
0.443459
0.446439
0.597835
0.497699
0.515580
0.685453
0.526905
0.609756
0.425577
0.519753
0.459552
0.575781
0.493526
0.510812
0.518560
0.554919
0.511408
0.413656
0.629425
0.476837
0.678897
0.638962
0.761747
0.700951
0.986457
0.846982
0.967979
1.154542
1.089573
1.214743
1.241565
0.931621
1.162887
1.147985
1.361966
1.348853
1.552701
1.822710
4.679561
17.365813
69.452524
146.171451
325.450897
515.349507
798.047781
1002.496481
1015.793681
1015.793681
1015.793681
980.618596
686.919689
461.280942
232.274532
##END
