##TITLE=FDW2
##FORMAT=SPECTACLE-ASCII V-1.2
##DATA TYPE=ULTRAVIOLET SPECTRUM
##SECOND TYPE=ULTRAVIOLET SPECTRUM
##DATE=10/24/17
##TIME=12:51:09
##SPECTROMETER/DATA SYSTEM=SPECTACLE
##XUNITS=NM EM
##YUNITS=ENERGY
##YFACTOR=1
##FIRSTX=220
##LASTX=410
##NPOINTS=96
##3DDATA=Equidistant
##ZUNITS=NM EX
##FIRSTZ=210
##LASTZ=400
##ZPOINTS=39
##XYDATA=(Y..Y)
##ZVALUE=210
25.541782
25.429726
18.041730
14.730692
11.248589
11.534691
10.739565
11.821985
8.051991
7.724762
5.515814
5.166531
5.678535
5.939603
5.875826
6.209612
6.828904
6.408691
6.697774
6.684661
6.511807
7.760525
8.425713
8.718967
9.777546
10.061860
11.146665
11.610985
12.669563
14.245510
12.907982
13.871789
15.229583
13.799667
15.967488
15.267730
16.694665
15.297532
15.987754
16.332865
15.760660
15.662909
16.372800
17.436743
16.426444
16.900897
15.695691
16.632676
16.778708
16.925931
18.237829
17.070770
19.858479
18.885732
18.544793
18.925667
20.911694
18.838644
20.117760
20.287633
18.903613
20.769835
21.163821
20.924807
20.854473
21.465421
22.245646
22.782683
24.850965
27.617812
29.621720
35.977960
41.885972
49.103498
51.534772
60.047507
61.759949
62.963963
65.966845
59.518814
55.548549
50.926805
46.316981
38.319826
31.020641
27.873516
22.258759
19.885898
18.637776
21.050572
25.150776
29.056668
37.742853
50.910711
59.465766
70.872903
##ZVALUE=215
83.228946
73.557496
63.949823
44.276714
32.899976
24.724603
21.325946
17.401576
16.332865
15.068650
13.609529
11.245608
9.711981
7.964969
7.164478
5.830526
6.227493
6.139874
5.909801
6.514788
7.180572
7.091761
8.083582
8.334517
8.251667
9.923577
10.792613
10.955930
11.704564
12.784600
14.531612
14.067888
15.756488
17.264485
15.163422
17.402768
16.650558
17.088652
16.339421
15.512705
16.638637
15.620589
15.992522
16.071796
15.596747
16.601682
15.857816
15.554428
16.519427
17.698407
16.817451
17.875433
18.698573
18.621683
19.150972
18.641949
20.667911
19.522905
20.690560
19.427538
20.124912
20.655990
20.930767
19.353628
20.745993
20.424724
21.023750
21.908879
23.275614
26.368499
28.823614
32.752752
34.379959
40.456653
43.241978
45.419931
46.567917
45.781732
45.610666
41.529536
41.399002
36.427975
33.822656
27.965903
25.685430
21.057725
19.411445
17.635822
15.028715
14.049411
13.353825
12.721419
14.539957
16.291738
19.810796
25.997758
##ZVALUE=220
164.711475
165.630579
159.943700
144.355893
119.582415
86.652637
65.080523
41.616559
34.235716
27.688742
25.791526
25.125742
22.631884
19.816756
16.923547
13.000965
9.719729
8.257627
6.547570
6.557703
7.392764
7.609725
7.386804
8.310676
9.741783
10.582805
10.109544
11.184812
11.957884
12.696981
14.526844
16.199946
15.188456
16.483665
15.496612
15.957952
17.286539
15.643835
16.481876
17.241836
15.826821
16.231537
15.819669
15.827417
16.292930
15.120506
16.725659
15.187860
16.692877
16.361475
17.903447
19.114614
18.141866
18.785596
19.333959
18.573999
20.569563
19.826889
19.860864
20.838976
20.013452
20.626783
21.419525
20.484924
21.502972
20.814538
22.740960
22.982955
23.683906
25.694966
27.821660
29.235482
33.735633
36.850572
38.191676
41.954517
41.333437
44.675469
40.234923
38.378835
36.266446
31.833649
29.738545
25.512576
22.018552
20.571947
17.200708
16.324520
14.603734
14.273524
12.961626
13.588667
12.532473
12.642741
11.338592
11.511445
##ZVALUE=225
200.784802
208.220482
244.874954
280.456543
282.045007
257.187486
219.857693
156.821609
112.730861
83.017945
50.846934
44.030547
42.425990
41.233897
38.364530
37.464499
29.800534
23.815632
19.681454
12.779832
11.177659
8.508563
8.377433
8.660555
9.920597
10.337830
9.539723
10.822415
11.805892
12.655854
12.874603
14.321804
14.844537
14.629960
15.378594
15.438795
16.180873
17.230511
15.528798
16.534925
17.175674
16.967654
16.188622
17.636418
16.036630
17.932653
17.075539
17.967820
18.065572
19.268990
19.640923
21.806955
21.700859
21.542907
21.875501
21.763444
23.983717
23.118854
24.375916
25.977492
25.157928
26.619434
22.804737
24.501681
23.509860
24.862885
25.196671
26.710629
25.047660
27.830601
27.546883
33.943653
34.391880
36.076903
36.788583
37.552714
38.763881
37.797689
38.965940
34.000874
32.450557
28.535724
25.609732
22.809505
20.196438
19.960999
16.806722
16.554594
17.650723
15.091896
13.501644
13.911724
14.218688
13.362765
12.166500
13.243556
##ZVALUE=230
119.940639
136.865973
207.742453
320.663452
385.654569
454.831719
474.795699
450.364947
394.628644
311.655998
210.923553
146.080852
91.411471
70.339441
61.817765
61.102509
62.541962
59.154630
52.310824
42.477846
33.409595
23.078918
16.425848
11.324883
9.938478
10.926723
11.488795
9.603500
11.611581
11.224747
10.758638
12.859702
11.286736
13.267994
14.176965
14.045835
13.530850
14.271736
14.680624
15.943646
15.640855
16.121864
16.915798
17.659664
19.636750
19.072890
19.158721
18.918514
20.963550
21.614432
24.264455
24.304986
24.331808
27.239919
26.813745
29.248595
26.831627
28.257966
30.596852
31.314492
30.494928
31.552911
31.621456
32.532811
30.780435
30.934811
31.883717
30.186772
32.711625
32.484531
33.828616
35.183430
36.735535
36.796927
41.115880
38.876534
38.958788
37.872791
36.871433
35.741925
30.394793
28.919578
26.479959
23.542643
22.488832
21.183491
18.871427
17.939806
17.112494
17.431974
16.786456
14.285445
15.254617
15.484691
14.159679
14.843941
##ZVALUE=235
26.798844
35.180449
68.573952
162.662864
257.667899
404.544473
520.001650
658.041835
702.778697
694.205761
608.088970
485.185981
333.848596
232.790709
150.092840
107.625723
84.499717
83.671808
92.111826
93.064904
82.132816
69.946647
55.132508
40.305853
28.828979
18.872619
14.900565
12.451410
10.701418
11.842847
11.590719
10.559559
12.319684
12.030602
13.340712
12.759566
13.917685
13.568997
14.449954
16.820431
16.535521
17.839670
17.449856
17.418861
18.976927
20.113587
19.540787
21.434426
23.487806
25.728941
27.394891
30.693412
31.291842
32.875538
36.092997
35.952926
38.592815
38.772821
40.035844
41.045547
41.191578
43.305755
43.086410
43.026805
43.221712
41.644573
42.143464
42.011738
40.850639
40.870905
41.139722
42.457581
42.474866
44.502616
44.449568
43.809414
40.801764
42.204857
39.526820
37.502646
37.093759
32.480955
28.624535
27.760863
25.499463
24.603605
22.480488
20.184517
20.318627
18.865466
19.373894
18.106699
18.850565
17.788410
16.265512
16.651750
##ZVALUE=240
3.982782
3.917813
8.777976
30.044913
65.544844
152.611732
258.337855
447.118878
624.912977
765.421987
912.664533
917.828679
821.002722
696.205497
502.783656
354.919434
207.495689
150.082707
117.430687
107.129812
109.312534
120.213628
120.220780
105.556846
91.538429
65.106750
48.931837
32.750964
22.993684
17.473698
15.263557
11.866689
11.783838
12.501478
14.412999
13.574958
14.453530
14.877915
15.154481
16.731620
17.839670
18.000603
19.345880
20.850897
21.668673
20.901561
24.328828
26.600957
29.348731
30.011535
34.485459
35.170913
39.005876
42.679906
42.723417
43.751597
45.719743
49.134493
48.913956
52.176714
49.309731
50.932765
51.304698
51.844716
49.047470
50.230622
48.972964
48.757792
47.279596
47.176480
46.296716
49.335957
47.270656
49.918890
50.759912
47.303438
48.502684
42.955875
43.229461
40.980577
36.384463
33.531785
34.049749
29.910803
29.474497
25.529861
25.404692
24.277568
21.656752
21.251440
20.766854
19.634962
18.259883
18.606782
17.527938
17.287731
##ZVALUE=245
3.314614
2.819896
3.139973
3.740788
6.482601
15.531778
49.774647
102.590919
244.629979
392.552614
630.881786
808.098912
951.643586
1008.893847
975.970626
814.851522
649.695992
448.874831
304.016471
181.773901
127.225518
107.859969
113.407969
127.872825
132.898688
127.813816
116.197467
96.901655
73.316693
57.661533
40.061474
26.225448
18.870831
13.776422
12.228489
13.639927
13.561845
13.838410
14.417768
14.729500
16.867518
17.524958
18.745661
18.476844
19.816756
21.299720
23.178458
25.736690
28.203726
31.469464
34.056902
35.873652
41.238666
39.696693
41.121840
43.330789
45.905709
45.708418
47.309995
48.402548
51.752925
50.731897
48.324466
49.604774
47.634840
46.829581
47.123432
47.133565
48.382878
46.072602
45.404434
46.355724
45.635700
45.332909
43.966770
42.807460
40.434599
37.911534
36.418438
33.724904
34.464598
29.638410
29.680729
26.532412
26.990771
24.495721
21.690726
22.531748
19.877553
19.628406
18.774867
18.415451
17.945766
15.517473
14.894605
15.724897
##ZVALUE=250
3.074408
2.175570
2.434850
2.565980
2.832413
3.196597
3.605485
9.419918
35.860538
75.312853
192.085505
336.732864
518.969893
763.211846
938.133001
1015.787721
1015.787721
981.488824
824.795961
573.815703
392.440557
252.033472
141.739845
107.680559
104.830861
120.480657
137.754679
138.853788
135.259628
123.745799
105.709434
79.527497
61.245561
38.240552
28.655529
17.913580
16.065836
15.114546
14.606714
14.945865
15.174747
15.657544
17.436743
17.846823
18.304586
20.142794
20.718575
23.504496
25.212765
28.826594
30.480623
31.272769
32.882690
35.803914
36.206841
39.022565
38.737655
40.366650
42.595863
42.188764
41.772723
40.166974
42.098761
39.872527
38.982630
40.849447
39.840937
37.033558
36.552548
35.160780
37.326813
37.343502
35.456419
35.598874
34.295917
33.096671
32.534599
30.752420
30.242801
27.169585
25.973916
24.761558
22.059679
22.424459
20.368695
19.039512
16.768575
15.877485
16.188622
15.188456
14.021993
14.198422
14.627576
13.650656
13.164878
13.103485
##ZVALUE=255
2.327561
2.074838
2.224445
2.486706
2.240539
2.387762
2.408624
3.089905
2.588630
7.147789
20.798445
66.386461
133.152604
287.908912
456.430912
703.607798
902.418494
1015.817523
1015.817523
1015.817523
970.040560
783.041716
499.403477
318.709016
165.188909
117.998719
95.881820
104.700923
129.811764
140.503645
146.984458
146.983862
134.161711
106.556416
87.300539
58.771968
42.799711
27.927756
20.252466
16.490817
14.968514
14.521480
15.266538
16.293526
17.405748
18.507838
19.232631
20.076632
20.643473
22.756457
24.086833
25.790930
26.931763
28.453469
29.084682
30.003786
29.662848
31.504631
32.256842
33.374429
31.809807
33.041835
32.603741
31.145811
31.173825
29.713511
29.539466
28.942823
30.093789
28.764606
28.847456
27.124882
26.601553
28.540492
27.486682
26.524663
25.302768
24.080873
22.106767
21.116734
19.759536
18.998981
18.452406
16.975999
15.644431
14.999509
13.761520
14.656782
12.842417
12.019873
12.361407
11.497736
11.335611
10.871887
10.378957
10.694861
##ZVALUE=260
1.957417
1.792908
1.849532
1.914501
2.078414
1.921654
2.198815
2.359748
2.461672
2.376437
2.847910
3.704429
11.605620
43.669939
88.437796
204.645991
345.699787
582.667589
791.600943
1015.793681
1015.793681
1015.793681
1015.793681
901.759863
604.807734
411.499739
232.966542
147.042871
92.164874
85.601807
101.608634
126.042962
142.572522
154.368877
152.052641
132.344961
112.873912
85.915923
65.846443
42.420626
31.731725
21.147728
17.483830
15.539527
14.544725
15.580654
15.221834
17.761588
18.564463
20.623803
21.435618
23.198724
24.331808
24.343729
24.497509
26.476979
24.921894
27.092695
27.451515
28.316975
27.584434
27.372837
27.975440
26.943684
26.457906
27.120709
26.260614
26.728511
25.079846
24.769902
24.550557
23.752451
23.934841
22.896528
21.589994
21.571517
20.993948
19.478798
19.425750
17.951727
16.581416
16.476512
15.092492
13.913512
13.886690
12.798905
13.019443
12.113452
11.047721
10.602474
11.008978
10.387897
10.265708
9.565949
9.427667
8.432865
##ZVALUE=265
1.654625
1.958609
1.866817
1.848936
1.764894
1.642704
1.865625
2.076626
1.842976
2.150536
2.219677
2.234578
2.322793
2.480745
6.966591
22.594929
72.480440
140.698552
249.503851
479.503870
703.819990
986.166596
1015.793681
1015.793681
1015.793681
966.002941
773.393512
494.112968
323.851705
171.534419
105.605721
78.309774
83.848834
113.601685
132.248998
151.731968
160.064697
151.323676
138.348937
111.183524
88.162422
61.474442
45.648813
28.431416
22.652745
16.630888
16.190410
16.353726
16.737580
19.103885
20.605922
22.939444
23.062825
25.782585
25.098920
24.849772
26.950836
27.207732
27.788877
28.627515
28.943419
28.596520
29.782653
27.983785
27.782917
27.352571
26.935935
25.596619
26.501417
25.560856
25.253892
24.415851
24.045706
24.062991
22.779703
21.720529
21.761656
19.673705
18.982887
17.147660
16.453862
15.170574
14.296770
14.356971
13.255477
12.861490
12.130737
10.938644
10.257959
10.350943
9.470582
8.864999
8.921623
8.883476
8.610487
8.532405
##ZVALUE=270
1.316667
1.266599
1.419783
1.425743
1.389980
1.489520
1.133680
1.393557
1.235604
1.416802
1.615882
1.592636
1.803637
1.864433
2.092719
2.142787
2.763867
10.932684
29.919744
94.722509
194.454789
352.206826
651.172996
898.496509
1015.526652
1015.526652
1015.526652
1015.526652
920.367837
699.855685
486.349463
255.285501
144.729614
75.471997
67.445636
86.920857
110.832453
134.717822
152.564645
158.864856
154.420733
137.930512
118.975639
85.876584
64.672828
42.744875
33.072829
22.410750
20.218492
18.958449
21.234751
21.897554
22.648573
24.844408
26.813745
26.888847
27.732849
29.505491
31.410456
31.049848
31.159520
31.139851
30.303597
30.394793
29.760599
29.592514
30.169487
29.321909
28.846860
27.933717
27.127862
26.148558
26.289821
24.438500
24.107695
22.866726
21.998882
20.794868
19.820929
19.039512
17.173886
15.852451
14.377832
14.121532
13.208985
12.444854
11.642575
11.116862
10.406971
10.515451
9.675622
9.596944
9.083748
8.787513
7.960796
7.998943
##ZVALUE=275
1.324415
1.652837
1.565814
1.406670
1.346469
1.519918
1.533628
1.518726
1.583695
1.643896
1.674891
1.596808
1.920462
1.737475
2.002716
2.130866
2.219677
2.296567
2.555847
5.247593
17.339587
47.311783
145.754814
285.683870
569.153428
805.497766
1015.793681
1015.793681
1015.793681
1015.793681
1015.793681
873.949528
619.325638
328.305960
187.073946
84.936619
58.912635
64.136982
82.754493
112.033486
132.147670
153.534412
158.705711
153.106451
140.322447
111.592412
92.882514
67.507625
50.801635
36.172867
30.131936
26.525855
27.074814
28.023720
28.090477
30.324459
31.122565
32.670498
34.166574
35.132766
35.735965
35.714507
35.396814
35.344958
34.615993
34.523606
33.562779
33.186674
32.633543
31.146407
30.075908
29.455423
28.996468
28.539896
27.082562
25.584698
25.300980
23.270845
23.164749
19.853711
20.095706
18.424988
16.971827
15.627742
14.591813
13.799667
13.546944
12.262464
11.529922
11.012554
10.482669
9.863973
9.538531
9.266734
9.363890
8.938909
##ZVALUE=280
1.341701
1.328588
1.459718
1.498461
1.165867
1.083612
1.458526
1.380444
1.504421
1.313686
1.436472
1.613498
1.631975
1.733899
1.632571
1.646876
1.797676
2.008677
1.885891
2.261996
2.454519
2.870560
10.537505
33.067465
108.643770
210.235715
432.642698
694.444776
1015.793681
1015.793681
1015.793681
1015.793681
1015.793681
1015.793681
840.847492
458.737016
259.135962
114.146471
63.563585
48.709512
58.530569
85.679889
109.082460
135.234594
147.912502
155.898929
153.268576
136.255622
118.524432
94.579458
76.593757
57.003498
47.195554
38.000941
35.137534
35.878420
36.748648
37.201643
38.892627
40.831566
41.020513
41.523576
40.866733
40.806532
39.963722
40.278435
37.931800
37.755966
37.901998
36.885738
36.716461
35.378933
33.655763
31.771660
30.470490
27.931929
27.880669
26.348829
23.932457
22.505522
21.342635
19.737482
18.305779
17.789602
16.505718
15.231967
15.291572
13.540983
12.977719
11.767745
10.996461
10.559559
10.161996
9.416938
8.912683
8.108616
##ZVALUE=285
1.130700
1.179576
1.260638
1.159906
1.080632
1.042485
1.101494
1.352429
1.150966
1.191497
1.357794
1.164675
1.525879
1.408458
1.512766
1.691580
1.519918
1.404881
1.622438
1.927614
1.842976
1.747608
2.134442
2.406836
5.418658
17.841458
59.033632
126.326680
287.061930
484.085679
726.113915
1015.793681
1015.793681
1015.793681
1015.793681
1015.793681
913.733840
565.807819
354.794860
165.817738
88.571906
41.863918
38.430691
55.220723
76.620579
107.416511
128.170848
148.029923
156.730413
156.139731
144.576430
127.139688
109.190941
86.527467
70.821643
55.052638
48.747659
47.891736
47.705770
47.026873
47.228932
48.751831
48.390627
48.437715
47.097802
45.869946
46.339631
44.671893
43.783784
43.024421
40.731430
39.696693
38.121939
35.474896
34.244657
32.102466
30.552745
28.362870
27.742982
25.345683
22.793412
22.127628
20.537972
19.334555
17.896891
16.855597
15.570521
14.706850
14.446974
13.003945
12.625456
11.099577
10.982752
9.930730
9.858608
9.393692
##ZVALUE=290
1.094937
0.913739
0.959635
1.049638
1.033545
1.077652
1.204610
1.262426
1.227856
1.259446
1.217723
1.274943
1.156926
1.184940
1.269579
1.478791
1.562834
1.375675
1.512766
1.456738
1.614690
1.712441
1.915693
1.729727
2.186894
2.229810
2.932549
7.135868
32.200813
78.321695
158.072710
361.256599
588.217974
940.948725
1015.793681
1015.793681
1015.793681
1015.793681
1011.596918
706.474781
471.124649
237.056613
124.696493
49.675703
30.888915
37.998557
53.068995
78.781843
102.302432
133.317709
152.594447
167.044997
167.031884
156.419873
141.696930
117.211938
97.993612
82.128644
70.973635
62.687993
59.891939
58.199763
56.942701
55.453777
54.336786
53.300858
53.447485
52.387714
50.723553
48.437715
47.531724
46.370625
43.510795
41.098595
40.034652
36.683679
34.618974
32.169819
30.865669
28.213859
26.962757
25.240779
22.787452
21.940470
19.731522
18.869638
17.485619
15.910864
15.621781
14.594793
13.345480
12.506843
11.931658
10.520816
10.317564
9.476542
##ZVALUE=295
1.046658
0.967979
0.867844
1.017451
1.126528
1.138449
1.020432
0.991821
1.054406
1.114607
1.005530
1.154542
1.166463
1.204610
1.220703
1.150966
1.229644
1.265407
1.230836
1.303554
1.305938
1.502633
1.522899
1.718998
1.950860
1.865625
2.041459
2.245903
2.282858
3.479719
11.184812
48.075914
112.247467
280.123949
476.640463
812.864900
1015.793681
1015.793681
1015.793681
1015.793681
1015.793681
835.635662
587.859750
317.529440
172.746778
66.515803
35.932660
29.736757
39.200783
61.761737
84.603429
116.007924
137.942433
161.784887
172.958970
173.690915
165.370703
148.440599
131.929517
110.543966
95.921755
80.087781
71.655512
65.456629
61.324835
59.612989
58.683753
56.979656
55.937767
54.013729
52.738786
49.600601
45.847893
43.707490
40.489435
40.164590
37.046671
35.503507
33.734441
30.403733
28.825998
26.800632
24.601817
22.774935
21.893978
19.918680
18.216968
17.822981
16.042590
14.628768
13.703704
12.531877
12.145638
11.213422
11.255741
10.263920
##ZVALUE=300
0.916719
0.900626
1.006722
0.858903
0.988841
0.827909
1.083612
1.093745
1.046658
0.947714
1.018643
1.194477
1.055598
1.188517
1.046658
1.318455
1.156926
1.123548
1.226664
1.256466
1.327991
1.253486
1.192689
1.485944
1.657605
1.497865
1.543760
1.732707
1.710653
1.809597
2.249479
2.346635
5.571842
28.802752
74.319839
197.621584
354.029536
647.179484
903.268456
1015.794873
1015.794873
1015.794873
1015.794873
975.869894
726.865530
419.598818
251.505971
117.772818
63.746572
37.678480
39.607882
53.586960
69.851875
95.695853
118.682981
145.859718
165.970922
179.731846
182.183981
171.472430
158.865452
134.840608
116.673708
94.773769
81.692934
69.515705
65.126419
60.841441
58.623552
56.078434
53.394437
49.590468
47.056675
45.437813
43.186545
39.897561
37.921667
35.573840
33.860803
31.096935
28.951764
26.487708
25.269985
23.029447
22.074580
20.262599
19.247532
17.580986
16.792417
15.286803
13.868809
12.825727
12.034774
11.163950
10.636449
9.871721
##ZVALUE=305
1.023412
0.938773
0.692606
0.781417
0.770688
0.870824
0.836849
0.773668
0.870824
0.742674
0.724792
0.882745
0.837445
0.837445
0.950694
0.771880
0.957847
1.037717
0.967979
0.924468
1.056790
1.143813
0.992417
1.169443
1.221895
1.384616
1.408458
1.321435
1.366735
1.672506
1.691580
1.828671
1.924634
2.310872
3.458858
17.066598
49.199462
140.668750
263.509750
518.927574
757.478476
1015.716791
1015.716791
1015.716791
1015.716791
1015.716791
853.523016
551.991463
353.470445
174.235702
97.803473
52.218437
43.132901
49.970746
60.386658
80.085993
99.962950
127.661824
145.213604
165.657997
175.165534
174.093843
166.237950
146.366954
128.811598
104.224682
88.680983
73.449612
62.977672
54.993629
51.154494
46.512485
45.200586
41.244626
39.856434
37.372708
35.741925
33.098459
31.987429
29.476881
26.943684
25.137663
23.747683
22.720695
20.777583
18.941760
17.995834
16.016960
15.111566
14.248490
13.269782
12.262464
11.457801
10.276437
9.983778
9.251833
##ZVALUE=310
0.846982
0.673532
0.859499
0.868440
0.857711
0.742674
0.885725
0.813603
0.809431
0.800490
0.721812
0.809431
0.792742
0.994802
0.968575
1.018643
0.986457
1.088977
1.015663
1.058578
1.015663
1.224875
1.062751
1.189709
1.137853
1.323819
1.367927
1.459718
1.356602
1.430511
1.441836
1.549721
1.669526
1.728535
1.985431
2.012849
2.619624
7.895827
25.342703
85.870624
173.535943
375.891924
593.596697
922.482610
1015.793681
1015.793681
1015.793681
1015.793681
1008.784771
718.924999
487.968922
259.522796
149.921775
71.537495
47.839880
43.856502
49.190521
60.731769
73.710680
93.510747
111.286640
134.340525
147.527456
156.809688
157.233477
145.794749
131.415725
112.639666
92.712641
72.177649
59.994459
48.565865
42.460561
36.989450
34.666657
31.770468
29.832721
27.697682
26.451945
23.741722
23.371577
20.566583
19.616485
18.758774
17.073750
15.939474
15.335679
14.193654
13.274550
12.306571
11.259913
10.723472
10.421872
9.534955
8.905530
8.426905
##ZVALUE=315
0.794530
0.885725
0.825524
0.904799
0.738502
0.511408
0.767708
0.788569
0.802875
0.789762
0.657439
0.898838
0.820756
0.814795
0.817776
0.860691
0.869632
0.863671
0.926852
1.051426
0.927448
0.889897
0.856519
1.005530
0.795722
1.077652
0.992417
1.026988
1.011491
1.257658
1.269579
1.294613
1.428723
1.432896
1.611710
1.465678
1.785755
2.039671
2.319813
4.013777
13.097525
53.766966
119.640827
279.473662
472.883582
807.752609
1012.899876
1015.793681
1015.793681
1015.793681
1015.793681
859.825611
623.019934
343.618989
200.290680
89.585781
53.158998
38.897991
40.264726
45.753717
52.214861
65.194964
77.240467
97.025633
111.938715
129.727721
137.496591
138.276815
131.455660
112.106800
95.694661
75.940490
59.677958
43.558478
35.381913
28.773546
24.817586
22.114515
21.406412
19.962788
18.211603
16.638637
15.804768
14.817715
13.701916
13.003945
12.272596
11.612773
10.828972
10.220408
9.803772
9.083748
8.295774
7.900596
7.706881
7.298589
##ZVALUE=320
0.584722
0.641942
0.664592
0.755787
0.781417
0.784993
0.819564
0.753999
0.780821
0.804663
0.644922
0.832677
0.698566
0.658631
0.700951
0.703931
0.864863
0.848770
0.837445
0.669956
0.856519
0.799894
0.790954
0.986457
0.852942
0.843406
1.073480
1.122952
1.033545
1.003742
1.204610
1.166463
1.213551
1.390576
1.328588
1.262426
1.523495
1.508594
1.614690
1.767874
1.997948
2.456903
5.877614
30.426979
76.964498
206.386447
354.607701
619.208813
858.256817
1015.793681
1015.793681
1015.793681
1015.793681
972.113609
728.875995
423.545837
251.875520
118.594766
62.189698
31.903982
26.647449
27.360916
29.420853
35.236478
43.922663
60.376525
73.846579
93.188882
105.065703
115.489960
116.708875
109.350681
97.771883
77.382922
60.740709
43.546557
32.834411
22.836924
18.433928
14.183521
12.672544
11.480451
10.485649
9.850860
9.840727
9.181499
8.788705
7.802844
7.649660
7.302761
7.022619
6.898642
6.613731
6.255507
6.072521
5.998611
##ZVALUE=325
0.650883
0.648499
0.692606
0.548959
0.651479
0.694990
0.718832
0.760555
0.685453
0.638962
0.765920
0.753999
0.764728
0.760555
0.972748
0.748634
0.876784
0.747442
0.680685
0.699759
0.790954
0.742674
0.806451
0.865459
0.831485
1.028776
0.820756
1.016855
1.185536
1.065731
1.041889
1.027584
1.146793
1.078844
1.074672
1.210570
1.107454
1.273751
1.413822
1.240969
1.482964
1.865625
1.885891
2.178550
3.741980
19.990802
51.697493
139.541626
254.556537
497.360826
725.477934
1004.127860
1015.838981
1015.838981
1015.838981
1004.720926
804.024935
502.464771
312.788486
143.344998
71.244836
26.784539
15.683770
13.796687
14.107823
17.605424
21.452904
32.283664
43.479800
62.294602
75.428486
90.426803
97.698569
99.389553
92.940927
78.975558
64.454675
47.178864
34.969449
21.821856
15.385747
10.149479
8.578897
7.056594
6.408691
6.200671
5.849600
5.588531
5.350709
5.052686
5.069971
4.747510
4.926920
4.544854
4.706979
4.290938
##ZVALUE=330
0.669956
0.635982
0.657439
0.518560
0.560880
0.721812
0.629425
0.648499
0.595450
0.668764
0.719428
0.879765
0.680685
0.800490
0.649691
0.533462
0.797510
0.682473
0.740886
0.789762
0.668764
0.701547
0.596642
0.755787
0.781417
0.761747
0.841618
0.794530
0.762939
0.880957
0.919700
0.889897
0.885725
1.051426
0.924468
1.101494
1.155734
1.136661
1.135468
1.216531
1.364946
1.384616
1.502633
1.451969
1.669526
2.104640
2.384782
8.862615
27.702451
91.892481
181.122422
379.333496
582.419634
891.970992
1015.799642
1015.799642
1015.799642
1015.799642
917.395949
608.673692
395.747423
189.092755
97.217560
35.439730
14.398694
8.341670
8.071661
8.501410
11.047721
17.106533
24.343729
38.155913
51.031709
69.614649
80.345869
89.024901
89.167953
82.078576
72.642565
55.700541
42.879581
27.239919
19.972920
12.588501
9.111762
6.178617
5.231500
4.575849
4.424453
4.148483
4.054904
4.044771
3.934503
3.910661
3.822446
3.858805
##ZVALUE=335
0.627637
0.592470
0.534654
0.670552
0.576973
0.633597
0.541806
0.665784
0.674725
0.607967
0.623465
0.524521
0.659823
0.640750
0.621676
0.664592
0.799894
0.532866
0.595450
0.655651
0.809431
0.610948
0.838637
0.868440
0.758767
0.785589
0.696778
0.864863
0.946522
0.792742
0.896454
0.962615
0.849962
0.812411
0.945926
0.973940
0.969768
1.025796
1.115799
1.164675
1.282692
1.153946
1.271963
1.138449
1.388788
1.471639
1.550913
1.772642
1.897812
4.341602
13.732910
56.194663
119.660497
274.694562
457.640886
760.103464
984.249711
1015.808582
1015.808582
1015.808582
994.933844
712.578893
491.565466
261.690617
139.382482
48.217773
19.720793
8.078814
6.881952
6.706715
7.702708
10.286570
14.419556
24.139881
34.488440
50.315857
62.580705
75.027943
80.892444
82.510710
77.487826
63.826442
53.825974
39.844513
29.871464
18.970966
13.085604
8.379817
6.308556
4.731417
4.247427
3.969669
3.966689
3.549457
3.454685
3.515482
##ZVALUE=340
0.499487
0.580549
0.494719
0.539422
0.577569
0.516772
0.435710
0.461936
0.683665
0.452995
0.528693
0.617504
0.697970
0.638962
0.473857
0.607967
0.610948
0.491738
0.640750
0.502467
0.605583
0.685453
0.656843
0.705719
0.632405
0.776649
0.688434
0.710487
0.730753
0.665784
0.759959
0.795722
0.743866
0.890493
0.844598
0.757575
0.878572
0.727773
0.825524
0.845790
0.888705
0.957847
1.054406
1.097918
1.146793
1.134872
1.314878
1.398921
1.507998
1.641512
1.817942
2.432466
6.954670
33.396482
83.138943
211.756825
371.369720
647.615790
859.079957
1015.774012
1015.774012
1015.774012
1015.774012
814.966559
585.056543
314.953923
176.372528
72.828531
29.394627
9.310842
6.959438
6.077886
6.318688
7.425547
9.116530
14.362931
21.344423
33.520460
44.979453
59.773922
68.970919
75.909495
76.424479
71.569681
63.825846
50.596595
40.171742
27.514696
20.073652
12.783408
8.745790
5.702972
4.530549
3.820658
3.648996
3.358722
##ZVALUE=345
0.634789
0.462532
0.447631
0.546575
0.530481
0.558496
0.588894
0.541806
0.520945
0.678897
0.573993
0.595450
0.608563
0.505447
0.548959
0.551939
0.578761
0.538826
0.485778
0.687838
0.651479
0.719428
0.595450
0.549555
0.681877
0.687838
0.675917
0.756979
0.624657
0.688434
0.673532
0.760555
0.792742
0.812411
0.802875
0.769496
0.645518
0.935793
0.820756
1.028776
1.040697
0.999570
0.953674
1.053810
0.988841
1.068711
1.051426
1.062751
1.081824
1.160502
1.356602
1.520514
1.650453
1.866817
3.295541
18.263459
51.841736
142.174959
260.590911
493.750572
705.474019
980.669856
1015.794873
1015.794873
1015.794873
897.247791
685.674548
417.273641
240.549445
96.230507
43.336749
13.807416
7.657409
6.009936
5.614758
6.021857
6.261468
8.469820
11.968613
20.244718
28.787851
42.643547
51.838756
62.503815
68.517923
70.397854
67.480803
60.010552
50.596595
38.073659
28.841496
18.413663
12.838840
8.292794
5.695820
4.272461
##ZVALUE=350
0.529885
0.383854
0.471473
0.337958
0.542998
0.488758
0.379682
0.517964
0.585914
0.431538
0.430942
0.522733
0.382662
0.535846
0.484586
0.565648
0.564456
0.619888
0.531673
0.548959
0.534654
0.461936
0.577569
0.657439
0.626445
0.707507
0.572801
0.455976
0.741482
0.663996
0.559688
0.664592
0.605583
0.682473
0.632405
0.746846
0.727773
0.772476
0.592470
0.668764
0.749826
0.829697
0.774860
0.831485
0.888705
0.938773
0.991821
0.994802
0.988841
1.222491
1.232624
1.152754
1.340508
1.343489
1.376867
1.622438
2.160668
9.701848
29.993653
93.960762
183.335543
379.166007
569.965839
839.850903
1005.543470
1015.745997
1015.745997
979.861021
772.315860
475.758910
297.255516
137.445927
65.227747
17.963648
8.204579
5.892515
5.409718
4.970431
5.013943
5.672574
7.246733
11.884570
17.256737
26.135445
34.762621
46.590567
55.018663
62.450767
64.234734
61.868429
56.411624
46.019554
37.512779
25.736690
19.090772
12.029409
##ZVALUE=355
0.447631
0.447631
0.515580
0.607967
0.486970
0.412464
0.291467
0.430942
0.518560
0.447631
0.512600
0.397563
0.447631
0.329614
0.309944
0.510812
0.668764
0.581741
0.514984
0.517964
0.607967
0.629425
0.468493
0.546575
0.536442
0.620484
0.686646
0.545979
0.669956
0.553727
0.642538
0.538826
0.480413
0.530481
0.463724
0.552535
0.808835
0.659823
0.501871
0.852942
0.815988
0.697970
0.732541
0.753999
0.758767
0.719428
0.916719
0.947714
0.933409
0.933409
0.807643
0.886917
1.102686
1.063943
1.182556
1.388788
1.446605
1.621842
1.842976
4.656911
16.370416
62.840581
129.468441
276.581645
451.041460
735.006928
930.900574
1015.740037
1015.740037
1003.772616
843.504667
575.079918
375.629663
172.039866
84.617734
25.742650
10.162592
5.827546
5.222559
4.795790
4.615784
4.577637
5.029440
6.626844
9.255409
14.901757
20.962954
31.201839
38.860440
49.410462
55.511594
58.189631
57.256818
51.737428
44.821501
35.059452
##ZVALUE=360
0.368953
0.324845
0.437498
0.255704
0.309944
0.155568
0.269413
0.381470
0.248551
0.432730
0.416636
0.303984
0.238419
0.400543
0.408888
0.430942
0.350475
0.437498
0.511408
0.598431
0.373721
0.366569
0.406504
0.346899
0.327826
0.449419
0.567436
0.408888
0.458956
0.536442
0.513792
0.616908
0.504851
0.461936
0.479817
0.536442
0.491738
0.560880
0.583529
0.449419
0.576973
0.595450
0.686646
0.581741
0.665784
0.556707
0.665784
0.722408
0.736713
0.737906
0.849962
0.755787
0.868440
1.034737
1.054406
1.037717
1.095533
1.078844
1.401901
1.303554
1.506805
2.376437
6.990433
31.621456
78.356862
197.485685
335.812569
571.686625
785.959959
1007.771492
1015.639901
1015.639901
932.542682
662.550926
454.132557
227.847695
121.634603
44.997931
17.247796
6.131530
5.131960
4.843473
4.381537
4.292727
4.028678
4.244447
5.242825
7.693768
11.060834
17.312765
24.258494
34.451485
41.872859
49.627423
52.359700
52.340627
##ZVALUE=365
0.457764
0.415444
0.409484
0.312924
0.475645
0.547767
0.483990
0.519753
0.529885
0.481606
0.469685
0.607967
0.551939
0.375509
0.529885
0.742674
0.702739
0.459552
0.573993
0.467896
0.403523
0.525713
0.470877
0.527501
0.524521
0.658631
0.580549
0.696778
0.734925
0.698566
0.686646
0.634789
0.578761
0.616908
0.745654
0.645518
0.512600
0.608563
0.702739
0.776649
0.767708
0.797510
0.841618
0.913739
0.829697
0.959635
0.887513
0.828505
0.889897
1.016855
0.917912
1.099706
0.973940
1.049638
0.993609
1.082420
1.109838
1.294613
1.404881
1.362562
1.458526
1.721978
1.696944
1.862645
3.321767
16.313791
46.684742
134.088993
247.278810
461.372733
663.235784
906.425714
1015.793681
1015.793681
981.706977
749.772787
548.557639
311.542749
172.830820
65.161586
26.874542
8.372664
5.643964
4.998446
4.771948
4.257560
4.097819
3.916621
3.730655
4.699826
6.105900
9.845495
13.910532
20.961761
27.675629
36.443472
##ZVALUE=370
0.512600
0.530481
0.373721
0.533462
0.563860
0.551939
0.395775
0.552535
0.537634
0.458956
0.513792
0.637770
0.394583
0.592470
0.543594
0.655651
0.405908
0.618696
0.679493
0.416636
0.574589
0.669956
0.509620
0.685453
0.546575
0.569820
0.528693
0.490546
0.546575
0.601411
0.775456
0.721812
0.594854
0.594854
0.625849
0.662804
0.640750
0.647902
0.730753
0.822544
0.730753
0.779629
0.645518
0.907779
0.770688
0.883937
0.728965
0.787973
0.805855
0.595450
0.817776
1.001954
1.108646
1.078844
1.025796
0.936985
1.004934
1.147985
1.111627
1.152754
1.208782
1.126528
1.386404
1.601577
1.650453
1.718998
2.586842
7.416010
36.357641
88.373423
214.422941
351.164937
589.062572
792.165995
996.617675
1015.793681
1005.599499
863.373876
599.256754
399.325490
191.314816
100.177526
37.896633
14.922619
5.707741
4.835725
4.324913
4.032850
3.649592
3.556609
3.530979
3.324747
4.316568
5.458593
8.386970
11.838675
##ZVALUE=375
0.512600
0.527501
0.410676
0.444651
0.459552
0.506639
0.499487
0.394583
0.547767
0.482798
0.396967
0.563860
0.429749
0.511408
0.639558
0.314713
0.562668
0.474453
0.479817
0.464916
0.497699
0.329614
0.380874
0.583529
0.540614
0.543594
0.521541
0.586510
0.720620
0.541806
0.454783
0.547767
0.640750
0.532866
0.716448
0.671744
0.783801
0.765920
0.664592
0.614524
0.581741
0.692606
0.676513
0.675917
0.628829
0.805855
0.694990
0.726581
0.656843
0.821948
0.841618
0.792742
0.837445
0.789762
0.793934
0.858903
0.862479
0.904799
0.953674
0.854731
1.024604
1.015663
1.099706
1.220703
1.321435
1.321435
1.420975
1.531839
1.844764
4.646778
15.608668
57.559609
124.491453
283.719897
455.777645
722.849965
900.423527
1015.793681
1015.793681
919.880867
738.753676
470.950603
299.457908
140.255690
71.180463
23.056865
8.939505
4.595518
4.208684
3.779531
3.527999
3.311634
3.064871
3.052950
3.212690
3.448725
##ZVALUE=380
0.530481
0.462532
0.479817
0.659823
0.601411
0.469685
0.367761
0.292659
0.391603
0.578761
0.485778
0.474453
0.489950
0.431538
0.456572
0.496507
0.497699
0.424981
0.581741
0.575781
0.513792
0.618696
0.613928
0.499487
0.542998
0.569820
0.592470
0.592470
0.582933
0.686646
0.571609
0.699759
0.589490
0.797510
0.789762
0.766516
0.771880
0.646710
0.712872
0.722408
0.655651
0.572801
0.731945
0.644922
0.673532
0.688434
0.704527
0.881553
0.712872
0.829697
0.872612
0.625849
0.786781
0.908971
0.734925
0.787973
0.778437
0.979900
0.901818
0.965595
1.058578
1.009703
0.938773
0.776649
1.136661
1.009703
1.111627
1.411438
1.386404
1.764894
1.796484
2.600551
8.388758
39.910674
93.618631
225.136876
374.784470
618.772507
818.081498
1006.748676
1015.793681
966.261625
816.661716
588.068962
403.665900
205.042958
106.211901
37.536621
14.926791
5.117655
3.753901
3.827810
3.546476
3.389716
3.236532
2.938509
##ZVALUE=385
0.506639
0.490546
0.527501
0.396967
0.425577
0.431538
0.480413
0.496507
0.520945
0.511408
0.563860
0.530481
0.393987
0.454783
0.529885
0.424981
0.402927
0.396967
0.402927
0.400543
0.397563
0.462532
0.504851
0.508428
0.473857
0.544786
0.615716
0.554919
0.576973
0.799894
0.643730
0.694990
0.728965
0.572801
0.806451
0.782609
0.817776
0.768900
0.777841
0.762939
0.799894
0.844598
0.831485
0.775456
0.633597
0.595450
0.760555
0.700951
0.586510
0.691414
0.691414
0.746846
0.817776
0.714660
0.853539
0.571609
0.712872
0.704527
0.725985
0.741482
0.771880
0.888705
0.825524
0.823736
0.891685
1.018643
1.176000
1.126528
1.255870
1.328588
1.536608
1.532435
1.585484
1.805425
4.292727
22.687912
59.310794
153.116584
274.592638
512.296557
715.977550
942.927599
1015.793681
1014.313698
921.531916
700.367689
509.147644
285.723805
164.870620
68.413615
27.879477
7.297993
4.289746
3.585815
3.312826
3.312826
##ZVALUE=390
0.434518
0.384450
0.388622
0.413656
0.401735
0.498891
0.440478
0.442863
0.338554
0.397563
0.488758
0.568628
0.390410
0.469685
0.552535
0.253916
0.455976
0.448823
0.410676
0.424981
0.427961
0.545979
0.557899
0.453591
0.552535
0.631809
0.513792
0.609756
0.721812
0.673532
0.674725
0.696778
0.719428
0.759959
0.957847
0.891685
0.948906
0.767708
0.973940
0.762939
0.721812
0.665784
0.690818
0.799894
0.651479
0.652671
0.768900
0.767708
0.655651
0.725985
0.803471
0.547767
0.778437
0.773668
0.742674
0.791550
0.844598
0.770688
0.758767
0.745654
0.857711
0.816584
0.820756
0.916719
0.865459
0.982881
1.069903
0.995994
1.205802
1.288652
1.310706
1.446605
1.521707
1.342893
1.548529
1.690984
2.360940
12.151599
37.580729
116.107464
221.422911
432.648659
609.594584
834.981799
970.315933
1015.791893
994.833708
811.910629
633.574724
397.231579
236.051679
98.457932
45.565963
11.967421
5.108714
3.637671
##ZVALUE=395
0.521541
0.498891
0.452995
0.401735
0.300407
0.511408
0.463724
0.328422
0.459552
0.340939
0.287890
0.348687
0.384450
0.508428
0.512600
0.414848
0.378489
0.433922
0.563860
0.378489
0.425577
0.473857
0.478625
0.453591
0.496507
0.517964
0.566840
0.672936
0.613928
0.721812
0.693798
0.677705
0.999570
0.777841
0.718832
0.909567
0.846982
0.756979
0.790954
0.802875
0.639558
0.677705
0.876784
0.640750
0.828505
0.728965
0.646710
0.850558
0.809431
0.710487
0.804663
0.865459
0.731945
0.885725
0.745654
0.844598
0.831485
0.860691
0.798702
1.092553
0.767708
0.762939
1.052618
0.894666
0.943542
0.732541
1.025796
1.042485
1.296997
1.290441
1.308918
1.290441
1.523495
1.252890
1.507998
1.448989
1.467466
1.595616
2.047420
5.618930
27.956963
71.554780
175.591707
295.765996
521.806479
713.024735
938.706994
1015.794873
1015.794873
930.491686
689.783692
490.975976
265.797973
147.890449
60.887933
26.171803
##ZVALUE=400
0.518560
0.602603
0.574589
0.359416
0.520945
0.425577
0.459552
0.304580
0.376701
0.359416
0.413656
0.335574
0.279546
0.556707
0.417829
0.426769
0.432730
0.513792
0.429749
0.452995
0.431538
0.386834
0.477433
0.407696
0.446439
0.558496
0.530481
0.417829
0.468493
0.627637
0.623465
0.733733
0.654459
0.621676
0.740886
0.736713
0.780821
0.723600
0.612736
0.758767
0.684857
0.845790
0.844598
0.814795
0.848770
0.717640
0.585914
0.812411
0.796914
0.693798
0.771880
0.766516
0.841618
0.700951
0.826716
0.848770
0.906587
0.929832
0.850558
0.915527
0.870824
1.031756
0.806451
1.043677
0.969768
1.064539
0.912547
1.084805
1.127720
1.195669
1.233816
1.242757
1.203418
1.156926
1.267791
1.234412
1.261830
1.257658
1.478791
1.535416
1.653433
3.555417
13.318658
51.027536
109.945536
244.902968
395.777822
639.285445
814.651847
987.803936
1015.793681
946.880579
802.055597
565.367937
379.824638
193.672776
##END
