##TITLE=FDWSEC2
##FORMAT=SPECTACLE-ASCII V-1.2
##DATA TYPE=ULTRAVIOLET SPECTRUM
##SECOND TYPE=ULTRAVIOLET SPECTRUM
##DATE=10/25/17
##TIME=10:37:08
##SPECTROMETER/DATA SYSTEM=SPECTACLE
##XUNITS=NM EM
##YUNITS=ENERGY
##YFACTOR=1
##FIRSTX=220
##LASTX=410
##NPOINTS=96
##3DDATA=Equidistant
##ZUNITS=NM EX
##FIRSTZ=210
##LASTZ=400
##ZPOINTS=39
##XYDATA=(Y..Y)
##ZVALUE=210
42.098761
38.256645
28.016567
19.656420
15.863776
13.572574
12.052655
10.870695
10.889769
9.778738
9.217858
7.418990
6.340742
7.986426
8.975863
9.597540
10.102987
9.896755
10.508895
11.938810
12.935996
13.585687
14.204979
15.889406
14.909506
16.011596
16.915798
19.521713
20.093918
18.899441
21.820664
22.127628
22.956729
21.450520
25.221705
22.721887
24.464726
25.753975
25.440454
25.168657
24.606586
26.631951
26.243925
26.782751
26.706457
27.332902
28.450489
26.300550
29.279590
28.864741
28.864741
30.287504
29.080510
30.663610
28.423667
29.985905
29.209852
33.104420
33.380985
33.039451
32.351613
32.203794
33.508539
33.134818
33.406615
34.051538
37.105680
39.434433
42.680502
53.146482
58.284998
66.919923
82.490444
93.669891
106.647611
118.178725
131.920576
135.125518
142.748952
141.598582
132.638812
119.980574
103.277564
90.186000
74.597001
59.750676
47.829747
39.423704
34.782887
37.643909
43.447614
54.659843
69.281459
86.428523
103.392601
117.131472
##ZVALUE=215
131.651759
130.420923
96.567869
58.775544
42.228699
30.532479
21.841526
18.375516
19.405484
16.629696
14.958978
12.716651
10.011792
10.049939
9.602904
8.691549
8.475780
7.759929
9.227991
8.980632
10.845661
11.515617
10.754466
12.606978
12.833476
13.371706
15.255809
15.334487
16.790628
16.657710
19.289851
18.521547
19.880533
18.624663
19.865632
21.219850
19.425750
19.060969
21.009445
21.353960
21.689534
22.586584
22.292733
20.939708
22.514462
23.208857
22.035837
23.996830
22.530556
24.623871
23.300648
23.425817
26.283860
24.289489
26.079416
24.875998
25.599599
24.623871
25.958419
25.394559
28.214455
25.894642
26.569963
27.484894
28.433800
27.152896
28.537512
31.546950
32.024980
38.879514
44.634938
50.717592
57.587624
64.378977
70.027709
80.257654
82.787871
83.714724
89.374781
86.357594
82.297921
79.895854
72.514415
62.961578
55.982471
45.674443
37.880540
33.573508
28.538704
24.795532
22.924542
23.255944
23.433566
24.151802
28.853416
35.086870
##ZVALUE=220
322.838426
327.199697
314.805508
246.775746
193.428993
128.823519
92.658997
62.445998
41.258931
31.156540
29.162765
26.445985
23.643970
25.817752
17.738938
16.308427
12.018681
9.881854
10.397434
9.439588
10.143518
11.548996
10.703802
11.136532
11.480451
13.266802
13.797879
13.966560
16.485453
16.163588
17.279983
18.763542
18.165708
19.686818
18.708706
19.366741
21.059513
20.446777
20.606518
20.036697
21.430850
20.888448
20.032525
20.332932
21.446943
20.363927
20.283461
23.521781
21.771789
22.360682
22.524595
24.123788
23.058653
24.874806
23.187995
23.022890
23.599863
23.103952
23.946762
25.178790
23.603439
25.886893
24.361610
23.237467
25.340915
24.071932
26.142597
26.740432
29.110909
29.320717
33.544898
38.113594
44.830441
53.231716
56.926608
61.255693
66.275597
68.137646
70.501566
67.198873
64.588785
55.837631
55.464506
45.457482
38.117766
32.184720
29.429793
23.533702
21.028519
19.551516
16.207695
16.002655
15.485883
16.776919
16.033649
16.770959
##ZVALUE=225
397.997499
409.333706
461.343527
493.533611
463.576913
371.854901
294.607878
181.260705
124.825835
77.127814
55.548549
45.301914
42.645931
40.907860
42.074919
36.973953
30.659437
26.211739
20.646453
15.666485
12.388825
11.074543
11.408925
10.588765
11.586547
11.947751
11.667609
13.169646
15.009642
13.609529
16.289949
16.232729
17.942786
18.977523
17.901659
17.797947
18.872619
19.363761
19.436479
17.152429
18.592477
18.984675
19.451976
18.050671
19.069910
20.650625
20.073652
19.408464
17.985702
19.522905
19.521713
20.491481
19.576550
19.799471
20.791888
22.879839
21.807551
21.766424
21.092892
22.191405
21.911860
22.503734
22.051930
21.926761
21.531582
21.529794
21.720529
23.757815
24.508834
28.084517
27.335882
32.062531
37.096739
39.730668
41.206479
44.392943
42.722821
41.826963
40.879846
39.524436
37.614703
32.343864
31.537414
27.985573
24.797916
23.870468
20.859838
18.567443
16.870499
16.732812
15.739799
14.381409
14.789701
14.562607
15.135407
14.078617
##ZVALUE=230
311.941504
332.896709
476.610661
665.749907
776.504874
824.960470
792.346001
668.348670
535.115600
397.581458
241.128802
155.236721
99.107623
74.738860
62.567592
63.848495
66.411495
60.806870
52.259564
46.426654
36.244988
27.134418
20.696521
15.499592
13.891459
14.213920
12.589693
13.798475
14.562607
14.154911
14.003515
15.227795
15.217662
15.458465
16.719699
14.771819
16.521811
17.076731
17.562509
18.908978
18.272996
17.371774
17.642975
18.329620
19.525886
19.396544
19.941926
19.348860
20.068884
19.801855
21.554828
22.871494
22.010803
21.849871
22.846460
24.013519
23.627877
22.528768
22.595525
25.497675
24.641752
22.966862
22.756457
22.225976
23.205876
25.025606
22.953749
25.536418
25.672913
30.381680
29.574633
32.455921
36.579967
41.319728
41.932464
43.532848
44.856668
43.528676
39.448738
37.340522
36.459565
32.844543
30.115843
26.453733
25.474429
20.475984
19.615889
19.440651
17.545819
16.647577
16.545653
15.215874
14.529824
14.747977
13.929605
14.824867
##ZVALUE=235
107.811689
125.837922
246.600509
504.941940
731.456876
993.848443
1015.830636
1015.830636
1015.830636
997.521877
723.533034
516.964793
292.289853
193.611979
121.686459
95.890760
84.095001
90.373755
91.890693
94.442964
86.615682
72.454810
58.793426
41.345954
31.957626
21.366477
18.716455
14.547706
13.811588
13.703704
13.330579
14.818907
13.214946
14.464855
15.257597
14.555454
14.712811
15.942454
16.631484
16.788840
17.464757
16.959906
18.430948
17.215610
19.340515
20.195842
20.736456
21.014810
23.111701
22.054911
22.345781
23.697615
24.342537
23.701787
23.295879
24.922490
24.025440
25.327802
26.280880
24.979711
25.112629
25.539994
25.533438
25.336742
25.044680
26.287436
28.379560
26.209950
27.164817
28.116703
32.086968
31.380653
35.378933
34.260750
36.745667
36.722422
38.240552
33.927560
34.142733
31.951666
29.788613
26.377439
24.548769
23.279786
20.215511
18.668771
16.636848
16.188622
17.716885
15.119910
17.680526
15.271902
14.222860
13.695955
14.555454
14.894605
##ZVALUE=240
5.191565
7.907748
32.021403
144.526958
314.866900
633.798838
933.652520
1015.830636
1015.830636
1015.830636
1015.830636
1015.830636
890.194774
640.469790
373.481512
233.023763
137.246847
109.311938
99.781752
106.208920
113.970637
123.338699
115.961432
104.505420
88.857412
67.210793
53.790808
36.199689
27.546883
19.757748
15.426874
14.506578
13.971925
14.604926
14.586449
13.694763
15.095472
16.070604
16.419888
16.637444
17.957687
18.775463
20.365715
18.943548
19.166470
20.174980
20.967722
23.051500
22.865534
25.058985
25.955439
26.142001
27.704835
28.429627
27.949810
26.561618
28.915405
27.361512
31.708479
30.997992
30.185580
29.928684
29.005408
30.181408
29.099584
28.757453
30.884743
28.987527
30.473471
31.248927
33.855438
34.045577
36.719441
35.576820
37.258863
35.349727
33.937693
33.868551
31.962991
30.218959
28.801560
25.206804
22.479892
21.818876
22.379756
19.236803
17.626882
18.042922
18.178821
15.954971
17.038584
14.347434
16.666651
16.542673
16.389489
13.985634
##ZVALUE=245
3.820658
3.492832
4.987717
5.029440
17.601848
106.256604
264.815688
640.750527
992.605686
1015.830636
1015.830636
1015.830636
1015.830636
1015.830636
1015.830636
919.274688
536.406636
342.936516
221.428871
130.751729
105.296969
103.676915
113.296509
127.609968
131.698847
128.438473
117.753744
96.892715
81.877708
56.834817
45.190454
28.350949
22.044778
16.266704
14.446974
16.167760
14.948845
16.200542
15.709996
17.137527
17.984509
17.983913
19.176602
19.871593
21.537542
21.808743
22.675991
23.528934
25.166869
25.921464
26.889443
26.642680
28.263927
30.187964
28.557777
29.687881
30.508637
28.589964
30.491948
29.066801
29.464960
29.472709
30.234456
28.760433
30.092001
28.979778
29.911995
29.043555
29.745698
30.223727
32.476783
33.234954
32.574534
33.317804
34.543872
31.913519
32.486916
31.319857
29.430985
25.934577
25.521517
23.076534
20.372868
20.018816
19.018650
19.004941
17.742515
17.220974
16.141534
15.407801
16.216636
15.188456
14.500618
15.678406
14.629960
13.841987
##ZVALUE=250
3.184676
3.075600
3.065467
3.938675
3.664494
4.672408
8.234978
66.040754
211.031437
470.867753
986.371636
1015.830636
1015.830636
1015.830636
1015.830636
1015.830636
1015.830636
1015.830636
867.053866
480.964780
293.859839
157.037973
112.674832
96.185803
106.252432
128.248930
139.822960
142.881870
138.377547
126.814842
107.766986
89.052916
61.909556
43.888688
28.601885
21.240711
16.658902
14.988780
15.856624
16.103983
17.328858
17.820597
18.232465
19.999743
20.203590
22.161603
22.930503
22.750497
23.713708
25.085807
25.680661
25.567412
27.526617
27.103424
27.987957
28.951764
27.865767
27.241707
28.114915
28.301477
28.284788
27.584434
26.854873
26.295781
25.935769
24.561882
26.517510
24.613738
27.699471
27.244687
26.727915
26.928782
27.590990
28.181672
28.233528
28.024912
27.368665
26.593804
24.885535
23.155808
22.611618
20.906925
18.314719
16.540885
16.415715
15.573502
15.355945
14.811754
14.422536
12.260675
12.546778
12.521744
12.420416
11.544824
11.352897
11.491776
##ZVALUE=255
3.264546
3.011823
3.164411
3.341436
3.912449
3.629923
3.669858
4.808903
6.335974
24.932623
187.460780
458.867550
871.064663
1015.830636
1015.830636
1015.830636
1015.830636
1015.830636
1015.830636
1015.830636
1010.716558
712.725520
365.599990
221.239924
122.417808
96.003413
93.844533
106.998682
127.666593
141.724944
145.796537
143.308640
133.426785
108.689666
88.651776
61.257482
44.297576
29.469728
22.574663
17.860532
16.917586
17.515421
17.660856
18.865466
19.147992
19.956827
21.104813
22.003651
21.861792
22.982955
22.998452
24.369955
24.173856
24.446845
25.634766
24.204850
24.130940
24.749637
26.681423
24.373531
24.031997
23.889542
24.420619
23.629665
22.376776
22.515655
22.185445
21.671653
21.158457
22.241473
22.403598
24.131536
24.574995
24.402738
23.021698
23.618937
21.766424
21.181703
18.918514
17.362833
16.500950
15.960932
14.062524
12.955666
12.694597
11.602640
12.250543
11.670589
11.772513
11.046529
10.561943
9.675622
9.866953
10.460615
9.800792
9.627938
##ZVALUE=260
2.993941
2.963543
2.489686
2.910495
2.998710
3.034472
3.905892
3.613830
4.158616
4.049540
5.589724
10.463595
59.720874
316.218734
691.564679
1015.830636
1015.830636
1015.830636
1015.830636
1015.830636
1015.830636
1015.830636
1015.830636
915.966034
494.958758
310.389996
172.953606
114.194751
81.743598
83.853602
103.887916
128.737688
142.700672
154.052973
150.830746
131.753683
118.292570
89.723468
66.580772
45.733452
33.522844
23.452640
20.679832
17.675757
17.777681
19.246936
18.593669
18.693805
19.462705
20.653605
20.421743
20.874739
22.355914
22.524595
20.868778
22.597909
21.666884
20.585656
21.823645
21.188855
21.012425
20.745993
20.144582
20.026565
20.133853
19.297600
19.686818
19.630790
19.606948
20.622611
19.987822
21.082759
20.879507
20.096898
20.826459
20.816922
20.022988
18.794537
17.246604
16.231537
14.982820
13.553500
13.062954
11.901855
11.705756
10.531545
11.071563
10.643601
9.587407
9.728670
9.477735
8.781552
9.311438
9.238720
8.695722
8.114576
##ZVALUE=265
2.273917
2.549887
2.293587
2.658963
3.011823
2.924800
3.095865
3.399849
3.348589
3.857613
4.056692
4.633665
5.067587
7.003546
28.550029
222.769976
551.355481
1015.830636
1015.830636
1015.830636
1015.830636
1015.830636
1015.830636
1015.830636
1015.830636
1015.830636
695.433617
440.659523
234.467983
139.569640
90.551972
72.763562
83.602667
113.757849
132.807493
151.160955
156.740546
151.121616
138.595700
111.335516
90.865493
65.161586
47.589540
31.875968
23.708940
19.802451
18.579960
18.343925
17.982721
19.129515
18.798709
19.599795
19.790530
19.326806
20.263791
19.697547
20.055771
19.954443
19.906759
19.684434
19.077659
19.484758
18.606782
17.993450
18.275976
18.436909
18.822551
17.612576
18.670559
18.761754
18.095970
20.008683
18.595457
19.829869
18.462539
18.291473
18.137693
17.275810
16.215444
14.659762
14.219880
12.743473
12.514591
11.578798
11.121631
10.618567
9.890795
9.737611
9.359717
9.303689
8.457899
8.755922
8.417964
8.699894
8.571744
8.135438
##ZVALUE=270
2.421737
2.302527
2.460480
2.456903
2.736449
2.819896
2.706647
3.139973
2.965927
2.964735
3.223419
4.146695
3.903508
4.475713
5.143881
6.410480
10.763407
97.902417
339.415669
955.322981
1015.816927
1015.816927
1015.816927
1015.816927
1015.816927
1015.816927
1015.816927
1015.816927
959.211588
620.939732
390.297771
196.054578
113.755465
67.563653
66.546798
88.187456
110.640526
136.277676
151.801705
158.785582
156.124830
136.168003
119.560957
91.138482
69.533587
46.774745
34.506917
24.681687
20.829439
18.151999
18.697977
19.016862
19.105673
18.624663
18.191934
18.273592
18.840432
19.450784
19.436479
17.980933
19.125938
18.523932
17.901659
18.097758
18.245578
17.462969
17.529726
17.905831
17.790794
18.297434
19.587874
19.003749
18.563867
18.390417
18.078685
18.097758
17.167926
15.749931
14.901757
13.486743
12.793541
12.017488
11.529922
10.947585
10.609627
10.063648
9.966493
9.534955
9.268522
9.300709
8.562803
8.740425
8.160472
7.962584
7.960796
7.471442
##ZVALUE=275
2.304912
2.276897
2.141595
2.334714
2.695918
2.318621
2.649426
2.768636
2.938509
2.949834
2.563000
3.317595
3.408790
3.814697
3.870726
4.844666
5.203485
5.765557
7.198453
39.738417
211.988091
610.584617
1015.836596
1015.836596
1015.836596
1015.836596
1015.836596
1015.836596
1015.836596
1015.836596
1015.836596
816.439986
517.062545
255.394578
148.214698
72.388649
55.473447
65.455437
83.788633
111.929774
131.312609
151.384473
155.695677
150.343776
136.750937
112.315416
90.382695
65.885782
50.507784
34.826994
26.945472
21.721721
18.834472
18.573999
18.296838
18.828511
18.785000
19.064546
19.850731
19.306540
19.516945
18.587708
18.495917
18.645525
18.229485
18.426776
18.848777
18.386841
17.537475
18.656850
18.923879
18.685460
18.978715
19.361973
18.333793
18.723607
17.314553
15.807748
15.482903
14.221668
13.165474
12.387633
11.485815
11.089444
11.276603
9.924769
10.536909
9.939671
9.852648
8.997917
8.598566
8.492470
8.233786
7.740855
7.862449
7.338524
##ZVALUE=280
2.155900
1.868606
2.025962
2.089739
2.249479
2.468824
2.733469
2.460480
2.564788
2.717972
2.798438
2.839565
2.882481
3.447533
3.393888
3.800988
4.271865
4.488826
4.896522
5.868673
7.195473
11.352897
137.338638
476.680994
1015.836000
1015.836000
1015.836000
1015.836000
1015.836000
1015.836000
1015.836000
1015.836000
1015.836000
959.683657
631.939769
328.355432
193.691850
89.290738
56.449771
48.292875
60.501695
85.507631
105.866790
131.510496
148.568749
156.930685
151.836872
135.064721
117.475986
90.085864
68.878531
48.042536
36.387444
26.734471
22.263527
19.544959
18.486977
18.760562
19.802451
19.580722
18.957853
19.498467
18.658638
19.135475
18.956661
19.293427
18.746853
18.484592
17.865896
19.004941
19.557476
19.185543
18.651485
18.111467
18.237829
17.264485
16.720891
15.641451
14.413595
14.023781
13.190508
11.981726
11.462569
10.805726
10.624528
10.358691
9.914637
10.344982
9.552836
9.323955
8.726716
8.314848
8.181930
7.874966
7.640719
7.481575
##ZVALUE=285
1.862645
2.112985
1.941919
2.021790
2.030730
2.251863
2.168417
2.243519
2.368689
2.335906
2.663732
2.627969
2.951622
2.899766
3.020763
3.404617
3.338456
3.741980
4.088879
4.410744
4.814863
5.622506
6.825924
8.324981
61.603785
257.398486
820.064545
1015.830636
1015.830636
1015.830636
1015.830636
1015.830636
1015.830636
1015.830636
1015.830636
1015.830636
815.706849
445.773602
267.651677
127.298832
69.204569
39.594769
39.745569
57.845712
77.503920
106.324553
125.637650
141.730905
149.924755
146.495700
137.377977
113.069415
95.034838
68.962574
50.902963
35.700798
27.698874
22.696853
21.172762
20.230412
19.887686
19.998550
19.319654
19.164681
18.883944
18.545985
18.907785
18.905997
18.970966
18.867850
18.627644
19.074678
19.242764
18.551946
18.859506
16.800761
16.860962
15.872717
14.968514
13.330579
13.109446
12.587905
11.886954
11.119843
10.290742
10.215640
10.140538
9.390712
9.738803
9.406805
8.472800
8.748770
7.901788
8.175969
7.990599
7.738471
##ZVALUE=290
1.732707
1.785755
1.905560
1.880527
1.970530
2.185702
2.095699
2.044439
2.297759
2.242923
2.372861
2.269745
2.647638
2.673864
2.813935
2.942681
2.880692
3.437996
3.182888
3.870726
3.901720
4.847646
4.985929
5.434752
6.282926
8.139610
45.411587
136.626959
701.853633
1015.823483
1015.823483
1015.823483
1015.823483
1015.823483
1015.823483
1015.823483
1015.823483
1015.823483
950.711966
636.504889
345.053673
199.462771
86.882710
45.922995
30.670762
35.109520
54.043531
71.129799
97.676516
118.272901
138.999820
147.517920
144.035816
134.490728
113.857985
94.308853
68.492889
52.485466
36.188960
29.771924
23.687482
21.158457
20.281672
19.515753
18.505454
18.822551
19.396544
19.084811
19.709468
19.179583
19.496679
19.085407
18.565655
18.456578
17.729998
16.885996
15.961528
14.832616
13.982654
13.648868
12.851954
12.118816
11.655688
10.839701
10.982752
10.400414
9.879470
9.742975
9.577870
9.111762
9.122491
8.819699
8.510947
7.977486
7.877946
7.430911
##ZVALUE=295
1.633763
1.766682
1.732707
2.005696
2.032518
1.978874
2.038479
1.835823
1.979470
1.888871
2.024770
2.195835
2.341866
2.605915
2.503991
2.477765
3.021955
2.555847
3.207922
3.294945
3.488660
3.885627
3.867745
4.544854
4.954934
5.267859
6.090999
7.032752
8.288622
48.982501
214.958787
783.124566
1015.830636
1015.830636
1015.830636
1015.830636
1015.830636
1015.830636
1015.830636
1015.830636
1015.830636
750.484467
479.606986
242.847800
134.219527
53.799748
30.230880
26.592612
34.295917
51.730871
69.092512
94.463825
112.558603
133.102536
140.722990
140.426755
128.897429
109.803677
91.314912
68.117976
52.978992
37.074685
29.447675
23.249984
20.954609
19.209981
18.812418
18.571615
19.130707
18.767715
18.684864
19.129515
18.584728
17.976761
17.262697
16.300678
15.888810
14.341474
14.045835
13.127923
12.438893
11.732578
11.207461
10.842681
10.696650
10.505915
9.920597
9.476542
9.209514
8.920431
8.259416
7.932782
8.335710
7.812977
7.851720
7.453561
##ZVALUE=300
1.746416
1.617670
1.888871
1.780987
1.808405
1.755953
1.957417
1.750588
1.793504
2.013445
2.039671
2.325773
2.350807
2.310872
2.218485
2.639890
2.608895
2.418756
2.714992
2.986789
3.103614
3.091693
2.922416
3.701448
4.008412
4.227757
4.449487
5.064607
5.944967
6.393790
7.637739
10.793805
108.393431
387.550592
1007.992029
1015.831828
1015.831828
1015.831828
1015.831828
1015.831828
1015.831828
1015.831828
1015.831828
990.067720
596.317649
367.064476
178.046823
97.848773
40.934682
24.975538
25.526881
32.528639
49.253702
64.746737
88.550448
107.890964
127.944946
135.886669
136.406422
127.349496
109.295845
91.377497
67.789555
52.859783
37.056804
29.440522
23.163557
20.649433
18.686652
19.017458
18.337965
17.939806
17.600656
16.583800
16.349554
15.186667
14.788508
13.857484
13.355613
12.845993
11.766553
11.557937
11.113882
10.683537
10.470748
9.824634
9.551644
9.295940
8.716583
8.677840
8.312464
8.037686
7.796884
7.705688
7.399917
7.451773
##ZVALUE=305
1.519918
1.843572
1.564622
1.807809
1.491904
1.618862
1.631975
1.557469
1.772642
1.899600
1.859665
1.910925
1.986623
2.084970
1.951456
2.118945
2.070665
2.538562
2.393723
2.545714
2.750754
2.950430
3.015995
3.173947
3.308654
3.677607
3.774762
4.017949
4.308820
4.454851
5.312562
6.446838
6.571412
8.551478
32.039881
264.181495
680.063963
1015.830636
1015.830636
1015.830636
1015.830636
1015.830636
1015.830636
1015.830636
1015.830636
1015.830636
771.057010
449.454784
272.690654
127.063990
64.984560
29.468536
22.333860
25.979877
32.735467
48.636794
64.646602
88.244677
104.397535
121.749640
128.457546
127.771497
118.759871
103.990436
87.273717
64.211488
49.697757
34.702420
26.956797
21.433830
19.496679
17.746687
16.714931
15.854836
15.251637
14.335513
13.901591
12.466908
12.867451
11.628866
11.339784
10.804534
10.718703
10.023713
9.751916
9.427667
9.147525
9.146929
8.591413
8.370876
7.755756
7.543564
7.550716
7.456541
6.997585
6.958842
##ZVALUE=310
1.487732
1.660585
1.404881
1.663566
1.694560
1.740456
1.641512
1.699924
1.624823
1.585484
1.756549
1.811981
1.868606
1.976490
1.862645
1.871586
1.989603
1.905560
2.193451
2.119541
2.186894
2.506971
2.695918
2.929568
2.980828
3.157854
3.178716
3.466606
3.494620
3.964901
3.941655
4.351735
4.813671
5.359650
6.220937
7.318854
10.901690
119.640827
388.119817
986.011028
1015.830636
1015.830636
1015.830636
1015.830636
1015.830636
1015.830636
1015.830636
1015.830636
997.006893
613.286495
386.928916
190.658569
102.483630
42.761564
24.899840
20.191669
24.016500
31.754971
41.746497
59.904456
74.999928
96.821785
109.866858
119.305849
120.934844
112.167001
100.508928
79.550743
63.464642
45.415759
34.894943
24.470687
19.347668
15.374422
13.933778
12.587905
11.786819
11.086464
11.060834
10.225773
9.806752
9.310842
9.239912
9.085536
9.198785
8.771420
8.775592
8.308887
8.065701
7.479787
7.364750
7.228851
7.151961
6.971955
6.919503
6.726980
##ZVALUE=315
1.409650
1.394749
1.390576
1.506805
1.401901
1.511574
1.639724
1.721978
1.580715
1.668930
1.584888
1.656413
1.655817
1.714826
1.869798
1.873970
1.867414
1.907945
2.019405
2.090931
2.162457
2.400875
2.384782
2.563596
2.566576
2.649426
2.748966
2.616644
3.016591
2.889633
3.177524
3.483891
3.857613
4.107952
4.471540
5.011559
5.636811
6.632805
7.795691
43.741465
204.000473
720.206499
1015.830636
1015.830636
1015.830636
1015.830636
1015.830636
1015.830636
1015.830636
1015.830636
1015.830636
775.315762
510.641932
262.163877
144.051909
56.587458
28.735995
18.982887
18.139482
21.541715
27.202964
39.061904
51.063895
69.683790
84.341764
102.563500
110.842586
111.525655
105.200410
91.058612
77.430606
58.236718
43.560863
29.119849
21.387935
14.926791
12.686849
10.901690
10.032654
8.946657
8.581877
8.259416
8.427501
8.369684
8.117557
7.942915
7.561445
7.539988
7.405877
7.214546
6.824732
6.571412
7.047653
6.614923
6.419420
6.117821
##ZVALUE=320
1.385808
1.334548
1.476407
1.265407
1.323819
1.481771
1.390576
1.455545
1.581907
1.410842
1.491904
1.571774
1.867414
1.610518
1.545548
1.546741
1.712441
1.915693
1.901984
2.088547
2.013445
1.945496
2.101660
2.278686
2.514720
2.571940
2.482533
2.453923
2.540946
2.638698
2.875924
3.029704
3.120899
3.538728
3.712773
3.920794
4.106760
4.612803
5.055666
5.734563
6.627440
14.423728
87.113380
443.091989
935.124755
1015.830636
1015.830636
1015.830636
1015.830636
1015.830636
1015.830636
1015.830636
1015.830636
971.240997
659.571886
345.672965
194.752812
84.789991
41.037798
18.524528
15.097857
14.775991
17.190576
22.729635
30.306578
45.973659
60.098767
77.073574
90.855956
102.411509
103.585720
98.711848
87.464452
69.066882
53.766966
35.805702
25.885701
17.052889
12.796521
9.429455
8.379817
7.861853
7.277727
7.242560
6.919503
6.836653
6.936789
6.819963
6.764531
6.230474
6.536841
6.104708
6.247759
6.127954
6.122589
5.929470
##ZVALUE=325
1.442432
1.425743
1.267791
1.427531
1.465678
1.485944
1.435876
1.405478
1.494884
1.515746
1.372695
1.633763
1.532435
1.640916
1.695752
1.498461
1.689792
1.784563
1.744628
1.715422
1.756549
1.878738
2.068877
2.349615
2.096891
2.197623
2.394915
2.284646
2.450943
2.524853
2.704859
2.630949
2.519488
3.059506
3.054738
3.357530
3.544688
3.852844
4.041791
4.111528
4.780889
5.081892
6.167889
8.613467
39.414763
304.735899
692.163706
1015.866995
1015.866995
1015.866995
1015.866995
1015.866995
1015.866995
1015.866995
1015.866995
1015.866995
760.165453
429.103971
251.514912
110.870600
54.921508
20.487905
12.962818
11.667609
11.804700
14.362931
18.599629
28.502941
39.801002
58.046579
71.150661
87.028742
94.051957
95.161796
89.624524
76.060891
62.681437
46.241879
33.876896
21.596551
15.152693
10.190606
8.461475
7.125735
6.639957
6.402731
6.275773
5.935431
6.113648
5.981922
5.966425
5.718470
5.705953
5.626678
5.796552
5.377531
##ZVALUE=330
1.214743
1.284480
1.243949
1.225471
1.282692
1.323819
1.352429
1.338720
1.393557
1.359582
1.418591
1.362562
1.457930
1.482964
1.554489
1.465678
1.552701
1.595616
1.652837
1.790524
1.764894
1.633763
1.794696
1.735687
2.151728
2.044439
2.008677
2.093911
2.095699
2.210736
2.319813
2.320409
2.477765
2.629757
2.448559
2.993941
2.785921
3.114939
3.523827
3.478527
3.588796
3.989935
4.335642
4.750490
5.272627
6.524920
14.165640
134.703517
406.249762
988.087654
1015.830636
1015.830636
1015.830636
1015.830636
1015.830636
1015.830636
1015.830636
1015.830636
922.652483
539.671779
332.911015
152.241588
77.937841
29.830933
14.537573
9.950995
9.840727
10.339618
12.451410
18.931627
26.022792
39.185882
50.982833
68.163872
78.324676
86.667538
88.239908
81.186891
71.900487
55.470467
43.060780
29.096603
21.417737
14.282465
10.696650
7.811785
6.489754
6.061792
5.721450
5.737543
5.570650
5.310774
5.377531
5.111694
5.113482
5.197525
##ZVALUE=335
1.270771
1.066923
1.163483
1.325607
1.013875
1.200438
1.046658
1.295805
1.354814
1.232624
1.229644
1.489520
1.385808
1.465678
1.411438
1.409650
1.537800
1.454949
1.420975
1.447797
1.496673
1.629591
1.632571
1.763701
1.554489
1.810789
1.761913
2.008677
1.978874
2.036691
2.099872
2.113581
2.211928
2.015829
2.296567
2.566576
2.616644
2.642870
2.550483
2.905726
3.091693
3.205538
3.393888
3.779531
4.014969
4.612803
5.005598
5.835891
7.295012
55.640936
226.231813
726.236701
1015.830636
1015.830636
1015.830636
1015.830636
1015.830636
1015.830636
1015.830636
1015.830636
1015.830636
660.240054
423.602462
216.281414
113.039613
40.151477
18.590689
10.610819
9.853840
9.558797
10.480881
13.073683
16.540885
25.628805
33.940673
49.415827
60.969591
72.857738
78.954697
80.703497
76.336861
64.374804
54.944754
41.331649
31.908751
21.506548
14.878511
9.771585
7.822514
6.370544
5.717874
5.381703
5.285740
5.016923
4.842877
4.957914
##ZVALUE=340
1.245737
1.334548
1.211762
1.062751
1.247525
1.120567
1.229644
1.246929
1.189709
1.332760
1.149774
1.148582
1.262426
1.296997
1.317859
1.367927
1.413822
1.508594
1.558661
1.579523
1.420975
1.534820
1.652837
1.664758
1.501441
1.722574
1.909733
1.649857
1.753569
1.767874
1.897812
1.860857
2.074838
2.215505
2.107620
2.153516
2.327561
2.171993
2.312660
2.502799
2.492666
2.702475
2.696514
2.937913
3.205538
3.482699
3.918409
4.330873
4.622936
5.278587
6.098747
20.502806
111.615658
482.118726
948.609710
1015.830636
1015.830636
1015.830636
1015.830636
1015.830636
1015.830636
1015.830636
1015.830636
810.171962
531.656742
263.520479
144.293904
59.217811
26.036501
12.011528
9.944439
9.558797
9.318590
9.538531
11.353493
16.250610
21.603703
32.911897
43.260455
58.172941
67.016482
74.508786
75.802803
70.427656
63.270926
51.070452
40.859580
28.661489
21.310449
14.154911
10.345578
6.988645
6.073713
5.313754
5.146861
4.910827
##ZVALUE=345
1.155734
1.095533
1.150966
1.296997
1.227856
1.226664
1.244545
1.202822
1.254678
1.129508
1.396537
1.418591
1.349449
1.351833
1.391768
1.401901
1.290441
1.494884
1.405478
1.484752
1.501441
1.520514
1.455545
1.556873
1.588464
1.666546
1.742840
1.890659
1.872778
1.858473
1.870990
2.021790
2.023578
1.943707
2.156496
2.095699
2.016425
2.130866
2.273917
2.050996
2.411604
2.535582
2.690554
2.727509
2.763867
2.812743
3.093481
3.297925
3.485680
3.870726
4.515648
4.811883
5.522966
8.114576
43.394566
293.002725
679.343939
1015.831828
1015.831828
1015.831828
1015.831828
1015.831828
1015.831828
1015.831828
1015.831828
958.942771
650.950670
364.325643
200.333595
78.322887
37.642717
15.594959
10.623932
9.564757
8.631945
7.800460
8.221865
10.074973
13.025999
20.936728
29.356480
42.286515
51.975846
62.007904
66.461563
69.718957
67.297816
59.231520
51.366687
39.569736
30.347705
20.133853
14.805794
9.493828
7.511973
5.636811
##ZVALUE=350
1.242757
1.365542
1.349449
1.418591
1.331568
1.202822
1.205802
1.310706
1.407862
1.563430
1.538992
1.309514
1.386404
1.593828
1.620650
1.539588
1.528859
1.552701
1.488924
1.572967
1.482964
1.520514
1.621842
1.685619
1.786947
1.727939
1.870990
1.826882
1.816750
1.878738
1.929998
1.804829
1.865625
1.998544
1.871586
2.046824
2.017617
2.246499
2.179742
2.070665
2.291799
2.231598
2.405643
2.467632
2.651811
2.533793
2.727509
2.815723
3.241897
3.172755
3.761649
3.878474
4.047751
4.571676
5.263686
5.999804
17.146468
153.643489
431.540608
991.140604
1015.803814
1015.803814
1015.803814
1015.803814
1015.803814
1015.803814
1015.803814
1015.803814
791.026950
434.431434
258.174539
115.212798
54.064989
17.936826
10.316968
8.399487
7.657409
7.410645
7.023811
7.797480
9.381771
13.268590
18.040538
26.226640
34.504533
46.317577
54.179430
61.394572
63.721538
61.439872
56.008697
46.112537
38.192868
27.860999
20.950437
14.050603
##ZVALUE=355
1.510978
1.452565
1.475811
1.355410
1.385808
1.385808
1.549721
1.516938
1.409650
1.503825
1.383424
1.382828
1.603961
1.681447
1.678467
1.511574
1.523495
1.645684
1.712441
1.773834
1.559854
1.740456
1.697540
1.756549
1.780987
1.881719
1.987815
1.842976
1.896620
2.021790
1.988411
1.965761
2.154708
2.129674
2.159476
2.265573
2.203584
2.203584
2.214909
2.412796
2.302527
2.325773
2.639890
2.517700
2.485514
2.667904
2.761483
3.101826
3.281832
3.201962
3.241897
3.447533
3.702641
4.040599
4.272461
4.587770
5.057454
5.829930
8.068681
69.413781
257.506967
775.662661
1015.830636
1015.830636
1015.830636
1015.830636
1015.830636
1015.830636
1015.830636
1015.830636
922.818780
546.954870
333.205462
143.779516
68.628788
23.088455
12.010932
8.894801
8.099675
7.260442
6.978512
6.750822
7.133484
8.945465
11.163950
16.748905
22.435784
30.901432
38.777590
48.976541
55.576563
58.036447
57.330728
51.956773
45.542717
35.925508
##ZVALUE=360
1.419783
1.524687
1.471639
1.617670
1.585484
1.427531
1.476407
1.573563
1.587868
1.502633
1.651645
1.547933
1.631975
1.740456
1.474619
1.592636
1.700521
1.709461
1.672506
1.792908
1.783967
1.841784
1.884699
2.116561
1.902580
1.832843
1.972914
1.774430
2.032518
2.064705
2.020597
2.061725
2.156496
1.978874
2.166629
2.396703
2.470613
2.193451
2.382994
2.115965
2.308488
2.506971
2.349615
2.503991
2.437830
2.564788
2.758503
2.788901
2.861619
3.113747
3.009439
3.320575
3.580451
3.434420
3.673434
3.895760
4.052520
4.713535
5.839467
7.008910
8.117557
26.193857
119.833946
454.256535
911.493897
1015.893817
1015.893817
1015.893817
1015.893817
1015.893817
1015.893817
1015.893817
1015.893817
677.588582
431.288481
202.113986
104.769468
39.259791
17.386675
8.591413
7.548928
6.894469
6.483793
6.156564
6.222725
6.389618
7.142425
9.452701
12.095571
18.113852
25.095940
34.740567
41.230917
48.291683
51.640868
51.841736
##ZVALUE=365
1.301765
1.400709
1.360774
1.415610
1.345873
1.405478
1.351833
1.441836
1.542568
1.526475
1.485944
1.504421
1.512766
1.352429
1.690984
1.601577
1.481771
1.555681
1.547933
1.571774
1.571774
1.579523
1.485944
1.729727
1.729727
1.755953
1.587868
1.695752
1.852512
1.880527
1.726747
1.946688
1.820922
1.954436
1.899600
1.959801
1.901984
1.876950
1.822710
2.089739
1.873970
2.027750
1.939535
2.063513
2.187490
2.216697
2.291799
2.159476
2.101660
2.426505
2.403855
2.431870
2.524853
2.841949
2.914667
3.035665
2.966523
3.702641
4.396439
5.246997
5.615950
6.311536
6.825924
10.038614
43.044686
264.715552
625.032783
1015.830636
1015.830636
1015.830636
1015.830636
1015.830636
1015.830636
1015.830636
1015.830636
799.991488
533.506870
279.251933
150.180459
54.469705
22.591949
8.506775
6.926656
6.535649
5.930662
5.433559
5.427599
5.292892
4.994869
5.803704
7.219911
10.682940
14.392734
21.276474
27.228594
36.051869
##ZVALUE=370
1.176596
1.157522
1.139641
1.302958
1.263618
1.200438
1.377463
1.283884
1.250505
1.376867
1.399517
1.281500
1.396537
1.283884
1.320839
1.349449
1.249909
1.350641
1.254678
1.471639
1.376867
1.415610
1.541972
1.566410
1.394749
1.566410
1.328588
1.303554
1.550913
1.418591
1.481771
1.595616
1.387596
1.519918
1.562834
1.601577
1.520514
1.489520
1.559854
1.509786
1.666546
1.730919
1.479983
1.668930
1.835823
1.865625
1.744628
1.907945
1.833439
2.000928
2.017617
2.073646
1.966953
2.120733
2.111793
2.373457
2.563596
2.714992
2.984405
3.239512
3.421903
3.901720
4.189610
4.766583
5.112886
6.240606
18.157363
148.480535
425.554514
991.755724
1015.830636
1015.830636
1015.830636
1015.830636
1015.830636
1015.830636
1015.830636
963.041782
657.382607
344.207883
187.160969
71.724653
33.018589
12.460947
7.131696
6.229877
5.587935
5.177855
4.912615
4.784465
4.352927
4.553795
4.990697
6.261468
8.491874
13.272762
##ZVALUE=375
1.085997
1.153946
1.157522
1.187921
1.264811
1.142621
1.113415
1.289845
1.077652
1.043677
1.112819
1.075864
1.085997
0.999570
1.029968
1.044869
1.147985
1.147985
1.150966
1.291633
1.065731
1.249909
1.155734
1.103878
1.222491
1.171827
1.235604
1.140833
1.426935
1.274943
1.499653
1.447797
1.398921
1.387596
1.435876
1.321435
1.445413
1.380444
1.423955
1.482964
1.446605
1.448989
1.517534
1.587868
1.582503
1.682639
1.735687
1.642704
1.527667
1.743436
1.675487
1.833439
2.051592
1.757741
1.774430
2.072453
2.173781
2.105832
2.330542
2.353787
2.660751
2.808571
2.826452
3.040433
3.384948
4.154444
4.569888
5.488992
7.934570
74.175596
252.724886
718.012452
1015.830636
1015.830636
1015.830636
1015.830636
1015.830636
1015.830636
1015.830636
1015.830636
807.085633
452.134609
276.720524
131.278634
64.518452
20.607710
9.303689
6.254911
5.596876
5.077720
4.860759
4.582405
4.320741
4.187822
4.134774
4.687905
##ZVALUE=380
0.895858
0.860691
0.956655
1.000762
0.944734
0.920892
1.061559
0.833869
1.011491
0.922680
0.951886
0.976920
0.901818
0.943542
0.906587
1.083612
1.071692
1.015663
1.072884
0.906587
1.204610
0.953674
1.173615
1.049638
1.162887
1.051426
1.222491
1.176596
1.223683
1.204610
1.247525
1.390576
1.458526
1.425743
1.525879
1.452565
1.621842
1.577735
1.270771
1.413822
1.435876
1.419783
1.470447
1.352429
1.634955
1.443624
1.412630
1.335740
1.539588
1.522899
1.697540
1.780987
1.676679
1.624823
1.796484
1.834631
1.884699
1.884699
1.971722
1.931787
2.228618
2.360940
2.343655
2.497435
2.718568
3.097653
3.453493
4.112720
4.815459
5.378723
6.957650
24.074912
178.622603
472.883582
1015.830636
1015.830636
1015.830636
1015.830636
1015.830636
1015.830636
1015.830636
1015.830636
938.626528
653.332472
358.235836
203.741789
82.661510
37.720799
11.646748
6.782413
5.482435
4.970431
4.763603
4.749894
4.202724
3.899932
##ZVALUE=385
0.904799
1.094937
0.916719
1.023412
0.957847
0.934601
1.038909
0.775456
0.903606
0.908971
0.978708
0.956655
0.920892
1.048446
0.995994
0.916719
1.073480
1.040697
1.070499
1.100898
1.024604
1.171827
1.041889
0.951886
1.050830
1.211762
1.308918
1.152754
1.189709
1.215935
1.353621
1.280904
1.545548
1.464486
1.418591
1.519918
1.447797
1.265407
1.340508
1.449585
1.449585
1.580715
1.425743
1.384616
1.479983
1.493692
1.547933
1.441836
1.479983
1.460910
1.593828
1.677871
1.685619
1.710653
1.664758
1.751781
1.783967
1.861453
1.897812
1.887679
1.945496
2.042651
2.075434
2.122521
2.404451
2.734661
2.916455
3.590584
3.517866
4.082918
4.375577
4.859567
5.187988
10.721684
68.451762
354.069471
745.613575
1015.831828
1015.831828
1015.831828
1015.831828
1015.831828
1015.831828
1015.831828
1015.831828
775.609016
520.638824
270.903707
148.867965
59.892535
24.673939
8.165836
5.506873
4.941821
4.597902
4.408956
##ZVALUE=390
0.913739
0.964999
0.899434
0.945926
0.872612
0.814795
0.794530
1.042485
0.922680
0.894666
1.050830
0.860691
1.006722
0.924468
1.059771
0.945926
0.955462
1.018643
1.014471
0.873804
1.029968
1.077652
1.080632
1.064539
1.131892
1.223683
1.284480
1.320839
1.245737
1.366735
1.535416
1.431704
1.436472
1.439452
1.312494
1.367927
1.480579
1.517534
1.450777
1.473427
1.608729
1.475811
1.525879
1.696944
1.419783
1.535416
1.550913
1.487732
1.446605
1.539588
1.543760
1.487732
1.590848
1.701713
1.681447
1.739860
1.803637
1.871586
1.816750
2.092719
1.908541
2.026558
2.068877
2.122521
2.196431
2.387762
2.869964
3.022552
3.335476
3.737807
3.805757
3.764629
4.121661
4.147887
4.916787
6.072521
26.188493
212.013721
534.627438
1015.825868
1015.825868
1015.825868
1015.825868
1015.825868
1015.825868
1015.825868
1015.825868
979.331732
706.346631
401.926637
226.368904
89.153647
40.008426
12.167692
6.537437
5.048513
##ZVALUE=395
0.866652
0.745654
0.887513
0.750422
0.849962
0.868440
0.817776
0.821948
0.780821
0.867844
0.892878
0.825524
1.017451
0.889897
0.831485
0.934601
0.956655
1.047850
0.941753
1.022816
0.967979
0.930429
0.902414
0.932813
1.166463
1.139641
1.053810
1.219511
1.212955
1.231432
1.333952
1.294613
1.470447
1.355410
1.365542
1.419783
1.464486
1.345873
1.499653
1.345873
1.434684
1.313686
1.315475
1.343489
1.481771
1.389980
1.262426
1.406670
1.447797
1.505613
1.429915
1.518726
1.633763
1.675487
1.591444
1.859665
1.827478
1.880527
1.810789
1.882911
1.931787
1.855493
1.949668
2.076626
1.975894
2.420545
2.718568
2.898574
3.064871
3.332496
3.292561
3.361702
3.421903
3.266931
3.680587
3.931522
4.411936
5.280972
11.554956
123.775601
383.712649
954.329967
1015.750766
1015.750766
1015.750766
1015.750766
1015.750766
1015.750766
1015.750766
1015.750766
880.926847
503.152013
309.357643
140.857697
66.097975
21.623969
##ZVALUE=400
1.091957
1.157522
1.092553
0.839829
1.040697
0.996590
0.843406
0.955462
0.924468
0.909567
1.087785
1.003742
1.158714
1.058578
0.945926
1.084805
1.096725
1.077652
1.250505
0.927448
1.005530
1.077652
1.021624
1.072884
1.211762
1.163483
1.257658
1.207590
1.464486
1.359582
1.355410
1.345873
1.377463
1.371503
1.397729
1.471639
1.599789
1.337528
1.440644
1.547933
1.423955
1.369715
1.675487
1.517534
1.412630
1.514554
1.505613
1.615882
1.401901
1.443624
1.521707
1.437664
1.556873
1.585484
1.571774
1.657605
1.688600
1.836419
1.769662
1.988411
2.179742
2.029538
2.202988
2.259612
2.352595
2.437830
2.597570
2.841949
3.049970
3.086925
3.152490
3.242493
2.998710
3.031492
3.065467
3.095865
3.444552
3.802776
4.142523
4.673600
6.779432
60.302615
228.178501
680.979490
1015.830636
1015.830636
1015.830636
1015.830636
1015.830636
1015.830636
1015.830636
1015.830636
986.087918
631.969571
399.842858
191.459656
##END
