##TITLE=FDWSEC1
##FORMAT=SPECTACLE-ASCII V-1.2
##DATA TYPE=ULTRAVIOLET SPECTRUM
##SECOND TYPE=ULTRAVIOLET SPECTRUM
##DATE=10/25/17
##TIME=10:33:12
##SPECTROMETER/DATA SYSTEM=SPECTACLE
##XUNITS=NM EM
##YUNITS=ENERGY
##YFACTOR=1
##FIRSTX=220
##LASTX=410
##NPOINTS=96
##3DDATA=Equidistant
##ZUNITS=NM EX
##FIRSTZ=210
##LASTZ=400
##ZPOINTS=39
##XYDATA=(Y..Y)
##ZVALUE=210
38.849711
36.993623
23.166537
17.099977
15.057921
12.034774
12.264848
10.792613
9.175539
9.249449
7.207990
7.999539
7.072687
7.734895
7.696748
8.302927
8.987784
8.985996
8.741617
9.768605
11.298656
11.575818
10.974407
12.224913
13.976693
14.744997
14.898777
16.151667
18.506646
19.916892
21.299720
22.027493
22.762418
23.055673
22.044778
23.007989
22.704601
22.790432
22.596717
24.403930
23.647547
23.941994
22.101998
22.207499
24.655461
24.119616
25.321841
25.239587
23.468733
26.555657
25.461912
24.616718
25.286674
25.777817
27.385950
26.304722
25.856495
26.734471
26.049614
26.522875
25.812984
26.803613
26.138425
27.040839
24.739504
27.386546
25.700927
30.691624
32.093525
38.271546
44.146776
50.097704
55.589676
65.752864
73.103905
78.911781
82.884431
86.015463
81.919432
80.653429
74.652433
72.016716
60.899854
50.981641
44.025779
35.527945
29.292703
23.507476
23.251772
23.524761
27.700663
34.906864
41.706562
58.046579
67.451000
80.449581
##ZVALUE=215
120.868683
116.990805
87.113976
44.427514
29.817820
22.330880
19.125938
17.605424
17.072558
16.725659
14.420748
12.465715
10.529757
9.003878
7.896423
7.407665
8.125901
8.120537
7.344484
8.850694
8.542538
8.682609
8.799434
10.195971
10.504723
11.496544
12.427568
14.621615
15.572906
16.473532
19.046664
19.912720
20.412803
20.376444
20.649433
21.343827
19.599795
20.528436
21.238923
20.544529
19.880533
19.710660
18.607974
16.874671
18.743873
17.468929
17.661452
18.896461
18.382668
18.530488
19.294620
19.257665
19.712448
17.331839
18.521547
17.970800
19.069910
18.259883
17.341971
18.304586
18.302798
19.887686
18.772483
17.400980
18.556714
18.353462
20.533800
19.495487
23.675561
22.669435
30.083656
30.238628
34.288764
38.005710
38.651824
39.839745
41.705966
38.781762
37.529469
35.687685
29.838681
28.313994
23.728609
21.853447
16.688704
16.127825
13.417602
13.893843
13.623834
12.140870
12.382865
11.353493
12.451410
13.091564
18.119812
22.950768
##ZVALUE=220
307.313800
312.578678
294.829607
221.670866
158.613920
99.555850
67.116618
41.133761
32.472610
29.539466
28.652549
24.996996
26.222467
23.042560
18.685460
14.659762
11.986494
10.056496
9.612441
9.656549
9.313822
11.194944
10.713935
11.633635
12.119412
13.727546
14.525652
15.935898
17.687678
18.608570
21.521449
21.710992
22.498965
21.490455
24.337769
24.379492
23.456812
24.828911
23.251772
25.592446
23.715496
24.546981
24.266839
22.684932
23.453832
24.383664
22.145510
23.028851
21.915436
23.021698
23.567677
22.042990
23.051500
23.720860
22.600889
23.450851
22.940636
23.294687
22.530556
22.060871
23.140907
22.908449
22.629499
23.633838
27.221441
23.691654
24.457574
23.732781
28.735995
30.779839
31.363964
36.783814
40.206909
41.462779
46.814680
48.547983
50.479770
52.753687
51.053762
46.336651
41.462779
35.129786
32.077432
27.877688
24.032593
22.310615
20.238757
17.654896
15.560985
16.528964
14.774799
15.639663
14.004707
15.830994
14.105439
14.357567
##ZVALUE=225
456.144810
471.963882
548.842549
591.179729
557.134748
443.021655
335.249901
191.695690
118.664503
76.089501
46.596527
42.718649
41.127801
43.376684
40.424466
38.056970
31.061769
25.350451
22.801757
16.235709
12.755990
11.353493
10.973811
11.713505
12.919903
13.628602
14.636517
16.429424
17.859936
16.806722
18.832684
21.435618
21.107793
23.019910
22.895932
24.863482
25.023818
24.841428
25.365949
24.647713
24.581552
23.436546
24.650693
25.151968
24.965405
25.721788
23.975968
23.846626
22.432804
24.364591
26.137829
25.023818
25.147796
26.647449
25.950670
26.254654
24.889708
26.102662
26.073456
26.990771
25.814772
27.565956
26.548505
25.806427
25.308728
29.009581
26.858449
28.427839
28.300881
31.200647
34.664869
34.859776
41.336417
41.562915
42.492747
42.662621
44.921637
43.190718
41.966438
37.487745
33.221841
29.010773
26.299953
22.713542
22.076964
19.750595
18.679500
19.111633
18.485785
17.160773
17.371774
16.027689
17.300844
15.667677
15.382767
14.779568
##ZVALUE=230
371.133685
405.728817
578.077435
815.751553
938.787460
992.807746
934.924483
748.639703
546.607971
366.410017
178.219676
104.870796
70.591569
59.301853
65.146685
66.478848
65.268874
64.739585
57.380795
44.439435
38.525462
25.110841
20.730495
16.176701
14.926791
14.523864
13.983846
16.188622
16.469955
16.332865
16.695857
19.186735
17.734766
19.535422
20.674467
20.827651
20.541549
22.182465
23.218989
23.493767
24.315715
25.029778
25.643706
26.195645
28.218627
26.445985
27.748942
29.557943
27.933717
29.239655
31.352639
31.218529
28.886795
31.223893
30.083656
30.504465
33.458471
31.141639
34.036636
33.373833
32.321811
31.301975
33.822656
32.503605
31.810999
32.508969
33.663511
33.006668
36.845803
38.131475
40.406585
43.268800
45.082569
45.468807
47.024488
44.914484
42.023659
43.364763
38.418770
37.878752
34.996867
31.882524
28.105974
25.641918
24.849772
23.725629
23.575425
23.358464
22.335649
20.651817
19.173622
19.290447
18.310547
19.314885
17.501712
17.440915
##ZVALUE=235
118.530989
142.339468
285.438895
613.285899
921.638012
1015.830636
1015.830636
1015.830636
1015.830636
1015.830636
959.812999
630.713701
312.782526
193.596482
118.253827
95.277429
86.691976
93.154907
96.158981
95.693469
87.942481
76.056719
62.947869
46.732426
37.456751
23.602843
21.892786
17.278790
15.852451
16.840696
15.637875
18.305779
17.008781
18.672943
18.828511
19.176602
20.120740
21.356940
21.138787
23.806691
26.854873
26.523471
27.145743
28.430820
31.848550
31.939745
35.830736
35.267472
37.854910
39.544702
40.592551
40.620565
40.857792
43.679476
42.705536
45.875907
44.429898
41.504502
42.384863
39.528608
43.416619
45.135617
45.500994
42.914748
43.282509
44.738650
43.236613
46.412945
44.830441
48.944950
48.717856
54.484606
55.510998
56.032538
55.484772
55.697560
55.203438
50.902963
48.300624
44.150949
44.262409
40.403605
35.697818
33.651590
32.773614
31.252503
28.752685
28.244853
25.754571
26.275516
26.431680
23.342967
23.276806
23.950934
23.198724
23.173690
##ZVALUE=240
6.361604
7.513762
42.765737
142.165422
339.582562
766.718984
1016.360521
1016.360521
1016.360521
1016.360521
1016.360521
1016.360521
1016.360521
910.016894
581.610799
290.123820
188.520551
125.101805
105.809569
111.140609
117.981434
128.192902
123.739839
114.563704
92.427731
78.081489
57.124496
43.374896
29.009581
25.755763
21.500587
20.266771
21.219850
21.074414
20.506978
21.572709
21.142960
22.523999
24.262667
27.551651
28.121471
29.804707
30.783415
35.019517
37.513971
38.166642
43.126941
43.808818
46.133995
51.553845
53.635836
54.009557
55.434704
55.254698
54.870844
57.105422
55.433512
55.379868
56.784749
57.783723
58.660507
56.675673
54.821968
56.478977
58.098435
54.992437
55.774450
56.458712
57.758689
59.264898
60.137510
64.387918
63.370466
64.463615
64.329505
64.208508
60.025454
60.360432
56.393743
54.003000
49.177408
45.179725
42.899847
38.764477
39.402843
37.035942
34.109950
32.979846
33.353567
30.025840
29.241443
28.131604
26.295781
25.565624
24.999976
24.571419
##ZVALUE=245
4.355907
4.361868
5.123615
5.376935
24.494529
94.446540
344.562531
686.946511
1015.830636
1015.830636
1015.830636
1015.830636
1015.830636
1015.830636
1015.830636
1015.830636
870.370865
524.849892
258.734822
170.743465
116.938949
109.357834
119.581819
137.378573
139.471889
131.688714
125.355721
102.581978
82.382560
63.807964
49.236417
33.278465
28.372407
22.326708
21.350980
20.409822
22.510886
23.494959
24.033785
26.444793
29.452443
29.192567
33.210516
37.385821
37.485957
44.240952
46.015978
48.102736
50.193667
55.784583
57.324767
57.055950
59.926510
59.786439
62.991977
62.153935
61.596632
60.141683
60.674548
61.908960
60.279965
60.634613
58.458447
54.687858
56.526661
55.659413
56.072474
53.475499
55.403709
56.630969
58.247447
59.449673
57.951808
60.796738
61.925650
57.877898
57.138801
52.159429
51.995516
47.243834
45.471787
42.866468
38.190484
34.701824
34.931898
33.073425
33.440590
31.194687
29.680729
28.641820
26.552677
25.215745
25.319457
23.898482
22.260547
24.181604
##ZVALUE=250
4.340410
4.175901
4.671812
4.620552
4.832745
7.097721
8.971691
70.920587
231.269002
666.047931
1015.830636
1015.830636
1015.830636
1015.830636
1015.830636
1015.830636
1015.830636
1015.830636
1015.830636
761.275887
367.864966
219.274759
125.311613
106.590986
115.601420
128.800869
139.861703
146.139860
141.604543
128.672719
110.902786
85.334778
69.492459
46.501756
36.605597
27.844906
24.132729
23.913980
24.124980
27.620792
28.942823
33.261776
33.913851
36.814809
40.222406
43.006539
45.106411
49.090981
51.063895
56.128502
55.642724
57.912469
60.946941
60.833693
61.637759
60.323477
60.072541
58.216453
59.101582
59.219599
58.468580
57.614446
57.496428
53.923726
53.335428
51.180720
52.119493
50.241947
49.723983
50.938725
52.433610
53.997636
53.178668
52.075982
52.935481
49.664974
48.675537
47.389865
43.778419
39.260983
37.581921
33.782721
32.638907
31.088591
29.163957
26.780963
27.236938
25.010705
24.081469
23.959875
22.895932
21.377802
21.892786
21.945834
21.315813
21.294951
##ZVALUE=255
3.670454
3.600717
3.473759
4.350543
4.301667
5.014539
4.788637
6.155968
7.278919
20.899773
166.838765
469.735861
1015.830636
1015.830636
1015.830636
1015.830636
1015.830636
1015.830636
1015.830636
1015.830636
1015.830636
973.289609
598.750710
290.105939
170.352459
107.844472
102.995634
114.734769
130.939484
146.570802
152.777433
149.985552
135.972500
119.268894
87.686777
69.732666
51.785707
38.494468
31.848550
29.225945
28.560758
29.817820
31.878948
34.563541
36.129951
41.422844
41.829944
44.731498
49.014688
48.849583
51.141977
51.533580
54.412484
53.912997
54.135919
54.954886
52.760839
53.460002
52.235723
53.355694
51.643848
49.937963
49.117804
49.828887
48.490763
47.643781
44.921637
45.233965
44.236779
44.309497
44.085979
46.306849
46.422482
45.246482
46.531558
42.109489
41.213632
39.897561
36.736727
34.369826
30.513406
29.463768
27.665496
26.531816
24.107695
23.819804
23.579597
22.934675
21.520853
19.973516
20.305514
19.467473
18.681884
18.335581
17.994642
17.581582
##ZVALUE=260
3.318787
3.172755
3.774762
3.811717
3.886819
4.152656
4.177690
4.645586
5.406737
6.379485
7.330775
13.895631
69.394708
351.451635
788.123012
1015.830636
1015.830636
1015.830636
1015.830636
1015.830636
1015.830636
1015.830636
1015.830636
1015.830636
763.648748
456.849933
240.534544
147.259831
94.981790
92.172623
109.861493
135.392547
150.593519
157.889724
157.365799
137.360692
124.807954
95.950961
75.107813
54.250956
45.587420
35.282969
33.066869
33.739805
33.570528
36.198497
36.633611
40.188432
41.001439
42.520761
44.819713
44.520497
45.456886
45.376420
45.332909
43.978691
46.703815
44.824481
45.342445
45.251846
43.731928
44.134855
42.125583
40.898919
41.226745
40.413737
38.903952
38.069487
37.325621
38.426518
40.083528
38.090944
40.001869
38.695931
38.721561
37.374496
35.074949
33.710599
32.801628
28.747916
27.122498
25.581717
24.726987
23.400784
22.863746
21.529794
20.890832
20.283461
18.287897
18.559694
18.331409
17.724633
16.564727
16.873479
16.351938
15.834570
##ZVALUE=265
3.419518
3.486872
3.179908
3.118515
3.565550
3.997684
3.990531
4.401803
4.993677
4.739761
5.266666
5.630851
7.300973
8.475780
45.601726
209.004879
747.392774
1015.830636
1015.830636
1015.830636
1015.830636
1015.830636
1015.830636
1015.830636
1015.830636
1015.830636
1015.830636
604.275465
364.262462
179.618001
114.730597
85.922480
94.388723
121.499896
140.582919
157.326460
166.803002
161.030889
146.000981
123.205781
102.012753
75.891614
60.454607
44.898987
40.085912
35.345554
34.887791
36.008954
36.739707
36.883950
38.952827
38.853884
39.415956
40.191412
40.032864
38.819909
39.096475
38.719773
38.232803
38.215518
38.580894
37.022829
37.101507
35.306811
36.870837
35.974979
35.225749
35.138726
34.690499
35.301447
36.073923
37.068725
36.963820
34.638643
35.255551
32.848716
32.998919
31.829476
28.568506
26.638508
25.743842
24.086833
22.471547
20.643473
20.395517
19.747615
18.558502
17.922521
17.175674
17.718673
16.110539
15.668869
16.004443
15.406609
14.798641
14.137626
##ZVALUE=270
2.978444
2.665520
3.179908
3.278852
3.124475
3.435612
3.694892
4.162788
4.176497
4.647970
4.738569
5.242825
5.693436
5.646944
6.623864
8.204579
13.507605
115.245581
380.635858
1015.830636
1015.830636
1015.830636
1015.830636
1015.830636
1015.830636
1015.830636
1015.830636
1015.830636
1015.830636
970.869660
606.135726
290.728807
159.174800
85.466504
76.007843
95.984936
119.287968
146.520734
159.727931
169.251561
166.091919
148.627758
129.429698
102.663636
81.466436
60.499907
49.019456
39.675832
37.269592
35.265684
34.229755
35.088658
35.627484
35.293698
35.581589
37.246943
37.244558
36.497712
34.767985
36.373734
35.276413
34.546852
35.541654
35.225749
33.641458
33.682585
33.293962
33.626556
33.270717
34.020543
34.963489
35.152435
34.970641
34.085512
34.169555
32.863617
30.850768
29.308796
28.302670
25.181770
24.473667
23.179650
22.217631
20.615458
20.616651
19.249916
18.992424
17.922521
17.199516
16.853809
16.799569
16.648769
14.947653
14.784932
14.961958
14.215708
##ZVALUE=275
2.906919
2.985597
3.116727
3.171563
3.101826
3.364682
3.451705
3.809929
3.765821
3.948808
4.441738
4.233718
4.833937
5.080700
5.558729
6.130934
7.137656
7.697940
10.176897
42.224526
216.511488
853.056908
1015.830636
1015.830636
1015.830636
1015.830636
1015.830636
1015.830636
1015.830636
1015.830636
1015.830636
1015.830636
775.117874
377.749801
213.877559
102.346539
70.170760
73.628426
92.976689
120.419860
141.867995
161.709785
168.272853
165.646672
150.529742
125.044584
103.958845
79.281926
65.128803
48.773885
41.973591
36.424994
34.912825
34.341812
34.422874
34.490824
34.707785
34.445524
34.810901
34.811497
34.552813
34.625530
33.326745
33.320785
32.902956
32.781959
33.293962
33.196807
33.237934
33.107996
33.947825
34.494996
35.080910
34.746528
34.567714
33.116937
30.931830
29.313564
27.731657
25.699735
24.399757
22.832751
21.812916
20.526648
19.754767
19.343495
19.167662
18.033981
17.950535
16.450882
16.392469
15.846491
14.985800
14.775991
14.660954
14.431477
##ZVALUE=280
3.154874
3.187656
3.160834
3.386736
3.309846
3.398657
3.498793
3.439784
3.814697
4.013777
3.713965
4.601479
4.599690
4.675984
4.975796
5.584955
5.595684
6.619692
7.308722
8.222461
9.680986
15.830994
163.278580
546.404719
1016.078591
1016.078591
1016.078591
1016.078591
1016.078591
1016.078591
1016.078591
1016.078591
1016.078591
1016.078591
974.186063
509.128571
291.679502
132.627487
76.089501
58.232546
68.047643
94.250441
116.172433
144.331455
157.464743
164.519548
160.119534
145.540833
127.297640
102.285743
83.585978
61.583519
49.595833
39.653778
36.481619
33.628941
33.269525
33.660531
33.458471
33.620596
34.048557
33.579469
34.485459
32.453537
32.901764
33.018589
32.855868
32.636523
32.747984
33.182502
33.907890
33.212900
33.348799
33.532977
32.432675
32.582879
30.518770
28.976798
27.152896
25.028586
24.179816
23.006797
22.619963
21.358728
21.287799
19.502640
19.083619
18.564463
17.829537
17.487407
16.614795
16.786456
15.879869
15.071630
15.056729
14.126897
##ZVALUE=285
2.381802
2.729893
2.631545
2.574921
2.563596
2.917647
2.796650
3.016591
3.394485
3.374815
3.642440
3.691912
3.797412
3.894567
4.109740
4.596710
4.902482
5.553961
5.500913
6.805658
6.737709
8.327961
9.310842
11.688471
51.520467
354.464650
1015.831828
1015.831828
1015.831828
1015.831828
1015.831828
1015.831828
1015.831828
1015.831828
1015.831828
1015.831828
1015.831828
784.592628
386.787653
212.955475
109.342933
53.694844
48.636794
64.971447
84.889531
113.014579
133.800507
152.155757
159.610510
157.895684
144.826770
128.005743
101.716518
82.000494
60.329437
49.106479
38.538575
33.488870
31.347871
30.606985
30.844808
30.976534
30.656457
31.078458
30.983686
30.047894
30.764937
30.891895
30.312538
30.432940
31.659603
32.456517
31.310916
31.814575
29.449463
29.925704
28.061867
26.558638
24.973750
24.853945
23.319721
22.023916
21.405816
20.952821
19.675493
19.727945
18.746853
18.275976
17.503500
16.869903
15.841722
15.661716
15.318990
14.808774
14.696717
14.069676
##ZVALUE=290
2.603531
2.543926
2.613664
2.616644
2.717972
2.831817
2.597570
2.770424
2.867579
2.984405
3.277659
3.222823
3.732443
3.758669
4.015565
3.716946
4.185438
4.303455
4.484653
5.024672
5.334616
6.250739
7.013679
7.764697
8.946657
10.131598
23.124814
133.258104
604.606867
1015.830636
1015.830636
1015.830636
1015.830636
1015.830636
1015.830636
1015.830636
1015.830636
1015.830636
1015.830636
1002.715826
562.672615
318.073630
134.038925
67.417622
39.039850
42.907596
59.768558
75.713992
102.729797
125.187635
144.877434
153.201818
150.880814
141.821504
121.049881
99.752545
75.945854
60.163736
45.986772
37.957430
32.039881
29.696822
28.602481
28.580427
27.574897
27.780533
27.383566
27.985573
28.409958
28.583407
30.086637
29.583573
28.692484
28.512478
27.393699
27.099848
25.313497
24.816990
23.519993
23.195744
21.756887
21.012425
19.912720
19.585490
18.396974
18.539429
17.501712
17.403960
16.695857
16.500950
15.724897
15.599728
15.005469
14.108419
14.485717
14.065504
##ZVALUE=295
2.300739
2.437830
2.570748
2.398491
2.773404
2.477765
2.826452
2.908707
2.773404
2.909899
2.947450
2.932549
2.963543
3.268719
3.356934
3.800988
3.874898
3.899932
4.192591
4.288554
4.538894
5.063415
5.382895
5.749464
6.766915
7.207990
8.701682
9.367466
12.444854
46.787858
223.532915
834.264755
1015.830636
1015.830636
1015.830636
1015.830636
1015.830636
1015.830636
1015.830636
1015.830636
1015.830636
1015.830636
812.747478
404.757857
216.646791
81.362724
42.917728
32.353997
39.178729
56.269765
73.550940
101.045966
117.951632
137.020946
145.795941
143.775940
134.570003
114.636421
95.993876
73.405504
58.940649
43.182969
35.035610
29.004812
26.589632
24.649501
25.313497
24.604797
25.051832
25.555491
25.931597
25.959611
25.018454
25.670528
24.391413
23.885965
22.637844
21.878481
21.525621
20.106435
20.731688
18.943548
17.999411
18.053651
17.178655
16.996861
17.201900
16.818643
15.921593
15.793443
14.949441
15.309453
14.268756
13.505816
13.564825
13.139844
##ZVALUE=300
2.364516
2.217889
2.328753
2.336502
2.334714
2.369881
2.421737
2.441406
2.611876
2.801418
2.534986
2.689958
3.009439
3.002882
3.326535
3.358722
3.365874
3.574491
3.899932
3.940463
3.939867
4.398823
4.585981
5.057454
5.611777
5.796552
6.443858
7.002950
7.862449
9.043813
10.297894
15.531778
150.767565
496.709943
1015.831828
1015.831828
1015.831828
1015.831828
1015.831828
1015.831828
1015.831828
1015.831828
1015.831828
1015.831828
979.337692
626.245737
304.192901
161.245465
62.651634
33.425689
30.021667
37.153959
53.178668
68.145990
92.650652
110.940933
131.320953
137.572885
137.885809
131.468773
111.307502
93.813539
72.101951
57.090521
40.988922
32.391548
27.282834
24.722815
23.377538
23.504496
24.143457
23.963451
23.809671
22.894740
22.878647
22.030473
20.926595
19.968748
20.307899
18.988848
18.576980
17.553568
17.403960
16.855597
16.042590
16.159415
15.344620
15.140772
14.981627
14.743805
14.237761
14.145970
13.726950
13.181567
12.799501
12.548566
##ZVALUE=305
2.179742
2.115965
2.190471
2.168417
2.329946
2.277493
2.379417
2.263784
2.328753
2.492666
2.573729
2.628565
2.760887
2.824664
2.976656
3.000498
3.072619
3.175735
3.382564
3.386736
3.554821
3.912449
4.032850
4.304647
4.627705
4.993677
5.102754
5.273819
6.305575
6.629825
7.527471
8.343458
9.030700
11.724830
46.231747
352.937579
851.287842
1015.830636
1015.830636
1015.830636
1015.830636
1015.830636
1015.830636
1015.830636
1015.830636
1015.830636
1015.830636
786.876678
470.561981
209.562778
104.048848
41.720867
28.017759
29.487610
36.044717
51.842928
66.592693
89.983940
106.865764
124.767423
132.630467
130.625963
122.924447
105.941892
88.818669
66.555738
51.711798
39.056540
31.870604
25.510788
24.503469
22.985935
23.359656
21.182895
20.628572
20.042658
19.379854
18.877983
18.149614
17.391443
17.317533
16.509891
16.414523
15.901923
15.662909
15.154481
15.126467
15.134811
14.158487
14.134645
13.869405
13.321638
13.021827
12.828708
12.590885
12.106895
##ZVALUE=310
1.957417
2.105832
2.094507
2.183914
2.061725
2.177954
2.078414
2.485514
2.306700
2.179742
2.489686
2.359748
2.375841
2.590418
2.550483
2.828836
2.647638
2.940893
2.751946
3.178716
3.131628
3.517866
3.502965
3.602505
4.055500
4.303455
4.236698
4.692674
4.986525
5.292892
5.540848
6.211996
6.844997
7.549524
8.415580
10.212660
15.556812
157.075524
490.041971
1015.830636
1015.830636
1015.830636
1015.830636
1015.830636
1015.830636
1015.830636
1015.830636
1015.830636
1015.830636
1015.830636
696.392655
334.681869
178.384781
66.876411
33.190846
23.976564
26.366711
34.183860
44.838786
62.597990
78.324676
99.495649
111.287832
122.242570
123.622417
114.622712
102.871656
82.689524
67.333579
49.406886
38.999915
29.962659
25.609732
21.430850
19.978881
18.421412
17.510653
16.818643
16.770959
16.054511
15.759468
15.373826
15.284419
14.925599
14.736652
14.773607
14.441609
14.182925
14.046431
13.269782
13.193488
13.185740
12.818575
12.575984
11.836886
11.847615
##ZVALUE=315
1.947880
1.801848
2.031922
2.066493
2.318621
2.101660
1.960993
1.903772
2.224445
2.366900
2.298951
2.225637
2.209544
2.356768
2.245903
2.515912
2.786517
2.632737
2.891421
2.814531
3.003478
3.022552
3.410578
3.315806
3.747940
3.699660
4.011989
4.146695
4.271865
4.312992
4.874468
4.903674
5.439520
5.961657
6.121993
7.177591
7.991791
9.367466
10.575652
60.544610
266.524553
900.042653
1015.833020
1015.833020
1015.833020
1015.833020
1015.833020
1015.833020
1015.833020
1015.833020
1015.833020
1015.833020
956.035852
488.564968
259.847641
96.288919
44.150949
22.845864
22.016764
25.242567
30.076504
41.240454
53.996444
72.880983
87.037683
105.387568
114.174485
114.214420
109.161735
94.889998
80.935955
62.773824
49.439669
34.354925
27.570724
21.116734
18.135905
16.187429
15.411973
15.345812
14.519691
14.550686
14.295578
14.194846
14.226437
13.501644
13.548732
12.989640
13.499856
13.039708
12.895465
12.118816
12.234449
12.021661
11.630654
11.930466
##ZVALUE=320
1.886487
1.820922
1.843572
1.823902
2.094507
2.002716
2.127886
2.104640
1.928806
2.040863
2.094507
2.082586
2.294779
2.203584
2.283454
2.462864
2.357960
2.625585
2.769828
2.575517
2.953410
2.721548
3.074408
2.966523
3.293753
3.295541
3.383756
3.476739
3.746748
3.722906
4.065633
4.224777
4.363656
4.493594
4.943609
5.523562
5.967617
6.702542
6.859899
8.267760
9.351969
19.763708
118.054748
560.489893
1015.830636
1015.830636
1015.830636
1015.830636
1015.830636
1015.830636
1015.830636
1015.830636
1015.830636
1015.830636
1015.830636
660.040975
367.610455
153.239965
70.572495
26.779771
18.890500
19.150972
20.433664
26.047826
34.232736
48.431754
63.314438
83.243847
96.569657
106.461644
109.137893
103.670955
92.475414
72.952509
58.274865
41.149855
32.425523
22.910833
18.443465
15.587807
14.348626
13.714433
13.650656
13.227463
12.894869
12.585521
12.966990
13.005733
12.776852
12.334585
12.569427
12.033582
12.048483
11.860728
11.574626
11.782646
##ZVALUE=325
1.922846
1.995564
2.062917
2.026558
1.951456
1.997948
2.278686
2.104640
2.228618
1.967549
2.131462
2.337694
2.026558
2.212524
2.347827
2.451539
2.559423
2.459884
2.598763
2.479553
2.696514
2.905726
3.023744
3.028512
3.147721
3.511906
3.277659
3.435612
3.651977
3.744960
3.755689
3.910661
4.159808
4.116893
4.390478
4.761815
4.853606
5.189776
5.908608
6.492734
6.902814
7.986426
8.774996
11.755824
53.303838
384.638906
868.041515
1016.047597
1016.047597
1016.047597
1016.047597
1016.047597
1016.047597
1016.047597
1016.047597
1016.047597
1016.047597
857.124925
500.375032
217.383504
102.843642
33.542514
18.297434
15.372634
15.358925
18.494725
22.867918
32.967925
44.263005
63.335896
76.521635
91.948509
99.513531
101.576447
94.853640
81.186891
68.226457
51.774979
39.623976
26.978850
21.441579
16.222596
14.287829
13.064742
12.973547
12.529492
12.568831
12.081861
12.254715
12.083650
11.955500
11.850595
11.590719
11.347532
11.245608
11.286736
##ZVALUE=330
1.594424
1.563430
1.629591
1.716614
1.861453
1.826882
1.888871
1.882911
1.858473
1.749992
1.939535
1.919866
2.092719
2.019405
2.001524
1.957417
2.167821
2.197623
2.278686
2.264977
2.336502
2.320409
2.508759
2.508759
2.805591
2.884865
2.989769
2.795458
3.078580
3.115535
3.156662
3.596544
3.493428
3.450513
3.717542
3.833771
4.026890
4.299879
4.462600
5.004406
5.217791
5.877614
6.427765
7.014871
7.707477
9.860992
19.851923
185.863972
528.131723
1015.830636
1015.830636
1015.830636
1015.830636
1015.830636
1015.830636
1015.830636
1015.830636
1015.830636
1015.830636
1015.830636
682.278872
303.726792
151.930451
54.082870
23.426414
14.623404
14.282465
14.955997
17.044544
23.136735
30.399561
43.492913
56.200624
73.476434
83.387494
91.679692
92.659593
86.166859
76.947808
61.501861
48.938990
34.582615
26.747584
19.706488
16.051531
13.653636
12.282729
12.045503
11.534691
11.205673
10.965466
11.139512
11.074543
10.935664
10.732412
10.571480
##ZVALUE=335
1.665950
1.609921
1.791716
1.657605
1.697540
1.596808
1.766682
1.551509
1.706481
1.675487
1.885891
1.845956
1.946688
1.967549
1.818538
1.987815
1.984835
1.994967
2.062917
1.960993
2.259612
2.214909
2.462864
2.328753
2.543926
2.505779
2.572536
2.501607
2.926588
2.898574
2.735853
3.002882
3.223419
3.255606
3.164411
3.474951
3.534555
3.417730
3.778934
3.938675
4.242659
4.776716
4.788637
5.389452
5.956888
6.874800
7.416606
8.544922
10.387897
75.372458
290.383697
921.289921
1015.830636
1015.830636
1015.830636
1015.830636
1015.830636
1015.830636
1015.830636
1015.830636
1015.830636
1015.830636
901.786685
453.439951
235.700607
85.791945
33.744574
15.662909
14.527440
14.895797
15.328526
17.852783
22.021532
30.557513
39.946437
55.187941
65.510869
77.586770
83.622932
85.468888
80.853701
69.691539
59.099793
44.779778
35.942793
25.523901
20.428896
15.222430
13.367534
11.786819
11.635423
10.905862
10.892749
10.291934
10.483861
10.420680
##ZVALUE=340
1.614690
1.655817
1.655817
1.732707
1.731515
1.581907
1.675487
1.481771
1.632571
1.640916
1.767874
1.778603
1.780987
2.001524
1.823902
1.960993
1.900792
1.928806
1.955628
1.920462
1.964569
1.977682
2.185702
2.084970
2.221465
2.464652
2.352595
2.567768
2.570748
2.660751
2.695918
2.840757
2.736449
2.803802
2.931952
3.126860
3.135800
3.367662
3.408790
3.556609
3.563762
3.970861
4.192591
4.660487
4.673600
5.348921
5.578995
6.031990
6.912947
7.806420
8.937716
27.582645
145.253539
612.819791
1015.830636
1015.830636
1015.830636
1015.830636
1015.830636
1015.830636
1015.830636
1015.830636
1015.830636
1015.830636
1015.830636
575.590730
310.757756
124.512911
49.507618
19.018650
15.458465
14.652610
14.214516
14.795661
16.043782
20.172000
26.667714
36.805868
47.588944
62.855482
71.719885
79.631805
80.305934
75.801611
67.732930
55.931807
46.403408
33.974648
26.774406
19.049644
15.210509
12.463927
10.933876
10.894537
10.822415
10.348558
##ZVALUE=345
1.783967
1.635551
1.824498
1.769662
1.687407
1.832843
1.817942
1.619458
1.741648
1.681447
1.848936
1.829863
1.968741
1.974702
2.023578
2.014637
2.065897
1.958609
2.102852
1.964569
2.158880
2.095699
2.284646
2.169609
2.391934
2.436638
2.504587
2.292991
2.554655
2.370477
2.576709
2.574921
2.810955
2.785921
2.779961
2.906919
3.001690
3.007650
3.195405
3.510714
3.431439
3.531575
3.676414
3.912449
4.088879
4.305840
4.549623
4.931688
5.432963
5.729795
6.554723
7.094741
7.985830
11.569858
56.734681
372.136831
881.086588
1015.830636
1015.830636
1015.830636
1015.830636
1015.830636
1015.830636
1015.830636
1015.830636
1015.830636
1015.830636
793.476105
442.371964
184.113979
80.589652
26.513934
16.661882
14.128685
13.281703
12.666583
12.426972
14.044642
17.457604
24.716854
32.840967
45.756698
55.176616
65.714717
72.083473
73.782802
71.663857
64.242482
55.488944
43.976903
34.662485
25.052428
19.048452
14.752746
12.131929
10.927916
##ZVALUE=350
1.872778
2.037883
2.008677
1.831651
2.054572
1.892447
1.844764
1.920462
1.954436
2.003908
2.008677
2.171993
1.962781
2.076626
2.052784
2.156496
2.421737
2.219677
2.346635
2.257824
2.238750
2.258420
2.318621
2.450943
2.445579
2.635717
2.362728
2.679825
2.560616
2.716780
2.716780
2.762675
2.760887
2.850890
2.993941
2.776980
3.025532
2.882481
3.095865
3.159642
3.403425
3.475547
3.455877
3.719926
3.855824
4.000664
4.153848
4.487634
4.720688
5.217791
5.690455
5.748868
6.343722
7.068515
7.905960
9.366870
22.318363
193.849802
547.227859
1015.822887
1015.822887
1015.822887
1015.822887
1015.822887
1015.822887
1015.822887
1015.822887
1015.822887
1015.822887
971.863866
603.051782
268.747807
123.366714
35.749674
17.199516
13.244748
12.410879
11.590719
11.223555
11.718869
13.377666
17.505884
22.244453
30.276775
38.227439
50.351620
57.911873
65.545440
67.153573
65.666437
60.352683
50.437450
42.755604
31.204820
24.856925
18.075705
##ZVALUE=355
2.086759
2.036691
1.974702
2.008677
2.112985
2.063513
2.096891
2.224445
2.255440
2.285838
2.273917
2.246499
2.374649
2.183914
2.389550
2.511740
2.220869
2.414584
2.442598
2.379417
2.420545
2.487898
2.537966
2.657771
2.537966
2.512932
2.732873
2.869964
2.831817
2.865791
2.924800
2.895594
2.926588
3.223419
3.133416
3.120899
3.132820
3.023744
3.238916
3.299713
3.261566
3.558993
3.687739
3.711581
3.819466
4.173517
4.243851
4.138947
4.502535
4.791617
4.826784
5.402565
5.643964
6.050467
6.501675
7.071495
7.764697
9.234548
12.370944
93.461871
328.431726
959.324837
1015.830636
1015.830636
1015.830636
1015.830636
1015.830636
1015.830636
1015.830636
1015.830636
1015.830636
1015.830636
794.932842
345.807672
164.130926
50.750971
21.625757
13.579726
12.523532
11.200905
10.962486
10.630488
10.900497
12.492537
14.934540
20.337701
26.092529
35.257936
42.984486
51.940680
58.320761
61.828494
60.561895
56.006908
48.824549
39.808750
##ZVALUE=360
1.858473
2.121925
1.920462
2.078414
2.078414
1.862645
1.970530
2.348423
2.115965
2.212524
2.221465
2.403855
2.136827
2.229810
2.214909
2.330542
2.345443
2.262592
2.373457
2.553463
2.526641
2.423525
2.520680
2.591610
2.534986
2.480745
2.563000
2.745986
2.828836
2.989769
3.036857
3.071427
3.148913
3.018975
3.079772
3.251433
2.920628
2.988577
3.278852
3.101826
3.433824
3.628731
3.448725
3.668666
3.653765
3.896952
4.020929
4.174709
4.306436
4.430413
4.561543
4.410744
4.860759
5.347729
5.528927
5.889535
6.045699
7.338524
8.989573
10.905862
12.664795
34.380555
152.715445
588.985682
1015.830636
1015.830636
1015.830636
1015.830636
1015.830636
1015.830636
1015.830636
1015.830636
1015.830636
1015.830636
976.755619
482.257009
245.766640
87.314844
33.779740
13.652444
11.523962
10.758638
10.314584
9.892583
9.396672
9.700656
10.451674
12.401938
15.354753
21.330714
27.755499
37.446618
44.131875
50.507784
54.533482
54.816604
##ZVALUE=365
1.933575
1.915693
1.980662
2.113581
2.114773
2.107620
2.063513
1.984835
2.255440
2.059937
2.044439
1.949668
2.107620
2.164841
2.030730
2.026558
2.304912
2.100468
2.283454
2.043843
2.273917
2.248883
2.203584
2.364516
2.478957
2.685785
2.418756
2.428889
2.548695
2.606511
2.575517
2.543926
2.570748
2.810955
2.777576
2.708435
2.738833
2.864599
2.787709
2.823472
3.136992
3.109574
2.974868
3.058910
3.202558
3.181696
3.177524
3.207922
3.411770
3.672838
3.797412
3.906488
4.230738
4.012585
4.213452
4.518628
4.607439
5.602837
6.752610
7.699728
8.650422
9.606481
10.435581
14.506578
54.004788
334.023833
816.715956
1015.830636
1015.830636
1015.830636
1015.830636
1015.830636
1015.830636
1015.830636
1015.830636
1015.830636
1015.830636
666.559935
359.672904
138.351917
52.666664
15.246868
11.055470
9.769797
9.571910
8.834600
8.708835
8.057952
8.057952
8.655787
10.008812
13.300776
17.115474
23.827553
30.803680
38.976669
##ZVALUE=370
1.798868
1.787543
1.901984
1.814961
1.793504
1.825690
1.779795
1.911521
1.709461
1.846552
1.747608
1.787543
1.799464
1.852512
1.785755
1.978874
1.859665
1.911521
1.988411
2.145767
2.132654
2.183914
2.040863
1.966953
1.897812
2.100468
2.082586
2.109408
2.090931
2.101660
2.312660
2.270937
2.401471
2.464652
2.351999
2.222657
2.278686
2.293587
2.287626
2.319813
2.399683
2.600551
2.547503
2.520680
2.546906
2.770424
2.689958
2.690554
2.811551
2.765656
2.939701
3.030896
3.042817
3.073812
3.446937
3.642440
3.631711
4.077554
4.534721
4.902482
5.120635
5.800724
6.121993
6.981492
7.592440
9.500980
23.811460
185.653567
550.161600
1015.830636
1015.830636
1015.830636
1015.830636
1015.830636
1015.830636
1015.830636
1015.830636
1015.830636
1015.830636
876.444578
482.398868
185.777545
82.881451
25.378466
12.089610
9.241700
8.799434
8.376837
7.931590
7.427931
7.423759
7.446408
7.367730
9.044409
11.204481
15.573502
##ZVALUE=375
1.572967
1.577735
1.468658
1.601577
1.589656
1.536608
1.574755
1.438856
1.459718
1.610518
1.431704
1.498461
1.465678
1.601577
1.680851
1.553893
1.733899
1.529455
1.644492
1.744628
1.564622
1.691580
1.766682
1.954436
1.730919
1.860857
1.891851
1.915693
1.765490
2.048612
1.851916
1.932979
1.822710
2.110600
1.946688
2.151728
2.119541
2.217889
2.366900
2.256632
2.187490
2.313852
2.297759
2.304912
2.360940
2.154708
2.476573
2.444983
2.464652
2.457500
2.572536
2.712607
2.773404
3.010631
3.041625
3.052950
3.123879
3.288984
3.484488
3.815889
3.863573
4.316568
4.229546
4.994869
5.326867
6.182790
7.169843
8.704662
11.885762
91.902614
319.097638
939.340591
1015.830636
1015.830636
1015.830636
1015.830636
1015.830636
1015.830636
1015.830636
1015.830636
1015.830636
1015.830636
721.505880
348.540545
170.027614
50.995946
18.231869
9.842515
8.600950
8.111596
7.538795
7.221699
7.068515
6.591678
6.686449
6.977916
##ZVALUE=380
1.301765
1.211762
1.314878
1.278520
1.337528
1.334548
1.131892
1.377463
1.515746
1.331568
1.492500
1.313686
1.491904
1.525879
1.450777
1.544952
1.435876
1.402497
1.580715
1.508594
1.263618
1.585484
1.612902
1.601577
1.618862
1.552701
1.601577
1.754761
1.706481
1.809597
2.038479
1.885891
1.986623
1.985431
2.008677
2.055764
2.013445
2.156496
2.224445
1.888871
2.018809
2.058744
2.054572
2.117753
2.274513
2.322793
2.506971
2.280474
2.327561
2.601743
2.401471
2.348423
2.370477
2.760887
2.642870
2.807975
2.881885
3.158450
3.234744
3.173947
3.455877
3.550649
3.557801
4.012585
4.657507
4.859567
5.663633
6.478429
7.396936
8.887649
10.192990
35.943389
176.042914
727.787018
1015.827656
1015.827656
1015.827656
1015.827656
1015.827656
1015.827656
1015.827656
1015.827656
1015.827656
1015.827656
982.252955
495.646000
250.047445
83.708763
31.329989
10.810494
8.612871
8.042455
7.449985
7.278919
7.145405
6.574988
##ZVALUE=385
1.187921
1.198649
1.184940
1.263618
1.227856
1.356602
1.203418
1.261830
1.402497
1.331568
1.389980
1.402497
1.313686
1.307726
1.410842
1.171827
1.358986
1.438856
1.357794
1.450777
1.625419
1.584888
1.590848
1.737475
1.634955
1.856685
1.792908
1.728535
1.910925
1.957417
1.669526
1.991987
2.137423
2.091527
1.866817
2.193451
2.209544
1.921654
2.331734
2.252460
2.270937
2.129674
2.215505
2.311468
2.432466
2.051592
2.135634
2.151728
2.430677
2.405643
2.259612
2.330542
2.443790
2.669692
2.612472
2.593994
2.814531
2.883673
2.895594
2.811551
3.057718
3.084540
3.281832
3.634691
3.852844
4.242659
4.546642
5.289912
5.968809
6.781816
7.105470
8.079410
8.849502
15.355945
83.493590
449.707508
966.527462
1015.830636
1015.830636
1015.830636
1015.830636
1015.830636
1015.830636
1015.830636
1015.830636
1015.830636
1015.830636
726.602674
406.268835
161.863565
62.939525
15.061498
9.254813
7.621646
7.183552
7.082820
##ZVALUE=390
1.027584
1.038909
0.971556
1.067519
1.133680
1.046658
1.017451
1.051426
1.064539
1.057982
1.302958
1.181960
1.137853
1.249909
1.116991
1.317859
1.185536
1.174808
1.309514
1.293421
1.327991
1.437664
1.458526
1.461506
1.440644
1.477599
1.488924
1.528859
1.739860
1.856685
2.036691
2.092719
2.010465
2.081990
2.020597
2.139807
2.046824
1.991987
2.140999
2.208948
2.192855
2.075434
2.239943
2.070665
2.051592
2.250671
2.267957
2.230406
2.063513
2.178550
2.230406
2.213717
2.287626
2.323985
2.495646
2.476573
2.632737
2.697706
2.736449
2.826452
2.778769
3.025532
3.052950
3.290772
3.380775
3.688931
4.327893
4.739761
5.230904
5.746484
6.016493
6.220937
6.547570
6.870627
7.645488
9.721518
34.330487
250.960588
697.530508
1015.653014
1015.653014
1015.653014
1015.653014
1015.653014
1015.653014
1015.653014
1015.653014
1015.653014
1015.652418
1001.101136
612.554550
241.973996
105.311871
25.971532
10.531545
7.811785
##ZVALUE=395
1.287460
1.314878
1.200438
1.358986
1.196861
1.270771
1.392961
1.285672
1.187921
1.330972
1.387596
1.323819
1.146793
1.308918
1.435876
1.420975
1.351833
1.440644
1.577735
1.503825
1.498461
1.516938
1.535416
1.435876
1.682639
1.727939
1.806617
1.936555
1.950860
2.002716
2.147555
2.069473
2.376437
2.422929
2.425909
2.289414
2.248883
2.352595
2.508759
2.341866
2.382994
2.390742
2.406836
2.619624
2.299547
2.434850
2.529621
2.392530
2.536774
2.286434
2.497435
2.581477
2.455711
2.484918
2.747774
2.656579
2.993941
3.080964
3.236532
3.220439
3.189445
3.264546
3.282428
3.561974
3.506541
3.736615
4.269481
4.774928
5.218983
5.339980
5.501509
5.712509
5.910993
5.859733
6.263852
6.647706
7.399917
8.680820
15.964508
151.204467
496.823788
1015.831828
1015.831828
1015.831828
1015.831828
1015.831828
1015.831828
1015.831828
1015.831828
1015.831828
1015.831828
1015.831828
805.783868
342.716575
158.571601
48.253536
##ZVALUE=400
1.331568
1.415610
1.433492
1.276731
1.293421
1.287460
1.377463
1.213551
1.464486
1.480579
1.229644
1.386404
1.305938
1.472831
1.470447
1.445413
1.491904
1.465678
1.540780
1.577735
1.410842
1.570582
1.495481
1.568794
1.555681
1.560450
1.624823
1.698732
1.851916
2.030730
1.969934
2.166629
2.212524
2.153516
2.137423
1.999736
2.368689
2.346635
2.253652
2.319813
2.327561
2.365708
2.442598
2.360940
2.169609
2.229810
2.336502
2.520680
2.377629
2.322793
2.339482
2.407432
2.475977
2.485514
2.660751
2.614856
2.502799
2.932549
2.842546
2.937913
3.171563
3.510714
3.603697
3.652573
3.676414
4.110932
4.066825
4.503727
5.000830
5.220771
5.297661
5.388856
5.279779
5.299449
5.171895
5.346537
5.701780
6.292462
6.837845
8.167624
10.289550
71.684718
286.223888
919.788480
1015.830636
1015.830636
1015.830636
1015.830636
1015.830636
1015.830636
1015.830636
1015.830636
1015.830636
1015.830636
995.256901
515.902638
##END
