##TITLE=FQP00651
##FORMAT=SPECTACLE-ASCII V-1.2
##DATA TYPE=ULTRAVIOLET SPECTRUM
##SECOND TYPE=ULTRAVIOLET SPECTRUM
##DATE=10/24/17
##TIME=17:25:24
##SPECTROMETER/DATA SYSTEM=SPECTACLE
##XUNITS=NM EM
##YUNITS=ENERGY
##YFACTOR=1
##FIRSTX=220
##LASTX=410
##NPOINTS=96
##3DDATA=Equidistant
##ZUNITS=NM EX
##FIRSTZ=210
##LASTZ=400
##ZPOINTS=39
##XYDATA=(Y..Y)
##ZVALUE=210
2.521873
2.274513
2.263784
2.290606
2.471805
2.499819
2.946854
3.112555
3.047585
2.753735
3.051758
2.814531
2.978444
2.444983
3.382564
3.192425
3.292561
3.583431
3.634691
3.927946
4.012585
3.788471
4.787445
3.929734
5.085468
5.187988
5.066991
5.610585
5.716681
5.960464
6.221533
6.397963
6.230474
6.616712
6.440878
6.522536
7.268786
7.371902
6.102920
6.347895
6.685853
6.201863
6.686449
5.834699
8.070469
7.363558
7.277727
6.612539
6.391406
8.493662
6.646514
8.870959
7.749796
7.176995
7.990599
7.234812
7.722974
9.029508
7.642508
7.564425
8.112788
7.690787
8.358955
7.404685
7.972717
9.460449
9.516478
9.862781
10.349751
12.229681
14.649630
15.162826
17.897487
21.233559
20.438433
23.941994
26.161671
24.242997
22.833943
20.810962
19.314885
18.355846
17.464757
13.084412
12.416840
10.553598
8.669496
9.488463
8.064508
7.582903
8.030534
7.841587
7.093549
7.993579
8.403659
8.234978
##ZVALUE=215
6.040931
6.119609
6.343722
5.912781
5.768538
4.226565
4.302859
4.191995
5.285740
5.135536
4.469752
4.849434
5.123615
3.763437
3.872514
3.807545
3.614426
3.013611
3.466606
3.741980
4.032850
4.672408
4.572868
4.879832
5.031824
5.131960
5.494952
5.957484
5.727410
5.915761
7.523894
7.957816
7.175803
7.033944
7.310510
7.599592
7.927418
8.154511
8.294582
8.704662
7.311702
9.035468
7.794499
8.522868
7.486939
8.374453
9.314418
9.300709
7.907748
9.272695
7.728934
8.739829
8.486509
9.534955
9.040833
8.783937
9.526610
8.744597
8.933544
9.683967
9.474754
8.063912
9.526610
8.804798
8.911490
9.547472
9.676814
10.433793
10.869503
13.823509
14.680624
16.959906
19.248724
20.026565
22.302866
22.059679
22.545457
22.927523
22.924542
20.908713
19.522905
15.940666
15.060902
13.090968
11.667609
10.578632
10.721684
9.275675
8.355975
8.050799
8.100867
7.381439
7.712841
7.891655
7.997751
8.506775
##ZVALUE=220
19.452572
20.185709
23.191571
23.848414
21.505952
18.826723
15.376806
10.806918
10.960698
9.485483
10.439754
10.087490
11.156797
11.254549
9.266734
8.189678
6.215572
5.355477
4.334450
4.579425
4.236698
4.076958
4.982948
5.126595
4.905462
6.066561
6.477833
7.229447
7.075667
7.699728
8.842945
8.571744
9.078979
9.057522
10.016561
11.674762
9.954572
10.875463
10.619760
11.165738
10.985732
10.142922
10.739565
9.806752
11.215806
10.242462
10.903478
11.397600
11.639595
12.859702
11.872649
11.692643
10.899901
11.949539
12.029409
11.563897
11.185408
12.080669
11.739731
12.323856
12.877584
11.202693
12.142658
11.792779
13.043880
11.827946
12.090802
14.523864
14.909506
16.327500
16.801953
18.572807
21.383762
24.635792
26.599765
28.087497
28.249621
28.056502
26.639700
25.876760
24.460554
24.504662
20.083785
18.142462
16.068816
13.818741
13.276935
12.386441
10.915995
10.808706
9.759665
10.013580
10.126829
10.568500
10.168552
10.250807
##ZVALUE=225
40.108562
40.116906
57.096481
76.003671
83.513856
83.048940
79.184771
63.143969
48.842430
37.528872
27.774572
22.679567
22.688508
23.654699
23.791790
25.149584
21.068454
17.090440
13.906956
9.262562
7.726550
6.253719
5.788803
5.460978
5.954504
6.679893
7.774830
7.419586
8.636713
9.907484
10.500550
10.319948
11.744499
12.833476
12.737513
13.842583
13.538599
13.046861
13.422966
14.430881
16.092658
15.175939
15.720725
15.737414
16.421676
17.127991
15.691519
16.028881
17.064810
17.721653
15.657544
16.954541
16.835928
15.984774
17.888546
17.807484
18.391609
16.431808
17.301440
17.986894
16.148686
18.245578
17.152429
17.772913
16.638637
17.880797
18.053651
19.837618
19.648671
21.596551
23.723841
25.121570
28.527975
30.817986
32.102466
32.632947
33.472776
34.913421
33.694506
30.711889
32.172799
28.813481
25.495887
21.305680
21.807551
17.777681
15.941858
15.435815
16.372800
13.755560
14.907718
15.651584
12.081861
14.017820
13.210773
13.190508
##ZVALUE=230
30.693412
32.318830
53.938627
101.522803
138.532519
182.514787
211.179852
214.306712
194.896460
168.070793
114.882588
83.532929
53.746700
45.107603
41.354895
44.276714
48.806667
45.252442
39.542913
35.905838
28.009415
20.534992
13.616681
9.262562
7.570982
7.742643
7.611513
8.621812
9.191632
9.862781
10.134578
10.800958
10.908842
11.456609
11.932850
14.428496
13.681650
14.734864
15.616417
16.466975
16.875863
18.690825
18.194914
20.124912
21.412969
22.383928
21.739602
24.132729
24.105906
24.578571
26.776791
25.259852
23.783445
25.776625
27.188659
26.682615
28.457642
25.696754
25.591850
26.214719
26.595592
28.520823
27.228594
26.156902
27.283430
28.536916
28.167963
28.778911
29.903650
32.164454
33.370852
36.433935
37.587881
37.969947
38.255453
43.382645
41.340590
42.474866
41.309595
37.609935
38.918853
35.589933
32.929778
29.141903
27.567744
25.967956
24.544597
22.502542
23.121834
22.501945
21.119714
20.591617
19.713640
20.652413
18.430948
19.452572
##ZVALUE=235
8.899570
11.724830
26.328564
67.278743
118.408799
196.266770
276.775956
370.374918
421.403646
440.538526
412.131548
347.313881
244.001746
172.430873
108.863711
79.937577
68.680644
76.461434
81.394911
82.172751
76.026917
65.006614
53.814650
36.732554
25.670528
18.380880
14.641881
10.323524
9.846687
10.229945
10.161996
11.738539
10.954738
11.988878
13.358593
12.927651
14.616847
17.114878
16.644597
19.645691
20.600557
23.856759
24.829507
26.073456
26.438832
31.707883
33.741593
33.642650
37.672520
37.071705
39.789677
41.139722
41.376948
42.934418
43.630600
41.637421
41.415691
44.415593
42.213798
44.800639
44.269562
44.691563
46.807528
47.174692
43.932796
45.074821
45.919418
46.910644
46.672821
47.777891
51.256418
50.578713
50.991774
54.737926
54.543614
55.390000
55.238605
49.647689
52.730441
49.299002
47.985911
46.074986
43.920875
42.816997
39.635897
36.745667
36.764741
35.403967
32.994747
32.904744
31.228662
28.369427
26.116967
28.703809
28.211474
28.726459
##ZVALUE=240
2.000928
1.634955
5.338788
14.373660
37.176609
94.065666
163.701773
312.233567
437.150598
593.949556
687.122941
705.760717
666.310787
541.591644
413.675904
267.490745
180.768967
119.297504
97.441673
97.576976
109.568834
111.811757
108.824968
103.908777
82.365870
64.585805
49.633980
32.863617
22.171736
17.185807
13.513565
12.397766
12.365580
11.662841
13.414621
14.430881
15.179515
17.169714
20.012856
22.176504
23.063421
28.196573
31.185746
34.290552
37.563443
44.084787
47.249794
48.808455
53.000450
52.224994
55.464506
59.205890
61.753988
63.647628
60.701966
64.551830
62.770844
63.778758
65.587759
60.609579
62.100887
63.882470
63.974857
63.875914
63.182712
65.808892
63.264966
64.982772
65.431595
65.767765
66.172481
67.659616
65.349936
69.247484
72.924495
72.969794
70.166588
68.116784
64.018965
61.949492
60.636997
57.979822
54.727793
53.199530
51.263571
47.408938
47.702789
43.538809
44.110417
40.367842
39.458871
39.515495
37.264824
37.645698
36.140680
32.962561
##ZVALUE=245
2.290606
2.493858
2.014637
2.293587
4.002452
13.471842
32.838583
98.911524
188.960433
308.442712
545.243025
725.830793
896.873474
946.160555
909.530520
820.154548
609.012842
447.676778
284.331441
182.346702
127.223730
102.009773
108.464956
123.564601
130.063891
121.500492
115.145445
89.781880
76.112747
55.512786
40.277839
26.427507
21.328926
16.317964
14.734864
17.144680
18.386841
19.186735
22.234917
25.815964
27.528405
32.288432
36.387444
41.407943
43.777823
50.814748
55.353642
58.542490
61.917901
63.999891
69.113970
71.794987
72.526932
74.643493
76.331496
74.603558
70.388913
74.244738
72.665811
73.888898
73.731542
72.391629
71.328878
67.931414
67.749619
68.746805
68.121552
70.722699
66.998601
68.803430
67.040920
67.976713
71.103573
67.529678
68.340898
68.159699
67.033768
63.785911
62.203407
58.300495
58.908463
52.936673
55.041909
49.834847
50.035715
46.183467
46.253800
43.165684
42.402744
39.966702
40.021539
38.078427
37.121773
35.095811
34.635663
36.849976
##ZVALUE=250
2.187490
1.869798
1.971722
1.697540
1.923442
2.044439
2.749562
7.534623
36.601424
83.926916
218.416452
367.068648
538.734794
801.006556
953.603983
1015.909910
1015.909910
955.048800
808.303952
562.941432
382.761955
246.024728
137.393475
107.707977
106.747746
119.858980
135.129690
140.956640
141.333938
124.107003
107.892752
83.047748
64.522624
41.961670
30.435920
23.823977
20.704865
20.256639
23.502707
25.498867
28.840899
32.300949
37.786961
42.179823
45.790672
51.704645
57.029724
59.381723
62.793493
66.690445
70.740581
70.564747
74.271560
77.678561
77.059865
75.901747
77.364445
73.052645
73.379874
73.614717
70.686936
72.060823
67.759752
66.506863
68.782568
64.102411
62.601566
61.118603
61.545968
61.174631
57.481527
59.289932
55.835843
59.242845
56.787729
55.352449
55.881739
53.901672
51.652789
47.703981
47.466755
46.617985
45.303702
42.864680
40.701628
41.524768
40.031672
37.019849
38.168430
35.362840
35.548806
35.049915
33.504963
31.996965
31.130910
32.571554
##ZVALUE=255
1.335740
1.581907
1.365542
1.425743
1.749992
1.945496
1.514554
2.063513
2.271533
3.514886
19.096732
50.772429
134.564638
231.953859
422.244668
594.220757
824.967027
975.158811
1015.793681
1015.793681
910.257697
675.312877
485.701561
279.124975
169.254541
102.928877
93.831420
109.424591
126.004815
143.119693
150.355697
146.231651
130.258799
112.677813
84.594488
63.632727
45.019984
33.741593
26.705861
26.084781
27.954578
30.798912
34.191608
38.696527
43.344498
45.892000
51.392913
55.049658
57.441592
61.084628
62.150955
63.219666
66.788793
66.872835
67.316890
68.405867
67.620873
66.536665
64.665675
62.891841
59.906840
60.171485
58.386922
58.460832
54.210424
53.603649
53.287745
50.522685
49.885511
47.518611
47.839880
47.081709
45.511723
45.594573
47.485828
45.427680
43.817759
43.951869
43.188930
41.611791
40.028691
37.445426
37.213564
36.119819
35.993457
34.030676
33.534765
32.706857
33.223629
30.389428
30.897856
30.223727
30.263662
29.190779
28.424859
27.696490
##ZVALUE=260
1.165867
1.338720
1.317859
1.132488
1.046658
1.474619
1.172423
1.642704
1.822710
2.061725
1.999736
2.841949
10.041595
40.789843
89.329481
209.160447
347.226858
575.772524
776.394606
1004.478931
1015.786529
1015.786529
1015.786529
884.191990
600.280762
411.894917
230.049491
140.841007
89.812875
86.317658
101.833940
128.365755
146.113634
156.505704
152.007937
136.969686
119.031668
90.914965
72.750449
52.765608
42.971969
35.211444
34.433603
36.562681
37.092566
40.484667
43.577552
46.002865
49.012899
50.700903
50.953627
52.310824
52.461624
52.581429
51.964521
52.005649
52.714944
51.796436
49.502850
49.398541
49.015880
47.701001
45.898557
44.284463
43.401718
42.282939
42.031407
41.380525
40.748715
40.341616
41.267872
39.803982
39.871931
38.816929
40.525794
38.327575
37.798882
36.506653
37.766695
35.734773
34.606457
34.137964
32.642484
32.262802
29.998422
28.953552
29.906631
30.042529
27.693510
28.607845
27.084947
26.901960
26.004910
26.670694
25.599599
25.455952
##ZVALUE=265
1.086593
0.941753
1.431704
1.112819
1.334548
1.338720
1.304746
1.232624
1.359582
1.614690
1.521707
1.684427
2.040863
2.016425
4.677773
28.748512
68.077445
173.340440
305.531621
574.097633
812.897682
1012.881994
1015.753746
1015.753746
1015.753746
1015.753746
819.472671
581.017733
312.840939
187.423825
99.007487
78.232884
86.413622
111.282468
134.897828
155.593753
160.145760
159.813762
145.277977
121.444464
99.549890
77.177882
59.534907
45.535564
39.145947
37.796497
37.666559
38.689971
39.157867
41.604638
42.770505
42.865872
42.689443
43.822527
43.357611
43.174624
41.492581
41.478872
39.639473
38.908720
38.450956
37.839413
37.702918
35.781860
36.052465
35.290718
35.553575
33.369660
33.854842
34.156442
33.423901
33.423901
32.795668
33.604503
35.024881
32.986999
32.732487
30.882955
32.433867
31.193495
29.871464
28.880835
28.995872
28.419495
26.710629
27.013421
26.565790
25.399923
24.689436
24.993420
24.126768
24.490952
24.246573
24.235845
23.221970
23.176670
##ZVALUE=270
0.822544
1.099706
0.979900
0.889897
1.082420
1.121759
0.890493
1.002550
1.461506
1.345873
1.264811
1.345873
1.450777
1.938939
1.882911
2.382994
2.844930
11.975765
40.417910
153.694749
325.201750
595.124960
1000.563502
1015.635729
1015.635729
1015.635729
1015.635729
1015.635729
1015.635729
822.749734
547.204018
284.538865
160.991549
81.059933
71.848631
91.671944
113.379955
142.701864
158.897638
170.296431
163.875818
148.223639
128.409863
102.115870
82.718730
61.361790
52.350760
41.693449
39.713979
37.958622
36.946535
37.088990
37.628412
36.698580
36.400557
34.918785
34.749508
34.377575
34.779906
32.835603
32.168627
32.371879
31.693578
30.846000
30.107498
30.004978
29.722452
31.555891
29.836893
31.369925
30.148625
31.508803
32.504797
32.450557
31.618476
32.077432
31.771660
30.743480
30.018687
29.102564
28.578639
27.472973
27.682781
25.423765
25.663972
24.827719
24.641752
22.437572
23.450851
23.435950
22.608638
21.952987
21.500587
21.835566
21.740794
21.507740
##ZVALUE=275
1.067519
1.014471
0.935793
0.913739
1.027584
1.068711
1.251698
1.442432
1.324415
1.299977
1.230836
1.557469
1.571774
1.573563
1.745820
2.250671
2.181530
2.367496
2.557635
5.452633
20.126700
16.677380
204.559565
432.492495
885.715485
1015.793681
1015.793681
1015.793681
1015.793681
1015.793681
1015.793681
1015.793681
710.259676
442.854762
204.302669
112.689734
63.698888
65.730810
94.782710
116.534829
144.485831
160.256624
170.171857
166.804790
149.604678
131.126642
104.727745
83.092451
61.885715
51.427484
41.120648
36.711693
34.085512
32.996535
33.206940
31.741858
31.692982
30.301809
31.794906
30.404925
30.429959
29.863715
29.950738
28.657913
28.353930
28.974414
28.581619
28.209686
27.402639
28.503537
27.315617
28.807521
29.090643
29.556751
29.047728
29.590726
28.752685
27.969480
27.331710
28.054714
27.120709
25.483966
25.859475
24.029613
23.776889
23.091435
23.215413
21.981597
21.726489
21.426678
21.316409
20.880699
20.633936
19.754767
19.825697
19.400716
##ZVALUE=280
0.771880
0.691414
0.825524
0.940561
1.071692
0.960827
0.942945
0.840425
0.958443
1.180768
0.935793
1.167655
1.184940
1.253486
1.247525
1.387596
1.465678
1.376867
1.664758
1.955628
2.166629
2.545714
11.586547
38.631558
126.130581
239.646435
483.174920
739.265680
1015.793681
1015.793681
1015.793681
1015.793681
1015.793681
1015.793681
864.051580
495.411754
293.377638
130.126476
71.323514
52.199960
63.956976
89.970827
113.566518
142.582655
158.895850
167.152882
163.520575
146.557689
127.341747
99.555850
79.877973
58.696866
47.292709
37.007928
32.016635
28.655529
28.538704
28.426647
28.269887
27.271509
27.755499
27.063489
26.995540
26.758909
27.314425
26.288629
26.772618
26.965737
27.487874
26.738644
26.435852
27.281642
27.611852
27.439594
27.303696
26.822686
26.428699
26.163459
26.073456
25.038719
24.314523
24.319887
24.047494
23.016930
22.873878
22.261739
22.084713
21.632910
21.133423
20.674467
20.776987
20.199418
19.133687
18.807650
18.662810
18.915534
##ZVALUE=285
0.737906
0.755787
0.801682
0.716448
0.837445
0.640750
0.733733
0.639558
0.858903
0.861883
0.701547
0.708699
0.878572
0.932813
1.122952
1.004934
1.229644
1.284480
1.221895
1.464486
1.541972
1.350641
1.990795
2.024770
5.430579
20.260811
69.081783
151.420832
337.260365
536.098480
727.276802
1015.712619
1015.712619
1015.712619
1015.712619
1015.712619
950.741768
608.819723
388.838649
189.261436
100.652575
46.711564
43.409467
62.841773
83.117485
110.787749
130.943656
149.544477
156.865716
155.963898
143.561959
122.022629
101.972818
75.077415
57.805777
39.846897
32.591820
27.228594
25.279522
24.023652
24.208426
23.715496
24.126768
23.556948
24.068952
25.004745
24.570823
24.536848
24.373531
24.994612
24.587512
24.595857
25.708675
25.528669
25.025606
25.621653
25.568604
24.112463
24.532676
24.113655
22.969842
22.658706
22.335649
21.762848
21.427870
20.681620
20.919442
20.312667
20.051599
20.368695
18.545985
18.549562
17.927885
17.709732
18.186569
17.672777
##ZVALUE=290
0.578761
0.898838
0.638962
0.757575
0.733733
0.894666
0.648499
0.778437
0.890493
0.870824
0.843406
1.088977
1.062751
0.917912
0.907779
0.944734
1.109838
1.126528
1.166463
1.097918
1.462698
1.299977
1.552701
1.541972
1.972914
1.868606
2.823472
8.567572
42.762756
103.818774
203.375816
441.899896
700.067878
1015.793681
1015.793681
1015.793681
1015.793681
1015.793681
1015.793681
760.713816
510.942936
267.393589
143.171549
56.566000
34.927726
40.183663
53.902864
78.346729
98.189712
125.275850
139.746666
150.721669
147.374868
134.604573
117.136836
91.108680
72.900653
50.245523
39.075613
28.290749
23.539662
21.571517
20.868778
20.892620
21.168590
21.126866
21.121502
21.586418
22.322536
22.508502
22.561550
23.212433
23.236871
23.615956
22.682548
23.551583
22.467971
22.540689
22.332668
20.848513
21.775961
21.532774
20.953417
20.623803
20.007491
19.817948
19.886494
18.955469
18.799901
18.479824
17.675757
17.794967
17.750859
16.742945
16.553998
16.576648
##ZVALUE=295
0.523925
0.625849
0.686646
0.782609
0.683665
0.691414
0.764728
0.545979
0.668764
0.771880
0.734925
0.732541
0.729561
0.620484
0.757575
0.967979
0.754595
0.947714
1.038909
0.976920
0.995994
1.154542
1.262426
1.409650
1.385808
1.466870
1.892447
1.843572
2.294779
3.720522
20.213723
60.635805
143.517852
352.404714
577.976704
942.537785
1015.793681
1015.793681
1015.793681
1015.793681
1015.793681
923.745632
646.790862
342.991948
191.559792
75.973868
37.367940
26.266575
32.753944
49.993992
67.952871
93.322992
112.433434
132.925510
139.639974
137.550831
126.111507
104.801655
87.207556
64.105988
49.119592
33.080578
26.001930
21.194816
18.703938
17.681718
17.443895
17.444491
17.546415
18.861890
18.664598
19.252896
19.242764
19.952655
19.677877
19.563437
20.100474
19.278526
18.973947
19.061565
18.799901
18.616915
17.960668
18.170476
18.460751
18.084645
17.475486
17.419457
17.200708
16.813874
16.642809
16.132593
15.982985
15.860796
15.725493
16.382933
##ZVALUE=300
0.692606
0.691414
0.809431
0.692606
0.620484
0.705719
0.697970
0.594854
0.708699
0.622869
0.565648
0.850558
0.648499
0.560880
0.829697
0.880957
0.694990
0.851750
0.904799
0.995994
1.055598
1.096725
0.886917
1.216531
1.129508
1.400709
1.258850
1.571774
1.378655
1.768470
1.916885
2.420545
8.305907
30.138493
105.454922
215.182900
468.817949
737.233758
1015.794873
1015.794873
1015.794873
1015.794873
1015.794873
1015.794873
754.292607
494.449735
252.729654
134.885907
51.179528
24.620891
21.302700
29.259920
44.890642
61.055422
85.085630
105.337501
124.671459
132.335424
130.401850
122.630000
103.542805
86.368918
63.849688
49.089789
32.127500
24.764538
20.197630
17.533898
16.593933
16.418695
16.874671
17.200708
17.411709
17.634630
17.200708
18.003583
18.590689
17.978549
17.590523
17.335415
17.568469
17.517805
17.743707
17.146468
17.475486
16.741753
16.823411
17.026663
16.171932
16.494989
15.499592
16.081929
15.798807
15.412569
15.157461
14.586449
##ZVALUE=305
0.595450
0.659823
0.594854
0.570416
0.663996
0.478625
0.633597
0.439882
0.459552
0.524521
0.627637
0.704527
0.759959
0.632405
0.571609
0.898838
0.747442
0.729561
0.787973
0.888705
0.893474
0.942945
0.889897
0.943542
0.847578
1.104474
1.089573
1.237988
1.323819
1.438856
1.550913
1.832843
1.803637
2.165437
3.540516
19.921660
57.006478
170.758963
330.664515
653.319955
954.228640
1015.794873
1015.794873
1015.794873
1015.794873
1015.794873
973.771811
607.200861
373.197794
168.904662
83.010793
30.788779
17.529726
19.795895
27.673841
42.389631
59.853792
83.381534
99.888444
117.830634
125.750899
124.362707
115.252733
99.370480
82.753897
60.782433
46.596527
32.283664
25.100708
19.496679
17.374754
17.137527
16.735792
17.029643
16.995668
17.636418
16.949773
16.595721
16.940832
17.192960
17.508864
17.442703
17.135739
17.085671
17.029643
17.326474
17.090440
17.069578
16.564727
16.083717
15.690923
16.211867
15.884638
15.825629
15.459657
15.407801
##ZVALUE=310
0.466704
0.451803
0.513792
0.519753
0.509620
0.677705
0.712872
0.487566
0.542998
0.501871
0.559688
0.510812
0.486970
0.783801
0.611544
0.852942
0.791550
0.775456
0.717640
0.596642
0.729561
0.810623
0.868440
0.814795
0.844598
0.817776
0.908971
1.065731
1.095533
1.328588
1.354814
1.259446
1.664758
1.720786
1.909733
1.944900
2.499819
8.854866
31.233430
107.658505
218.234658
463.965535
729.097724
1015.793681
1015.793681
1015.793681
1015.793681
1015.793681
1015.793681
827.675462
546.363592
269.120932
140.073895
50.237775
21.606684
14.514923
17.585754
26.200414
36.040545
54.641962
71.337819
93.731880
107.748508
118.248463
118.953586
110.421777
98.963976
79.997778
63.851476
44.116974
34.746528
25.258660
20.584464
18.359423
17.016530
17.283559
17.123818
17.313957
17.232895
17.120838
17.009974
17.853975
17.695427
17.031431
17.539859
17.611980
17.716885
17.471910
17.388463
17.056465
16.692877
16.791821
15.645623
16.253591
15.873909
15.554428
##ZVALUE=315
0.569820
0.731945
0.444651
0.575781
0.417829
0.565648
0.536442
0.483990
0.439882
0.497699
0.424981
0.538826
0.461936
0.402927
0.596642
0.638962
0.737906
0.546575
0.551939
0.852942
0.572801
0.649691
0.682473
0.790954
0.849962
0.876784
0.888705
0.862479
0.941753
0.929832
0.878572
1.201630
1.068711
1.326799
1.450777
1.306534
1.631975
1.857877
2.258420
4.096627
15.471578
67.653656
152.303576
355.522633
596.081614
979.549885
1015.794873
1015.794873
1015.794873
1015.794873
1015.794873
982.522964
705.123544
373.708606
202.975869
74.181557
31.148791
14.125705
13.321638
17.740726
23.374557
36.369562
49.248934
68.924427
84.483624
102.975965
112.422705
114.355683
108.526945
94.273686
79.047680
59.776902
47.675967
32.969713
25.790930
20.548701
18.726587
17.629862
17.758608
17.326474
18.032789
17.826557
18.043518
17.897487
17.611980
17.984509
17.597675
17.814636
17.746687
17.481446
17.759800
17.328858
16.539693
16.860962
16.747713
15.968680
##ZVALUE=320
0.465512
0.524521
0.387430
0.415444
0.387430
0.484586
0.426769
0.415444
0.402927
0.488758
0.480413
0.535846
0.666976
0.647902
0.511408
0.404716
0.506639
0.518560
0.770688
0.575781
0.602603
0.525713
0.617504
0.849962
0.738502
0.798702
0.729561
0.786781
0.855923
0.843406
0.840425
0.901818
1.059771
1.170635
1.199841
1.290441
1.161695
1.538992
1.477599
1.648664
1.829863
2.069473
8.753538
31.157732
112.900734
233.067870
479.509830
723.284483
1015.793681
1015.793681
1015.793681
1015.793681
1015.793681
1015.793681
808.998942
529.240966
248.642564
130.243897
47.655702
21.165609
12.154579
12.559891
15.702844
21.226406
32.088757
44.694543
63.064694
78.525543
98.709464
106.589794
108.144879
104.213953
90.268850
77.952743
58.351755
46.094656
33.257604
26.655793
21.346807
19.260645
18.067956
17.855763
17.995834
17.770529
18.328428
18.342733
17.883778
18.339753
18.078685
17.682910
17.079711
17.304420
17.288923
17.286539
16.848445
17.039776
##ZVALUE=325
0.456572
0.502467
0.368953
0.521541
0.525713
0.422597
0.407696
0.443459
0.452995
0.349879
0.443459
0.458956
0.565648
0.519753
0.491738
0.630617
0.406504
0.699759
0.546575
0.684857
0.714660
0.730753
0.659823
0.617504
0.425577
0.783801
0.656843
0.601411
0.809431
0.755787
0.739694
0.760555
0.919700
0.958443
1.021624
1.192689
1.249909
1.284480
1.493692
1.480579
1.549721
1.649857
1.662970
2.009869
4.010797
26.674867
72.198510
190.753937
347.064734
661.934018
939.647555
1015.822887
1015.822887
1015.822887
1015.822887
1015.822887
943.664908
584.882498
355.163813
158.374906
75.691938
24.408698
13.198853
11.426806
12.670755
16.261935
20.978451
32.101870
44.076443
62.828660
78.036785
93.680620
101.861954
103.254914
98.735690
84.834695
72.124600
56.557655
43.894649
32.262802
25.995970
21.629930
19.791722
18.557906
18.298626
18.198490
18.002987
18.231869
18.324852
17.830729
17.942786
17.502904
17.505884
17.272830
17.033815
16.742945
##ZVALUE=330
0.328422
0.384450
0.439882
0.363588
0.357628
0.508428
0.397563
0.571609
0.471473
0.444651
0.338554
0.511408
0.398755
0.391603
0.486970
0.490546
0.535846
0.392795
0.430942
0.510812
0.529885
0.561476
0.494719
0.485778
0.492930
0.504851
0.628829
0.641942
0.488758
0.626445
0.710487
0.724792
0.769496
0.976920
0.539422
0.943542
1.177788
0.864863
0.952482
1.008511
1.158714
1.176596
1.629591
1.554489
1.866817
2.035499
2.642870
8.279681
46.404600
113.444924
282.514691
476.537943
829.469562
1015.793681
1015.793681
1015.793681
1015.793681
1015.793681
1000.193954
760.097504
428.112745
246.993899
100.343823
45.289993
16.310811
11.628866
11.693835
12.705922
16.534925
21.983981
32.566786
43.480992
60.457587
73.592663
88.844895
96.385479
98.738670
93.969703
81.512928
69.400668
52.758455
42.655468
32.088757
26.786923
22.028685
19.974709
18.801689
18.137693
17.846823
17.760992
17.523766
17.458797
17.129779
17.087460
17.036796
17.197728
##ZVALUE=335
0.333786
0.295639
0.455976
0.301600
0.372529
0.477433
0.458956
0.331998
0.392795
0.351667
0.433922
0.463724
0.362992
0.500679
0.588894
0.480413
0.490546
0.422597
0.531673
0.557899
0.405908
0.450611
0.467896
0.402927
0.470877
0.463724
0.595450
0.609756
0.584722
0.704527
0.728965
0.632405
0.892878
0.779629
0.765920
0.847578
0.766516
0.904799
0.968575
0.999570
1.005530
1.080632
1.176596
1.230836
1.481771
1.319647
1.466870
1.757741
2.005696
5.147457
19.575953
81.733465
177.620649
405.743718
660.634637
1011.478901
1015.793681
1015.793681
1015.793681
1015.793681
1015.793681
819.202662
561.227798
296.978951
158.356428
55.314898
24.166703
12.475848
11.333823
12.551546
13.536811
16.847849
21.264553
31.154752
41.042566
58.835745
70.182681
83.270669
90.904832
92.290640
87.877512
76.463819
66.314936
52.913427
42.847991
32.612681
26.737452
21.623969
19.652843
17.769933
17.897487
17.020702
17.148852
16.918778
16.889572
16.732812
##ZVALUE=340
0.379682
0.361800
0.539422
0.388622
0.347495
0.378489
0.347495
0.184774
0.250936
0.382662
0.345707
0.298619
0.405908
0.424981
0.460744
0.517964
0.390410
0.434518
0.473857
0.408888
0.532866
0.401735
0.302792
0.628829
0.507832
0.385642
0.516772
0.581741
0.787973
0.678897
0.272989
0.547767
0.629425
0.622869
0.586510
0.809431
0.780821
0.903606
0.848770
0.759959
0.862479
0.879765
0.924468
1.015663
1.109838
1.110435
1.366735
1.344681
1.521707
1.697540
1.942515
2.764463
9.110570
48.885942
122.871399
318.951011
555.598736
953.143835
1015.796661
1015.796661
1015.796661
1015.796661
1015.796661
981.428623
699.824691
370.821953
208.439827
86.654425
37.043691
14.233589
11.967421
12.219548
12.301803
13.747811
16.477704
22.361875
28.740764
41.486621
53.043962
68.949461
78.926682
86.048841
86.817741
83.418489
74.954629
62.703490
51.907897
39.913654
32.676458
24.880767
21.614432
18.235445
17.113686
16.564727
16.302466
16.177893
##ZVALUE=345
0.317693
0.318885
0.195503
0.224710
0.156760
0.201464
0.111461
0.353456
0.284910
0.373721
0.276566
0.179410
0.263453
0.281930
0.301600
0.257492
0.323653
0.181794
0.357628
0.364780
0.374913
0.293851
0.323653
0.310540
0.285506
0.244975
0.509620
0.314713
0.261664
0.479817
0.438690
0.454783
0.504851
0.492930
0.456572
0.430942
0.335574
0.550747
0.489950
0.613928
0.723600
0.635982
0.811815
0.776649
0.876784
0.819564
0.818968
0.929832
1.141429
1.153946
1.176596
1.336932
1.548529
1.887679
3.972650
27.152896
77.000856
206.064582
371.523499
683.618784
949.258804
1015.682817
1015.682817
1015.682817
1015.682817
1015.682817
825.935006
496.604443
285.934806
116.331577
54.161549
18.896461
12.065768
10.841489
11.034608
11.359453
12.138486
15.184879
18.697977
28.092861
37.302971
51.096678
60.462952
71.851611
78.340769
80.582500
78.015924
70.500970
61.938763
49.518943
39.946437
29.553771
24.422407
19.951463
17.955899
16.303658
##ZVALUE=350
0.089407
0.140667
0.144839
0.204444
0.188947
0.158548
0.267625
0.135899
0.046492
0.210404
0.274777
0.202656
0.297427
0.188947
0.231862
0.382662
0.252724
0.224710
0.194907
0.270605
0.343919
0.101924
0.223517
0.287890
0.246763
0.440478
0.373721
0.420809
0.448823
0.367761
0.425577
0.337958
0.371933
0.318885
0.332594
0.473857
0.456572
0.531673
0.563860
0.461936
0.485778
0.476837
0.609756
0.533462
0.561476
0.608563
0.623465
0.714660
0.793934
0.986457
1.016855
1.270771
1.075864
1.148582
1.553893
1.543760
2.273917
12.310743
41.065812
133.860707
263.456702
538.609624
792.391896
1015.657783
1015.657783
1015.657783
1015.657783
1015.657783
934.428573
572.157502
359.298587
165.627599
79.624653
24.078488
12.342930
10.022521
10.221601
10.310411
10.627508
11.764765
13.822913
18.954873
24.119616
33.761859
41.962862
54.710507
63.223839
71.385503
74.557662
71.998835
66.681504
56.125522
47.003627
36.374927
29.150844
22.741556
##ZVALUE=355
0.092983
0.028610
0.070930
-0.083447
0.233650
0.040531
0.155568
0.125766
0.218749
0.121593
0.139475
0.259876
0.222921
0.202656
0.158548
0.295639
0.190735
-0.094771
0.034571
0.240803
0.225902
0.373721
0.126958
0.090599
0.358820
0.294447
0.205636
0.284910
0.300407
0.195503
0.313520
0.399947
0.384450
0.356436
0.446439
0.377893
0.386834
0.394583
0.411868
0.295639
0.440478
0.463724
0.402927
0.539422
0.623465
0.737906
0.789762
0.608563
0.783801
0.715852
0.713468
0.756979
0.994802
1.011491
1.094937
1.237988
1.256466
1.561642
1.902580
5.596876
21.560788
88.110566
185.489655
399.462581
644.742846
996.472836
1015.587449
1015.587449
1015.587449
1015.587449
1015.587449
741.483569
480.812788
215.979815
104.860663
32.961965
14.043450
9.605885
9.424686
9.589791
9.587407
10.412931
11.014938
12.909770
15.649796
21.794438
27.973652
38.544536
46.632886
56.903958
63.356757
66.705942
65.405965
60.597658
53.193569
44.199824
##ZVALUE=360
0.278950
0.265837
0.316501
0.349879
0.276566
0.210404
0.327826
0.236630
0.363588
0.319481
0.477433
0.294447
0.243783
0.342727
0.409484
0.430942
0.470877
0.393987
0.304580
0.305772
0.423789
0.520945
0.496507
0.484586
0.502467
0.500679
0.316501
0.397563
0.482798
0.574589
0.261664
0.514984
0.531673
0.632405
0.502467
0.558496
0.428557
0.592470
0.847578
0.677705
0.568628
0.596642
0.632405
0.684857
0.809431
0.551939
0.800490
0.849962
0.828505
0.753999
1.024604
0.971556
0.994802
1.127720
1.101494
1.118779
1.357794
1.376867
1.616478
1.648664
2.047420
2.492666
11.434555
37.561655
129.087567
253.230929
521.138906
794.458985
1015.794873
1015.794873
1015.794873
1015.794873
1015.794873
879.878998
556.285977
340.429544
146.766901
65.265894
19.098520
10.457635
9.266734
9.288788
9.149909
9.163618
9.525418
9.923577
11.742711
13.631582
18.549562
23.598671
31.929612
40.366650
50.499439
56.200624
60.787797
60.109496
##ZVALUE=365
0.002980
0.277758
0.357628
0.233650
0.382662
0.202656
0.439882
0.339746
0.426769
0.341535
0.444651
0.208616
0.390410
0.486970
0.393987
0.277758
0.343919
0.441670
0.287890
0.363588
0.343919
0.360608
0.345707
0.428557
0.501871
0.483990
0.494719
0.460744
0.377893
0.469685
0.446439
0.315905
0.522733
0.501871
0.378489
0.541806
0.646710
0.495911
0.830889
0.488758
0.501871
0.707507
0.669956
0.700951
0.634789
0.515580
0.768900
0.822544
0.757575
0.802875
0.915527
0.861883
0.965595
0.879765
0.958443
1.020432
1.105666
1.203418
1.162887
1.475811
1.533628
1.671910
1.713634
2.116561
3.866553
22.121668
64.811707
187.321901
344.919562
631.082654
881.719589
1015.793681
1015.793681
1015.793681
1015.793681
995.103717
764.034986
449.500680
260.854959
99.004507
38.468838
11.403561
8.856654
8.803606
8.725524
8.453727
8.486509
8.695722
8.932948
9.949803
11.892915
15.851855
20.340681
27.254820
33.973455
42.824745
##ZVALUE=370
0.285506
0.328422
0.332594
0.300407
0.270605
0.320673
0.339746
0.342727
0.302792
0.368953
0.352859
0.400543
0.243783
0.503659
0.432730
0.410676
0.520945
0.403523
0.450611
0.479817
0.304580
0.458956
0.397563
0.264645
0.400543
0.593662
0.454783
0.568628
0.322461
0.363588
0.698566
0.482798
0.649691
0.500679
0.457764
0.451803
0.469685
0.646710
0.626445
0.618696
0.452995
0.587702
0.515580
0.590682
0.527501
0.689626
0.535846
0.658631
0.726581
0.672936
0.864863
0.877976
0.571609
0.882745
0.817776
0.866652
0.905991
0.840425
1.025796
1.182556
1.320839
1.303554
1.280904
1.568794
1.724958
1.862645
2.534986
10.875463
38.487911
134.412646
262.421966
525.646806
808.853507
1015.793681
1015.793681
1015.793681
1015.793681
1015.793681
814.610720
465.440750
269.096494
110.838413
52.554607
18.082857
9.374619
7.756948
7.588863
7.627606
7.357597
7.639527
7.693768
8.009672
8.671880
10.646582
13.264418
18.210411
##ZVALUE=375
0.224710
0.297427
0.301600
0.303984
0.372529
0.129938
0.114441
0.358820
0.329614
0.372529
0.253916
0.375509
0.350475
0.416636
0.215769
0.362992
0.248551
0.345707
0.306964
0.309944
0.367761
0.453591
0.308752
0.348687
0.366569
0.380874
0.387430
0.409484
0.344515
0.334978
0.376701
0.391603
0.560880
0.420809
0.485778
0.357628
0.386834
0.287890
0.364780
0.478625
0.330806
0.514984
0.662804
0.496507
0.651479
0.523925
0.450611
0.761747
0.566840
0.606775
0.622869
0.688434
0.712872
0.568628
0.661612
0.773668
0.774860
0.744462
0.836849
0.744462
0.864863
0.985861
0.961423
0.926852
1.370907
1.104474
1.330972
1.577735
2.021790
4.626513
27.506948
71.069002
191.242695
353.383422
662.981868
920.608640
1015.793681
1015.793681
1015.793681
1015.793681
858.883858
605.105758
338.493586
189.572573
75.800419
32.043457
10.273457
7.340908
6.847978
7.002950
6.779432
6.822944
6.642938
6.749630
7.269979
7.887483
##ZVALUE=380
0.341535
0.186563
0.298619
0.247955
0.178814
0.226498
0.272989
0.322461
0.186563
0.288486
0.348687
0.133514
0.220537
0.364780
0.276566
0.310540
0.282526
0.380874
0.277758
0.322461
0.251532
0.116825
0.330806
0.329614
0.455976
0.511408
0.399947
0.362992
0.511408
0.300407
0.362992
0.487566
0.259876
0.243783
0.445843
0.356436
0.464916
0.357628
0.408888
0.384450
0.372529
0.381470
0.306964
0.442863
0.483990
0.443459
0.506639
0.529885
0.551939
0.563860
0.657439
0.450611
0.554919
0.600815
0.630617
0.430942
0.712872
0.814795
0.794530
0.822544
0.722408
0.680685
0.799894
0.969768
0.907779
0.925660
1.129508
1.122952
1.463890
1.623631
1.824498
2.986789
10.417700
52.922964
127.702951
312.287807
525.476933
851.027966
1015.793681
1015.793681
1015.793681
1015.793681
997.432470
708.577633
475.596786
236.341953
122.206807
42.858720
17.246604
7.380843
6.533861
6.201863
6.081462
6.079674
6.434917
6.197691
##ZVALUE=385
0.344515
0.447631
0.291467
0.358820
0.343919
0.365973
0.231862
0.300407
0.457764
0.489950
0.421405
0.327826
0.403523
0.350475
0.365973
0.262856
0.321865
0.292659
0.314713
0.446439
0.302792
0.464916
0.435710
0.488758
0.469685
0.259876
0.398755
0.347495
0.317693
0.406504
0.346899
0.345707
0.493526
0.508428
0.474453
0.464916
0.415444
0.529885
0.454783
0.411868
0.600815
0.527501
0.538826
0.596642
0.580549
0.573993
0.632405
0.515580
0.463724
0.421405
0.500679
0.615716
0.580549
0.600815
0.738502
0.663996
0.647902
0.696778
0.734925
0.576973
0.750422
0.750422
0.689626
0.889897
0.984669
0.918508
1.141429
1.106858
1.386404
1.563430
1.617670
1.693964
1.911521
1.927614
6.312728
21.868944
85.936785
188.229680
420.202613
653.776526
985.137820
1015.892029
1015.892029
1015.892029
1015.892029
905.457735
582.952499
370.295644
169.275999
82.810521
27.171969
10.637641
6.113648
5.624890
5.407929
5.475879
##ZVALUE=390
0.098944
0.129938
0.165701
0.126958
0.179410
0.230670
0.187755
0.289679
0.290871
0.323653
0.195503
0.297427
0.176430
0.249743
0.317693
0.320673
0.246763
0.188947
0.291467
0.154972
0.213981
0.163913
0.384450
0.251532
0.150800
0.366569
0.313520
0.290871
0.223517
0.430942
0.251532
0.440478
0.271797
0.415444
0.392795
0.271797
0.350475
0.295639
0.242591
0.241995
0.359416
0.268817
0.482798
0.374913
0.498891
0.399947
0.366569
0.522733
0.417829
0.432730
0.426769
0.353456
0.341535
0.484586
0.397563
0.453591
0.755787
0.519753
0.561476
0.443459
0.603795
0.736713
0.732541
0.727773
0.675917
0.819564
0.854731
0.867844
0.981688
1.086593
1.222491
1.179576
1.475811
1.388788
1.548529
1.604557
3.130436
12.757778
61.242580
142.550468
340.673923
545.122623
845.896602
1015.793681
1015.793681
1015.793681
1015.793681
1011.558771
725.834966
495.608449
256.592631
133.711696
45.765638
17.455816
6.346703
5.247593
##ZVALUE=395
0.308752
0.237823
0.343919
0.273585
0.261664
0.213981
0.398755
0.347495
0.242591
0.133514
0.271797
0.224710
0.190735
0.375509
0.207424
0.225902
0.351667
0.230670
0.346899
0.288486
0.390410
0.300407
0.405908
0.145435
0.389814
0.305772
0.125766
0.315905
0.144839
0.361800
0.307560
0.406504
0.227690
0.374913
0.469685
0.451803
0.409484
0.445843
0.372529
0.427961
0.397563
0.312924
0.413656
0.447631
0.402927
0.387430
0.399947
0.629425
0.394583
0.467896
0.437498
0.436902
0.454783
0.420809
0.592470
0.531673
0.539422
0.690818
0.606775
0.686646
0.584722
0.421405
0.649691
0.801682
0.786781
0.871420
0.841618
0.892878
1.006722
1.143813
1.203418
1.273751
1.486540
1.168847
1.225471
1.437664
1.463890
1.678467
2.232790
7.670522
46.594739
114.175677
265.142918
445.716381
751.432776
986.847878
1015.838981
1015.838981
1015.838981
1015.838981
921.473503
662.952662
355.842710
192.161798
70.470572
30.104518
##ZVALUE=400
0.132918
0.167489
0.157952
0.037551
0.352859
0.326633
0.277758
0.191927
0.187755
0.237823
0.292659
0.276566
0.208616
0.167489
0.141859
0.143647
0.324845
0.277758
0.099540
0.238419
0.298619
0.294447
0.240803
0.371933
0.126958
0.195503
0.105500
0.093579
0.409484
0.225902
0.201464
0.274777
0.252724
0.239611
0.319481
0.245571
0.321865
0.348687
0.271797
0.241995
0.364780
0.376701
0.271797
0.371933
0.601411
0.588894
0.359416
0.463724
0.398755
0.494719
0.475645
0.328422
0.404716
0.437498
0.550747
0.321865
0.440478
0.576973
0.552535
0.671744
0.520945
0.567436
0.680685
0.573993
0.550747
0.761747
0.701547
0.771880
0.968575
1.117587
1.182556
1.053810
1.025796
1.277924
1.083612
1.211762
1.198649
1.215935
1.238585
1.587868
1.854897
5.014539
19.746423
75.653791
167.482495
376.209617
600.448847
930.934548
1015.793681
1015.793681
1015.793681
1015.793681
1006.812453
701.600909
464.738011
235.759616
##END
