##TITLE=FQP00302
##FORMAT=SPECTACLE-ASCII V-1.2
##DATA TYPE=ULTRAVIOLET SPECTRUM
##SECOND TYPE=ULTRAVIOLET SPECTRUM
##DATE=10/24/17
##TIME=17:12:10
##SPECTROMETER/DATA SYSTEM=SPECTACLE
##XUNITS=NM EM
##YUNITS=ENERGY
##YFACTOR=1
##FIRSTX=220
##LASTX=410
##NPOINTS=96
##3DDATA=Equidistant
##ZUNITS=NM EX
##FIRSTZ=210
##LASTZ=400
##ZPOINTS=39
##XYDATA=(Y..Y)
##ZVALUE=210
5.279779
5.041957
4.479885
4.671812
5.007982
5.203485
6.588697
9.550452
9.918809
9.471774
10.860562
12.514591
13.066530
13.334751
16.629696
15.128851
18.405914
19.602776
20.880699
21.378994
23.899674
26.654601
26.390553
30.990839
30.902624
31.481981
32.213926
36.145449
35.937428
36.972761
39.978623
40.431619
38.134456
40.109754
43.588877
42.788982
44.300556
42.666793
43.941736
47.937632
46.718717
48.297644
49.168468
50.086975
52.234530
53.900480
53.581595
56.014657
55.180788
52.970648
56.450963
55.511594
58.984756
56.759715
58.479905
59.668422
59.231520
58.947802
62.006712
59.245825
62.306523
60.717463
63.212514
64.435601
63.777566
65.902472
75.091720
77.686906
90.310574
111.187696
127.053857
159.968734
178.497434
222.195983
253.464580
283.550620
307.472944
320.620537
325.062871
311.248899
304.218531
268.242955
231.851935
190.269947
157.741904
120.785832
94.818473
76.056719
65.260530
58.492422
58.726668
56.305528
51.924586
53.140521
52.970648
52.225590
##ZVALUE=215
25.825500
23.812652
20.647645
16.449690
12.614727
9.809732
8.408427
8.795857
8.813739
9.188652
10.555983
10.322928
11.628866
11.835694
11.862516
12.996793
13.127923
14.504790
14.412999
14.968514
17.922521
18.185973
18.075705
20.746589
22.652745
22.731423
23.575425
23.797750
24.986863
26.828647
27.417541
26.572943
26.680827
29.539466
29.451847
29.913783
31.084418
31.609535
29.440522
33.178926
34.451485
33.938885
33.744574
34.170747
33.343434
35.501719
34.764409
36.656857
37.407875
36.901832
36.799908
37.361979
40.402412
37.397742
38.951635
39.320588
38.804412
40.970445
41.295886
41.126609
41.438937
40.622950
42.508841
42.749643
44.041872
42.281747
44.205785
52.229762
54.768920
65.648556
77.691674
93.406439
110.360980
129.568577
148.131847
162.047744
175.509453
184.363723
187.621713
181.592703
177.993774
157.017708
138.431787
116.739869
96.952915
74.971914
60.308576
51.030517
43.668747
37.906766
38.288832
35.272837
36.219954
34.390688
35.053492
34.556985
##ZVALUE=220
77.664852
73.735714
80.341697
81.822872
73.784590
56.819916
45.922995
26.222467
20.053983
13.245940
15.218854
15.555620
15.401840
15.315413
15.100837
14.290810
12.303591
12.767911
12.548566
13.084412
12.620687
12.927651
15.982985
16.043782
15.394688
17.538667
18.241405
18.861890
20.770431
21.854639
22.186637
21.119714
21.345615
21.498799
23.777485
23.861527
25.253892
24.453998
24.363995
25.844574
26.620626
26.004910
26.357770
25.865436
26.327968
26.617646
26.878715
26.226640
28.309822
27.247667
28.137565
28.753877
27.320981
28.603673
28.405786
29.914975
31.913519
29.964447
31.230450
29.077530
29.834509
28.868914
30.189753
30.861497
31.515956
31.355619
33.156872
36.017895
41.123629
46.370625
52.781701
59.221983
68.989992
79.840422
89.489818
98.284483
105.041862
114.833713
116.120577
118.016601
111.208558
106.112957
94.523430
78.075528
71.023703
49.925447
43.949485
33.673644
32.632947
26.993752
28.154850
24.948716
26.601553
25.892854
25.725961
25.216937
##ZVALUE=225
109.092593
114.694834
150.022507
193.446875
214.302540
210.497975
186.701417
145.871639
106.834769
75.490475
41.881800
29.301643
22.287965
26.173592
26.813745
26.542544
23.867488
22.551417
19.681454
15.259981
12.239814
11.608601
12.506843
12.467504
13.212562
13.694763
12.623668
15.600920
15.032887
16.921759
16.206503
17.486811
16.181469
18.192530
17.594695
19.090772
19.855499
19.486547
19.123554
20.635724
20.264983
20.818710
19.458532
19.899607
19.351840
21.382570
22.042990
24.082661
22.527575
23.039579
23.611784
22.447705
23.949742
24.755001
24.050474
24.073720
25.049448
25.689602
26.633739
25.487542
25.745630
27.240515
26.071668
25.416613
27.322769
26.632547
27.594566
30.465722
33.844709
36.446452
38.257837
46.556592
54.204464
60.687661
62.624812
68.193674
68.934560
77.174902
74.045658
68.790913
70.819855
61.394572
57.014823
48.751831
41.496754
34.369826
30.418634
28.204918
26.800632
25.464892
24.455786
23.836493
24.454594
23.778677
24.516582
23.151636
##ZVALUE=230
91.294646
98.829865
158.337951
274.767876
356.493592
436.172485
474.464893
464.121699
412.691832
327.115655
229.073763
130.412579
84.211826
54.042935
46.058893
49.502850
50.442815
51.393509
44.712424
42.662621
32.586455
23.840666
19.931793
15.773773
14.159679
12.690425
12.019873
13.058782
14.248490
12.713671
15.587807
14.686584
16.194582
16.009808
17.492771
16.232729
17.148852
17.215610
18.692613
18.244982
18.802881
19.574761
19.375682
20.066500
21.902919
21.433830
20.911694
21.199584
22.308826
24.138689
22.289753
23.529530
25.346875
24.221539
24.234653
27.819872
26.281476
24.057627
26.187897
26.603937
27.144551
27.598739
28.565526
28.225780
27.463436
30.394793
31.962991
31.997561
32.844543
36.633611
41.008592
44.036508
47.638416
51.888824
58.414936
64.684749
65.237880
64.759851
64.129829
65.008998
63.364506
55.158734
50.894618
45.691729
40.362477
34.833550
31.208992
33.381581
31.405687
27.436614
27.520657
27.211905
27.099848
25.929809
27.158856
28.190613
##ZVALUE=235
29.243827
34.587979
78.220963
180.501938
294.292569
467.674732
598.920584
773.837566
836.696029
820.583701
707.989931
574.224591
368.749499
247.556567
149.322748
100.226998
79.671741
79.955459
83.450675
85.197687
79.535842
66.571832
55.322647
39.830804
28.634667
21.546483
16.531944
13.009906
14.038682
13.123751
13.948679
15.775561
14.281869
14.609694
17.143488
15.666485
15.284419
15.983582
18.776655
18.093586
19.032955
19.367933
19.081831
22.329688
22.102594
21.373630
22.423863
23.927689
25.897622
26.095510
27.398467
27.757883
28.504729
27.420521
27.725697
31.281710
32.867789
31.472445
30.423999
33.795834
33.978820
32.795668
35.481453
33.997893
36.665797
35.596490
36.748648
40.489435
40.396452
45.412779
46.877861
51.718950
54.602623
61.162710
62.860847
64.593554
65.795779
69.146752
63.787699
64.126849
63.171983
54.779649
52.576661
49.443841
44.830441
40.685534
40.160418
37.524700
39.590597
38.784742
36.424994
33.879876
34.796596
36.194921
33.871531
35.893917
##ZVALUE=240
3.212690
3.303885
11.550784
49.970746
108.898878
247.362852
414.395928
704.845786
940.847993
1015.793681
1015.793681
1015.793681
1015.793681
931.360722
646.469593
433.598757
232.839584
157.220960
109.406710
103.994608
116.120577
120.555758
116.370916
104.199648
86.507797
67.901611
54.966807
35.533905
28.201938
19.703507
17.455816
16.135573
16.666651
16.317964
17.741919
16.630888
18.194914
18.152595
18.857718
20.299554
19.051433
20.106435
24.237633
24.340749
26.135445
25.817752
27.649999
27.728677
29.679537
31.538606
31.615496
33.841729
34.353733
34.100413
36.093593
34.700632
35.551786
37.613511
40.665865
39.252639
40.594935
39.019585
39.697886
41.620731
41.602850
41.865706
43.139458
47.118664
45.706630
48.991442
53.743720
55.582523
61.055422
64.154863
68.612695
71.994662
70.756674
68.678856
68.264604
67.700744
64.651966
63.077807
55.170655
56.512952
51.654577
50.330758
46.469569
48.069954
44.528842
43.218732
42.099953
42.775869
42.713881
42.373538
39.964914
40.360689
##ZVALUE=245
2.467632
2.309680
2.333522
4.171729
7.428527
37.617683
98.086596
261.793733
457.271934
719.633698
1015.793681
1015.793681
1015.793681
1015.793681
1015.793681
1015.793681
862.897635
612.273812
354.357958
219.535828
132.721663
109.723806
118.997693
127.990842
136.537552
130.005479
118.668675
96.259713
85.049868
58.708787
44.192672
31.143427
26.152730
19.981861
18.158555
17.358661
17.916560
18.649697
19.570589
20.555854
21.363497
21.323562
23.812652
23.667812
26.310682
26.127696
27.080774
29.976964
31.030774
33.696890
33.814907
34.327507
35.892725
37.101507
35.004616
37.022829
37.989616
37.524700
38.139820
36.101937
38.036704
40.582418
37.351847
39.089918
41.786432
41.893721
44.237971
45.802593
46.095848
46.959519
49.027801
52.080750
54.477453
59.356689
58.110952
62.153935
61.694980
62.348843
61.124563
59.184432
58.493614
56.724548
53.172708
48.864484
46.742558
46.311617
45.140982
45.206547
43.820739
43.924451
45.168996
41.662455
41.058660
38.755536
42.179823
39.793849
##ZVALUE=250
2.061725
2.058744
2.402663
2.505779
2.933741
3.121495
5.454421
22.365451
101.962686
221.346617
517.831445
808.380842
1015.795469
1015.795469
1015.795469
1015.795469
1015.795469
1015.795469
1015.795469
830.729604
535.162687
324.200988
169.418454
116.106868
111.136436
126.346946
141.506791
147.339702
141.205788
129.622817
111.798644
87.095499
67.610741
45.978427
33.964515
24.223924
20.682812
18.122792
18.474460
19.513965
19.778609
21.410584
23.103952
24.687648
25.460720
28.273463
28.151870
30.238628
29.705763
31.329989
33.058524
32.129884
34.315586
34.479499
34.257770
34.904480
35.065413
36.748648
35.690665
37.128925
36.868453
35.475492
35.119653
35.503507
35.780668
36.219954
38.595796
39.086938
38.508773
40.368438
42.736530
46.813488
48.515797
50.237775
52.462816
52.455664
52.699447
54.341555
52.622557
52.639842
51.036477
46.061873
45.949817
44.498444
42.784810
41.177869
38.934946
39.634705
38.832426
39.263964
38.503408
36.968589
36.763549
38.815737
37.500858
37.369728
##ZVALUE=255
2.067685
2.122521
2.166629
2.254844
2.174973
2.524853
2.830625
3.360510
4.263520
12.663603
76.244473
195.440650
403.228402
828.166008
1015.786529
1015.786529
1015.786529
1015.786529
1015.786529
1015.786529
1015.786529
1015.786529
738.089681
442.895889
218.625665
137.255788
104.930997
110.072494
130.081773
144.839883
153.055787
149.351954
138.557553
113.567710
91.902614
62.551498
48.623681
32.965541
25.510788
19.636750
20.857453
21.184683
21.607876
22.097826
22.894740
25.258660
26.507974
27.078986
28.861761
28.839707
28.476715
31.454563
30.407906
31.652451
29.782653
32.062531
31.716824
32.969713
30.352473
32.885671
30.523539
31.628609
32.929778
32.148957
30.135512
31.760931
32.380819
33.172965
33.964515
35.161972
37.430525
38.757920
41.226745
43.613911
44.537783
46.884418
46.656728
46.179891
47.242641
44.080615
43.837428
41.444898
38.730502
38.063526
37.615895
37.142634
36.931634
35.079718
35.914779
35.091639
36.025643
36.648512
34.586787
35.051703
35.304427
35.819411
##ZVALUE=260
1.833439
1.909733
1.935959
1.811981
2.274513
2.213717
2.440810
2.406836
3.064871
3.140569
3.893971
5.654693
24.269819
118.151903
282.469988
693.434477
1015.793681
1015.793681
1015.793681
1015.793681
1015.793681
1015.793681
1015.793681
1015.793681
1015.793681
743.560791
401.947498
233.284831
118.767619
97.646713
107.003450
131.376982
147.135854
158.279538
156.148672
136.271715
118.257999
89.684725
67.953467
47.811866
35.892725
27.073622
23.923516
21.941662
21.265745
22.441745
23.551583
24.186969
24.886727
25.489926
26.127696
27.457476
27.478933
26.791692
27.984977
27.563572
26.871562
28.700829
26.896000
28.281808
27.213693
27.294755
27.566552
25.865436
27.599931
27.907491
28.023720
28.731823
29.888749
31.262636
33.067465
36.553741
38.121939
38.864613
40.945411
42.298436
42.086840
41.736960
42.182803
41.032434
39.760470
37.218928
36.164522
33.017993
34.787655
34.214854
33.341646
33.214688
32.283664
32.748580
32.411814
34.984946
31.991601
32.277703
33.549666
33.817887
##ZVALUE=265
1.902580
1.955628
1.882911
2.108812
1.738667
2.195835
2.348423
2.305508
2.763867
2.828836
3.415942
3.365874
3.635883
4.462004
14.652610
82.419515
217.357874
562.424660
959.149599
1015.836000
1015.836000
1015.836000
1015.836000
1015.836000
1015.836000
1015.836000
1015.836000
1015.835404
569.048524
321.177840
182.288885
97.024441
92.256665
116.015673
137.850642
158.912539
158.747435
154.278874
143.439770
116.871595
95.351934
67.333579
51.093698
34.016967
29.339790
23.137927
21.179914
21.752715
22.397637
23.351908
23.363829
24.421811
24.687648
25.331974
24.946928
26.068687
24.906993
25.773644
25.448799
25.125742
26.304722
24.684668
25.852919
24.327636
25.161505
24.950504
25.973916
26.206970
27.482510
29.680729
29.819608
33.460855
34.754872
36.613941
37.014484
37.392974
39.411783
39.070845
39.010644
35.919547
36.401749
33.814907
33.691525
31.616688
31.055808
30.835867
30.543804
30.470490
30.390620
31.221509
29.555559
31.441450
30.155778
30.028820
29.555559
30.789971
##ZVALUE=270
1.751781
2.034903
1.830459
1.651645
1.880527
1.941919
2.050996
2.020597
2.574921
2.232790
2.841949
2.835989
3.483891
3.474951
3.882647
4.290938
6.819963
53.352714
161.851645
460.909009
875.455737
1015.793681
1015.793681
1015.793681
1015.793681
1015.793681
1015.793681
1015.793681
1015.793681
1015.793681
1014.457941
541.266799
283.878446
115.895867
79.921484
92.215538
113.691688
140.727758
156.938434
160.639882
158.172846
138.768554
122.820735
92.670918
70.948601
48.073530
37.576556
28.926730
24.466515
21.756887
21.730661
22.505522
22.008419
22.383928
22.159815
22.919774
22.857785
23.330450
23.393631
23.787618
23.991466
24.127960
23.460984
23.788810
23.130774
23.507476
24.981499
25.539994
25.948882
28.060675
28.996468
30.628443
33.080578
33.679605
33.663511
35.494566
34.351945
34.515858
32.562613
32.794476
32.373667
31.068921
31.246543
29.270649
28.545856
28.830767
27.502775
27.851462
29.477477
27.727485
27.825832
27.920604
29.010773
28.258562
27.792454
27.584434
##ZVALUE=275
1.473427
1.713634
1.517534
1.328588
1.658797
1.606941
1.908541
2.140999
1.887679
2.016425
2.196431
2.289414
2.269745
2.513528
2.907515
3.129840
3.540516
4.324913
5.179644
13.434887
110.453367
293.860435
753.715634
1015.793681
1015.793681
1015.793681
1015.793681
1015.793681
1015.793681
1015.793681
1015.793681
1015.793681
1015.793681
646.450520
353.020430
145.847797
79.439878
68.925619
87.835789
116.054416
135.512948
155.841708
162.481666
156.244636
142.333508
115.826726
94.478726
69.912672
53.889751
37.232637
29.513836
24.885535
22.642612
22.398829
22.100806
21.966696
22.186637
22.491813
23.060441
24.005771
23.875833
24.206638
23.566484
23.838878
24.405718
23.864508
24.457574
26.164651
25.998950
27.267933
28.870702
30.216575
31.690598
32.850504
33.303499
34.558773
34.767985
34.574866
32.823682
32.685995
31.928420
29.637814
29.447675
27.756691
28.769970
27.207732
27.088523
28.114915
26.469827
26.751757
26.165843
26.151538
26.608706
26.638508
25.712848
26.031733
##ZVALUE=280
1.134872
1.480579
1.420975
1.363754
1.808405
1.399517
1.458526
1.788735
1.770854
1.857877
1.970530
2.060533
1.934767
2.280474
2.238750
2.661943
2.842546
3.217459
3.283620
3.950596
4.253983
6.364584
54.829717
183.338523
526.410937
917.619467
1015.793681
1015.793681
1015.793681
1015.793681
1015.793681
1015.793681
1015.793681
1015.793681
1015.793681
793.408751
449.314713
184.654593
92.977881
55.866838
64.517856
89.819431
110.324621
135.955811
151.665807
158.366561
152.565837
136.223435
118.713975
90.664625
70.944428
50.533414
38.822889
29.402971
24.045706
22.529960
22.290945
22.389889
22.655725
23.760796
22.735000
23.804903
23.536682
23.404956
23.380518
23.938417
24.325848
24.672747
25.919676
25.818944
26.510954
29.065609
29.231906
31.783581
30.971766
31.205416
30.911565
31.850934
30.463934
30.733943
29.672980
29.634833
28.161407
27.182698
27.034879
25.814772
26.522875
26.302934
26.229620
25.931597
25.248528
24.737716
24.837852
24.978518
24.466515
24.789572
##ZVALUE=285
1.176000
1.180768
1.033545
1.203418
1.124740
1.274943
1.489520
1.371503
1.473427
1.605749
1.566410
1.854897
1.703501
1.865625
1.954436
2.026558
2.147555
2.505779
2.450943
2.687573
2.850890
3.805757
3.860593
5.057454
23.176670
97.246766
327.329636
634.090900
1015.831828
1015.831828
1015.831828
1015.831828
1015.831828
1015.831828
1015.831828
1015.831828
1015.831828
987.685919
627.218485
284.834504
136.813521
55.516958
44.444799
59.978962
77.070594
108.956695
125.410557
145.398974
152.513981
150.937438
136.858821
117.018819
96.820593
70.937872
53.950548
38.195848
30.053854
26.064515
23.347735
23.335814
23.905635
22.872686
22.966862
24.069548
24.408698
25.335550
25.284886
25.584698
26.136637
26.327968
27.732849
28.620958
29.129982
30.481815
30.793548
30.515790
31.233430
29.950738
30.242801
29.359460
28.936863
27.883649
27.593970
26.826859
26.262999
26.179552
26.511550
26.391745
26.076436
25.367737
24.720430
25.169849
24.717450
24.213791
24.473667
24.402738
##ZVALUE=290
1.047850
1.320839
1.089573
1.183748
1.342893
1.140833
1.156926
1.304746
1.415610
1.644492
1.659989
1.605749
1.613498
1.852512
1.664758
1.801848
1.795888
2.089739
2.278686
2.305508
2.586842
2.906919
3.326535
3.550649
4.064441
4.710555
7.323623
56.966543
188.569427
550.332665
949.910879
1015.793681
1015.793681
1015.793681
1015.793681
1015.793681
1015.793681
1015.793681
1015.793681
1015.793681
864.581466
414.406657
207.128525
74.753761
40.293932
39.952993
54.711699
78.612566
98.585486
124.477744
139.624476
149.529576
150.100589
135.371685
119.059682
92.536807
73.040724
52.205920
41.278601
31.499863
27.631521
25.201440
25.040507
25.013685
24.899840
25.019646
25.380850
26.024580
26.540756
27.560592
28.516650
29.775500
30.078888
30.486584
29.916763
30.324459
29.886961
28.951764
29.253960
29.342771
27.804971
26.603937
26.796460
26.738644
26.632547
26.498437
26.591420
25.950670
25.946498
25.128722
25.826693
24.187565
24.334788
24.144650
23.966432
24.400949
##ZVALUE=295
0.929832
0.813603
0.919700
0.934601
1.088977
1.006722
1.211762
1.198649
1.112819
1.174808
1.347661
1.271963
1.342893
1.407862
1.362562
1.519918
1.563430
1.626611
1.607537
1.657605
1.930594
2.110600
2.476573
2.540946
2.996922
3.417730
3.731847
3.916621
5.452633
13.244748
35.947561
294.644833
625.295639
1015.665531
1015.665531
1015.665531
1015.665531
1015.665531
1015.665531
1015.665531
1015.665531
1015.665531
1000.297666
533.656478
287.206769
103.717446
47.999620
29.572845
35.877824
53.218603
72.212815
98.743439
117.655993
136.664510
144.167542
142.930746
133.464932
111.915469
93.920827
70.388913
56.019425
41.641593
33.635497
28.110743
26.178956
25.376678
25.306940
25.592446
25.829673
26.936531
26.940703
28.843880
29.336810
30.075908
29.929876
29.383898
28.819442
28.790832
28.519630
27.452707
27.550459
26.981831
26.229620
25.999546
26.410818
26.091933
25.704503
25.390983
25.239587
25.371909
24.386644
23.783445
23.916960
23.462772
23.277998
23.677945
##ZVALUE=300
0.888705
0.882745
0.949502
1.023412
0.971556
1.075864
1.002550
1.093745
1.102686
1.027584
1.197457
1.111627
1.074672
1.434684
1.316667
1.435876
1.548529
1.327991
1.479983
1.478791
1.781583
1.876950
1.903772
2.273917
2.407432
2.267957
2.653599
3.036857
3.454685
3.682971
3.964901
5.461574
22.484660
146.206617
361.704826
866.639018
1015.794873
1015.794873
1015.794873
1015.794873
1015.794873
1015.794873
1015.794873
1015.794873
1015.794873
748.930573
436.307788
191.298723
86.091757
31.874776
26.344657
34.628510
47.792792
69.417953
90.020895
115.099549
130.460858
140.065551
139.562488
128.877759
115.294456
91.454983
74.758530
55.692792
43.516755
33.601522
29.531717
26.655793
26.667714
26.905537
26.995540
28.171539
28.632879
28.384924
29.337406
29.462576
29.331446
28.469563
28.571486
28.130412
27.535558
27.336478
27.548671
27.301908
26.573539
25.849938
25.868416
25.964975
25.954843
25.419593
24.707913
24.739504
24.646521
24.363995
23.506880
23.574829
##ZVALUE=305
0.766516
0.741482
0.648499
0.579953
0.851750
0.899434
0.835657
0.821948
0.740886
1.039505
0.957847
0.856519
0.996590
1.001954
1.050830
1.048446
1.172423
1.401901
1.330972
1.226664
1.431704
1.607537
1.694560
1.812577
1.883507
1.933575
2.108812
2.194643
2.474785
2.671480
3.097653
3.272891
3.664494
4.419684
11.062622
82.727671
230.553746
635.633469
1015.705466
1015.705466
1015.705466
1015.705466
1015.705466
1015.705466
1015.705466
1015.705466
1015.706062
982.034802
621.188879
275.660753
132.562518
45.668483
26.437640
26.860833
34.255981
50.974488
66.611767
90.024471
107.376575
127.165914
134.972930
134.048462
126.184821
108.994842
91.433525
68.375468
55.690408
42.210817
34.632683
29.738545
28.343797
27.797818
28.114915
28.504729
28.740764
28.180480
28.450489
28.119683
28.301477
27.756691
27.846694
27.850866
27.457476
27.190447
27.138591
27.148724
26.689768
26.438832
26.116967
25.965571
25.595427
25.383830
24.650693
25.055408
24.162531
23.577809
##ZVALUE=310
0.741482
0.590682
0.816584
0.772476
0.538826
0.609756
0.845790
1.007915
0.760555
0.734925
0.878572
1.041889
0.846982
0.965595
0.898838
1.125932
1.263618
1.116991
1.189709
1.275539
1.351833
1.333952
1.486540
1.602769
1.610518
1.712441
1.954436
1.843572
2.111793
2.083778
2.527833
2.469420
2.699494
3.094673
3.531575
4.157424
5.089641
31.986833
114.362836
363.482833
702.190995
1015.673876
1015.673876
1015.673876
1015.673876
1015.673876
1015.673876
1015.673876
1015.673876
1015.673876
892.418623
427.047014
220.925808
79.773664
34.910440
22.492409
25.672913
33.891797
44.060946
63.110590
79.842806
102.190971
115.319490
125.306845
125.963688
119.019747
107.088685
88.823438
72.465539
53.877831
44.097900
35.197735
31.414628
28.801560
27.996898
27.839541
27.570724
28.009415
27.714968
27.465820
27.023554
27.111769
27.474761
27.073622
26.982427
27.202964
26.682615
25.713444
26.268959
26.208758
25.130510
25.403500
25.479794
24.981499
24.552941
24.429560
##ZVALUE=315
0.744462
0.700951
0.731945
0.754595
0.739694
0.795722
0.725985
0.771880
0.893474
0.887513
0.728965
0.959635
1.290441
0.953674
1.156926
1.136661
1.236796
1.136661
1.112819
1.143813
1.142621
1.316667
1.347661
1.384616
1.509786
1.651645
1.708865
1.943707
1.754761
1.888871
1.919866
2.390742
2.451539
2.485514
2.753735
3.118515
3.416538
3.752708
4.670620
13.885498
65.058470
277.878046
579.239726
1015.793681
1015.793681
1015.793681
1015.793681
1015.793681
1015.793681
1015.793681
1015.793681
1015.793681
1015.793681
609.784722
321.796536
114.336610
48.499703
22.438765
20.891428
24.401546
29.687881
43.089986
55.884719
75.286627
91.126561
109.955668
118.066669
120.301843
114.450455
101.076961
87.376833
67.850947
55.506825
42.004585
34.957528
30.317903
28.315783
26.927590
27.577877
26.846528
26.770830
26.351810
26.840568
26.924610
27.325749
26.775599
26.628971
26.681423
26.427507
26.411414
25.995970
25.494695
25.612712
25.025606
25.052428
25.247931
##ZVALUE=320
0.564456
0.732541
0.827909
0.747442
0.764728
0.769496
0.923872
0.782609
0.736713
0.902414
0.890493
0.985861
0.979900
1.004934
0.946522
1.006722
1.002550
1.264811
1.041889
1.234412
1.273751
1.208782
1.288652
1.267791
1.365542
1.395941
1.569986
1.488924
1.714826
1.741648
1.700521
2.057552
2.222657
2.141595
2.415776
2.660751
2.807975
2.961755
3.341436
3.654957
4.061460
6.428957
28.145909
179.725885
444.004536
975.359678
1015.806794
1015.806794
1015.806794
1015.806794
1015.806794
1015.806794
1015.806794
1015.806794
1015.806794
851.305723
459.862947
175.489783
79.259872
27.173758
18.160939
18.188953
20.435452
27.254820
35.342574
52.171946
66.462755
86.773634
100.281835
111.768842
115.472674
110.080838
100.052953
82.509518
68.084598
52.507520
42.387843
33.714771
29.384494
26.460886
25.980473
26.145577
26.000738
26.125908
26.766658
26.297569
26.365519
26.079416
26.186705
26.207566
25.976896
25.467873
25.558472
25.232434
25.021434
24.625659
##ZVALUE=325
0.775456
0.692606
0.629425
0.685453
0.709891
0.617504
0.759959
0.716448
0.733733
0.726581
0.730753
0.887513
0.971556
0.888705
0.927448
0.966787
1.069903
0.908971
1.232624
1.143813
0.902414
1.214743
1.277924
1.153946
1.315475
1.405478
1.316667
1.372695
1.453757
1.404881
1.490712
1.663566
1.686811
1.919866
1.796484
2.025962
2.343655
2.527833
2.458692
2.831817
3.050566
3.585815
4.046559
4.752874
11.907816
96.181631
274.946690
730.326772
1015.793681
1015.793681
1015.793681
1015.793681
1015.793681
1015.793681
1015.793681
1015.793681
1015.793681
1015.793681
655.568838
277.441740
122.660995
35.785437
17.984509
15.634894
16.467571
19.528866
25.361776
36.861897
48.303604
67.603588
82.257986
98.155737
106.556416
109.068751
103.515983
90.061426
77.299476
61.126947
49.788952
38.040876
31.686425
28.530955
27.118921
25.447607
25.722980
25.636554
25.790930
25.242567
25.634766
25.207996
25.289655
25.235415
24.660826
24.166703
24.227500
24.344921
##ZVALUE=330
0.651479
0.565648
0.579953
0.717640
0.867844
0.591874
0.686646
0.814795
0.747442
0.672936
0.679493
0.806451
0.634789
0.755787
0.889897
0.942945
0.809431
0.832677
0.827909
0.920892
0.832677
0.931621
1.040697
1.169443
1.208782
1.131892
1.293421
1.144409
1.134872
1.428723
1.530647
1.531839
1.595616
1.452565
1.689792
1.900792
1.859665
2.060533
2.212524
2.183914
2.510548
2.734661
2.672672
3.114939
3.771782
4.329681
5.935431
37.290454
131.117702
423.755646
788.370967
1015.793681
1015.793681
1015.793681
1015.793681
1015.793681
1015.793681
1015.793681
1015.793681
1015.793681
877.796412
390.837789
187.923908
61.118007
24.817586
14.776587
14.475584
15.811920
18.967986
25.971532
33.844709
48.389435
62.015653
79.503655
92.319846
101.000667
103.670955
97.485781
88.300705
71.305633
59.376955
46.226978
39.113760
32.146573
28.524995
26.677847
25.393963
24.646521
24.838448
24.521947
24.046898
24.209619
23.648739
24.286509
23.760796
24.064779
##ZVALUE=335
0.584722
0.598431
0.634789
0.714660
0.611544
0.742674
0.633597
0.631809
0.475645
0.662804
0.718832
0.701547
0.762939
0.678897
0.679493
0.809431
0.634789
0.776649
0.803471
0.837445
0.859499
1.071692
1.014471
0.932813
0.785589
1.028776
1.036525
0.993609
1.114607
1.224875
1.256466
1.311898
1.286864
1.436472
1.530647
1.467466
1.420975
1.690984
1.622438
1.880527
1.920462
2.299547
2.056956
2.277493
2.544522
3.022552
3.149509
3.529787
4.372597
16.461611
68.534613
258.415937
515.348911
1000.980735
1015.793681
1015.793681
1015.793681
1015.793681
1015.793681
1015.793681
1015.793681
1015.793681
1003.041863
543.898940
275.590420
88.906884
34.913421
15.947819
14.525652
15.277863
16.796589
20.129681
24.724603
35.137534
44.897795
61.411858
75.033903
87.684989
94.769597
96.805692
92.885494
80.819726
71.256757
57.150722
48.565865
37.912726
32.107830
27.607679
25.697947
24.496913
23.388863
23.640990
23.236871
23.010969
23.134947
23.119450
##ZVALUE=340
0.405908
0.463724
0.611544
0.448823
0.542998
0.598431
0.657439
0.617504
0.742674
0.538826
0.583529
0.717640
0.520945
0.710487
0.632405
0.681877
0.621676
0.759959
0.701547
0.868440
0.756979
0.709891
0.680685
0.687838
0.884533
0.834465
0.977516
0.795722
0.907779
0.942945
1.118779
0.884533
1.269579
1.018643
1.186728
1.171827
1.380444
1.427531
1.482964
1.289845
1.577735
1.653433
1.794696
1.759529
2.146959
2.167821
2.413988
2.761483
2.805591
3.281832
3.647804
6.618500
29.116869
155.443549
350.670815
790.932775
1015.793681
1015.793681
1015.793681
1015.793681
1015.793681
1015.793681
1015.793681
1015.793681
1015.793681
617.539883
336.776972
133.752823
54.380894
18.508434
15.004873
15.195608
15.752912
17.475486
19.802451
26.014447
32.551885
44.950843
56.983829
71.980953
82.327724
90.077519
90.842843
87.920427
80.048442
68.499446
57.710409
45.303702
37.801862
30.787587
26.874542
24.066567
23.039579
22.506714
22.023916
21.997690
##ZVALUE=345
0.535846
0.506639
0.446439
0.442863
0.674725
0.508428
0.598431
0.678897
0.554919
0.545979
0.572801
0.586510
0.576973
0.592470
0.548959
0.599623
0.641942
0.772476
0.728965
0.564456
0.771880
0.724792
0.680685
0.731945
0.809431
0.791550
0.917912
0.871420
0.976920
0.809431
0.744462
1.003742
1.068711
1.012683
1.095533
1.118779
1.211762
1.084805
1.393557
1.321435
1.257658
1.413822
1.309514
1.481771
1.672506
1.713634
1.926422
2.069473
2.295971
2.408624
2.643466
2.683997
3.408790
3.946424
10.162592
75.584650
212.495923
534.050465
911.802649
1015.793681
1015.793681
1015.793681
1015.793681
1015.793681
1015.793681
1015.793681
1015.793681
855.073929
476.053953
183.504820
80.985427
26.826859
16.387701
15.247464
15.002489
15.266538
16.105771
19.325614
22.775531
31.906962
40.490627
55.097938
64.582825
76.466799
81.256628
84.835887
82.913637
74.492693
66.312551
53.715706
45.146942
35.356879
30.181408
24.816990
23.145676
21.854639
##ZVALUE=350
0.483990
0.352859
0.407696
0.587702
0.476837
0.504851
0.382662
0.552535
0.663996
0.701547
0.516772
0.604987
0.595450
0.618696
0.626445
0.567436
0.621676
0.589490
0.474453
0.858903
0.702739
0.570416
0.688434
0.848770
0.750422
0.735521
0.724792
0.788569
0.748634
0.731945
0.827909
0.881553
0.772476
0.843406
0.993609
1.040697
1.112819
1.045465
1.119971
1.214743
1.181960
1.242757
1.272559
1.408458
1.360774
1.488924
1.706481
1.686811
1.808405
1.826882
1.940727
2.213717
2.398491
2.617836
2.958775
3.295541
5.215406
32.980442
110.328794
338.193774
620.425940
1015.797853
1015.797853
1015.797853
1015.797853
1015.797853
1015.797853
1015.797853
1015.797853
956.998467
588.813424
263.471007
121.275783
34.767985
17.242432
13.868809
13.372898
13.881922
14.267564
15.486479
17.530918
22.649765
28.131604
37.999749
47.017932
59.686899
67.181587
75.678825
77.291727
76.388717
71.238875
60.612559
52.310824
41.705966
34.389496
27.871728
##ZVALUE=355
0.434518
0.571609
0.423789
0.588894
0.403523
0.594854
0.464916
0.526905
0.631809
0.572801
0.633597
0.612736
0.747442
0.664592
0.414848
0.584722
0.399947
0.594854
0.591874
0.697970
0.617504
0.794530
0.659823
0.708699
0.831485
0.683665
0.812411
0.788569
0.878572
0.791550
0.964999
1.004934
1.055598
0.970960
0.876784
1.078844
1.050830
1.103878
1.026988
1.000762
1.163483
1.014471
1.310706
1.156926
1.309514
1.406670
1.381636
1.465678
1.529455
1.636744
1.739860
1.889467
2.050996
2.141595
2.313852
2.554655
2.863407
3.014803
3.852844
14.733672
57.201982
222.017765
443.429947
895.549655
1015.793681
1015.793681
1015.793681
1015.793681
1015.793681
1015.793681
1015.793681
1015.793681
746.383667
329.736471
156.451464
47.180653
19.848943
13.215542
13.020635
12.688637
13.098717
13.728738
14.535785
16.656518
19.484758
25.831461
31.691790
42.407513
50.806999
60.321689
66.383481
70.717931
69.714785
64.298511
57.232976
47.713518
##ZVALUE=360
0.472665
0.401735
0.499487
0.464916
0.478625
0.607967
0.541806
0.625849
0.553727
0.671744
0.573993
0.570416
0.561476
0.668764
0.624657
0.725985
0.667572
0.782609
0.755787
0.473857
0.620484
0.674725
0.850558
0.782609
0.772476
0.707507
0.797510
0.753999
0.917912
0.906587
0.564456
1.018643
1.040697
0.950694
0.845790
1.063943
0.881553
1.028776
1.104474
1.145601
1.151562
1.170635
1.224875
1.284480
1.229644
1.163483
1.293421
1.348853
1.226664
1.619458
1.533628
1.685619
1.845956
1.915693
1.934767
2.137423
2.308488
2.655983
2.831817
3.372431
3.748536
6.453395
24.328828
111.969709
269.677043
652.129650
1003.567576
1015.793681
1015.793681
1015.793681
1015.793681
1015.793681
1015.793681
1015.793681
932.635665
454.738736
235.548615
84.249973
32.650828
13.461709
12.438893
12.000799
12.500882
12.440681
12.763739
13.563633
14.276505
17.355680
20.975471
27.770996
34.891963
44.941902
52.550435
59.478879
63.726902
64.674616
##ZVALUE=365
0.527501
0.502467
0.409484
0.594854
0.578761
0.504851
0.393987
0.510812
0.584722
0.618696
0.608563
0.685453
0.701547
0.700951
0.456572
0.624657
0.709891
0.684857
0.690818
0.712872
0.627637
0.788569
0.754595
0.680685
0.649691
0.894666
0.828505
0.861883
0.728965
0.745654
0.936985
0.921488
0.864863
0.997782
1.020432
0.921488
1.013875
0.978708
1.116991
0.916719
1.160502
1.163483
1.101494
1.332760
1.099706
1.177788
1.292825
1.332760
1.264811
1.454949
1.514554
1.446605
1.807809
1.552701
1.870990
1.882911
1.943707
2.056956
2.254844
2.680421
2.610683
3.325939
3.559589
4.402995
10.039806
65.263510
173.413754
439.161658
790.596008
1015.793681
1015.793681
1015.793681
1015.793681
1015.793681
1015.793681
1015.793681
1015.793681
620.634556
337.502956
121.009946
46.701431
15.363693
11.922717
11.429787
11.144876
11.214614
11.412501
11.484623
11.751652
12.877584
14.733672
18.436909
23.117661
30.797720
38.239956
46.828985
##ZVALUE=370
0.554919
0.454783
0.605583
0.479817
0.567436
0.607967
0.533462
0.410676
0.681877
0.643730
0.642538
0.728965
0.483990
0.678897
0.601411
0.641942
0.553727
0.575781
0.651479
0.706911
0.621676
0.754595
0.664592
0.598431
0.652671
0.689626
0.645518
0.802875
0.635982
0.821948
0.716448
0.926852
0.932813
0.823736
0.775456
0.857711
0.856519
1.109838
0.906587
0.992417
0.962615
0.981688
0.975728
1.105666
1.203418
1.127720
1.192689
1.219511
1.207590
1.114607
1.270771
1.412630
1.457930
1.411438
1.521707
1.630783
1.666546
1.735687
1.820922
2.033710
1.989603
2.262592
2.522469
2.929568
3.223419
3.846884
5.667806
32.627583
112.815499
348.050594
635.795593
1015.803814
1015.803814
1015.803814
1015.803814
1015.803814
1015.803814
1015.803814
1015.803814
762.113929
426.867008
167.039633
74.794888
24.445653
12.385845
10.488629
10.249615
9.966493
10.117888
10.208488
10.211468
10.806918
11.459589
13.293624
16.126633
21.116734
##ZVALUE=375
0.422597
0.383854
0.532866
0.496507
0.515580
0.627637
0.500679
0.588894
0.535846
0.710487
0.490546
0.515580
0.492930
0.530481
0.677705
0.569820
0.503659
0.542998
0.617504
0.812411
0.618696
0.624657
0.649691
0.564456
0.709891
0.628829
0.666976
0.615716
0.690818
0.740886
0.610948
0.878572
0.781417
0.778437
0.709891
0.678897
0.780821
0.907779
0.748634
0.804663
0.791550
0.794530
0.810623
0.953674
0.956655
0.916719
1.024604
0.897646
0.993609
0.951886
1.015663
1.266599
1.204610
1.234412
1.272559
1.284480
1.383424
1.336932
1.371503
1.549721
1.740456
1.706481
2.069473
1.991987
2.247691
2.351999
2.761483
3.353953
4.045963
14.111996
54.291487
199.330449
418.099761
909.381509
1015.799642
1015.799642
1015.799642
1015.799642
1015.799642
1015.799642
1015.799642
968.156457
613.389611
280.744433
139.126778
43.089986
16.891956
9.709597
9.478927
9.097457
9.328723
9.176731
9.281635
9.412766
9.894967
10.564923
##ZVALUE=380
0.436902
0.408888
0.460744
0.474453
0.462532
0.480413
0.471473
0.517964
0.385642
0.488758
0.426769
0.563860
0.516772
0.467896
0.437498
0.534654
0.466704
0.473857
0.363588
0.555515
0.512600
0.343919
0.548959
0.531673
0.479817
0.609756
0.502467
0.516772
0.552535
0.634789
0.768900
0.627637
0.734925
0.643730
0.698566
0.987649
0.863671
0.763535
0.870824
0.727773
0.846982
0.817776
0.727773
0.809431
0.790954
0.723600
0.885725
0.808835
0.734925
1.025796
0.965595
1.130700
1.028776
1.036525
1.167655
1.112819
1.240969
1.251698
1.183748
1.220703
1.388788
1.424551
1.563430
1.736879
1.616478
1.828671
2.153516
2.399683
3.433824
3.264546
3.956556
7.627606
30.614734
146.897435
325.284004
1015.793681
1015.793681
1015.793681
1015.793681
1015.793681
1015.793681
1015.793681
1015.793681
1015.793681
457.687974
426.347852
190.677643
29.241443
22.866726
11.005998
8.563995
8.509755
8.551478
8.351803
8.384585
8.435845
##ZVALUE=385
0.391603
0.286698
0.210404
0.317693
0.303984
0.393987
0.277758
0.433922
0.466704
0.451803
0.409484
0.466704
0.379682
0.487566
0.547767
0.593662
0.469685
0.428557
0.448823
0.511408
0.507832
0.413656
0.441670
0.549555
0.524521
0.474453
0.599623
0.482798
0.529885
0.502467
0.605583
0.539422
0.617504
0.690818
0.787973
0.469685
0.672936
0.551939
0.550747
0.488758
0.508428
0.563860
0.511408
0.553727
0.675917
0.743866
0.800490
0.900626
0.639558
0.658631
0.994802
0.790954
0.813603
0.823736
0.873804
1.020432
0.991821
1.136661
1.062751
1.112819
1.206994
1.209974
1.282692
1.369715
1.533628
1.571774
1.671910
2.089739
2.380610
2.479553
2.823472
3.101826
3.398657
3.823638
16.391873
60.221553
228.784680
479.312539
967.708826
1015.793681
1015.793681
1015.793681
1015.793681
1015.793681
1015.793681
1015.793681
978.713632
641.124845
287.510753
138.421655
44.367909
15.983582
8.104444
7.832646
7.616878
7.584691
##ZVALUE=390
0.366569
0.341535
0.403523
0.272989
0.461936
0.261664
0.395775
0.363588
0.374913
0.278950
0.301600
0.458956
0.271797
0.364780
0.395775
0.426769
0.485778
0.361800
0.318885
0.385642
0.546575
0.553727
0.475645
0.389814
0.294447
0.415444
0.454783
0.536442
0.546575
0.491738
0.564456
0.762939
0.631809
0.610948
0.526905
0.525713
0.700951
0.502467
0.731945
0.663996
0.595450
0.539422
0.566840
0.647902
0.641942
0.646710
0.720620
0.708699
0.697970
0.751615
0.773668
0.844598
0.878572
1.012683
0.759959
0.964999
0.933409
0.910759
0.961423
1.171827
1.161695
1.126528
1.008511
1.270771
1.194477
1.677871
1.421571
1.892447
1.943707
2.274513
2.310872
2.645850
2.767444
2.706647
2.985001
3.461838
6.887913
45.857430
139.813423
414.277911
761.849880
1015.793681
1015.793681
1015.793681
1015.793681
1015.793681
1015.793681
1015.793681
1015.793681
819.770694
472.939610
188.072920
85.460544
24.722815
10.320544
7.493496
##ZVALUE=395
0.320673
0.378489
0.374913
0.338554
0.320673
0.332594
0.399947
0.362992
0.395775
0.301600
0.330806
0.343919
0.458956
0.307560
0.388622
0.481606
0.388622
0.399947
0.409484
0.317693
0.464916
0.449419
0.400543
0.480413
0.483990
0.491738
0.523925
0.514984
0.354648
0.558496
0.479817
0.567436
0.501871
0.586510
0.434518
0.370741
0.616908
0.594854
0.669956
0.664592
0.672936
0.648499
0.680685
0.604987
0.504851
0.735521
0.744462
0.778437
0.722408
0.596642
0.840425
0.837445
0.833869
0.850558
0.827909
0.896454
0.852942
0.893474
1.131892
1.060963
1.079440
0.875592
1.194477
1.260638
1.227856
1.365542
1.546741
1.683831
1.899600
2.062917
2.452731
2.459884
2.448559
2.612472
2.354980
2.498627
3.165603
3.222823
4.718900
19.827485
122.195482
289.028883
642.371774
992.195606
1015.794873
1015.794873
1015.794873
1015.794873
1015.794873
1015.794873
1015.794873
1015.794873
575.325489
305.652022
110.072494
45.899749
##ZVALUE=400
0.177622
0.430942
0.340939
0.415444
0.520945
0.385642
0.215769
0.406504
0.325441
0.276566
0.400543
0.365973
0.185966
0.352859
0.451803
0.365973
0.476837
0.328422
0.305772
0.306964
0.364780
0.246763
0.393987
0.382662
0.350475
0.482798
0.458956
0.482798
0.518560
0.587702
0.509620
0.500679
0.580549
0.393987
0.531673
0.499487
0.612736
0.586510
0.669956
0.699759
0.648499
0.613928
0.656843
0.633597
0.788569
0.613928
0.701547
0.664592
0.697970
0.682473
0.682473
0.763535
0.715852
0.781417
0.748634
0.899434
0.802875
0.896454
0.902414
0.913739
1.082420
1.021624
1.079440
1.102686
1.198649
1.270771
1.413822
1.534820
1.825690
2.003908
2.080798
2.227426
2.355576
2.248883
2.279878
2.332926
2.171993
2.440810
2.668500
3.117919
3.337860
11.937618
49.739480
205.480456
428.339839
899.288654
1015.793681
1015.793681
1015.793681
1015.793681
1015.793681
1015.793681
1015.793681
1015.793681
810.747743
399.850011
##END
