##TITLE=FQP00602
##FORMAT=SPECTACLE-ASCII V-1.2
##DATA TYPE=ULTRAVIOLET SPECTRUM
##SECOND TYPE=ULTRAVIOLET SPECTRUM
##DATE=10/24/17
##TIME=17:46:37
##SPECTROMETER/DATA SYSTEM=SPECTACLE
##XUNITS=NM EM
##YUNITS=ENERGY
##YFACTOR=1
##FIRSTX=220
##LASTX=410
##NPOINTS=96
##3DDATA=Equidistant
##ZUNITS=NM EX
##FIRSTZ=210
##LASTZ=400
##ZPOINTS=39
##XYDATA=(Y..Y)
##ZVALUE=210
7.773638
6.593466
5.104542
5.011559
5.558729
6.773472
7.199645
9.590983
10.898709
12.591481
12.165904
14.702678
17.379522
17.493963
18.840432
20.820498
20.541549
23.730993
25.206804
26.934743
30.977726
30.592680
34.767985
35.280585
37.633777
39.939880
41.477680
44.310689
44.380426
51.609874
48.744678
50.389767
50.932765
52.087903
53.103566
55.620670
57.916641
54.148436
58.474541
59.129596
58.936477
61.246753
62.315464
66.385865
65.178871
63.779950
67.786574
69.063902
70.185661
69.939494
72.653890
74.928999
75.854659
76.939464
77.034831
78.191757
80.230832
81.232786
80.924630
79.659820
80.403686
80.908537
82.095861
79.230666
86.457729
86.232424
94.657540
105.357766
123.771429
143.007636
178.833604
208.559632
248.099566
287.255645
335.647464
361.925960
389.418602
411.937833
415.171981
410.646796
393.135548
362.889767
311.615467
267.020464
206.842422
168.710947
124.451518
103.409886
87.329745
82.526803
77.129602
74.480772
72.674751
76.280832
73.009729
72.697997
##ZVALUE=215
37.411451
38.652420
34.307837
26.600957
18.980503
13.602972
11.545420
9.849668
11.162758
12.275577
13.303757
14.316440
14.536977
15.796423
15.853643
15.946627
17.900467
19.338727
22.281408
22.690892
24.349689
25.881529
28.340816
28.544664
28.380752
30.300617
31.698942
33.896565
36.209822
40.508509
36.337972
37.439466
40.808916
39.778948
40.253997
40.438771
42.284727
44.508576
45.332909
45.830607
46.437979
47.505498
48.411489
50.892830
52.558780
51.278472
51.515698
54.560900
55.865645
58.273673
59.329867
56.730509
57.234764
59.246421
58.356524
62.222481
60.330629
61.782598
61.035752
60.732961
63.958764
59.221983
61.869621
64.450502
61.581731
68.260431
70.300698
80.987811
88.354945
103.198886
119.898915
150.087476
178.439617
204.722881
224.449635
245.044827
256.710649
272.036791
279.076695
267.338753
253.724456
226.856470
207.725763
168.870687
146.617889
110.495687
93.602538
74.508786
67.976713
63.277483
58.389902
56.558847
53.474903
54.608583
52.909851
54.153800
##ZVALUE=220
123.039484
126.364827
139.571428
145.655870
128.825903
99.852681
69.781542
42.485595
29.207468
19.172430
17.558932
18.826723
20.549893
19.184947
18.352866
16.585588
17.571449
17.515421
19.657612
17.678738
20.120740
20.725727
22.159815
24.185777
26.271939
25.587678
28.072000
29.338598
30.039549
30.593872
31.853914
34.030676
32.879710
34.731627
37.244558
33.807755
36.580563
35.810471
38.271546
38.263798
38.210750
38.403869
39.661527
41.085482
40.281415
39.223433
43.625832
41.506886
42.900443
42.222738
45.396686
43.891668
46.371818
46.045780
46.801567
47.061443
47.746897
48.541427
50.654411
47.531724
48.303604
49.458742
48.705935
48.287511
50.181746
50.223470
54.645538
60.910583
67.272782
77.309608
92.244744
103.516579
128.756762
141.581893
158.371925
179.396868
186.584592
192.339420
199.252963
198.760629
189.432502
174.369812
154.092908
136.769414
103.974938
88.663697
69.543719
57.818890
49.956441
47.946572
45.455694
43.821931
43.418407
42.295456
38.011670
40.352941
##ZVALUE=225
178.552866
182.425976
255.180597
334.051847
369.634628
364.097953
332.679749
251.340866
182.499886
121.922493
62.049627
37.380457
31.598806
30.454993
33.064485
34.320951
30.366778
27.608871
25.139451
22.865534
19.592643
20.051599
20.335913
18.621683
20.686984
23.056865
23.985505
23.072958
22.140741
22.390485
25.638938
26.949644
25.368929
29.831529
27.737617
29.055476
28.787851
29.812455
31.150579
32.345653
32.361746
30.617714
31.290650
31.244755
32.848716
32.492876
34.104586
31.136870
32.728910
33.985972
33.785701
36.138892
34.779906
35.337806
37.094951
35.857558
38.072467
38.267970
37.626624
39.122701
38.282871
38.588643
38.734674
39.507747
40.818453
39.823651
42.449832
47.481656
49.502850
57.541728
63.704848
74.400902
86.500645
99.009871
111.570954
115.761757
120.994449
126.300454
126.070976
125.646591
116.344690
110.031962
94.678998
82.125664
66.439509
58.703423
46.537519
41.900873
38.866997
36.562681
36.271811
33.802986
33.423901
33.820868
33.486485
31.874776
##ZVALUE=230
141.628981
152.601600
252.715945
410.704017
546.999574
678.860545
749.152899
725.987554
634.904504
515.875816
314.200521
195.896626
103.330612
70.342422
54.621696
52.612424
56.336522
56.125522
53.970814
45.135617
38.372874
31.029582
25.068521
21.809936
19.386411
20.016432
19.413829
21.396875
19.980669
21.045804
22.068620
22.192597
22.578835
22.558570
24.083853
24.372935
25.668740
24.983883
24.588704
25.198460
26.136637
25.371909
25.094748
26.286840
27.102828
27.833581
27.127862
29.420853
30.010939
28.300881
29.822588
31.587481
31.811595
32.249689
33.128858
32.537580
31.951666
32.931566
33.078790
31.349659
32.563806
36.510825
37.999749
34.849644
37.892461
36.532879
39.391518
41.745901
44.076443
50.577521
55.521727
64.981580
71.351528
80.136657
87.101460
93.810558
99.157691
100.126863
98.173618
96.873641
89.987516
83.970428
75.721741
63.578486
54.630637
44.981837
43.863654
37.937760
37.105680
36.313534
36.030412
33.909678
33.554435
34.227967
33.792853
32.021999
##ZVALUE=235
51.511526
57.415962
125.157833
287.522674
456.458926
704.887509
907.277465
1015.793681
1015.793681
1015.793681
965.894461
749.636889
464.158654
311.513543
175.215602
112.737417
81.243515
79.828501
90.500712
89.239478
84.335804
74.485540
58.694482
47.227740
37.226677
25.153756
22.787452
18.864870
16.543865
17.943978
17.384887
17.823577
18.904805
18.565655
18.433928
18.753409
19.252896
19.801855
19.936562
21.269917
20.172596
22.298694
21.797419
22.069812
23.463964
23.776889
23.713708
22.133589
23.998618
26.031733
25.374889
27.019978
26.484728
27.993917
28.782487
30.363798
31.101704
30.822754
32.399893
30.768514
32.549500
34.771562
34.022927
35.219789
34.033656
38.620830
38.448572
41.116476
45.241714
47.355890
52.440763
57.742000
60.681701
70.451498
75.592995
83.284974
81.496835
84.438920
81.297755
80.239773
75.814724
69.479942
62.944889
53.326488
52.860975
46.666861
46.987534
42.092800
42.868853
40.764809
39.843917
38.194656
38.279891
35.833716
38.032532
36.757588
##ZVALUE=240
4.064441
4.888773
19.178987
57.535768
166.318417
305.621624
574.907660
844.801664
1015.793681
1015.793681
1015.793681
1015.793681
1015.793681
994.560719
754.488707
456.932783
296.002626
171.355009
124.517679
108.458996
117.516518
119.717717
114.670992
108.593702
85.413456
73.557496
52.652955
42.354465
26.239753
22.048950
18.441677
16.427636
15.529990
16.582608
16.830564
16.761422
17.077923
16.699433
17.211437
17.937422
19.422770
18.388629
19.429922
21.820664
22.070408
21.684766
23.119450
24.127960
24.686456
25.074482
28.314590
26.633739
27.889609
28.992891
29.648542
29.739738
31.939745
33.186674
32.330751
32.664537
31.565428
33.615828
32.595992
36.614537
36.223531
34.954548
37.908554
40.392876
41.777492
47.343969
49.742460
51.278472
53.930879
63.451529
62.039495
66.427588
69.550872
68.013668
66.961646
68.383813
64.315796
57.228804
56.297779
52.786469
50.968528
46.426654
45.054555
44.614673
44.458508
42.036772
44.083595
41.832924
39.998889
43.920875
40.890574
41.815639
##ZVALUE=245
2.351999
2.558827
2.985001
3.111959
9.837747
31.792521
111.441612
216.818452
456.528664
691.245794
999.350548
1015.793681
1015.793681
1015.793681
1015.793681
1015.793681
943.627954
626.801848
419.448614
226.287842
143.461823
111.488700
117.671490
127.258897
132.784843
124.360919
114.525557
100.684762
77.154636
60.163736
45.268536
28.259754
21.075606
15.727878
14.608502
14.197826
15.056729
12.801886
13.757944
13.854504
14.487505
16.377568
18.527508
17.646551
19.846559
21.494627
20.257831
21.453500
23.732781
24.885535
24.497509
25.874972
27.691722
27.677417
29.745698
27.955770
28.929710
28.650761
29.497743
30.806661
29.800534
29.777884
31.509995
30.284524
34.005642
34.222603
34.457445
37.715435
35.461783
38.288832
41.174889
43.542981
47.121644
49.796700
54.011941
52.248836
55.290461
58.786869
56.107640
53.534508
53.663850
48.327446
47.890544
46.732426
46.516657
45.566559
42.973757
42.460561
40.646791
41.255951
40.372610
42.670965
39.499998
39.745569
37.318468
39.324760
##ZVALUE=250
1.799464
1.983643
2.329946
2.041459
2.306700
2.265573
5.431771
19.451976
82.747936
173.183680
394.757986
634.012818
891.720653
1015.723944
1015.723944
1015.723944
1015.723944
1015.723944
1015.723944
888.901949
603.036880
383.595824
197.810531
131.305456
111.520886
117.927790
134.747624
139.928460
138.761997
127.161741
101.860762
84.205866
63.550472
41.833520
30.032992
20.254850
16.016960
13.987422
14.099479
13.928413
14.767647
16.171932
16.558766
17.070770
18.703938
19.350648
21.018982
21.083951
22.997856
22.662878
24.039745
25.929809
26.170611
25.361776
26.555657
28.072596
27.077794
27.774572
27.703643
29.381514
28.187633
27.979612
28.307438
29.449463
28.297901
28.870702
31.143427
30.646920
32.613873
32.866001
36.106706
39.172769
40.384531
44.171810
45.698881
46.668649
49.186945
48.682690
50.033927
47.367811
46.180487
43.299794
42.315722
40.771961
39.860606
39.401650
38.598776
36.380887
38.848519
37.426949
37.825704
37.795901
37.968755
36.822557
36.165714
36.285520
##ZVALUE=255
1.883507
2.099872
2.323985
2.192855
1.923442
2.415776
2.173781
3.046989
3.040433
8.295774
51.213503
137.919784
339.898467
572.114587
957.623720
1015.793681
1015.793681
1015.793681
1015.793681
1015.793681
1015.793681
1015.793681
881.235003
485.701561
283.813477
146.235824
108.694434
110.216737
125.935674
141.211748
146.915913
144.144893
136.356950
111.308694
90.183616
63.133836
44.737458
29.906631
20.736456
17.085671
15.404820
16.545653
15.897751
17.394423
18.442869
18.619895
20.033717
21.523833
20.775795
22.328496
22.276640
23.082495
24.125576
23.718476
25.380850
25.148988
24.327636
25.587678
26.354790
26.414990
24.799705
24.786592
25.210977
25.681853
26.498437
26.622415
27.414560
28.100610
28.732419
30.448437
32.786727
34.912825
37.947893
40.368438
42.218566
42.847991
43.770671
45.201778
45.954585
42.170882
42.832494
40.249825
38.104653
37.944913
36.917925
36.378503
35.161972
34.550428
35.256743
34.635663
34.559965
35.795569
35.029650
34.232736
33.855438
34.541488
##ZVALUE=260
2.191663
2.376437
2.118945
2.170801
2.276897
2.646446
2.455711
2.679825
3.141761
3.185868
3.623962
5.579591
23.177862
111.410022
250.395536
584.223866
952.275991
1015.859842
1015.859842
1015.859842
1015.859842
1015.859842
1015.859842
1015.859842
1015.859842
868.793726
472.776890
267.120600
130.215883
100.262761
110.392570
128.979683
146.712661
156.919956
152.200460
134.936571
117.746592
90.361834
70.083737
46.949983
34.194589
23.492575
20.671487
18.227696
18.238425
18.716455
19.033551
19.626617
19.995570
20.303726
22.276640
20.894408
22.193789
22.582412
22.801757
23.112893
23.204684
21.974444
22.423863
24.002790
23.741722
23.593903
23.545623
22.899508
23.316741
25.232434
25.066733
25.544763
27.209520
27.844906
29.988885
32.907724
35.519600
37.426949
38.896799
39.932728
43.345690
41.572452
42.376518
39.935708
38.865805
37.474632
36.577582
35.479665
33.585429
34.274459
33.026934
33.161640
32.897592
33.031702
32.718778
32.135844
32.976866
32.038689
33.546686
33.305883
##ZVALUE=265
1.987815
1.910925
1.991987
2.298951
2.164841
2.267957
2.298951
2.715588
2.611876
2.955794
3.045797
3.565550
4.436970
4.876852
21.133423
80.435872
295.251608
554.412007
923.968554
1015.793681
1015.793681
1015.793681
1015.793681
1015.793681
1015.793681
1015.793681
1015.793681
1015.793681
787.922740
381.761789
210.906863
103.698969
91.755986
116.812587
135.886669
154.980421
159.972906
152.385831
140.839815
113.547444
95.375776
65.211654
48.955679
33.960938
26.079416
20.659566
19.692779
18.415451
19.373894
19.184947
20.447969
20.725727
20.533800
20.748973
20.542741
21.590590
21.213889
21.255612
21.212697
21.808743
21.715760
20.781755
20.940900
22.017956
21.446943
23.256540
22.520423
24.241805
25.702715
27.350783
30.151606
31.611919
33.552647
35.910606
38.404465
39.074421
39.335489
39.141774
36.944747
37.282705
38.336515
34.934878
33.280849
31.515956
31.665564
31.119585
29.895902
30.663610
30.175447
30.358434
30.296445
28.645992
29.733777
30.630827
30.093789
30.624866
##ZVALUE=270
1.850724
1.923442
1.990795
2.204776
2.444983
2.127886
2.283454
2.400875
2.400875
2.704859
3.037453
3.404617
3.231764
3.821850
4.690886
4.992485
7.246733
50.780773
161.525011
514.359474
947.700739
1015.813947
1015.813947
1015.813947
1015.813947
1015.813947
1015.813947
1015.813947
1015.813947
1015.813947
991.888046
607.362986
317.784548
126.284957
82.318783
90.144873
112.321973
137.348771
154.003501
160.998702
159.735680
143.299699
122.245550
91.248751
71.757436
48.110485
36.369562
26.651621
21.830797
19.443631
19.944906
18.962622
19.322634
19.809604
19.347668
19.676685
19.712448
20.278692
19.490719
20.578504
20.433664
20.024776
21.005869
19.878745
21.427870
20.860434
22.430420
22.408962
24.316907
24.879575
26.778579
28.155446
31.253695
33.651590
35.288930
36.346912
36.745667
35.855770
35.666823
34.007430
34.095645
31.295419
29.366612
29.055476
27.804971
28.540492
27.078986
28.248429
27.366877
28.619766
27.281642
28.446913
27.816892
27.806759
26.802421
28.658509
##ZVALUE=275
1.743436
1.630783
1.980662
1.912713
1.766682
1.984835
2.008677
1.919866
2.138615
2.326965
2.332926
2.638698
3.134608
3.085732
3.515482
3.621578
4.391670
4.392862
5.351901
15.236735
72.309375
316.721797
698.186755
1015.793681
1015.793681
1015.793681
1015.793681
1015.793681
1015.793681
1015.793681
1015.793681
1015.793681
1015.793681
686.320662
383.554697
160.720944
87.163448
70.430636
84.135532
113.087893
132.508874
154.523849
161.065459
154.722929
142.833591
115.913749
95.822811
67.220926
51.077604
35.315752
26.987791
21.166801
19.518733
18.723607
18.034577
18.321872
18.774867
18.482804
18.375516
19.741654
19.011497
19.264817
20.560622
20.174980
19.720793
20.332932
21.435618
21.651983
23.002625
23.853779
25.938749
27.176738
28.611422
31.243563
31.758547
33.345819
33.853650
33.418536
34.061670
31.974912
30.232668
29.107928
28.012991
26.059747
26.515722
26.744604
26.283860
26.261806
25.969744
26.133657
25.812984
25.492907
25.206804
25.453568
26.126504
25.535822
##ZVALUE=280
1.643896
1.453757
1.715422
1.679659
1.657605
1.649857
1.741648
1.919866
1.795888
2.100468
2.341866
2.347827
2.450943
2.684593
2.865791
3.131628
3.183484
3.818870
4.209876
4.633665
5.421638
7.039905
47.377944
181.111693
591.790676
1005.303860
1015.793681
1015.793681
1015.793681
1015.793681
1015.793681
1015.793681
1015.793681
1015.793681
1015.793681
853.676796
486.125946
206.854939
102.316737
57.517886
62.927604
86.554885
108.176470
133.744478
150.428414
155.846477
152.922869
136.116743
118.634701
91.232657
70.216656
48.240423
36.294460
25.493503
21.741986
19.676685
18.890500
17.973781
18.486977
18.254519
18.547773
18.665791
19.163489
19.526482
19.660592
19.901991
20.955801
21.979809
22.183657
23.201704
24.337769
26.205778
27.563572
28.860569
30.466914
30.515790
30.865669
30.328631
29.327869
28.896928
28.800964
26.748776
26.420951
25.265813
25.602579
24.907589
24.132729
24.570823
24.514794
24.625659
23.800731
24.878979
24.309754
24.486780
24.540424
24.211407
##ZVALUE=285
1.193881
1.424551
1.334548
1.404881
1.243949
1.625419
1.499653
1.506805
1.632571
1.700521
1.675487
1.702905
1.809597
2.251863
1.967549
2.370477
2.242923
2.332926
2.797842
3.231764
3.431439
3.975630
4.911423
5.413890
23.889542
98.977685
353.840590
714.708567
1015.663743
1015.663743
1015.663743
1015.663743
1015.663743
1015.663743
1015.663743
1015.663743
1015.663743
1015.663743
710.776448
329.362750
164.108872
63.924789
44.653416
59.738755
77.597499
105.906725
125.224590
144.617558
152.949691
150.376558
138.830543
114.970803
94.631910
67.104697
50.803423
34.385920
26.021600
21.135807
19.549727
18.930435
18.484592
19.221902
18.884540
18.895864
18.959641
19.309521
20.227432
20.774603
22.395849
22.830963
23.237467
25.267601
26.047826
27.215481
27.634501
28.483868
27.982593
28.593540
27.569532
27.051568
26.715994
25.747418
25.704503
25.308728
23.981929
24.138689
24.032593
24.035573
23.877621
23.710728
23.352504
22.637844
23.122430
23.360848
22.980571
22.991896
##ZVALUE=290
0.762939
0.804663
0.760555
0.792742
0.681877
1.184940
0.890493
1.109838
1.083612
1.008511
1.237988
1.166463
1.314878
1.277924
1.408458
1.455545
1.637936
1.857877
1.963973
2.048612
2.504587
2.547503
3.096461
3.311634
4.067421
4.458427
6.951690
31.015873
166.797042
384.939909
872.628689
1015.335917
1015.335917
1015.335917
1015.335917
1015.335917
1015.335917
1015.335917
1015.335917
1015.335917
902.954936
517.816544
220.194459
101.689696
40.626526
36.844611
54.267645
70.340633
98.745823
118.290782
140.257478
147.293806
146.714449
135.386586
113.129616
91.845989
66.516995
50.149560
35.091639
27.457476
21.806955
19.635558
18.910766
18.948913
18.445849
19.500852
19.869804
20.886660
21.270514
22.196770
23.400784
23.079515
24.688840
25.529861
26.212931
26.481748
25.628805
26.079416
25.541782
25.192499
24.539828
23.781657
24.425983
24.359822
24.361610
23.568869
23.273826
23.501515
23.704767
22.825599
22.562742
22.536516
22.677779
21.935701
22.249818
21.635890
##ZVALUE=295
1.246929
0.974536
0.896454
1.067519
1.033545
0.931621
1.153946
1.163483
1.260638
1.446605
1.389980
1.589656
1.390576
1.653433
1.582503
1.647472
1.606941
1.715422
1.961589
2.184510
2.307892
2.295971
2.457500
2.949834
3.241897
3.655553
3.763437
4.214644
5.108714
10.983944
76.078773
221.620798
492.614508
1006.234884
1015.794873
1015.794873
1015.794873
1015.794873
1015.794873
1015.794873
1015.794873
1015.794873
1015.794873
618.778467
338.468552
127.667785
57.031512
30.138493
34.147501
50.811768
69.612861
94.628930
112.917423
132.404566
140.469670
139.967799
129.587650
108.627677
92.052817
67.954659
51.613450
37.216544
28.486848
23.378730
20.660758
20.002723
20.075440
20.892620
21.119714
21.754503
22.633672
23.908615
25.030971
24.880767
25.728941
26.405454
25.831461
25.436878
25.720000
24.951696
24.735928
24.402738
24.695992
24.554729
24.565458
23.610592
24.067760
23.998618
24.444461
23.553967
22.871494
22.980571
22.719502
22.565722
22.458434
22.215843
##ZVALUE=300
0.997782
1.154542
0.892878
0.938773
1.125932
1.001954
1.050830
1.139641
1.083612
1.120567
1.136661
1.354814
1.318455
1.366735
1.409650
1.318455
1.453757
1.615882
1.735687
1.731515
1.772642
2.190471
2.298951
2.470613
2.722740
2.858639
3.008842
3.462434
3.172755
3.838539
4.417896
5.782843
23.147464
153.412819
373.981595
876.863599
1015.793681
1015.793681
1015.793681
1015.793681
1015.793681
1015.793681
1015.793681
1015.793681
1015.793681
863.092542
503.137708
222.294927
102.293491
35.203695
24.827719
34.027696
45.225620
65.742731
85.748434
110.503435
126.092434
136.001706
135.218501
124.859810
112.216473
88.510513
71.026683
51.634908
39.834976
28.886795
24.856925
21.905899
21.793842
22.579432
22.876859
23.550987
24.658442
25.649667
25.769472
25.406480
25.460720
26.486516
25.753975
25.247931
24.839640
24.756789
24.760962
24.827719
24.825931
24.768710
24.903417
23.979545
23.925900
23.643970
23.900867
22.693872
22.822618
22.613406
22.537708
22.709966
##ZVALUE=305
0.961423
1.089573
0.819564
0.937581
0.838637
0.641942
0.863671
1.046658
1.108646
1.016855
1.318455
1.185536
1.282692
1.385808
1.316667
1.412630
1.335740
1.451969
1.336932
1.704693
1.620650
1.890659
1.869798
2.029538
1.963973
2.347827
2.375841
2.589822
2.820492
3.242493
3.308654
3.880858
4.144907
5.461574
12.096763
90.041757
257.102847
696.066618
1015.793681
1015.793681
1015.793681
1015.793681
1015.793681
1015.793681
1015.793681
1015.793681
1015.793681
1015.793681
724.108815
326.544642
156.647563
50.683618
25.499463
24.729967
30.943751
46.216846
61.840415
85.177422
102.575421
122.934580
130.294561
130.910873
121.984482
105.451941
89.079738
66.457987
53.659678
37.466884
30.737519
25.971532
24.921894
23.787618
24.197698
25.127530
24.979711
25.043488
25.227666
25.127530
25.026798
24.868846
25.152564
24.615526
24.944544
24.774671
24.707913
24.956465
24.624467
24.915934
24.782419
24.394989
24.275780
23.645759
23.913980
23.107529
23.121834
23.072958
##ZVALUE=310
0.937581
0.885725
0.723600
0.744462
0.642538
1.026988
0.984669
1.097918
0.817776
1.031756
1.008511
1.023412
0.864863
1.124740
1.062751
1.045465
1.018643
1.354814
1.207590
1.469851
1.339912
1.394749
1.593828
1.660585
1.826882
1.932979
2.073646
2.151728
2.139807
2.429485
2.417564
2.592802
2.986789
3.225803
3.594756
4.232526
5.214810
30.764937
109.029412
360.500813
688.778758
1015.793681
1015.793681
1015.793681
1015.793681
1015.793681
1015.793681
1015.793681
1015.793681
1015.793681
985.274911
505.140424
266.336799
92.372894
37.376881
20.081997
22.438765
29.641986
40.350556
58.915615
74.989796
97.664595
112.302899
122.830868
124.696493
117.403865
105.922818
85.222721
70.778728
51.297545
40.972829
32.168627
28.850436
25.566816
25.541782
24.766922
24.850965
24.820566
24.651885
25.004745
24.753809
25.387406
24.977922
24.920702
25.214553
25.813580
24.910569
24.651885
25.161505
24.705529
24.893880
24.776459
23.491979
23.265481
23.243427
23.490787
##ZVALUE=315
0.743866
0.556707
0.704527
0.711679
0.726581
0.710487
0.758767
0.809431
0.782609
0.831485
0.850558
0.859499
0.995994
0.906587
0.900626
0.981688
0.936985
1.149774
1.101494
1.102686
1.391768
1.309514
1.341701
1.384616
1.191497
1.487732
1.623631
1.668930
1.787543
1.813769
1.970530
2.279878
2.336502
2.424717
2.620816
3.023744
2.970695
3.556609
3.993511
9.125471
38.259029
175.334811
393.023491
873.596668
1015.754938
1015.754938
1015.754938
1015.754938
1015.754938
1015.754938
1015.754938
1015.754938
1015.754938
687.257648
376.410484
139.051676
55.539608
20.530820
17.656684
21.051764
26.773810
39.935708
51.554441
71.624517
87.018609
106.082559
115.854740
118.470788
113.068819
98.049641
85.729957
66.941977
54.323673
40.473938
33.853650
27.783513
25.441647
24.644732
24.557710
24.308562
24.957657
24.710894
25.117993
24.844408
25.356412
25.244951
25.315881
25.355816
25.152564
24.342537
25.124550
24.209619
24.190545
23.856759
23.284554
23.237467
##ZVALUE=320
0.656843
0.599623
0.655651
0.627637
0.797510
0.800490
0.635982
0.749826
0.706911
0.672936
0.833869
0.929832
0.904799
0.843406
0.856519
0.847578
0.869632
0.965595
1.123548
1.115799
1.180768
1.315475
1.197457
1.204610
1.137853
1.316667
1.245737
1.339912
1.667738
1.629591
1.662970
1.652837
1.828671
1.636744
1.854897
1.997948
2.414584
2.800822
3.031492
3.099442
3.609657
4.952550
14.796853
84.610581
225.652456
610.048771
985.596776
1015.822887
1015.822887
1015.822887
1015.822887
1015.822887
1015.822887
1015.822887
1015.822887
855.010748
494.058728
211.492777
93.572736
28.636456
16.352534
16.358495
18.335581
25.413632
32.747984
49.799681
63.967705
82.656741
98.939538
109.610558
114.126801
107.866526
98.842978
82.381964
67.350864
50.051808
40.644407
32.217503
27.689934
24.941564
24.881959
24.499893
24.817586
24.556518
24.637580
24.785995
24.872422
24.336576
24.905801
24.962425
24.378896
24.486780
23.976564
23.684502
24.049878
23.627877
##ZVALUE=325
0.604987
0.686646
0.674725
0.548959
0.603795
0.838637
0.587702
0.762939
0.816584
0.634789
0.763535
0.748634
0.714660
0.845790
1.045465
0.916719
0.906587
0.848770
1.093745
0.909567
0.998974
0.843406
1.056790
1.111627
1.076460
1.078844
1.300573
1.329780
1.255870
1.432896
1.604557
1.656413
1.633763
1.805425
1.938939
2.001524
2.020597
2.091527
2.296567
2.321601
2.641678
3.280640
3.282428
4.189610
7.722974
55.729747
148.596764
397.791862
731.315613
1015.834808
1015.834808
1015.834808
1015.834808
1015.834808
1015.834808
1015.834808
1015.834808
993.855596
636.717677
285.123587
137.423873
41.637421
18.476844
14.879704
15.220642
18.454790
23.466945
34.005642
45.909882
65.135956
80.625415
96.546412
105.275512
107.377768
104.278922
89.915991
78.475475
61.108470
49.622655
37.693977
31.594634
26.310682
25.348663
24.615526
24.419427
24.321675
24.487972
24.899840
24.043918
23.906827
23.728609
23.767948
23.938417
24.216771
22.800565
23.764968
##ZVALUE=330
0.586510
0.570416
0.581741
0.628829
0.472665
0.671744
0.605583
0.590682
0.747442
0.609756
0.735521
0.609756
0.741482
0.667572
0.741482
0.647902
0.680685
0.865459
0.729561
0.713468
0.900626
0.709891
0.933409
0.955462
0.951886
0.947714
1.083612
1.115799
1.305938
1.085997
1.131892
1.236796
1.449585
1.508594
1.689792
1.536608
1.737475
1.620650
1.741648
1.992583
2.149940
2.325773
2.436638
2.850890
3.068447
3.808737
4.979968
17.575622
99.415779
246.512890
598.804951
972.085595
1015.793681
1015.793681
1015.793681
1015.793681
1015.793681
1015.793681
1015.793681
1015.793681
787.886977
454.570651
188.209414
83.415508
23.675561
14.135838
14.158487
14.777780
18.183589
23.735762
35.593510
45.641661
62.440634
77.193975
92.417002
99.872947
101.751685
98.531842
85.893869
74.331760
57.634711
47.593713
37.762523
31.728745
27.506948
25.317669
24.414659
23.712516
23.731589
23.760796
23.291707
23.453832
23.294687
23.359656
22.682548
22.787452
##ZVALUE=335
0.498891
0.699759
0.537634
0.550747
0.598431
0.551939
0.512600
0.497699
0.598431
0.618696
0.572801
0.686646
0.645518
0.659823
0.732541
0.696778
0.821948
0.732541
0.639558
0.702739
0.953674
0.722408
0.712872
0.792742
0.753999
0.891685
0.770688
1.052618
1.111627
0.955462
1.098514
1.097918
1.224875
1.129508
1.110435
1.316667
1.477599
1.431704
1.589656
1.563430
1.747608
1.959801
2.050996
2.146959
2.309680
2.587438
2.697706
3.310442
3.840923
6.885529
43.268800
133.989453
399.098992
732.226968
1015.793681
1015.793681
1015.793681
1015.793681
1015.793681
1015.793681
1015.793681
1015.793681
967.449546
604.822040
263.020992
124.805570
39.249659
17.503500
13.870597
14.409423
16.035438
18.744469
25.247931
32.572746
45.418739
57.109594
73.225498
86.078644
95.535517
96.283555
92.401505
82.805753
70.061684
59.395432
46.382546
38.893819
31.008720
27.416945
24.416447
23.376942
22.917986
22.366643
22.147894
22.381544
22.082925
21.977425
##ZVALUE=340
0.422597
0.433922
0.565648
0.502467
0.459552
0.547767
0.417829
0.556707
0.584722
0.690818
0.502467
0.557899
0.594854
0.649691
0.503659
0.438690
0.573993
0.680685
0.598431
0.694990
0.595450
0.632405
0.912547
0.693798
0.900626
0.880957
0.926852
0.846982
0.867844
0.888705
0.998974
0.881553
1.018643
0.976920
0.998974
1.195669
1.183748
1.245737
1.360774
1.300573
1.404881
1.565814
1.612902
1.551509
1.801848
1.967549
2.255440
2.504587
2.438426
2.763867
3.487468
4.845858
15.394688
82.760453
208.703876
542.585850
940.088630
1015.789509
1015.789509
1015.789509
1015.789509
1015.789509
1015.789509
1015.789509
1015.789509
671.443939
380.349755
157.380700
62.869787
19.529462
14.712811
14.553666
15.059710
16.397834
18.983483
24.811625
31.919479
43.861866
55.636764
72.196722
81.884861
90.775490
92.613697
86.963773
81.219673
68.931580
58.016777
45.439601
38.306713
30.812621
26.418567
23.198724
22.409558
21.883845
21.287799
21.533966
##ZVALUE=345
0.588894
0.332594
0.473857
0.481606
0.554919
0.556707
0.376701
0.420809
0.408888
0.320673
0.514984
0.345707
0.497699
0.493526
0.621676
0.478625
0.691414
0.645518
0.607967
0.422597
0.652671
0.603795
0.543594
0.752807
0.760555
0.676513
0.827909
0.800490
0.867844
0.920892
0.897646
0.982881
0.881553
0.902414
0.941753
0.793934
0.910759
1.030564
1.112819
1.144409
1.225471
1.332760
1.461506
1.338720
1.364946
1.609921
1.688600
1.814961
1.868606
2.157688
2.322793
2.484918
2.777576
3.231764
7.119775
44.181943
122.379661
328.832865
590.751767
1015.793681
1015.793681
1015.793681
1015.793681
1015.793681
1015.793681
1015.793681
1015.793681
856.310725
501.807928
217.387676
96.854568
29.845834
16.093850
14.107823
14.517903
14.540553
15.661716
18.366575
21.738410
30.503869
39.402843
54.085851
64.721704
76.879859
81.833601
85.345507
82.946420
76.099634
67.131519
54.878592
44.797659
34.976602
29.459000
25.199652
22.317767
21.000504
##ZVALUE=350
0.273585
0.281930
0.335574
0.420809
0.428557
0.270605
0.163913
0.353456
0.261664
0.247955
0.348687
0.436902
0.232458
0.355840
0.269413
0.422597
0.548959
0.432730
0.336766
0.631809
0.556707
0.394583
0.418425
0.558496
0.472665
0.448823
0.530481
0.418425
0.502467
0.747442
0.636578
0.634789
0.701547
0.659823
0.793934
0.739694
0.880957
0.802875
0.890493
1.100898
1.018643
0.955462
1.107454
1.084805
1.167655
1.197457
1.222491
1.213551
1.318455
1.416802
1.746416
1.744628
2.104640
2.324581
2.383590
2.738833
4.394650
17.514825
89.579821
200.383663
468.307734
789.140463
1015.665531
1015.665531
1015.665531
1015.665531
1015.665531
1015.665531
1015.665531
1011.935472
565.129519
317.332745
126.278996
50.237775
16.842484
13.603568
12.797713
13.096929
13.848543
14.497638
17.265677
20.875931
27.697682
35.355687
47.140718
55.954456
68.333745
74.200630
77.513456
76.045990
69.466829
61.856508
51.584840
42.128563
32.886863
28.020740
##ZVALUE=355
0.419617
0.376701
0.516772
0.387430
0.475645
0.408888
0.318885
0.613928
0.472665
0.338554
0.433922
0.514984
0.390410
0.726581
0.565648
0.640750
0.576973
0.603795
0.589490
0.575781
0.613928
0.550747
0.677705
0.587702
0.545979
0.521541
0.706911
0.724792
0.659823
0.666976
0.517964
0.836849
0.904799
0.766516
0.882745
0.865459
0.875592
0.859499
0.896454
0.921488
1.086593
0.981688
1.132488
1.176000
1.131892
1.066923
1.358986
1.422763
1.349449
1.434684
1.592636
1.637936
1.816750
1.903772
2.164841
2.263784
2.480745
2.750754
3.070831
8.933544
36.558509
148.955584
301.162601
625.857711
974.997878
1015.793681
1015.793681
1015.793681
1015.793681
1015.793681
1015.793681
1015.793681
818.231702
376.935601
186.658502
58.305860
23.217797
13.422966
12.530684
12.626648
12.853742
13.398528
14.393926
16.204715
19.203424
24.846792
31.324625
42.015910
49.573779
61.003566
67.097545
70.809722
69.943666
64.365864
58.097839
49.089789
##ZVALUE=360
0.429749
0.476837
0.472665
0.390410
0.313520
0.476837
0.547767
0.445843
0.372529
0.470877
0.406504
0.364780
0.456572
0.483990
0.483990
0.542998
0.586510
0.495911
0.518560
0.530481
0.511408
0.620484
0.525713
0.616908
0.563860
0.595450
0.701547
0.897646
0.897646
0.799894
0.678897
0.670552
0.770688
0.802875
0.665784
0.946522
0.889897
0.839829
1.116991
0.951886
1.074672
0.987649
0.912547
1.157522
1.025796
1.118779
1.053810
1.162887
1.146793
1.430511
1.394749
1.408458
1.542568
1.607537
1.723766
1.935959
1.902580
2.193451
2.495646
2.671480
3.094673
5.280972
17.673969
77.916980
182.349682
444.430709
745.403767
1015.793681
1015.793681
1015.793681
1015.793681
1015.793681
1015.793681
1015.793681
966.888666
504.400730
270.628929
102.329850
39.505959
14.262795
12.589693
12.558699
12.465715
12.667775
12.963414
13.338923
14.100671
16.943812
19.998550
27.089715
34.645796
44.318438
52.071810
60.472488
64.490438
64.315796
##ZVALUE=365
0.382662
0.327826
0.262856
0.448823
0.443459
0.516772
0.437498
0.420809
0.687838
0.506639
0.543594
0.535846
0.521541
0.614524
0.660419
0.452995
0.693798
0.347495
0.695586
0.573993
0.561476
0.458956
0.535846
0.647902
0.829697
0.694990
0.743866
0.760555
0.704527
0.767708
0.783801
0.780821
0.738502
0.840425
0.567436
0.826716
0.720620
0.912547
0.904799
0.896454
0.973940
0.930429
1.053810
1.234412
1.068711
1.141429
1.147985
1.208782
1.252890
1.257658
1.389980
1.379848
1.435876
1.785755
1.804829
1.965761
2.001524
2.059937
2.199411
2.412796
2.722740
2.942681
3.010631
3.936887
7.746816
47.225952
126.939416
321.894884
591.423512
1015.793681
1015.793681
1015.793681
1015.793681
1015.793681
1015.793681
1015.793681
1015.793681
686.625838
387.375951
150.489807
61.913729
18.687844
12.815595
12.163520
11.901855
11.945963
11.633635
11.728406
11.961460
12.944937
14.923811
18.605590
23.010969
30.019879
37.412643
46.243668
##ZVALUE=370
0.332594
0.499487
0.532866
0.442863
0.494719
0.500679
0.535846
0.559688
0.351667
0.526905
0.511408
0.673532
0.535846
0.563860
0.584722
0.662804
0.470877
0.492930
0.721812
0.675917
0.536442
0.639558
0.708699
0.613928
0.727773
0.646710
0.573993
0.788569
0.736713
0.907779
0.845790
0.839829
0.748634
0.935793
0.891685
0.985861
1.033545
0.966787
1.020432
0.934601
0.961423
1.035929
1.128912
0.871420
1.224875
1.068711
1.077652
1.091957
1.035929
1.240969
1.335740
1.435876
1.365542
1.446605
1.485944
1.595616
1.734495
1.735687
1.851916
1.977682
2.082586
2.355576
2.484918
2.719760
3.137589
3.516674
4.574656
19.369721
65.750480
215.311646
422.189832
856.311917
1015.793681
1015.793681
1015.793681
1015.793681
1015.793681
1015.793681
1015.793681
842.448473
492.006540
203.336477
93.090534
27.441978
13.491511
10.903478
10.893941
10.297894
10.349751
10.124445
10.363460
10.895729
11.380911
13.150573
15.851855
20.824671
##ZVALUE=375
0.503659
0.355840
0.462532
0.377893
0.477433
0.488758
0.594854
0.529885
0.383854
0.588894
0.647902
0.770688
0.579953
0.752807
0.810623
0.594854
0.564456
0.813603
0.579953
0.636578
0.670552
0.463724
0.568628
0.650883
0.628829
0.570416
0.567436
0.773668
0.629425
0.755787
0.776649
0.616908
0.686646
0.711679
0.809431
0.822544
0.836849
0.723600
0.963807
0.806451
0.831485
0.775456
1.059771
0.926852
1.013875
1.116991
1.071692
1.135468
1.064539
1.084805
1.282692
1.161695
1.157522
1.159906
1.192689
1.338720
1.426935
1.426935
1.382828
1.348853
1.870990
1.826882
1.845956
1.998544
2.102852
2.325773
2.575517
2.936721
3.376603
9.473562
30.887723
111.038685
246.537328
580.079556
951.972604
1015.793681
1015.793681
1015.793681
1015.793681
1015.793681
1015.793681
992.004871
673.397779
338.497758
172.541738
54.730773
20.655990
9.795427
9.233952
9.111762
9.129643
9.241700
9.119511
9.261966
9.725690
10.561943
##ZVALUE=380
0.441670
0.389814
0.492930
0.490546
0.632405
0.657439
0.509620
0.472665
0.602603
0.544786
0.473857
0.512600
0.720620
0.483990
0.668764
0.628829
0.419617
0.647902
0.521541
0.571609
0.560880
0.718832
0.577569
0.656843
0.624657
0.605583
0.641942
0.681877
0.468493
0.676513
0.832677
0.791550
0.691414
0.727773
0.739694
0.599623
0.741482
0.789762
0.756979
0.914931
0.738502
0.841618
0.838637
0.764728
0.927448
0.912547
0.718832
0.830889
0.863671
0.887513
0.982881
0.943542
0.956655
0.997782
1.102686
1.055598
1.136661
1.054406
1.293421
1.319647
1.330972
1.270771
1.593828
1.541972
1.606941
1.782775
1.960993
2.210736
2.341866
2.728701
3.129840
5.290508
17.628670
82.499981
191.061497
466.280580
793.098807
1015.790701
1015.790701
1015.790701
1015.790701
1015.790701
1015.790701
1015.790701
892.131925
453.688502
239.463449
85.555911
33.871531
11.199713
8.440614
8.467436
8.353591
8.403659
8.321404
8.209944
##ZVALUE=385
0.484586
0.404716
0.379682
0.369549
0.346899
0.477433
0.418425
0.517964
0.505447
0.401735
0.341535
0.492930
0.441670
0.546575
0.617504
0.461936
0.358820
0.444651
0.705719
0.454783
0.631809
0.585914
0.560880
0.505447
0.641942
0.585914
0.693798
0.721812
0.617504
0.670552
0.791550
0.706911
0.452995
0.566840
0.615716
0.602603
0.713468
0.748634
0.801682
0.713468
0.762939
0.664592
0.745654
0.812411
0.664592
0.737906
0.878572
0.771880
0.858903
0.882745
0.873804
0.834465
0.912547
0.879765
0.797510
0.985861
0.916719
0.940561
0.903606
1.159906
1.199841
1.207590
1.339912
1.086593
1.266599
1.357794
1.392961
1.749992
1.884699
2.172589
2.370477
2.671480
2.748966
3.329515
8.234978
46.381950
123.264790
318.986773
587.502718
1015.794873
1015.794873
1015.794873
1015.794873
1015.794873
1015.794873
1015.794873
1015.794873
642.814636
372.852683
156.008601
63.822865
15.788674
8.339882
7.533431
7.406473
7.628798
##ZVALUE=390
0.343919
0.393987
0.203848
0.340939
0.421405
0.330806
0.392795
0.389814
0.444651
0.331998
0.391603
0.432730
0.449419
0.521541
0.551939
0.324845
0.471473
0.549555
0.481606
0.437498
0.508428
0.466704
0.453591
0.612736
0.428557
0.637770
0.474453
0.516772
0.497699
0.553727
0.612736
0.638962
0.597835
0.552535
0.567436
0.498891
0.537634
0.662804
0.369549
0.555515
0.469685
0.598431
0.611544
0.652671
0.574589
0.696778
0.731945
0.700951
0.776649
0.695586
0.689626
0.729561
0.726581
0.890493
0.845790
0.840425
0.713468
0.855923
0.970960
0.833869
0.909567
0.992417
0.988841
1.125932
1.133680
1.295805
1.385808
1.516938
1.628995
1.891851
2.111793
2.421737
2.309680
2.656579
2.742410
2.668500
5.033612
19.262433
92.737675
209.686756
485.029817
822.194815
1015.793681
1015.793681
1015.793681
1015.793681
1015.793681
1015.793681
1015.793681
907.753706
451.564789
238.150954
83.679557
31.536818
10.055900
7.273555
##ZVALUE=395
0.273585
0.393987
0.265837
0.227690
0.343919
0.287890
0.077486
0.432730
0.373721
0.379682
0.324845
0.412464
0.415444
0.369549
0.400543
0.376701
0.317693
0.346899
0.332594
0.377893
0.477433
0.243783
0.517964
0.339746
0.398755
0.642538
0.458956
0.365973
0.379682
0.391603
0.581741
0.345707
0.547767
0.559688
0.504851
0.572801
0.668764
0.586510
0.489950
0.432730
0.341535
0.459552
0.499487
0.544786
0.597835
0.473857
0.639558
0.672936
0.619888
0.558496
0.642538
0.569820
0.817776
0.541806
0.839829
0.768900
0.728965
0.775456
0.891685
0.822544
0.900626
0.872612
0.867844
0.930429
1.107454
1.194477
1.201630
1.331568
1.516938
1.843572
2.237558
2.027750
2.062917
2.089739
2.122521
2.152920
2.246499
2.448559
3.112555
9.472966
54.765940
137.429833
337.657928
592.001677
1015.793681
1015.793681
1015.793681
1015.793681
1015.793681
1015.793681
1015.793681
1015.793681
628.052950
347.356796
132.576823
56.941509
##ZVALUE=400
0.187755
0.144839
0.406504
0.332594
0.211596
0.385642
0.325441
0.110865
0.313520
0.243783
0.328422
0.136495
0.293851
0.281930
0.455976
0.482798
0.346899
0.313520
0.352859
0.364780
0.460744
0.284910
0.431538
0.369549
0.430942
0.538826
0.436902
0.382662
0.418425
0.452995
0.486970
0.433922
0.457764
0.346899
0.536442
0.394583
0.520945
0.667572
0.404716
0.379682
0.546575
0.546575
0.469685
0.433922
0.651479
0.605583
0.609756
0.479817
0.559688
0.580549
0.639558
0.612736
0.684857
0.754595
0.593662
0.710487
0.850558
0.667572
0.716448
0.823736
0.821948
0.923872
1.031756
0.936985
0.981688
1.157522
1.104474
1.280904
1.546741
1.548529
1.752973
1.929998
1.844764
1.843572
1.885891
1.843572
1.886487
1.935959
2.251863
2.499819
2.952814
5.109906
26.848912
76.910853
225.508809
423.636436
841.869712
1015.793681
1015.793681
1015.793681
1015.793681
1015.793681
1015.793681
1015.793681
757.597685
463.076830
##END
