##TITLE=FQP00351
##FORMAT=SPECTACLE-ASCII V-1.2
##DATA TYPE=ULTRAVIOLET SPECTRUM
##SECOND TYPE=ULTRAVIOLET SPECTRUM
##DATE=10/24/17
##TIME=13:11:30
##SPECTROMETER/DATA SYSTEM=SPECTACLE
##XUNITS=NM EM
##YUNITS=ENERGY
##YFACTOR=1
##FIRSTX=220
##LASTX=410
##NPOINTS=96
##3DDATA=Equidistant
##ZUNITS=NM EX
##FIRSTZ=210
##LASTZ=400
##ZPOINTS=39
##XYDATA=(Y..Y)
##ZVALUE=210
3.192425
2.838969
2.691746
3.045797
3.296733
3.235936
3.511906
3.576875
3.401637
3.277659
3.951788
3.463626
3.940463
3.885627
4.001856
4.360676
4.611611
4.765987
4.381537
4.576445
4.709959
5.594492
5.599856
5.303621
5.883574
7.580519
6.594658
7.321835
7.545948
7.651448
7.901788
7.283688
7.695556
8.140802
8.747578
8.859634
8.761883
8.660555
9.331703
9.770989
8.603930
10.133982
9.292960
9.089708
9.013414
10.144711
11.137724
10.789633
10.366440
10.608435
11.934638
12.302995
10.328889
11.987686
12.075901
10.999441
11.416674
12.260675
11.795759
12.153983
12.903810
12.192726
12.740493
12.727976
10.796785
12.283921
13.483763
15.973449
15.957952
20.236969
23.571849
27.494431
33.170581
35.264492
39.632916
42.621493
41.234493
41.773915
39.908886
39.252639
35.069585
30.917525
26.674867
22.673607
20.436645
17.325878
14.491677
15.282631
13.991594
12.071729
13.049841
12.188554
12.738705
12.864470
11.607409
11.344552
##ZVALUE=215
6.494522
6.382465
5.900860
4.940629
5.257726
4.921556
5.297661
4.654527
4.830956
5.530715
5.252957
5.857944
4.860759
3.723502
4.435778
4.192591
3.940463
4.918575
4.711747
4.789829
5.427599
6.206632
5.149841
6.476641
6.358624
7.046461
6.634593
6.436706
6.654859
8.132458
8.099675
8.154511
8.044839
7.517934
8.049607
9.084940
10.240674
9.519458
10.039806
9.387732
9.382963
9.984970
10.438561
10.158420
11.464953
9.893775
9.993911
10.080934
9.972453
11.217594
11.434555
13.640523
11.298656
11.859536
11.993647
12.110472
12.388825
12.921691
11.538863
13.839602
13.293624
13.600588
12.293458
14.498830
14.075637
13.892651
13.648868
15.513897
17.846823
20.913482
21.999478
28.000474
29.545426
36.342740
40.470958
40.194988
40.487647
40.951967
40.178895
35.583973
31.129718
30.967593
25.431514
25.554895
21.505952
18.410683
16.503930
15.216470
13.888478
13.099909
11.986494
13.360977
11.243820
12.413859
13.200641
12.356639
##ZVALUE=220
18.697977
20.172596
23.129582
24.334788
23.613572
19.870996
17.024875
13.279915
10.612607
9.603500
11.146665
10.778904
12.549758
10.848641
10.594726
8.935928
6.539822
6.435513
5.428791
5.190969
5.855560
6.372929
6.287694
6.130934
6.230474
7.074475
8.289814
6.960630
8.403659
8.428693
10.263920
8.910894
10.466576
10.313988
11.347532
9.606481
9.657741
11.837482
12.671947
11.152625
11.083484
10.732412
11.206865
11.551976
12.290478
11.917949
12.506843
13.232827
12.400746
13.253689
13.297796
14.736652
12.726784
12.964606
14.490485
14.008880
15.742779
14.265776
13.836622
14.231801
15.053749
14.842749
14.729500
15.046000
15.468597
16.057491
14.755726
17.526746
20.952821
23.373961
24.951696
30.541420
33.494830
38.635731
40.359497
41.447878
45.341849
41.391850
38.793683
35.317540
33.072829
30.552745
29.184818
26.007891
23.131967
19.822717
17.468929
16.160607
15.471578
15.656948
14.454722
14.353991
14.914870
15.258789
13.696551
14.062524
##ZVALUE=225
35.554767
40.259957
54.906607
72.926879
86.075664
88.476539
79.396963
62.816739
49.856901
33.054948
24.963617
21.019578
20.900965
24.366975
23.902655
21.878481
20.789504
17.500520
12.209415
10.841489
8.244514
7.019639
6.264448
7.180572
7.479787
8.647442
7.965565
8.559823
9.772778
9.135604
9.720922
9.472966
10.816455
11.196733
10.719895
11.319518
11.421442
12.960434
12.567639
11.512637
13.843775
12.699962
13.678670
12.248755
12.662411
13.562441
14.639497
14.875531
14.468431
14.947653
14.962554
14.633536
14.820695
16.043782
16.934872
16.244650
15.906692
17.391443
15.040636
17.067790
16.065836
17.409921
18.781424
16.752481
19.162893
17.658472
18.304586
21.692514
21.483898
24.115443
26.811957
30.291677
34.328699
36.926866
36.857724
38.053989
36.311746
36.029816
35.448670
36.579967
32.456517
29.057860
25.892854
23.848414
22.293925
19.803643
19.464493
18.790960
17.356873
16.544461
15.938878
17.071962
16.043782
15.701652
15.360713
15.896559
##ZVALUE=230
32.019615
35.940409
57.869554
112.233758
150.114894
194.491744
219.361782
220.760703
209.582448
175.734758
121.413469
85.369945
58.197975
45.060515
42.553544
43.083429
48.866868
47.690868
41.743517
34.384727
27.658939
19.283891
14.643669
10.395646
9.546876
7.995963
7.928610
8.962750
9.126663
8.885860
9.772778
10.276437
11.120439
10.860562
10.608435
11.989474
13.522506
12.296438
13.262630
11.704564
13.156533
14.378428
13.073683
16.267896
15.039444
16.098619
16.798973
16.470551
16.388893
17.762780
18.433928
18.704534
16.987920
18.886924
19.331574
19.825697
19.368529
20.117760
20.720959
20.891428
22.074580
22.623539
22.392869
24.048686
23.364425
24.735928
23.765564
27.748942
27.288795
30.404925
31.933784
34.995675
38.787723
41.134953
43.613911
44.350624
47.404766
44.723749
41.861534
40.730834
36.654472
34.515858
33.870935
31.139851
27.143955
24.785995
26.052594
24.418831
22.439957
23.862720
23.082495
22.305846
21.365881
21.889806
22.308826
21.392703
##ZVALUE=235
14.178753
16.666651
33.133626
83.880424
140.676498
232.829452
309.200883
416.100621
461.220741
466.975570
429.903865
338.808894
260.697603
160.999894
113.108754
87.802410
69.590807
72.220564
79.494715
78.623891
73.588490
66.223741
48.654675
38.526654
24.325848
18.417835
12.750626
11.527538
10.887980
11.667609
9.981990
10.975599
10.606647
12.383461
12.262464
12.983680
13.458729
14.952421
14.187694
16.195774
16.013980
15.524626
17.641783
19.485950
18.976927
19.438863
20.959973
22.125840
24.067760
24.329424
24.750829
24.987459
26.072860
27.807951
26.423931
27.000904
27.971864
28.687716
27.162433
28.100610
29.677749
29.151440
30.641556
31.617880
33.174753
33.355951
34.162998
35.317540
37.068725
40.823817
45.593977
48.774481
50.732493
54.293871
56.127906
56.033731
57.791471
55.580735
56.152940
55.325627
51.211715
46.625733
43.850541
42.265654
38.958788
36.779642
35.203695
35.623908
33.748746
33.233762
31.690598
31.832457
31.811595
30.863881
29.062629
29.597878
##ZVALUE=240
3.311634
3.680587
7.432699
26.744604
58.601499
140.289664
237.678885
421.538949
559.368730
702.114701
820.238590
820.463896
741.680861
644.458532
462.839603
329.708457
193.156600
137.513876
101.888776
100.463629
105.336905
109.840631
115.932822
97.665787
85.729957
63.572526
47.779679
34.425855
23.905635
17.163754
13.453960
13.554692
12.116432
12.333989
12.723804
13.939738
14.888644
14.589429
16.088486
15.972853
17.515421
20.964742
20.428896
20.157695
23.999810
25.524497
26.004910
28.512478
27.446747
28.509498
29.863715
30.139685
31.765699
34.205914
33.660531
33.250451
33.629537
37.024617
37.670732
36.037564
37.649870
37.139654
37.600994
37.810802
37.212968
39.059520
39.753914
41.531920
43.829679
49.175620
49.528480
54.641962
57.691932
59.964657
61.024427
61.355829
60.843825
60.068965
60.332417
56.515932
53.302646
49.198866
47.002435
48.418641
42.602420
41.586757
39.795637
40.150881
38.010478
37.769675
38.731694
35.892725
37.056804
37.395954
35.465956
37.109852
##ZVALUE=245
3.095865
2.735853
2.728701
2.930760
6.200671
18.234849
61.884522
132.244825
300.917625
462.184548
720.781684
904.519558
1013.482809
1015.665531
1015.665531
869.768858
693.614483
445.500612
306.636691
170.989633
125.964880
101.815462
110.328794
121.546984
127.971768
121.588707
109.757781
94.298720
72.975755
54.749846
40.002465
25.483966
18.912554
14.132857
13.075471
13.333559
13.457537
15.537739
16.326904
17.332435
18.215775
18.253922
18.988848
21.638870
24.294853
26.269555
26.458502
28.794408
29.535890
29.675961
32.447577
33.613443
35.998821
34.248829
36.013722
34.731627
35.493970
37.489533
35.876632
35.539865
35.392642
38.631558
37.947893
36.827922
36.237836
36.964417
38.019419
41.063428
40.335655
44.750571
43.597817
49.085617
49.481988
53.481460
54.984689
56.868792
56.455731
52.626729
53.684711
50.452948
48.730969
44.686794
43.263435
41.667819
39.419532
40.234923
37.948489
38.122535
36.403537
36.572814
35.811663
35.863519
34.318566
34.884810
35.364628
35.790801
##ZVALUE=250
2.021790
2.769828
2.451539
2.570748
3.241897
2.794862
3.865957
10.743737
45.076609
101.511478
254.619718
432.026982
637.657642
940.741897
1015.793681
1015.793681
1015.793681
1015.793681
958.179832
656.280518
437.200665
274.809003
146.495700
107.388496
106.954575
121.083856
134.673715
133.564472
130.550861
122.542977
98.429918
80.738664
61.586499
39.146543
28.316975
19.522905
15.551448
15.298724
16.741753
16.827583
17.212629
21.010637
19.654632
21.231771
22.182465
24.862885
26.470423
28.422475
28.154850
28.898716
32.198429
31.657815
33.676624
33.057928
32.601953
34.993887
33.251643
33.691525
33.783913
34.057498
35.126805
32.789707
33.550858
34.433603
33.262968
33.362508
33.050776
34.460425
36.685467
36.180615
38.470626
39.791465
41.992664
44.428706
43.876767
45.156479
44.384599
44.824481
42.003989
41.911602
40.523410
39.879680
38.362741
36.571622
34.793615
34.224987
35.508871
33.723712
32.689571
32.038689
31.008720
33.983588
33.090711
30.886531
31.721592
31.766891
##ZVALUE=255
2.064705
2.083778
2.091527
2.098680
2.399683
2.256632
2.524853
2.503991
3.462434
6.803870
31.665564
78.830719
162.090659
359.890461
557.273626
876.781940
1015.793681
1015.793681
1015.793681
1015.793681
1015.793681
930.010676
589.722395
371.686816
190.516710
125.067830
95.187426
103.906989
127.257705
137.854815
143.298507
139.251947
128.628612
105.403662
84.149837
57.463646
41.786432
27.346611
21.824837
16.709566
15.993714
17.598867
18.826723
20.224452
20.135641
23.307800
25.206804
25.208592
25.944710
26.566982
28.193593
28.279424
28.879642
28.949976
30.643940
29.360652
30.463934
29.933453
29.118657
29.444695
30.666590
29.303432
27.705431
27.877688
27.943850
29.311776
28.397441
29.332638
30.525923
29.801726
30.920506
35.225749
34.994483
35.139918
37.690997
37.445426
35.902858
37.816763
34.994483
34.579635
33.527613
33.852458
31.212568
32.171607
31.526685
30.284524
29.445887
29.098988
30.301809
28.419495
30.580759
28.474927
28.571486
28.085709
29.781461
28.228760
##ZVALUE=260
1.849532
1.911521
2.013445
1.763701
1.975894
2.158880
2.225637
2.357960
2.483726
2.638698
3.024936
4.125834
11.961460
53.621531
120.491982
295.890570
488.234758
805.985928
1015.816927
1015.816927
1015.816927
1015.816927
1015.816927
1015.816927
829.350948
564.998984
309.322476
181.778669
105.522871
89.037418
100.784898
125.981569
143.453479
154.481530
146.882534
130.492449
112.013817
85.148811
64.410567
45.545697
31.475425
23.587942
19.935966
18.959641
19.434690
20.684600
21.570921
22.941828
22.204518
23.105741
24.771690
24.481416
24.142861
24.728775
23.713708
26.196837
25.282502
24.585724
25.601983
25.426745
24.351478
24.701953
25.214553
23.369789
23.707747
23.665428
23.760796
25.068521
24.339557
26.176572
27.597547
29.914975
30.286908
30.541420
31.624436
32.838583
32.104850
32.227635
31.199455
29.515624
30.342937
29.403567
29.061437
28.169751
25.957823
29.117465
27.766824
26.096702
26.757717
25.494695
25.829673
25.529861
26.259422
25.734901
25.624633
27.336478
##ZVALUE=265
1.863837
1.545548
1.817942
1.685619
1.777411
2.166629
1.932979
2.178550
2.106428
2.350807
2.308488
2.320409
2.686977
2.585649
8.271933
27.683973
107.190609
217.554569
337.983370
780.820847
1015.793681
1015.793681
1015.793681
1015.793681
1015.793681
1015.793681
1015.793681
720.474720
458.784699
229.702592
136.891603
85.889697
86.471438
114.615560
132.673979
152.146816
153.807998
149.182677
135.155916
110.888481
89.606643
64.126849
45.625567
31.824708
25.613904
20.815730
19.464493
20.559430
20.784736
20.117760
22.340417
22.616982
21.784902
22.076964
21.361709
21.340847
21.061897
21.677613
21.160841
22.206903
22.099614
22.144914
22.054911
21.246672
21.574497
21.374822
22.501945
22.739768
23.104548
23.542643
25.491714
26.189685
26.885867
28.464794
29.035807
29.383898
28.955936
28.431416
27.704835
26.727915
25.807619
26.685596
25.450587
25.439858
23.303628
24.024844
24.011731
23.610592
25.083423
25.143623
25.016665
24.494529
23.717880
22.948980
24.353862
24.067760
##ZVALUE=270
1.811981
1.559854
1.810789
1.828671
1.661777
1.782775
1.645684
1.931787
1.960993
1.749992
2.107620
2.354980
2.496839
2.487898
2.563596
3.110766
4.238486
14.180541
65.415502
153.833032
391.151905
673.827529
1015.793681
1015.793681
1015.793681
1015.793681
1015.793681
1015.793681
1015.793681
1015.793681
765.116811
379.292965
204.600692
92.428923
70.636868
86.367726
109.605789
135.968924
151.786804
159.966946
153.084993
137.965679
119.122863
89.926720
68.919659
45.439601
34.674406
25.588870
21.862984
20.188689
19.278526
19.889474
19.886494
19.765496
20.260811
19.943714
20.060539
21.052957
21.269917
20.831823
20.653605
19.716620
19.737482
20.173788
19.912720
20.976663
21.004677
20.776987
21.704435
23.269653
24.638772
24.849772
25.532842
26.755929
28.449893
27.920604
28.301477
26.859641
26.483536
25.781989
25.523901
24.947524
22.749901
23.597479
22.555590
22.725463
22.642612
22.261739
21.845698
21.907687
22.906661
22.930503
22.434592
21.401644
22.843480
22.455454
##ZVALUE=275
1.412630
1.269579
1.414418
1.704693
1.695752
1.472831
1.780987
1.821518
1.536608
1.882911
1.793504
2.051592
2.030730
2.043843
2.321601
2.161860
2.961755
3.064871
3.423691
7.676482
27.286410
78.116655
253.908634
506.955981
981.991887
1015.793681
1015.793681
1015.793681
1015.793681
1015.793681
1015.793681
1015.793681
1015.793681
583.286881
317.263007
125.304461
70.818663
66.711903
83.191991
109.954476
132.564902
150.563717
157.083869
153.131485
138.745904
111.556649
92.495680
66.923499
50.657988
34.707785
28.102994
21.273494
20.768642
19.839406
18.925667
19.612908
19.538999
18.699765
19.915700
19.538999
19.867420
19.989610
18.761754
19.014478
19.338727
19.353628
20.119548
20.765662
20.113587
21.235943
22.478700
23.857951
24.562478
26.525855
26.063919
27.107000
26.348829
26.310682
25.356412
24.835467
23.860931
22.689700
22.508502
21.699667
21.720529
20.021796
21.382570
20.458698
21.242499
20.208955
19.687414
20.355582
20.240545
21.117926
20.594001
21.189451
##ZVALUE=280
1.444817
1.424551
1.435876
1.301765
1.603961
1.647472
1.609921
1.569986
1.485944
1.700521
1.896620
1.836419
1.801848
1.851916
1.798868
1.898408
2.320409
2.303720
2.420545
2.863407
3.019571
4.023910
19.096732
60.902834
193.709731
367.828012
721.156001
1015.793681
1015.793681
1015.793681
1015.793681
1015.793681
1015.793681
1015.793681
1015.793681
771.420002
461.094975
199.387670
95.351934
52.713752
59.421659
85.501671
106.866956
133.466721
147.790909
153.304935
149.830580
134.743452
116.897821
88.630915
68.324804
47.954917
35.796762
25.412440
21.637678
19.179583
17.976761
17.947555
18.078685
17.733574
18.977523
19.086599
18.668771
18.851757
19.073486
19.081831
19.076467
19.450784
19.756556
21.146536
22.120476
21.910667
22.804737
24.224520
24.253726
24.276972
23.554564
23.512840
22.062659
22.837520
21.522641
21.484494
21.273494
20.367503
20.712614
21.011829
20.209551
19.791722
19.845963
19.284487
19.683838
19.548535
19.523501
18.860698
18.734932
19.678473
##ZVALUE=285
1.430511
1.408458
1.320839
1.316667
1.232624
1.374483
1.274943
1.286864
1.397729
1.452565
1.640916
1.450777
1.380444
1.667738
1.719594
1.732707
1.836419
2.059937
1.630783
2.205968
2.374649
2.497435
2.821684
3.385544
9.726882
33.014417
112.200975
225.884914
504.516959
846.452713
1015.790701
1015.790701
1015.790701
1015.790701
1015.790701
1015.790701
1015.790701
985.834002
644.706488
297.708511
143.770576
55.154562
42.179823
57.497621
76.410770
105.905533
123.914480
142.135620
150.171518
147.016644
135.385990
114.943981
93.007684
67.292452
51.333904
34.522414
25.779605
20.566583
18.737912
17.803907
17.588735
17.564893
18.024445
18.385649
18.742681
18.528700
19.407868
19.100904
20.107627
20.088553
21.221638
21.105409
21.898746
22.804737
22.226572
23.033619
22.185445
22.124648
21.733642
20.821691
20.080805
20.508766
19.629598
19.477606
19.799471
19.067526
19.152761
19.605756
18.927455
18.705726
18.226504
18.607974
18.207431
17.826557
18.114448
17.809868
##ZVALUE=290
1.187921
1.097918
1.084805
1.164675
1.221895
1.398921
1.312494
1.236796
1.260638
1.362562
1.234412
1.272559
1.397729
1.490712
1.493692
1.445413
1.430511
1.692772
1.853704
2.005696
1.850724
2.122521
2.209544
2.575517
2.804995
2.936721
4.573464
13.809800
68.329573
154.113770
301.044583
641.945004
988.456607
1015.810966
1015.810966
1015.810966
1015.810966
1015.810966
1015.810966
1015.810370
835.120678
407.098532
209.320784
75.778961
38.382411
38.769841
52.188635
74.994564
95.107555
121.048689
135.990977
145.981908
145.779848
131.072998
113.634467
87.914467
67.341924
47.798753
35.933852
25.392771
21.225810
18.870831
17.518997
17.440915
18.089414
18.213987
18.540621
18.739700
19.835830
20.272732
20.472407
21.166801
22.391677
22.076964
22.671819
22.007823
22.212863
20.944476
21.394491
21.022558
19.866824
19.882917
19.808412
19.644499
18.894672
18.946528
18.907785
19.131899
18.829703
17.883778
18.393993
18.438697
18.155575
17.740726
17.572641
17.915964
##ZVALUE=295
1.152754
1.246929
1.007915
1.064539
1.022816
1.198649
0.996590
1.181960
1.137853
1.145601
1.463890
1.356602
1.314878
1.472831
1.326799
1.426935
1.614690
1.648664
1.562834
1.747608
1.796484
1.865625
2.102852
2.103448
2.189875
2.352595
2.803802
2.903938
3.339648
6.404519
36.764741
103.171468
290.037990
537.094474
978.919864
1015.794873
1015.794873
1015.794873
1015.794873
1015.794873
1015.794873
1015.794873
966.276526
603.036880
261.545777
118.504763
41.810870
27.013421
35.635829
49.044490
71.395636
91.697574
116.086006
130.337477
141.382813
138.679743
126.530528
109.552741
85.143447
68.327785
47.556758
35.619736
25.941730
21.361709
18.737912
17.775893
17.653704
17.943978
19.017458
19.080639
20.259619
20.299554
20.914674
21.228790
21.336675
21.205544
21.475554
21.066666
19.643903
19.898415
19.919872
19.332767
18.903613
19.492507
18.891692
18.493533
18.925667
18.864870
18.278956
17.535686
17.537475
17.701983
17.350912
17.236471
17.008781
17.014742
##ZVALUE=300
1.122952
1.167655
0.986457
0.921488
1.135468
1.213551
0.986457
1.242757
1.236796
1.303554
1.228452
1.231432
1.265407
1.260638
1.329780
1.334548
1.279712
1.577735
1.453757
1.483560
1.638532
1.826882
1.935959
1.926422
1.850724
2.176762
2.352595
2.496839
2.916455
2.905726
3.686547
4.304647
16.054511
55.819750
197.325945
406.287909
880.017877
1015.793681
1015.793681
1015.793681
1015.793681
1015.793681
1015.793681
1015.793681
1015.793681
961.257815
473.978519
236.656666
75.700879
32.613873
25.439858
33.014417
48.286915
63.480735
88.843703
107.975602
128.488541
135.663748
133.536458
125.481486
107.131004
89.055896
66.873431
50.580502
35.712719
28.279424
22.111535
20.315647
19.864440
19.926429
20.754933
21.045804
21.760464
22.062659
21.533966
22.115707
21.228790
21.221638
21.225810
20.440817
20.083785
19.603968
20.187497
19.785762
19.743443
19.723773
18.676519
18.914938
18.946528
18.404722
18.028617
17.447472
17.591715
18.014908
17.468929
17.432570
##ZVALUE=305
0.963807
1.009703
0.935793
0.991821
1.124740
1.137853
1.033545
1.040697
1.173615
0.978708
1.123548
1.083612
1.119971
1.221895
1.216531
1.230836
1.237988
1.303554
1.315475
1.352429
1.532435
1.654625
1.464486
1.447797
1.563430
1.786947
1.753569
2.439618
2.251863
2.448559
2.474785
2.822876
3.193617
3.486872
6.341934
40.214658
109.481812
314.292908
584.682822
1015.788913
1015.788913
1015.788913
1015.788913
1015.788913
1015.788913
1015.788913
1015.788913
1015.788913
758.597851
345.676541
161.495805
48.051476
23.526549
23.595691
31.281710
46.441555
63.190460
85.817575
103.135705
122.934580
129.193664
127.276778
119.248629
102.236867
84.459782
62.206984
47.594905
34.517646
27.554631
21.923780
20.735860
20.441413
20.571947
20.488501
20.938516
20.414591
20.406842
20.144582
20.048618
20.117760
19.423962
18.850565
19.590855
19.318461
19.255877
19.083619
19.269586
18.543601
18.710494
18.605590
17.708540
17.381907
17.577410
17.324686
16.969442
17.006993
##ZVALUE=310
0.927448
0.902414
0.848770
0.895858
0.996590
1.080632
0.833869
0.917912
0.899434
0.936985
0.904799
1.035929
1.079440
1.108646
1.058578
1.203418
1.235604
1.161695
1.318455
1.368523
1.250505
1.414418
1.390576
1.489520
1.510978
1.605749
1.742840
1.867414
1.993775
2.062917
2.195835
2.418756
2.434850
2.643466
3.061891
3.330708
4.300475
19.696951
68.097711
223.708749
434.325933
885.589719
1015.793681
1015.793681
1015.793681
1015.793681
1015.793681
1015.793681
1015.793681
1015.793681
986.737609
519.190431
273.175836
92.659593
35.114884
18.162727
21.237731
30.168891
40.121675
58.874488
74.580908
96.486807
109.513998
119.413733
122.103691
112.631917
101.388693
80.956817
64.870715
46.490431
36.682487
27.894974
24.306774
20.592809
19.650459
19.706488
19.244552
19.207597
18.951893
18.748641
19.168854
19.218922
18.920898
19.227862
18.846989
19.402504
18.928647
19.105673
18.260479
18.738508
18.331409
18.231869
17.579794
17.562509
17.391443
17.400980
##ZVALUE=315
0.997782
0.909567
0.767708
0.830889
0.817776
1.075864
0.984669
0.924468
0.859499
0.981688
0.908971
1.058578
0.955462
0.995994
1.007915
1.155734
1.278520
1.284480
1.204610
1.397729
1.248717
1.357794
1.284480
1.372695
1.430511
1.577735
1.356602
1.619458
1.646876
1.920462
1.683831
1.891851
2.051592
2.102852
2.355576
2.545714
2.798438
3.297925
3.896952
8.298755
35.610795
154.244900
343.281627
762.908459
1015.819907
1015.819907
1015.819907
1015.819907
1015.819907
1015.819907
1015.819907
1015.819907
1015.819907
619.317889
338.383913
121.015906
48.017502
19.082427
17.076731
20.561814
27.030706
38.875937
52.183867
71.432590
87.118745
105.882883
113.066435
114.012957
109.850764
94.124675
79.611540
62.216520
48.726797
35.028458
28.567910
22.171736
20.528436
19.193888
18.690825
18.932819
19.076467
18.586516
18.795729
19.061565
18.647909
18.835664
18.953681
18.808842
18.901825
18.542409
18.076897
17.684698
17.702579
17.493963
17.778873
18.083453
##ZVALUE=320
0.784993
0.726581
0.818968
0.780821
0.887513
0.964999
1.073480
0.946522
0.997782
0.920892
0.889897
0.930429
0.749826
1.143813
1.035929
1.044869
1.235604
1.034737
1.057982
1.213551
1.098514
1.154542
1.231432
1.204610
1.324415
1.260638
1.319647
1.420975
1.503825
1.428723
1.581907
1.802444
1.815557
2.080798
2.063513
2.032518
2.397895
2.314448
2.456903
2.965927
3.281832
4.228950
13.645887
81.852078
215.153694
580.703616
970.372558
1015.793681
1015.793681
1015.793681
1015.793681
1015.793681
1015.793681
1015.793681
1015.793681
809.536576
476.198792
198.789835
86.888671
26.054978
14.835000
15.564561
17.477870
24.453998
32.794476
48.556924
63.227415
82.417727
96.904635
108.151436
111.037493
104.019642
94.912648
76.007843
61.676502
44.403672
34.704804
26.069880
22.262931
19.315481
18.623471
17.748475
18.286705
18.194914
18.417835
18.850565
18.989444
18.546581
18.245578
18.115640
18.238425
18.027425
17.973781
17.915964
17.987490
17.745495
##ZVALUE=325
0.734925
0.885725
0.855923
0.757575
0.912547
0.794530
0.854731
0.902414
0.861883
0.844598
0.838637
0.821948
0.787973
0.724792
1.001954
1.013875
0.894666
1.031756
1.014471
1.086593
1.131892
1.176596
1.136661
1.039505
1.258850
1.205802
1.157522
1.284480
1.423955
1.500845
1.547933
1.494884
1.643896
1.600981
1.677871
1.904964
2.029538
2.148747
2.226830
2.371669
2.632737
2.983809
3.221631
3.962517
7.950664
49.868822
136.016011
379.322767
706.479549
1015.794873
1015.794873
1015.794873
1015.794873
1015.794873
1015.794873
1015.794873
1015.794873
931.591988
552.307963
237.509608
110.342503
32.756925
15.936494
13.068914
13.697743
17.490983
22.236705
32.706857
44.821501
64.561963
78.157783
93.853474
102.815628
104.181767
98.162889
85.819960
72.277784
55.865645
43.416619
31.617880
25.252700
20.551682
19.506812
18.444657
18.233657
18.441677
18.421412
18.154979
17.870665
18.166900
18.148422
17.987490
18.059611
17.835498
17.375946
17.761588
##ZVALUE=330
0.723600
0.672936
0.563860
0.824928
0.902414
0.803471
0.725985
0.767708
0.844598
0.759959
0.787973
0.777841
0.593662
0.695586
0.970960
0.763535
0.997782
0.922680
0.879765
1.007915
0.948906
0.979900
1.022816
1.026988
1.090765
1.149774
1.051426
1.156926
1.143813
1.331568
1.295805
1.444817
1.379848
1.471639
1.516938
1.653433
1.533628
1.925826
1.942515
1.981854
2.259612
2.351999
2.566576
2.739429
3.077984
3.446937
4.433990
21.241903
71.332455
233.684778
466.699600
954.761505
1015.793681
1015.793681
1015.793681
1015.793681
1015.793681
1015.793681
1015.793681
1015.793681
771.923661
342.352986
166.083574
55.126548
22.380948
12.635589
12.349486
14.151931
16.521811
22.993684
31.335950
45.387745
59.441924
77.491999
88.169575
97.941756
98.936558
91.901422
83.432794
67.707896
54.758787
39.282441
32.194853
25.697947
21.395683
19.486547
18.718839
18.216968
17.879605
17.834902
17.369986
17.106533
17.302632
17.248988
17.198920
17.134547
##ZVALUE=335
0.794530
0.683665
0.573993
0.632405
0.592470
0.667572
0.764728
0.699759
0.702739
0.741482
0.736713
0.797510
0.859499
0.755787
0.840425
0.808835
0.731945
0.812411
0.710487
0.722408
0.827909
0.834465
0.896454
0.955462
1.133680
1.118779
0.959635
1.049638
1.117587
1.205802
1.152754
1.084805
1.300573
1.264811
1.379848
1.320839
1.424551
1.417994
1.502633
1.583695
1.738667
1.816750
1.814961
1.945496
2.105832
2.729893
2.721548
3.147721
3.410578
9.286404
34.841895
141.061544
300.049782
687.058568
1015.793681
1015.793681
1015.793681
1015.793681
1015.793681
1015.793681
1015.793681
1015.793681
980.257988
517.705679
265.540481
85.753798
32.405853
14.060736
12.987852
12.909770
14.434457
17.234683
22.181869
32.296777
42.609572
58.438778
71.149468
83.660483
90.926886
92.282891
88.074803
74.886680
65.708756
52.595735
42.477846
31.997561
25.917888
21.757483
19.253492
18.232465
17.363429
16.932487
17.164946
16.982555
16.531944
17.148852
##ZVALUE=340
0.586510
0.711679
0.642538
0.496507
0.559688
0.517964
0.561476
0.590682
0.607967
0.571609
0.698566
0.784993
0.587702
0.825524
0.832677
0.704527
0.823736
0.900626
0.653863
0.714660
0.727773
0.851750
0.843406
0.757575
0.872612
0.830889
0.857711
0.899434
0.836849
1.069903
1.199841
1.006722
1.185536
1.069903
1.288652
1.190901
1.167655
1.382828
1.284480
1.200438
1.507998
1.420975
1.656413
1.605749
2.038479
2.123713
2.191663
2.404451
2.606511
2.980828
3.204942
4.933476
17.714500
91.547966
226.490498
569.650531
956.285596
1015.793681
1015.793681
1015.793681
1015.793681
1015.793681
1015.793681
1015.793681
1015.793681
638.820529
358.775854
144.240856
54.656863
16.544461
13.516545
13.609529
13.571978
15.082955
16.900897
22.823811
29.459596
41.530728
53.462982
68.146586
78.669786
87.022781
86.155534
82.182884
74.970722
61.809421
52.088499
39.753914
32.869577
25.344491
21.094680
18.165708
17.030835
16.551614
16.599894
16.100407
##ZVALUE=345
0.565648
0.605583
0.555515
0.612736
0.616908
0.673532
0.642538
0.779629
0.701547
0.646710
0.791550
0.527501
0.764728
0.706911
0.803471
0.649691
0.674725
0.721812
0.779629
0.890493
0.764728
0.867844
0.939965
0.802875
0.804663
0.880957
0.927448
0.935793
1.011491
0.987649
0.962615
0.974536
1.089573
1.058578
1.193881
1.250505
1.202822
1.223683
1.326799
1.375675
1.571774
1.517534
1.608729
1.712441
1.766682
1.699924
1.803637
2.066493
2.104640
2.514720
2.554655
3.061891
3.243685
3.759861
8.637905
57.507753
164.277554
450.116396
817.350745
1015.793681
1015.793681
1015.793681
1015.793681
1015.793681
1015.793681
1015.793681
1015.793681
910.387635
500.963926
190.511942
83.208680
25.580525
15.480518
13.858676
13.609529
13.541579
14.296770
16.483665
20.372868
28.652549
37.789941
52.084923
61.535835
71.878433
77.915788
81.493855
78.385472
70.431828
61.743855
49.786568
40.701628
30.232668
24.526715
20.522475
18.055439
16.067624
##ZVALUE=350
0.415444
0.491738
0.500679
0.312924
0.397563
0.389814
0.543594
0.558496
0.562668
0.490546
0.569820
0.596642
0.438690
0.616908
0.630617
0.695586
0.698566
0.603795
0.760555
0.708699
0.814795
0.829697
0.804663
0.876784
0.637770
0.811815
0.823736
0.738502
0.636578
0.820756
0.949502
0.928640
0.905991
1.055598
1.036525
1.045465
0.894666
0.943542
1.029968
0.958443
1.213551
1.293421
1.259446
1.274943
1.315475
1.523495
1.652837
1.744628
1.684427
1.933575
2.124906
2.111793
2.489686
2.823472
3.007650
3.655553
5.123615
28.038025
93.691945
310.154557
605.297685
1015.629768
1015.629768
1015.629768
1015.629768
1015.629768
1015.629768
1015.629768
1015.629768
1015.629768
695.410967
303.840637
134.144425
35.011768
16.528964
13.195872
12.760758
12.322664
12.533665
13.171434
15.383959
20.250678
25.784969
34.658909
43.881536
55.997968
64.347982
72.497725
74.462891
72.418451
67.273974
56.538582
48.230886
37.295818
30.588508
23.765564
##ZVALUE=355
0.802875
0.793934
0.847578
0.697970
0.845790
0.802875
0.796914
0.869632
0.745654
0.884533
0.780821
0.919700
0.865459
0.907779
0.819564
1.071692
0.778437
0.911951
0.829697
0.904799
0.941753
0.988841
0.927448
1.171827
0.953674
0.992417
0.953674
1.041889
1.031756
1.170635
1.003742
1.238585
1.208782
1.171827
1.186728
1.140833
1.233816
1.357794
1.307726
1.202822
1.359582
1.372695
1.487732
1.373887
1.570582
1.648664
1.613498
1.660585
1.807809
2.141595
1.993775
2.212524
2.255440
2.593994
2.747774
2.957582
3.431439
3.831983
4.437566
13.172626
50.150752
198.416710
412.982702
906.797647
1015.793681
1015.793681
1015.793681
1015.793681
1015.793681
1015.793681
1015.793681
1015.793681
966.660380
421.784520
186.530948
51.617622
20.983815
13.414621
12.802482
12.157559
12.388825
12.533665
13.357997
15.120506
17.916560
23.698807
30.554533
40.328503
48.827529
58.424473
64.049959
68.464875
67.013502
60.655475
55.013895
44.832826
##ZVALUE=360
0.698566
0.694990
0.804663
0.880957
0.704527
0.825524
0.785589
0.896454
0.719428
0.766516
0.745654
0.790954
0.762939
0.777841
0.817776
1.013875
0.763535
0.856519
0.890493
0.872612
1.062751
0.877976
0.903606
0.931621
1.007915
0.931621
0.990629
0.991821
0.936985
1.150966
1.080632
1.204610
1.127720
1.235604
1.184940
1.295805
1.362562
1.142621
1.206994
1.338720
1.311898
1.346469
1.502633
1.463890
1.537800
1.519918
1.396537
1.486540
1.532435
1.571774
1.979470
1.982450
2.190471
2.408624
2.348423
2.487898
2.837777
2.932549
3.366470
3.650784
3.994703
6.372929
20.013452
97.199678
246.054530
617.244840
989.564657
1015.793681
1015.793681
1015.793681
1015.793681
1015.793681
1015.793681
1015.793681
1015.793681
618.761778
317.955613
107.346773
36.419630
13.434887
11.970997
11.740923
11.518598
11.374950
11.249781
12.079477
12.675524
15.624762
18.910766
25.851727
32.655597
43.383837
50.037503
57.678819
60.807467
61.503649
##ZVALUE=365
0.610948
0.672936
0.741482
0.571609
0.697970
0.814795
0.661612
0.764728
0.876784
0.716448
0.620484
0.656843
0.732541
0.718832
0.870824
0.968575
0.995994
0.845790
0.874996
0.908971
0.998974
0.883937
0.996590
0.827909
0.797510
0.835657
0.836849
0.850558
1.034737
0.927448
1.087785
0.991821
0.949502
1.019835
1.134872
1.018643
1.086593
1.092553
1.192689
1.114607
1.023412
1.209974
1.183748
1.267791
1.407862
1.368523
1.473427
1.524687
1.463890
1.450777
1.552701
1.647472
1.894832
1.837611
2.083778
1.957417
2.248883
2.341866
2.543926
2.692938
2.815723
3.392696
3.787875
4.422665
8.332729
47.567487
139.583349
406.717658
760.075450
1015.793681
1015.793681
1015.793681
1015.793681
1015.793681
1015.793681
1015.793681
1015.793681
744.193792
415.532589
156.705976
61.288476
16.495585
11.205673
10.639429
10.427833
10.260940
10.142922
10.358691
10.217428
11.262894
12.863874
16.893744
21.192431
28.547645
35.509467
44.803619
##ZVALUE=370
0.649691
0.672936
0.821948
0.785589
0.720620
0.684857
0.769496
0.630617
0.662804
0.656843
0.614524
0.720620
0.805855
0.689626
0.803471
0.863671
0.751615
0.714660
0.719428
1.015663
0.721812
0.838637
0.844598
0.702739
0.935793
0.868440
0.870824
1.020432
0.897646
0.858903
0.904799
0.958443
0.869632
0.841618
0.987649
0.932813
1.023412
0.962615
0.947714
1.072884
1.020432
1.153946
1.026988
1.094937
1.189709
1.039505
1.315475
1.231432
1.482964
1.476407
1.466870
1.673698
1.534820
1.611710
1.606941
1.759529
1.698732
1.880527
2.049804
2.065897
2.458692
2.595782
2.838969
3.152490
3.205538
3.782511
5.806684
20.475984
116.140842
287.029743
687.865019
1015.793681
1015.793681
1015.793681
1015.793681
1015.793681
1015.793681
1015.793681
1015.793681
937.655568
424.029827
215.660930
75.570941
29.652715
11.502504
9.998679
9.694695
9.483695
9.492636
9.203553
9.388924
9.237528
10.557771
11.620522
15.048981
18.853545
##ZVALUE=375
0.759959
0.614524
0.592470
0.648499
0.711679
0.589490
0.664592
0.486970
0.691414
0.619888
0.647902
0.646710
0.526905
0.748634
0.673532
0.676513
0.674725
0.833869
0.693798
0.753999
0.751615
0.827909
0.637770
0.752807
0.624657
0.710487
0.657439
0.775456
0.806451
0.813603
0.862479
0.766516
0.911951
0.931621
0.889897
0.863671
0.840425
0.927448
0.986457
0.929832
1.046658
0.900626
1.044869
0.955462
1.046658
1.031756
0.958443
1.091957
1.060963
1.314878
1.181960
1.189709
1.354814
1.411438
1.390576
1.416802
1.603961
1.548529
1.746416
1.751781
1.693964
1.956820
2.012849
2.060533
2.168417
2.542734
2.853870
3.386736
4.115701
12.138486
43.946505
166.861415
365.660787
838.222504
1015.791893
1015.791893
1015.791893
1015.791893
1015.791893
1015.791893
1015.791893
1015.791893
720.433593
344.150662
164.426565
45.987964
16.438961
9.189844
8.809566
8.536577
8.302927
8.360744
8.381605
8.254647
8.623600
9.026527
##ZVALUE=380
0.439882
0.308752
0.460744
0.392795
0.198483
0.344515
0.474453
0.397563
0.408888
0.439882
0.301600
0.440478
0.393987
0.398755
0.378489
0.323653
0.371933
0.441670
0.343919
0.412464
0.497699
0.384450
0.497699
0.500679
0.457764
0.451803
0.463724
0.498891
0.601411
0.521541
0.456572
0.526905
0.436902
0.574589
0.592470
0.603795
0.490546
0.592470
0.597835
0.612736
0.648499
0.835657
0.661612
0.819564
0.680685
0.703931
0.607967
0.713468
0.768900
0.859499
0.881553
1.091957
0.957847
0.951886
0.967979
0.921488
1.083612
1.171827
1.106858
1.183748
1.384616
1.374483
1.540780
1.682639
1.691580
1.778603
2.084970
2.492666
2.900958
3.485680
4.031658
7.480979
31.958818
159.232616
347.737670
757.966638
1015.591025
1015.591025
1015.591025
1015.591025
1015.591025
1015.591025
1015.591025
1015.591025
973.001719
487.375855
240.652561
77.462792
27.876496
10.192990
8.252859
7.886887
7.716417
7.586479
7.457733
7.564425
##ZVALUE=385
0.494719
0.555515
0.505447
0.564456
0.560880
0.652671
0.609756
0.394583
0.527501
0.496507
0.653863
0.554919
0.647902
0.631809
0.708699
0.499487
0.665784
0.657439
0.680685
0.613928
0.590682
0.522733
0.592470
0.672936
0.683665
0.814795
0.730753
0.676513
0.814795
0.704527
0.792742
0.638962
0.773668
0.771880
0.607967
0.786781
0.598431
0.765920
0.787973
0.735521
0.819564
0.796914
0.638962
0.733733
0.862479
0.880957
0.921488
0.944734
0.954866
0.930429
0.922680
0.989437
0.905991
1.188517
0.979900
1.043677
1.157522
1.112819
1.068711
1.325607
1.352429
1.496673
1.307726
1.398921
1.641512
1.823902
1.853704
2.124906
2.335906
2.719760
2.899766
3.366470
3.710985
4.542470
13.522506
86.925626
232.486725
583.395958
969.228745
1015.802622
1015.802622
1015.802622
1015.802622
1015.802622
1015.802622
1015.802622
1015.802622
642.290711
357.719660
139.711499
52.639842
12.621880
8.103848
7.584691
7.313490
6.962419
##ZVALUE=390
0.478625
0.603795
0.495911
0.654459
0.582933
0.388622
0.711679
0.414848
0.584722
0.467896
0.552535
0.555515
0.454783
0.521541
0.508428
0.654459
0.455976
0.687838
0.538826
0.570416
0.514984
0.565648
0.550747
0.771880
0.580549
0.558496
0.666976
0.616908
0.651479
0.679493
0.645518
0.672936
0.596642
0.649691
0.744462
0.656843
0.742674
0.531673
0.703931
0.822544
0.665784
0.824928
0.896454
0.642538
0.832677
0.866652
0.866652
0.972748
0.779629
0.764728
0.796914
0.921488
0.972748
0.927448
0.822544
0.829697
1.019835
1.038909
1.127720
1.166463
1.349449
1.246929
1.326799
1.207590
1.452565
1.625419
1.736879
2.038479
2.115965
2.663732
2.591610
2.784729
2.862811
3.050566
3.276467
3.588796
7.502437
50.089955
154.264569
450.767875
822.094679
1015.807986
1015.807986
1015.807986
1015.807986
1015.807986
1015.807986
1015.807986
1015.807986
924.407840
531.402826
208.372474
89.956522
21.803975
9.263754
7.133484
##ZVALUE=395
0.469685
0.419617
0.517964
0.473857
0.541806
0.485778
0.386834
0.549555
0.402927
0.525713
0.455976
0.368953
0.528693
0.402927
0.517964
0.483990
0.538826
0.404716
0.485778
0.574589
0.485778
0.556707
0.546575
0.632405
0.652671
0.611544
0.525713
0.785589
0.637770
0.510812
0.557899
0.710487
0.661612
0.729561
0.687838
0.595450
0.681877
0.660419
0.722408
0.692606
0.756979
0.617504
0.760555
0.782609
0.709891
0.791550
0.829697
0.888705
0.740886
0.788569
0.803471
1.050830
0.924468
0.967979
0.975728
0.963807
0.859499
1.041889
1.042485
1.128912
1.152754
1.302958
1.273751
1.433492
1.306534
1.531839
1.577735
1.955628
2.044439
2.264977
2.415776
2.771616
2.644658
2.819896
2.941489
2.940893
2.990961
3.563762
4.423857
25.441647
104.280710
367.597938
682.834983
1015.794873
1015.794873
1015.794873
1015.794873
1015.794873
1015.794873
1015.794873
1015.794873
1015.794873
704.020858
299.846530
135.698915
39.214492
##ZVALUE=400
0.503659
0.269413
0.522733
0.493526
0.628829
0.375509
0.410676
0.436902
0.486970
0.370741
0.579953
0.581741
0.497699
0.564456
0.574589
0.488758
0.392795
0.411868
0.356436
0.438690
0.667572
0.504851
0.545979
0.732541
0.635982
0.658631
0.550747
0.570416
0.638962
0.496507
0.555515
0.686646
0.603795
0.707507
0.612736
0.750422
0.763535
0.742674
0.736713
0.720620
0.815988
0.645518
0.488758
0.842810
0.865459
0.907779
1.028776
0.902414
0.768900
0.830889
0.807643
0.881553
0.862479
0.801682
0.932813
1.077652
1.000762
1.098514
0.950694
1.064539
1.089573
1.140833
1.268983
1.242757
1.278520
1.460910
1.595616
1.716614
1.856685
2.256632
2.319813
2.379417
2.155900
2.345443
2.286434
2.488494
2.703667
2.749562
2.914667
3.286600
3.955960
9.780526
35.742521
147.529840
343.782902
826.959014
1015.793681
1015.793681
1015.793681
1015.793681
1015.793681
1015.793681
1015.793681
1015.793681
903.427601
449.786782
##END
