##TITLE=FQP00352
##FORMAT=SPECTACLE-ASCII V-1.2
##DATA TYPE=ULTRAVIOLET SPECTRUM
##SECOND TYPE=ULTRAVIOLET SPECTRUM
##DATE=10/24/17
##TIME=13:16:16
##SPECTROMETER/DATA SYSTEM=SPECTACLE
##XUNITS=NM EM
##YUNITS=ENERGY
##YFACTOR=1
##FIRSTX=220
##LASTX=410
##NPOINTS=96
##3DDATA=Equidistant
##ZUNITS=NM EX
##FIRSTZ=210
##LASTZ=400
##ZPOINTS=39
##XYDATA=(Y..Y)
##ZVALUE=210
2.833605
3.072619
3.298521
3.170967
3.064871
2.716780
3.310442
3.306866
3.091693
3.645420
3.745556
3.496408
3.599524
3.794432
4.355907
4.288554
4.345775
4.123449
4.567504
4.549623
4.650950
5.159974
5.029440
4.918575
5.231500
5.446672
5.630851
6.834865
5.963445
7.134676
6.638765
7.381439
7.243752
6.859899
7.697940
7.007718
8.689761
7.433891
7.877946
7.789731
7.851720
8.473992
8.708835
8.191466
8.215904
9.634495
8.740425
9.266734
10.337830
9.240508
8.405447
9.933710
9.865761
9.562969
9.294748
10.761619
9.840727
9.928942
11.172891
11.157990
10.385513
10.482669
10.217428
12.224913
11.518598
11.433959
12.253523
13.957620
15.715957
17.891526
19.211769
24.657845
29.080510
31.697750
35.249591
34.580827
37.358999
37.624836
34.017563
34.354925
31.277537
30.043721
25.037527
21.220446
18.611550
14.252663
12.680888
11.125803
10.935664
9.466410
11.027455
10.421872
10.543466
9.996891
10.838509
10.101795
##ZVALUE=215
6.191730
5.729795
6.095767
4.753470
5.536675
4.628897
4.896522
4.292727
5.210638
5.590916
5.069971
5.276799
4.970431
4.601479
4.249811
4.219413
4.313588
4.408956
4.892945
4.392862
5.231500
6.502867
5.589724
6.081462
5.889535
6.626844
6.885529
6.631613
6.568432
8.014441
7.837415
7.585883
6.717443
8.410811
8.115768
7.489920
7.555485
9.437799
9.519458
9.204745
8.394718
9.137988
8.886456
9.160638
9.467602
9.060502
9.698868
9.768605
10.504723
11.137724
9.920597
9.845495
9.656549
10.057688
10.275841
10.258555
10.720491
10.319948
12.053847
10.867715
10.682940
11.272430
10.886788
10.941625
12.395978
11.817813
14.125705
13.606548
17.446876
19.109845
20.118952
22.146702
25.953650
30.781627
30.986667
33.138990
34.303665
33.947825
34.127831
31.246543
28.217435
25.249720
23.246408
19.118786
17.759800
16.224980
13.025999
12.323856
11.971593
11.700988
11.273623
10.953546
10.898709
11.220574
10.238886
10.759830
##ZVALUE=220
16.856790
17.342567
19.178987
21.930933
21.759868
18.602610
14.207959
11.654496
9.736419
9.831786
11.340976
10.259748
10.455847
10.322928
8.887649
8.495450
6.382465
6.250739
5.796552
5.977750
5.309582
5.106926
6.365776
5.432963
6.362796
6.597638
7.116795
7.241964
8.591413
7.710457
8.550882
8.164644
8.879900
8.765459
7.141829
8.669496
10.003448
9.546876
10.257959
9.538531
9.228587
9.297729
10.784864
9.391904
10.096431
11.125803
9.932518
10.786653
10.611415
11.222959
10.619760
11.488795
11.434555
12.550950
12.305975
12.467504
12.323856
13.000965
12.055635
13.217926
11.553764
12.240410
13.191700
12.220740
12.066960
13.239980
13.645887
14.602542
15.846491
20.283461
22.523999
25.862455
29.909611
31.340718
33.094883
36.532879
37.249923
34.222603
34.271479
32.902956
30.259490
28.075576
24.522543
21.934509
19.934773
16.970634
15.069842
13.324618
12.054443
12.329817
12.884736
11.377931
11.738539
11.107922
13.009906
12.581944
##ZVALUE=225
31.737685
33.566952
46.493411
62.390566
71.799755
79.141855
75.739622
61.911941
48.217773
33.218861
25.525689
21.605492
21.476746
22.530556
22.898912
22.793412
20.070672
16.859770
14.457703
9.830594
7.783771
6.899834
6.636977
6.063581
7.522702
6.757975
7.798672
7.461905
7.549524
9.065866
8.939505
10.003448
9.792447
9.277463
10.131598
8.593798
9.227991
10.398626
10.600686
11.089444
11.121631
10.069609
12.264848
11.360645
11.291504
11.846423
11.882782
11.541843
11.850595
12.462735
12.270808
13.377666
12.702942
13.802648
13.654828
14.786720
13.780594
15.217662
15.241504
14.361739
14.969707
14.829636
15.964508
16.096830
15.848875
16.392469
16.763806
18.248558
19.836426
22.044778
24.364591
29.185414
31.080842
32.320619
34.954548
35.734773
36.803484
36.458969
33.723712
31.139851
28.626919
27.404428
24.827719
21.886826
22.181869
19.275546
16.732812
16.452670
16.304851
15.261769
15.363693
15.332699
15.277863
14.873743
14.918447
13.453960
##ZVALUE=230
30.135512
35.094619
54.896474
100.611448
135.194659
180.859566
206.394792
223.722458
206.272006
180.495977
126.465559
92.046857
59.541464
41.561723
42.676926
42.732954
45.330524
45.472980
41.990876
34.104586
28.645992
19.057989
13.781786
10.134578
8.077621
9.183884
9.005666
8.229613
8.747578
8.873940
8.843541
9.310842
9.675622
10.812879
10.890961
12.214780
11.811852
12.066960
12.041926
11.156797
13.351440
12.185574
10.895729
13.178587
14.107823
14.627576
15.010834
14.209747
16.072989
15.186667
16.877651
16.914606
15.942454
17.459989
16.137958
17.674565
15.982985
17.521977
18.245578
19.574761
19.060969
18.997788
20.666718
19.557476
21.299720
21.054745
22.200942
23.004413
24.796724
26.946664
29.381514
33.381581
35.299659
37.365556
38.452744
40.742755
40.144920
37.084818
39.469600
35.698414
33.913851
30.609965
29.820800
25.159717
26.559830
23.940802
22.839904
20.854473
20.983815
20.539761
19.769669
20.979643
19.515753
20.600557
19.746423
18.173456
##ZVALUE=235
12.511611
13.884902
32.863617
78.316927
129.500628
215.645432
295.881629
396.927595
453.722477
462.225676
442.302823
371.412635
255.208611
186.648965
119.317770
86.179972
70.010424
70.874691
78.330636
79.362988
76.705813
64.919591
54.189563
35.731792
27.647614
17.191768
13.967752
10.849833
10.289550
9.916425
9.849668
10.624528
10.741949
11.627674
10.217428
10.629892
11.681914
11.882782
13.667941
13.365746
14.826655
13.764501
15.511513
14.741421
15.914440
13.717413
15.060902
17.099977
15.516877
17.544627
17.858744
17.769933
17.393827
20.427704
18.400550
20.266771
22.431612
21.959543
20.904541
23.002625
23.104548
23.555756
25.509596
23.967624
23.589730
24.557710
25.966763
29.420853
28.754473
34.247637
36.554933
38.650632
41.046739
45.655966
47.289729
45.136809
44.724941
45.131445
41.499734
42.524934
40.056705
37.484765
34.194589
33.206940
29.662848
29.746890
29.738545
28.912425
28.399825
27.234554
26.409626
25.879741
26.361942
27.010441
25.650859
24.503469
##ZVALUE=240
2.988577
3.264546
5.415678
19.345880
43.837428
111.837983
192.042589
348.982811
480.274558
653.097034
749.228001
776.360631
709.669590
617.082715
458.636880
322.479606
192.124844
137.923956
101.183653
100.534558
110.746622
113.574862
109.253526
96.634626
87.438822
67.710876
50.237775
33.140779
21.960735
16.841888
14.032722
12.064576
11.835694
11.775494
10.931492
12.731552
12.660623
14.266968
11.426806
13.852715
13.530850
14.442801
15.517473
17.590523
17.358661
16.722679
17.951727
17.271638
18.962622
20.524859
21.519661
20.871758
21.486878
22.914410
22.567511
24.039745
23.771524
25.854707
25.321841
25.024414
26.305914
27.510524
28.473735
27.740598
29.630661
29.716492
30.174851
32.976866
34.799576
37.871599
39.177537
40.474534
43.805838
48.765540
49.098730
49.270988
50.674677
48.618913
47.436953
44.992566
43.524504
39.069653
39.256811
39.869547
35.878420
35.845637
33.385754
33.788681
33.829808
32.647848
32.879710
30.409694
31.036735
31.520724
30.717850
31.931996
##ZVALUE=245
2.707839
2.574921
2.479553
3.057718
5.066991
13.641715
42.510629
94.093680
213.769674
343.253613
564.882755
733.755827
869.360566
950.160027
933.483839
794.620514
650.888681
449.267626
312.427878
176.107883
123.042464
102.615952
111.300945
123.855472
126.715899
126.640797
110.347867
95.312595
73.567629
55.257678
40.019751
26.901960
18.793941
13.956428
12.146831
10.634661
11.800528
12.935996
12.641549
12.978911
14.613867
15.102625
13.571978
15.807748
15.665889
17.364621
18.319488
17.044544
17.971992
18.477440
19.699931
21.046996
21.500587
21.691918
21.403432
21.935701
22.478700
24.154782
23.074746
25.580525
25.207996
25.493503
25.293827
27.230978
26.335716
28.150678
27.585626
29.433966
30.184984
33.065677
34.717917
37.548542
38.860440
39.948821
40.163994
43.507814
41.601658
43.440461
40.079951
39.190650
39.820671
36.524534
36.922693
35.111904
34.683943
31.498671
31.749606
31.062961
31.389594
31.213760
31.457543
29.965639
28.787851
29.836893
29.215813
30.183792
##ZVALUE=250
2.320409
2.024770
2.215505
2.604723
2.724528
2.501607
3.203750
10.817647
28.956532
86.708665
176.330805
362.832546
545.639992
806.624889
975.767970
1015.787721
1015.787721
1014.691591
877.237916
610.858798
427.655578
283.215642
150.777698
107.022524
105.297565
119.871497
134.874582
140.123963
133.827925
124.323964
96.047521
79.885721
59.567690
38.904548
27.206540
17.057657
13.509989
13.340712
11.841655
12.598634
13.083816
13.158917
14.416575
15.566945
16.702414
16.170740
17.002821
16.590953
16.554594
20.025969
19.225478
19.606948
20.368695
20.179749
21.856427
22.203922
21.505952
21.098852
22.622943
21.123886
23.666620
22.307634
22.550821
21.959543
22.210479
24.512410
24.490952
25.818944
25.617480
27.660728
31.255484
32.212734
32.732487
36.738515
35.591722
37.445426
39.181709
36.879778
36.140680
35.815835
33.920407
33.416748
31.685829
32.236576
31.524897
32.191873
28.918982
29.605627
28.476715
28.975606
27.973652
27.659535
28.137565
27.768612
28.899908
29.436946
##ZVALUE=255
1.686811
1.948476
1.851916
2.301931
2.105832
2.393723
2.311468
2.542734
2.774596
5.610585
27.386546
68.360567
140.331984
320.351720
503.459573
812.563896
1001.020670
1015.790701
1015.790701
1015.790701
1015.790701
873.171687
547.991991
353.956819
180.965662
116.673708
94.406605
104.599595
124.917626
135.657787
144.796968
143.980980
127.506852
104.893446
84.024668
58.912635
40.703416
25.833845
18.717647
14.522672
13.705492
13.235807
13.199449
14.782548
13.752580
15.461445
15.454888
16.584992
17.239451
17.748475
17.398000
17.165542
17.476678
18.154979
18.456578
19.170642
18.210411
19.409657
18.727779
19.728541
19.484758
19.189715
19.762516
19.793510
20.404458
21.166801
20.080805
21.569729
21.730661
23.853779
24.116635
27.991533
29.040575
30.318499
30.532479
30.653477
31.352639
30.748844
29.638410
29.254556
27.960539
27.410984
28.593540
26.040673
27.397871
26.632547
27.690530
25.743842
26.493669
25.077462
25.499463
26.238561
24.685860
25.160909
26.588440
26.106834
##ZVALUE=260
1.808405
1.971722
1.826882
1.795888
1.878738
2.112985
2.249479
2.604723
2.391934
2.890825
2.957582
4.643798
13.417602
56.020617
123.207569
231.035948
477.064848
719.994903
1015.793681
1015.793681
1015.793681
1015.793681
1015.793681
1015.793681
906.844735
513.817668
319.697857
158.448815
106.619000
90.510845
100.957751
128.639936
141.064525
152.182579
148.819685
132.387877
112.611651
82.563758
62.894821
38.947463
28.007627
18.962622
15.026927
13.540983
13.626814
14.122725
14.201999
14.119744
15.368462
15.112758
16.257763
15.813708
17.002821
15.281439
16.595721
16.760826
17.154813
16.194582
17.437935
16.706586
16.856790
17.143488
16.951561
16.949773
17.429590
18.481612
17.418861
18.761754
20.405650
21.655560
22.947788
23.150444
25.832653
26.480556
26.988983
26.868582
27.389526
26.989579
27.606487
25.703907
25.744438
25.156736
25.192499
25.156736
23.336411
24.223924
23.063421
23.500919
22.743940
24.292469
23.584962
24.179816
24.317503
24.014711
24.381876
24.540424
##ZVALUE=265
1.598597
1.554489
1.801848
1.544952
1.726747
1.615882
1.995564
1.926422
2.086759
2.070665
2.550483
2.214909
2.594590
2.856851
5.913973
32.874942
81.232786
212.547779
383.461714
724.941492
998.225808
1015.793681
1015.793681
1015.793681
1015.793681
1015.793681
982.992649
713.448524
398.295522
232.179761
132.617950
81.131458
83.486438
109.575987
131.076574
151.361823
157.460570
150.115490
134.854913
107.161999
87.713003
58.701634
43.387413
27.479529
19.871593
15.629530
14.259815
13.918877
14.108419
14.181733
14.624596
15.761852
14.562607
15.134811
15.014410
15.201569
16.055703
16.648769
16.397834
15.967488
16.283989
16.099811
15.922785
15.808940
16.502738
16.857982
16.859770
17.670989
18.889904
19.732714
19.526482
21.878481
22.852421
24.636984
24.562478
24.336576
24.293661
24.479628
23.288727
23.782849
23.442507
22.355914
22.463799
22.102594
21.624565
22.361875
22.462606
22.477508
22.234917
22.856593
22.327900
21.895766
21.348596
21.615624
22.715926
22.838712
##ZVALUE=270
1.555681
1.634955
1.584888
1.639724
1.633763
1.732707
1.650453
1.890659
1.543760
1.948476
1.968741
2.167821
2.071857
1.960993
2.269745
2.770424
3.288984
13.798475
43.064952
143.723488
293.205380
535.587668
964.526534
1015.800834
1015.800834
1015.800834
1015.800834
1015.800834
1015.800834
978.789926
683.736801
346.517563
189.408660
85.680485
68.836808
87.790489
108.569860
133.185983
148.893595
156.976581
152.416825
133.324862
115.812421
86.382627
64.318776
41.851997
30.343533
20.700693
16.208887
14.404655
13.855696
13.497472
14.059544
14.569759
14.351606
15.079975
15.065670
14.514923
14.460683
15.453696
14.534593
14.671683
15.487671
15.408993
15.837550
16.084909
16.130805
16.518831
16.631484
18.933415
18.752813
19.847751
20.594001
21.414757
21.730661
22.411942
21.842718
22.751689
21.736622
21.677613
20.873547
20.669699
21.173954
19.434690
20.543933
19.876957
19.804835
19.805431
20.441413
19.714832
20.438433
19.934773
20.705462
20.097494
20.309687
20.705462
##ZVALUE=275
1.342893
1.405478
1.410842
1.534820
1.477599
1.578927
1.606941
1.651645
1.647472
1.917481
1.842976
1.628995
1.733899
1.864433
1.969934
2.029538
2.356768
2.863407
2.974868
6.663799
24.337769
67.217946
209.750533
410.227776
817.750692
1015.793681
1015.793681
1015.793681
1015.793681
1015.793681
1015.793681
1015.793681
961.796045
520.529747
294.862986
120.675564
69.946647
63.720942
80.686808
110.162497
131.191611
151.049495
155.588984
149.678588
136.058927
109.462738
88.510513
62.720776
48.026443
29.913783
21.682978
17.191768
14.679432
14.611483
14.591813
13.637543
14.043450
15.031695
14.653802
15.312433
14.869571
15.044808
15.360713
15.256405
15.643835
15.944839
16.417503
16.731620
16.371608
17.513633
18.439889
19.655824
20.657778
21.318793
20.864606
21.579862
20.990968
21.522641
20.289421
20.629764
19.860864
19.371510
19.548535
18.252730
19.173622
18.578768
18.413663
18.469691
18.813610
18.375516
19.119978
17.791986
18.156767
19.075871
18.496513
18.284917
##ZVALUE=280
1.323819
1.472831
1.407862
1.387596
1.234412
1.523495
1.125932
1.454949
1.481771
1.144409
1.673698
1.639724
1.641512
1.720786
1.840591
1.915693
1.917481
2.263784
2.426505
2.645850
2.733469
3.314614
15.773773
53.118467
169.317722
325.134397
629.667640
962.781906
1015.819907
1015.819907
1015.819907
1015.819907
1015.819907
1015.819907
1015.819907
691.582561
413.574576
178.243518
82.648993
49.059987
58.696866
84.018707
107.464790
132.931471
146.656632
152.119994
145.780444
128.165483
113.850832
83.695650
64.903498
44.217706
31.144619
21.751523
16.991496
14.989972
14.962554
14.780760
14.409423
14.378428
14.505982
14.966726
15.149713
15.525818
14.880896
16.118884
16.374588
17.034411
16.444921
17.099977
18.025637
19.300580
19.878745
20.301938
20.770431
20.749569
20.346642
20.509958
20.533800
19.755960
19.464493
19.035935
17.878413
18.284917
18.009543
18.210411
17.340779
18.004775
18.184781
18.100739
17.882586
18.476844
18.245578
17.737746
18.099546
18.639565
##ZVALUE=285
1.148582
1.128912
1.094937
0.995994
1.221895
1.259446
1.340508
1.316667
1.224875
1.127720
1.284480
1.370907
1.575947
1.443624
1.532435
1.504421
1.477599
1.798868
1.776814
2.141595
2.140999
2.477765
2.566576
2.961755
7.012486
37.507415
93.024969
244.004726
435.471535
804.563761
1015.793681
1015.793681
1015.793681
1015.793681
1015.793681
1015.793681
1015.793681
857.681036
537.582636
246.901512
119.693875
48.660636
39.958954
57.312846
75.616837
105.164647
123.321414
142.641664
149.608850
143.236518
132.623911
111.351609
90.895891
63.806772
46.549439
30.442476
22.925735
17.974973
15.733838
15.226603
15.508533
14.978647
15.166998
15.471578
15.630722
15.718937
16.698837
16.638637
17.046928
17.539859
17.920732
18.680692
19.924641
19.585490
19.950867
19.642711
19.457936
19.888878
19.211769
18.626451
18.724799
18.086433
17.998815
17.557740
18.381476
18.516779
17.084479
17.878413
17.821789
17.402768
17.577410
17.334819
16.980767
17.113686
17.195940
16.367435
##ZVALUE=290
0.887513
0.959635
1.134872
1.086593
0.954866
1.120567
1.179576
1.241565
1.357794
1.198649
1.221895
1.200438
1.460910
1.398921
1.360774
1.226664
1.388788
1.614690
1.584888
1.835823
1.873970
1.936555
2.032518
2.436638
2.519488
2.973676
4.121661
12.837648
62.223673
145.910978
289.319754
616.686940
957.306623
1015.793681
1015.793681
1015.793681
1015.793681
1015.793681
1015.793681
1008.749604
708.046556
358.404517
181.023479
63.548684
33.851862
37.117600
51.042438
73.052645
94.847679
118.570924
135.609508
145.105720
144.510865
131.455660
111.095905
86.025596
65.796971
45.702457
33.423901
23.789406
19.362569
16.752481
15.883446
16.381741
15.425682
16.006827
16.176701
17.374754
16.974807
17.579794
18.428564
19.082427
18.889904
19.033551
19.712448
19.282699
19.473433
18.483996
18.738508
18.796921
18.013716
18.227696
17.928481
17.977953
17.585754
17.885566
17.852783
17.045736
16.741753
17.217994
16.852617
16.917586
16.258955
16.513467
16.168952
15.601516
##ZVALUE=295
1.019835
1.167655
1.112819
0.986457
1.056790
1.085997
0.821948
0.907779
1.184940
1.153946
1.076460
1.258850
0.961423
1.199841
1.298785
1.266599
1.412630
1.495481
1.422763
1.462698
1.645684
1.687407
1.774430
1.866817
2.282858
2.125502
2.663732
3.049970
3.301501
6.085634
23.918748
104.767680
241.404772
566.715002
910.076499
1015.793681
1015.793681
1015.793681
1015.793681
1015.793681
1015.793681
1015.793681
914.231539
493.281484
269.847512
98.484755
43.098927
26.378632
33.109784
50.028563
68.322420
93.986988
111.913681
131.330490
137.966871
136.492848
126.979947
105.346441
87.037683
62.836409
47.591925
32.929778
25.564432
19.585490
17.560720
16.594529
16.628504
17.052889
17.004609
17.423630
18.082857
18.265843
19.412637
19.511580
19.603968
19.072890
19.005537
19.595623
18.614531
18.858910
18.760562
18.001795
18.354654
17.380714
17.592907
17.995834
17.496943
17.555952
17.240644
16.524792
16.670823
16.481876
16.379952
16.509891
16.338825
16.564727
##ZVALUE=300
0.807643
0.961423
1.050830
1.119971
0.951886
0.979900
1.061559
1.021624
1.061559
1.080632
1.124740
1.168847
1.136661
1.185536
1.318455
1.237988
1.343489
1.362562
1.329780
1.404881
1.448989
1.521707
1.642704
1.668930
1.785755
2.067685
1.824498
2.458692
2.438426
2.739429
3.004670
3.645420
15.183687
55.931807
193.027854
381.844640
798.532963
1015.793681
1015.793681
1015.793681
1015.793681
1015.793681
1015.793681
1015.793681
1015.793681
733.955503
375.247598
196.303725
67.257881
29.203892
23.779869
30.730963
47.610998
63.526630
86.470842
107.490420
126.839876
131.382942
133.902431
124.493837
106.118917
89.180470
65.233707
49.676895
33.946633
26.132464
20.761490
18.632412
17.705560
17.437935
18.364787
18.938780
19.279718
19.264817
20.078421
19.295812
19.328594
18.743873
18.245578
18.538833
18.293858
18.657446
18.272996
17.748475
18.107891
17.831922
17.862916
17.653704
17.192960
17.346740
16.865730
16.626716
16.326904
16.708970
15.957952
16.034842
##ZVALUE=305
0.877976
0.999570
0.889897
0.881553
0.807643
0.891685
0.957847
0.895858
0.813603
0.835657
1.033545
1.031756
1.045465
0.993609
1.082420
1.133680
1.146793
1.157522
1.305938
1.294613
1.388788
1.371503
1.514554
1.749992
1.748800
1.821518
1.839995
1.726747
2.029538
2.356768
2.457500
2.531409
2.772808
3.327727
5.970001
41.296482
121.486783
347.207785
620.784760
1015.796661
1015.796661
1015.796661
1015.796661
1015.796661
1015.796661
1015.796661
1015.796661
893.532634
550.704598
243.175626
116.292834
38.317442
21.132827
22.326708
30.342937
46.623945
62.071681
84.705949
102.839470
120.528936
127.906799
128.396749
118.409991
100.831985
83.753467
60.983896
47.763586
33.364892
26.476979
21.461844
19.818544
19.330978
18.795729
18.860698
18.705726
19.211769
18.858910
18.760562
18.421412
18.567443
18.457770
18.146634
17.946959
17.960668
18.182993
18.047690
17.438531
17.901659
17.554760
17.137527
17.578602
16.835928
17.046928
16.601682
16.536713
16.256571
##ZVALUE=310
0.761747
0.721812
0.668764
0.916719
1.050830
0.849962
0.799894
0.736713
0.955462
0.827909
0.783801
0.856519
0.968575
1.090765
1.357794
1.058578
0.960827
1.070499
1.028776
1.048446
1.222491
1.215935
1.362562
1.444817
1.339912
1.658797
1.548529
1.790524
1.778603
2.008677
2.102852
2.105832
2.223849
2.577901
2.755523
3.129840
3.827810
16.979575
60.667396
211.187601
428.952575
884.353518
1015.793681
1015.793681
1015.793681
1015.793681
1015.793681
1015.793681
1015.793681
1015.793681
770.093799
378.884673
195.927620
68.920851
28.595924
17.835498
20.821691
29.541850
39.614439
57.139993
74.130893
96.241832
110.183954
120.085478
122.399926
112.850666
99.520683
79.540610
63.907504
46.153665
36.503673
26.808977
22.914410
20.251870
18.848777
18.614531
18.216968
18.021464
18.080473
17.617941
17.951727
17.762780
18.327832
18.198490
17.687678
18.162727
17.769933
18.450618
17.429590
17.168522
17.003417
17.166734
16.682744
16.881824
16.263723
16.459823
##ZVALUE=315
0.845790
0.771880
0.666976
0.994802
0.790954
0.874996
0.819564
0.825524
0.860691
0.871420
0.857711
0.716448
1.158714
0.870824
0.996590
1.196861
1.066923
0.903606
1.056790
1.026988
1.125932
1.063943
1.137853
1.412630
1.436472
1.330972
1.619458
1.613498
1.622438
1.660585
1.807809
1.760721
1.942515
1.989603
2.261996
2.427697
2.722740
2.872944
3.617406
7.325411
30.001998
138.656497
320.534706
736.572742
1015.813947
1015.813947
1015.813947
1015.813947
1015.813947
1015.813947
1015.813947
1015.813947
989.416838
534.145832
287.693739
104.498863
43.125749
18.234849
16.633868
20.454526
26.339889
38.937926
51.587820
70.919991
86.985826
105.613470
113.877654
114.223957
108.835697
93.305707
79.484582
61.919689
48.386455
33.890605
27.205944
21.813512
19.747615
18.736720
18.294454
17.360449
17.431974
17.550588
17.326474
17.733574
17.773509
17.868876
17.724633
17.730594
17.400980
17.529726
17.158985
17.441511
16.274452
16.498566
16.822815
16.577840
##ZVALUE=320
0.751615
0.879765
0.701547
0.845790
0.745654
0.789762
0.922680
0.973940
0.928640
0.838637
1.013875
0.998974
1.040697
1.041889
1.072884
0.884533
1.070499
1.083612
1.015663
1.073480
0.993609
1.206994
1.068711
1.224875
1.160502
1.453757
1.005530
1.187921
1.622438
1.420975
1.450777
1.647472
1.729727
1.835823
1.856685
1.968741
2.148747
2.565980
2.577901
2.917647
3.052950
4.498959
14.438629
91.471672
239.269733
608.937740
974.669456
1015.793681
1015.793681
1015.793681
1015.793681
1015.793681
1015.793681
1015.793681
1015.793681
765.456557
431.615710
172.901750
74.661970
23.228526
15.032887
15.402436
17.631650
24.443865
32.648444
49.184561
63.190460
81.392527
95.460415
107.369423
108.893514
103.761554
94.485879
75.228810
61.545968
43.621659
34.134984
25.148988
21.402836
18.316507
17.507672
17.339587
17.527938
17.395616
17.460585
17.464757
17.365813
17.485619
17.288923
17.461777
17.115474
16.868711
16.803741
16.650558
17.005801
16.381741
##ZVALUE=325
0.690818
0.713468
0.856519
0.695586
0.876784
0.646710
0.826716
0.695586
0.721812
0.836849
0.835657
1.063943
0.744462
0.855923
0.828505
0.889897
0.944734
0.717640
1.019835
0.982881
0.960827
1.003742
1.009703
0.939965
1.103878
1.107454
1.285672
1.278520
1.383424
1.367927
1.498461
1.613498
1.803637
1.614690
1.636744
1.934767
1.856685
2.059937
2.086759
2.031922
2.410412
2.991557
3.142953
3.792644
7.658005
54.451823
150.830746
416.393876
757.187009
1015.793681
1015.793681
1015.793681
1015.793681
1015.793681
1015.793681
1015.793681
1015.793681
937.874913
555.596948
236.886740
111.926794
31.885505
15.848875
13.048649
13.828874
17.361641
21.765828
32.005906
44.810772
63.920617
79.701543
93.087554
102.255940
103.638768
98.020434
84.231496
71.958899
54.425597
42.418838
30.686855
24.531484
19.983649
18.458962
17.285943
17.157793
17.104745
17.446876
17.009974
16.908646
16.797781
16.858578
16.782880
16.871691
16.585588
16.513467
16.352534
##ZVALUE=330
0.737906
0.752807
0.841618
0.624657
0.822544
0.688434
0.831485
0.763535
0.863671
1.012683
0.930429
0.870824
0.785589
0.796914
0.960827
0.762939
0.679493
0.833869
0.769496
0.998974
0.839829
1.136661
1.171827
1.149774
1.094937
1.139641
1.111627
1.211762
1.381636
1.295805
1.349449
1.294613
1.383424
1.502633
1.571774
1.604557
1.603961
1.865625
1.928806
2.100468
2.245903
2.623796
2.377629
3.048778
3.375411
3.978610
4.913807
25.148988
98.110437
380.544066
777.426958
1015.793681
1015.793681
1015.793681
1015.793681
1015.793681
1015.793681
1015.793681
1015.793681
1015.793681
798.634887
360.743999
176.660419
59.700608
23.128986
13.046861
13.152957
13.686419
16.221404
23.755431
30.866861
45.123696
58.678985
77.249408
88.429451
97.690821
98.086596
90.958476
81.450939
66.214800
53.904653
39.400458
31.349659
23.770928
20.192862
18.499494
17.329454
16.853809
16.771555
16.788840
16.629696
16.155839
16.213655
16.400814
16.280413
16.065836
##ZVALUE=335
0.663996
0.676513
0.784993
0.600815
0.648499
0.600815
0.726581
0.706911
0.679493
0.637770
0.636578
0.687838
0.629425
0.690818
0.757575
0.845790
0.865459
0.709891
0.813603
0.929832
0.834465
0.752807
0.863671
0.832677
0.929832
0.967979
1.176000
1.073480
1.064539
1.170635
1.125932
1.294613
1.335740
1.179576
1.342893
1.325607
1.275539
1.520514
1.608729
1.596808
1.770854
1.702905
2.035499
1.879930
2.278686
2.565980
2.823472
3.375411
3.769994
8.620620
32.100677
136.062503
295.847654
691.853762
1015.790701
1015.790701
1015.790701
1015.790701
1015.790701
1015.790701
1015.790701
1015.790701
1015.790701
600.650907
304.490924
96.480846
36.341548
14.764667
12.710690
12.802482
14.015436
17.257929
21.582842
32.131672
41.740537
58.702826
70.714951
83.792806
90.584755
90.920925
86.331964
74.719787
65.265894
51.206946
41.465759
30.935407
25.011897
19.886494
18.375516
16.872883
16.779900
15.708804
15.685558
15.890598
15.498996
15.648603
##ZVALUE=340
0.670552
0.682473
0.662804
0.583529
0.621676
0.558496
0.614524
0.909567
0.831485
0.639558
0.693798
0.551939
0.671744
0.800490
0.711679
0.764728
0.631809
0.759959
0.824928
0.818968
0.797510
0.820756
0.741482
0.742674
0.817776
0.985861
0.899434
0.957847
1.014471
1.027584
1.064539
1.092553
1.202822
1.195669
1.495481
1.079440
1.288652
1.325607
1.450777
1.471639
1.554489
1.472831
1.768470
1.736879
1.978874
2.118945
2.095699
2.162457
2.499819
2.811551
3.157854
4.775524
14.979839
77.877641
196.406841
522.237420
929.983854
1015.797853
1015.797853
1015.797853
1015.797853
1015.797853
1015.797853
1015.797853
1015.797853
789.062381
446.061492
175.536871
64.814687
17.225742
12.725592
12.741685
13.222694
14.380813
16.354918
22.369623
29.027462
40.999651
52.996874
68.163872
77.731609
85.085630
86.129904
81.776977
74.217916
61.445832
51.500797
38.546920
31.132698
24.390817
20.343661
17.360449
15.924573
15.822649
15.368462
15.702844
##ZVALUE=345
0.500679
0.500679
0.598431
0.645518
0.678897
0.544786
0.672936
0.482798
0.407696
0.544786
0.570416
0.464916
0.487566
0.538826
0.668764
0.620484
0.667572
0.644922
0.653863
0.622869
0.666976
0.511408
0.544786
0.640750
0.815988
0.746846
0.622869
0.832677
0.735521
0.824928
0.835657
0.792742
0.798702
0.827909
0.914931
1.056790
1.085997
1.047850
1.114607
1.095533
1.236796
1.382828
1.315475
1.365542
1.475811
1.545548
1.592636
1.777411
1.853704
1.960993
2.233982
2.400875
2.773404
3.160834
7.806420
31.578541
133.690834
287.972689
660.107732
1012.132764
1015.703678
1015.703678
1015.703678
1015.703678
1015.703678
1015.703678
1015.703678
955.197811
456.308722
228.253007
73.741674
29.062629
13.884902
12.962818
12.506843
12.493730
13.103485
15.024543
20.139813
26.403666
38.631558
47.828555
61.144829
70.425868
78.641772
80.229640
77.036619
70.247650
59.226751
49.492717
38.043857
30.278563
22.777915
19.449592
16.499758
15.367866
##ZVALUE=350
0.528693
0.680685
0.752807
0.648499
0.795722
0.626445
0.510812
0.642538
0.763535
0.474453
0.548959
0.724792
0.519753
0.715852
0.705719
0.623465
0.765920
0.643730
0.593662
0.603795
0.633597
0.786781
0.854731
0.761747
0.833869
0.703931
0.861883
0.984669
0.829697
0.808835
0.852942
0.715852
0.918508
0.927448
0.937581
1.099706
1.115799
0.970960
1.061559
1.056790
0.970960
1.129508
1.355410
1.222491
1.326799
1.362562
1.542568
1.573563
1.769662
1.790524
1.910925
1.913905
2.182722
2.465844
2.629757
3.001690
4.165769
22.082925
69.679618
222.635865
428.216457
895.825624
1015.793681
1015.793681
1015.793681
1015.793681
1015.793681
1015.793681
1015.793681
996.090770
632.583499
263.816714
114.680529
31.703711
15.002489
11.810660
11.641979
11.340976
11.165738
12.578964
14.409423
19.360781
25.065541
33.387542
42.356849
55.299997
62.973499
71.307421
73.120594
71.261525
66.643953
55.377483
47.166944
35.533905
29.216409
22.834539
##ZVALUE=355
0.561476
0.608563
0.532866
0.682473
0.646710
0.648499
0.604987
0.791550
0.628829
0.656843
0.558496
0.834465
0.562668
0.474453
0.587702
0.623465
0.613928
0.692606
0.786781
0.678897
0.727773
0.877976
0.833869
0.825524
0.696778
0.844598
0.746846
0.722408
0.796914
0.816584
0.812411
0.913739
1.108646
0.950694
1.051426
0.963807
0.873804
1.161695
1.073480
0.980496
0.906587
1.014471
1.176000
1.260638
1.374483
1.218915
1.302958
1.202822
1.454949
1.586676
1.689792
1.654625
1.848936
2.055764
2.075434
2.366900
2.523661
2.803802
3.009439
9.575486
35.626888
139.811635
289.930701
630.266666
980.954766
1015.791893
1015.791893
1015.791893
1015.791893
1015.791893
1015.791893
1015.791893
780.974030
343.462825
160.377622
47.112703
18.521547
11.470914
10.999441
10.620952
10.556579
10.836720
11.510849
13.619661
16.246438
22.446513
28.361678
38.741827
47.254562
57.731867
63.915849
66.704750
66.690445
59.396625
53.198934
43.608546
##ZVALUE=360
0.719428
0.594854
0.670552
0.749826
0.734925
0.559688
0.613928
0.626445
0.633597
0.617504
0.609756
0.643730
0.645518
0.726581
0.716448
0.811815
0.716448
0.512600
0.727773
0.753999
0.977516
0.722408
0.586510
0.667572
0.903606
0.798702
0.800490
0.875592
0.819564
0.878572
0.760555
0.849962
0.936985
1.015663
0.870824
0.952482
0.872612
1.045465
0.986457
1.032948
1.077652
1.227856
1.276731
1.144409
1.114607
1.340508
1.263618
1.275539
1.399517
1.535416
1.589656
1.691580
1.587868
1.796484
1.950860
2.109408
2.215505
2.351999
2.534986
2.845526
3.119707
4.261732
19.570589
65.843463
219.809413
427.849889
847.485662
1015.795469
1015.795469
1015.795469
1015.795469
1015.795469
1015.795469
1015.796065
926.390886
557.934642
232.164860
96.723437
25.299788
12.746453
10.532737
10.549426
10.098815
9.973645
10.339618
10.826588
11.848807
14.204979
18.851757
24.058819
32.628775
40.487647
50.620437
56.346655
60.747862
60.768723
##ZVALUE=365
0.467896
0.578761
0.632405
0.602603
0.710487
0.664592
0.477433
0.542998
0.646710
0.568628
0.589490
0.834465
0.645518
0.711679
0.610948
0.745654
0.771880
0.567436
0.604987
0.684857
0.776649
0.674725
0.725985
0.773668
0.762939
0.845790
0.950694
0.790954
1.094937
0.786781
0.793934
0.963807
0.809431
0.964999
0.955462
0.982881
1.022816
0.972748
1.041889
0.986457
1.138449
1.151562
1.201630
1.247525
1.057982
1.207590
1.091957
1.400709
1.369715
1.405478
1.455545
1.346469
1.532435
1.576543
1.833439
1.751781
2.014637
1.869798
2.175570
2.429485
2.597570
2.799630
3.097653
3.672838
9.795427
36.652684
140.360594
309.626460
736.122727
1015.793681
1015.793681
1015.793681
1015.793681
1015.793681
1015.793681
1015.793681
1015.793681
731.159449
321.104527
147.855878
39.507747
15.931726
10.318756
9.808540
9.725690
9.287000
9.408593
9.192824
9.581447
10.580420
12.740493
15.403628
21.375418
27.660728
36.409497
43.003559
##ZVALUE=370
0.610948
0.675917
0.752807
0.719428
0.733733
0.638962
0.619888
0.731945
0.588894
0.653863
0.652671
0.692606
0.715852
0.706911
0.702739
0.618696
0.758767
0.807643
0.710487
0.669956
0.742674
0.790954
0.752807
0.759959
0.735521
0.917912
0.714660
0.906587
0.939965
0.880957
0.866652
0.853539
0.857711
0.883937
0.902414
0.843406
0.980496
0.911951
1.062751
1.006722
1.094937
1.018643
1.075864
1.262426
1.196861
1.115799
1.363754
1.328588
1.192689
1.249909
1.427531
1.153946
1.439452
1.494884
1.535416
1.653433
1.860857
1.764894
1.926422
1.952648
2.117753
2.375841
2.575517
2.902746
3.114939
3.623962
5.024672
24.503469
89.221597
298.687816
565.898418
1015.823483
1015.823483
1015.823483
1015.823483
1015.823483
1015.823483
1015.823483
1015.823483
803.703666
455.948710
179.997683
80.815554
24.190545
11.451840
9.432435
9.000897
8.962750
8.710623
8.703470
8.639693
8.958578
9.603500
11.682510
13.969541
18.893480
##ZVALUE=375
0.490546
0.508428
0.639558
0.475645
0.627637
0.414848
0.421405
0.521541
0.385642
0.586510
0.481606
0.629425
0.422597
0.506639
0.622869
0.678897
0.733733
0.642538
0.765920
0.584722
0.660419
0.573993
0.647902
0.384450
0.628829
0.567436
0.553727
0.714660
0.630617
0.582933
0.754595
0.835657
0.833869
0.647902
0.924468
0.790954
0.822544
1.035929
0.899434
0.837445
0.755787
0.906587
0.884533
0.853539
0.856519
0.796914
0.908971
1.021624
0.989437
1.000762
0.965595
1.139641
1.103878
1.223683
1.264811
1.341701
1.181960
1.237988
1.502633
1.450777
1.564622
1.873970
1.828671
1.919866
2.151728
2.480745
2.661943
3.224611
3.798604
11.624694
41.471720
165.220499
367.679000
849.376917
1015.731692
1015.731692
1015.731692
1015.731692
1015.731692
1015.731692
1015.731692
986.557603
650.243759
315.697789
159.081817
48.133731
17.286539
9.009838
8.707643
7.883906
8.009672
7.813573
7.829666
7.630587
7.783771
8.522868
##ZVALUE=380
0.489950
0.533462
0.439882
0.566840
0.545979
0.608563
0.658631
0.475645
0.528693
0.594854
0.545979
0.597835
0.495911
0.566840
0.704527
0.440478
0.578761
0.517964
0.368953
0.721812
0.650883
0.680685
0.651479
0.584722
0.658631
0.667572
0.591874
0.619888
0.745654
0.711679
0.703931
0.746846
0.618696
0.675917
0.730753
0.767708
0.755787
0.700951
0.761747
0.796914
0.883937
0.834465
0.750422
0.794530
0.851750
1.100898
0.872612
0.831485
0.968575
1.023412
0.983477
1.096725
1.031756
0.991821
1.016855
1.123548
1.162887
1.213551
1.340508
1.293421
1.323819
1.505613
1.472831
1.561642
1.595616
1.967549
2.073646
2.309680
2.629757
3.186464
3.620982
6.428957
23.926497
115.968585
269.635916
647.564530
1001.856923
1015.799642
1015.799642
1015.799642
1015.799642
1015.799642
1015.799642
1015.799642
857.813954
411.790013
205.831528
70.065856
26.530623
9.756684
7.701516
7.381439
7.374883
7.221699
7.132888
7.161498
##ZVALUE=385
0.373721
0.357628
0.373721
0.254512
0.393987
0.287890
0.148416
0.405908
0.373721
0.385642
0.451803
0.381470
0.379682
0.224710
0.280738
0.435710
0.300407
0.431538
0.456572
0.544786
0.402927
0.450611
0.372529
0.423789
0.614524
0.421405
0.277758
0.410676
0.297427
0.320673
0.511408
0.589490
0.510812
0.433922
0.477433
0.362992
0.454783
0.415444
0.607967
0.662804
0.474453
0.581741
0.476837
0.610948
0.537634
0.645518
0.697970
0.572801
0.667572
0.831485
0.560880
0.742674
0.719428
0.755787
0.795722
0.920892
0.937581
0.977516
0.905991
0.821948
1.104474
0.960827
1.046658
1.233816
1.343489
1.384616
1.587868
1.728535
2.091527
2.272725
2.704859
2.973676
3.154874
3.920794
10.567904
66.710711
179.623961
462.843776
823.972821
1015.620828
1015.620828
1015.620828
1015.620828
1015.620828
1015.620828
1015.620828
1015.620828
599.784851
333.102942
131.190419
50.331950
12.183785
7.525682
6.764531
6.666780
6.741881
##ZVALUE=390
0.424981
0.294447
0.397563
0.342727
0.380874
0.338554
0.420809
0.387430
0.503659
0.393987
0.406504
0.374913
0.348687
0.441670
0.510812
0.326633
0.370741
0.431538
0.457764
0.571609
0.507832
0.491738
0.557899
0.467896
0.559688
0.468493
0.395775
0.455976
0.479817
0.409484
0.407696
0.442863
0.485778
0.492930
0.490546
0.479817
0.608563
0.642538
0.653863
0.495911
0.605583
0.523925
0.668764
0.572801
0.719428
0.658631
0.570416
0.538826
0.602603
0.748634
0.672936
0.893474
0.840425
0.797510
0.928640
0.884533
1.010895
0.825524
0.985861
1.166463
1.106858
1.110435
1.125932
1.087785
1.205802
1.452565
1.442432
1.787543
1.951456
2.162457
2.367496
2.711415
2.785921
2.755523
2.927780
3.482699
5.665421
44.394732
146.697760
441.601872
804.225802
1015.718579
1015.718579
1015.718579
1015.718579
1015.718579
1015.718579
1015.718579
1015.718579
868.660808
497.609973
193.596482
82.917809
20.529628
8.713603
6.601810
##ZVALUE=395
0.429749
0.400543
0.327826
0.527501
0.511408
0.537634
0.391603
0.490546
0.465512
0.509620
0.511408
0.408888
0.624657
0.353456
0.518560
0.433922
0.360608
0.417829
0.445843
0.588894
0.547767
0.427961
0.456572
0.612736
0.611544
0.562668
0.523925
0.616908
0.528693
0.564456
0.567436
0.650883
0.557899
0.668764
0.510812
0.670552
0.489950
0.568628
0.769496
0.659823
0.600815
0.629425
0.537634
0.685453
0.581741
0.855923
0.861883
0.829697
0.887513
0.858903
0.772476
0.884533
0.849962
0.877976
0.936985
0.862479
0.960827
1.023412
1.069903
0.985861
1.150966
1.270771
1.229644
1.284480
1.221895
1.417994
1.534820
1.680851
1.860857
2.088547
2.352595
2.406836
2.637506
2.456903
2.691746
2.814531
2.849698
3.330708
4.315972
22.589564
83.666444
295.727849
567.575693
1003.265977
1015.793681
1015.793681
1015.793681
1015.793681
1015.793681
1015.793681
1015.793681
1015.793681
726.560950
309.384465
139.519572
40.205717
##ZVALUE=400
0.462532
0.474453
0.389814
0.470877
0.455976
0.400543
0.378489
0.607967
0.628829
0.346899
0.369549
0.601411
0.528693
0.457764
0.368953
0.404716
0.396967
0.451803
0.516772
0.425577
0.424981
0.526905
0.536442
0.490546
0.517964
0.577569
0.595450
0.527501
0.544786
0.555515
0.521541
0.654459
0.598431
0.539422
0.663996
0.840425
0.619888
0.586510
0.709891
0.495911
0.719428
0.822544
0.696778
0.744462
0.665784
0.693798
0.811815
0.889897
0.775456
0.859499
0.702739
0.725985
0.739694
0.735521
0.882745
1.057982
0.794530
1.044869
0.970960
1.086593
1.137853
1.068711
1.104474
1.184940
1.323819
1.434684
1.524687
1.761913
2.028942
2.022982
2.233982
2.444983
2.174973
2.312660
2.250671
2.381802
2.340674
2.588630
2.792478
3.149509
3.470778
14.339685
62.787533
235.295892
473.856926
956.066847
1015.793681
1015.793681
1015.793681
1015.793681
1015.793681
1015.793681
1015.793681
1015.793681
934.817791
485.394597
##END
