##TITLE=FQP00601
##FORMAT=SPECTACLE-ASCII V-1.2
##DATA TYPE=ULTRAVIOLET SPECTRUM
##SECOND TYPE=ULTRAVIOLET SPECTRUM
##DATE=10/24/17
##TIME=17:43:23
##SPECTROMETER/DATA SYSTEM=SPECTACLE
##XUNITS=NM EM
##YUNITS=ENERGY
##YFACTOR=1
##FIRSTX=220
##LASTX=410
##NPOINTS=96
##3DDATA=Equidistant
##ZUNITS=NM EX
##FIRSTZ=210
##LASTZ=400
##ZPOINTS=39
##XYDATA=(Y..Y)
##ZVALUE=210
3.011823
2.551675
3.325939
3.117919
3.475547
3.408790
3.372431
3.833771
4.299879
4.690886
4.844666
4.946589
5.815625
6.045699
6.905794
6.411672
9.098649
7.392764
8.371472
10.359883
9.679794
9.555817
10.175705
10.346770
11.931658
11.998415
12.243986
14.142990
14.268756
14.377832
15.608668
15.513897
15.480518
15.985966
16.602874
15.799999
16.842484
17.696619
18.530488
17.567873
18.550754
18.471479
19.378662
17.642975
20.595789
18.668771
21.287799
21.267533
21.642447
22.585988
20.696521
21.381974
22.109747
20.670891
21.446943
22.752881
23.805499
23.323894
22.470951
23.312569
22.772551
23.089647
23.412704
21.567941
23.727417
24.359822
25.571585
27.829409
31.462908
38.201809
43.742657
51.237941
58.315992
72.513819
78.623891
88.620782
95.375776
98.470449
99.268556
94.021559
96.264482
83.378553
74.231625
62.022805
51.577687
39.903522
35.396814
26.080608
23.358464
21.541715
20.722747
19.256473
20.102859
19.015670
19.463897
18.801689
##ZVALUE=215
12.306571
12.414455
10.070801
9.044409
6.675720
5.853772
4.905462
4.896522
5.530715
6.080866
6.181598
6.567836
5.962849
5.919933
5.873442
5.357862
6.137490
6.399751
6.516576
6.591678
6.372929
7.396936
7.528663
8.976460
8.708835
8.650422
9.528995
9.733438
10.434985
11.216998
11.896491
11.222959
11.673570
12.764931
11.917949
13.453960
13.049841
12.610555
13.234615
12.247562
12.980700
14.299750
13.775826
12.830496
13.125539
13.210773
13.997555
14.573932
15.114546
14.492869
14.073849
13.856888
15.613437
16.325712
15.154481
14.835596
14.808774
16.277432
16.157627
15.789866
14.575720
15.346408
16.449690
15.320778
16.291738
16.664863
18.662810
18.794537
20.944476
24.067760
26.051998
33.411980
37.316680
42.266846
45.441985
49.413443
50.897002
55.151582
55.060983
52.415729
50.289631
45.400858
39.354563
30.433536
28.349757
21.457672
19.920468
16.788840
16.810894
13.895631
14.528632
13.915896
13.811588
12.739897
11.831522
13.066530
##ZVALUE=220
44.377446
43.199658
44.467449
42.909980
38.104653
28.521419
23.613572
17.162561
12.488961
12.745857
10.636449
12.007952
11.927485
11.581779
11.570454
8.801818
6.880760
6.996989
6.832480
5.966425
6.489754
6.247759
7.464886
7.782578
7.085800
7.857680
8.758903
8.471608
9.667873
10.093451
10.739565
11.133552
11.061430
12.367964
11.461973
12.490749
12.332797
13.239980
12.359619
13.377666
12.673736
11.996627
13.643503
12.349486
13.260841
13.693571
12.835860
13.120770
13.206601
13.582706
13.021827
13.958812
14.934540
15.599728
12.561679
13.915896
13.375878
14.058948
15.530586
14.892817
14.392734
16.064644
14.777780
15.493631
16.255975
15.984774
17.206669
16.544461
17.830729
22.083521
24.676919
29.767752
30.285716
36.497712
36.601424
40.168762
40.324926
40.319562
41.278601
40.410757
36.159754
34.239888
31.493902
26.879907
26.073456
19.871593
16.979575
15.187860
15.327930
14.640689
13.983846
13.265610
13.289452
12.950897
12.479424
13.512969
##ZVALUE=225
73.266625
76.562762
101.096630
118.943453
128.530860
122.024417
109.441876
82.781911
62.708855
44.360757
28.273463
23.873448
22.930503
24.301410
25.950670
24.049878
21.891594
18.249750
13.421774
10.655522
8.419752
6.994605
6.993413
6.496906
6.955862
7.862449
8.875728
8.452535
9.968877
11.850595
9.954572
11.071563
10.702610
11.194944
12.456775
12.493730
13.461709
13.127923
12.630820
13.795495
13.171434
14.506578
13.623834
15.010834
15.034676
14.044642
14.468431
15.260577
15.332699
16.036630
16.153455
16.436577
15.837550
16.739964
17.588735
18.236637
16.088486
18.355846
19.354820
17.654896
18.509626
19.126534
17.477870
18.637776
19.167662
19.057989
20.617843
21.973848
23.505688
25.910735
27.605891
29.496551
31.262636
34.354925
34.485459
35.920739
35.451651
35.279989
33.407807
36.360621
30.951500
28.216839
28.025508
25.065541
22.558570
21.289587
21.041632
20.293593
18.397570
19.071698
17.473698
18.090606
17.854571
16.854405
16.244650
16.921759
##ZVALUE=230
62.662959
70.693493
113.366842
191.274881
239.712000
292.239785
316.072702
302.471519
274.159908
222.842693
148.205757
100.752711
60.693622
48.209429
44.197440
44.652820
47.615767
46.307445
42.895675
39.026737
28.466582
19.926429
15.229583
10.201931
9.117723
8.561611
8.780956
9.339452
9.478927
9.483695
10.551810
12.053847
11.185408
12.014508
13.150573
12.259483
14.215708
13.725758
15.381575
14.182925
15.374422
16.260743
17.381907
15.802979
17.997622
18.432736
19.518733
21.653771
21.806955
21.223426
23.293495
23.611784
22.192597
24.978518
24.581552
26.574731
23.903847
26.191473
25.652647
26.294589
28.572679
26.524663
26.214719
28.430820
29.089451
29.487610
32.012463
33.275485
34.877658
34.952760
38.230419
40.654540
40.817857
42.026639
45.552850
46.173930
46.489835
46.343803
43.723583
42.678714
40.547848
38.014650
35.662651
33.501983
33.545494
33.244491
30.657649
31.265616
29.210448
28.651953
27.405620
28.122663
27.852654
27.391911
26.448965
27.160645
##ZVALUE=235
22.705793
27.466416
59.255958
139.040947
230.404735
370.849967
468.440652
588.697791
633.849502
630.265474
544.740558
436.404943
285.264850
199.299455
124.862790
85.199475
74.659586
73.246956
83.125830
82.038641
77.470541
67.706704
54.207444
38.571954
28.406978
19.690990
15.861988
11.033416
10.138750
11.035800
11.979938
11.134744
12.737513
14.482737
13.969541
14.464855
15.230775
15.139580
16.031861
17.675757
18.467903
19.366741
22.458434
22.156835
25.563836
27.614832
31.124949
29.686689
32.765865
34.698844
34.520626
35.856962
36.108494
38.756728
39.035678
40.183663
42.517781
41.317940
42.072535
41.504502
43.004751
45.694709
46.256781
48.409700
46.577454
50.633550
51.536560
52.059889
52.781701
54.370761
57.644844
61.424971
63.706636
66.788793
69.481730
68.954825
69.477558
68.292618
68.534613
63.705444
63.337684
57.856441
56.647658
51.263571
54.243803
51.172972
47.354698
46.378970
47.155619
43.160915
42.605996
43.155551
42.486787
43.016672
41.111708
42.000413
##ZVALUE=240
2.929568
3.212690
11.807680
35.728812
106.079578
207.830667
418.677926
624.437928
927.051902
1015.793681
1015.793681
1015.793681
1015.793681
920.296907
701.810718
422.784686
280.018449
159.393549
114.182830
103.467703
108.840466
116.724968
112.442970
104.001760
85.981488
68.761706
50.807595
38.722754
25.714636
20.153522
17.921925
15.444756
13.640523
14.389753
15.551448
15.932918
17.190576
18.672943
18.269420
21.872520
21.923780
26.307702
28.494000
30.687451
34.924746
37.386417
40.025711
45.083761
43.498874
49.025416
51.221848
53.212643
55.399537
57.399869
57.496428
62.336922
60.970783
61.743855
63.814521
60.835481
60.231686
65.018535
61.173439
65.068603
64.137578
61.539412
68.057775
70.949793
70.754886
75.798631
76.105595
79.003572
83.238482
83.063841
87.837577
89.272857
86.591840
88.365674
83.935857
82.956553
78.653693
71.687698
73.602796
70.736408
70.077777
65.497756
63.165426
60.942769
58.258772
58.275461
54.783821
54.983497
54.791570
50.125718
51.218867
50.354600
##ZVALUE=245
2.584457
1.767874
2.888441
2.825856
10.183454
28.977990
109.971762
235.746503
527.819395
798.012018
1015.793681
1015.793681
1015.793681
1015.793681
1015.793681
1015.793681
944.823623
675.567985
374.668837
235.654712
135.740638
111.159682
116.350651
123.069882
129.074454
128.573775
116.363764
98.672509
79.552531
58.618784
43.404698
28.766990
21.956563
18.851757
17.320514
17.681718
17.331839
19.627810
20.032525
22.144914
26.530623
29.313564
32.740831
35.071969
38.596988
41.994452
47.127604
48.929453
53.693652
54.492950
60.125589
60.742497
62.339902
68.523884
67.786574
68.027973
69.209933
69.365501
66.825747
66.496730
67.810416
68.542957
67.519546
68.163872
68.863630
66.604614
69.917440
68.826675
69.361925
72.820783
74.239969
79.449415
80.779791
83.138943
83.448887
83.301663
85.890889
81.216693
79.604983
76.868534
75.326562
69.115758
70.107579
69.231987
63.936710
62.251687
61.659813
62.677860
58.680773
56.628585
56.036711
54.882765
51.608682
50.655603
52.801967
51.515698
##ZVALUE=250
2.357960
1.851916
2.082586
2.108812
2.691746
2.657771
4.969835
17.819405
83.399415
187.312961
435.621738
711.646676
990.116000
1015.779972
1015.779972
1015.779972
1015.779972
1015.779972
1015.779972
909.901857
609.079599
381.145477
190.908909
125.154853
111.083984
120.370984
136.056542
137.050748
134.507418
126.892924
108.547807
83.916783
64.080954
45.164824
32.075644
21.881461
19.161701
18.729568
19.744635
21.638870
24.640560
28.572679
30.358434
36.765933
38.581491
43.678880
45.108795
50.885677
55.313706
55.572987
58.226585
61.547756
64.869523
66.012740
65.016747
66.245794
67.592859
66.299438
65.892935
65.442920
62.965751
64.428449
63.689947
64.966679
60.738921
59.039593
59.494972
62.006712
62.069893
61.671734
61.258674
65.438747
65.793991
66.952705
67.510605
67.662597
66.995621
65.195560
66.037774
62.557459
63.299537
59.626698
59.891939
55.074692
56.005716
53.620934
52.867532
51.266551
53.055882
50.903559
49.037933
49.435496
44.958591
45.632720
45.818686
46.311617
##ZVALUE=255
1.719594
1.757741
1.905560
2.214909
2.157688
2.207756
3.020763
3.027916
3.268719
10.192990
38.207769
111.756921
302.568674
519.012809
905.817747
1015.793681
1015.793681
1015.793681
1015.793681
1015.793681
1015.793681
1015.793681
758.607984
482.149720
306.066871
142.692924
105.857849
107.313991
125.411749
141.677856
148.261786
145.818591
133.350492
110.404491
89.802742
61.395764
47.296882
33.060908
26.926994
25.051832
24.504662
27.734637
29.352903
33.172965
35.764575
41.788816
42.704940
47.569871
50.728917
53.294897
54.953694
55.885911
57.008862
57.986975
59.775710
59.572458
59.026480
58.760643
58.840513
56.936741
57.000518
55.972934
54.632425
53.727627
52.964687
51.906705
51.536560
50.496459
52.325726
51.368475
51.952600
53.761601
53.066611
56.297779
54.885745
56.849718
54.827929
55.997968
52.365661
51.481724
52.227974
50.865412
48.904419
49.383640
45.369864
45.999885
45.552850
44.408441
45.961738
43.828487
44.160485
42.566657
42.446852
42.099953
41.765571
40.021539
##ZVALUE=260
1.548529
1.646876
1.436472
1.824498
1.374483
1.559854
2.016425
2.351999
2.479553
2.796650
2.824664
4.104972
16.071796
68.399906
157.177448
389.415622
654.288530
1015.778780
1015.778780
1015.778780
1015.778780
1015.778780
1015.778780
1015.778780
1009.243727
722.536445
394.894481
229.522586
118.546486
93.462467
101.040602
128.711462
143.871903
154.822469
152.964592
136.590004
119.399428
90.461969
71.691871
51.352978
38.237572
32.404661
28.853416
30.280948
31.613708
34.217834
36.096573
39.995909
41.244626
42.121410
43.950677
45.865774
46.332479
47.304630
49.942732
45.493841
46.537519
46.322942
45.310855
45.457482
46.123862
43.476820
43.690801
43.209791
42.865872
41.111708
43.663979
41.668415
42.583942
42.662621
44.411421
44.487715
44.889450
47.655702
49.288869
47.249794
47.024488
48.357844
44.868588
44.818521
44.316649
42.702556
43.029785
41.536689
41.180849
41.706562
40.315986
40.177703
39.332509
38.400888
39.460659
39.952993
36.918521
38.103461
38.559437
37.296414
##ZVALUE=265
1.522899
1.614690
1.625419
1.682639
1.651645
1.830459
2.070665
1.944900
1.732707
2.099872
2.250671
2.578497
2.905726
3.383756
13.239980
48.576593
163.968801
325.758457
667.608976
993.142724
1015.793681
1015.793681
1015.793681
1015.793681
1015.793681
1015.793681
1015.793681
860.692859
545.101762
268.208981
146.519542
87.327957
87.252855
112.055540
132.014751
152.319670
160.695910
154.624581
143.475533
116.973519
96.596479
70.613623
57.191849
42.725801
37.314892
32.967925
33.464432
33.191442
34.805536
36.802888
37.271976
38.197637
37.930608
38.097501
39.696693
39.392710
38.970709
37.983656
37.700534
36.848783
36.454797
36.448836
36.315918
36.237836
36.802888
35.339594
35.302639
37.262440
36.261678
38.229823
38.228631
39.790869
39.914846
41.845441
41.759610
41.277409
40.893555
42.190552
40.257573
39.928555
39.272904
38.082600
39.462447
37.268996
36.740899
37.389994
35.668612
36.087632
35.728812
35.595894
35.717487
34.483671
35.344958
34.863949
34.101605
34.052730
##ZVALUE=270
1.476407
1.506805
1.606941
1.650453
1.577735
1.497865
1.696944
1.909733
1.925826
1.740456
2.192855
2.409816
2.507567
2.539754
2.922416
3.202558
5.036592
23.667812
70.664883
228.217840
463.797450
817.816854
1015.793681
1015.793681
1015.793681
1015.793681
1015.793681
1015.793681
1015.793681
1015.793681
843.361020
418.591499
225.772858
97.809434
74.439645
91.794729
110.384822
139.239430
155.461431
164.298415
162.388682
143.840909
128.490925
99.714994
80.029964
55.948496
45.111775
38.190484
34.034848
32.507777
32.709837
33.169985
32.648444
33.200979
32.652617
32.685995
32.974482
32.676458
32.646656
32.274723
31.600595
32.055974
31.619668
31.733513
31.744838
31.781793
32.740831
33.273697
32.650828
34.417510
35.784841
35.865903
38.042665
40.167570
37.893653
39.395690
38.990974
37.925839
37.647486
37.195683
35.825968
36.112666
35.679936
34.718513
34.758449
33.562779
33.919811
33.918619
33.420920
34.010410
33.166409
33.320785
32.190681
31.912923
31.830668
31.840801
##ZVALUE=275
1.232624
1.269579
1.520514
1.331568
1.203418
1.260638
1.321435
1.466870
1.512766
1.783967
1.978874
1.992583
2.015829
2.039671
2.346635
2.364516
2.747774
3.029704
3.873706
9.724498
38.068891
114.499927
355.690718
676.789880
1015.805602
1015.805602
1015.805602
1015.805602
1015.805602
1015.805602
1015.805602
1015.805602
1004.832983
548.228621
305.556655
124.882460
72.545409
68.134665
84.782839
113.589764
135.078430
155.379772
162.627697
160.394907
147.191882
120.470524
104.141831
77.674985
62.060952
46.478510
38.253665
33.276677
31.091571
30.452609
30.647516
30.184984
30.635595
30.658841
31.296611
30.020475
31.188726
31.146407
31.047463
30.249953
30.457973
31.514764
31.637549
32.313466
32.295585
33.724904
34.215450
35.177469
36.422610
36.875606
36.687851
37.168860
36.400557
36.561489
37.233829
36.878586
35.570860
35.988688
34.224987
33.994913
33.650994
32.764673
32.379627
32.244921
32.140613
31.760931
30.529499
30.324459
29.849410
30.591488
29.947758
30.772686
##ZVALUE=280
1.174808
1.091957
1.408458
1.031756
1.420975
1.423955
1.211762
1.525879
1.460910
1.315475
1.783967
1.692772
1.720786
1.740456
1.960993
2.256632
2.162457
2.556443
2.798438
3.032684
3.114939
4.629493
27.496815
97.217560
325.036049
612.983704
1015.787721
1015.787721
1015.787721
1015.787721
1015.787721
1015.787721
1015.787721
1015.787721
1015.787721
695.820451
403.311849
170.575976
86.730719
54.071546
63.089728
87.879896
109.748840
135.729909
151.066780
160.398483
157.086849
142.886639
126.572847
100.220442
79.266429
57.448745
47.582984
35.719872
32.288432
28.804541
28.723478
29.300451
28.502941
29.682517
29.293895
29.069781
30.142665
29.839873
29.402971
30.048490
31.387806
31.621456
32.097697
33.694506
33.571720
35.780668
36.249757
36.130548
36.147833
37.545562
36.118627
35.971999
35.265684
34.519434
35.115480
33.221841
33.714771
32.810569
32.444596
31.560659
31.877756
31.686425
30.603409
29.859543
29.991865
29.605627
29.532909
29.024482
28.569698
28.645992
##ZVALUE=285
1.013875
1.043677
1.126528
0.959635
1.009703
1.180768
1.258850
1.090765
1.272559
1.467466
1.552701
1.284480
1.515746
1.668930
1.719594
1.750588
1.842976
2.043843
2.060533
2.114773
2.604723
2.795458
3.290772
3.789663
13.178587
54.276586
189.423561
410.910845
885.000825
1015.796661
1015.796661
1015.796661
1015.796661
1015.796661
1015.796661
1015.796661
1015.796661
926.286578
563.099980
263.649821
133.319497
55.805445
45.266747
60.493946
79.748631
112.270713
129.504800
147.392750
157.790780
154.487491
144.788623
122.505426
102.859735
75.362921
59.250593
42.686462
34.948587
28.990507
28.679967
27.455688
27.390718
27.402639
27.864575
28.047562
28.563738
29.414892
29.774904
30.084848
31.234622
32.178760
32.956600
33.179522
34.206510
33.811927
35.225749
35.160780
35.131574
35.099983
34.180880
33.832788
33.203959
32.000542
32.439828
31.171441
31.813979
31.672716
31.159520
30.156970
30.431747
29.321909
29.050708
29.433966
29.148459
29.546618
27.693510
28.668642
##ZVALUE=290
0.918508
1.016855
1.011491
0.896454
1.085997
1.091957
1.044869
1.037717
1.093745
1.222491
1.316667
1.314878
1.267791
1.286864
1.440644
1.322627
1.538992
1.878738
1.617670
1.928806
2.239943
2.322793
2.492666
2.831817
3.248453
3.506541
5.018711
30.187964
96.431971
293.512940
543.984771
1003.525853
1015.793681
1015.793681
1015.793681
1015.793681
1015.793681
1015.793681
1015.793681
1015.793681
737.832785
362.343788
187.329650
71.403980
39.358735
40.998459
54.709911
79.371929
99.992752
124.631524
139.859915
151.830912
149.243474
136.656761
120.048523
94.574690
74.129701
54.457784
42.764544
33.051968
28.880835
26.266575
26.064515
26.160479
26.133657
27.010441
26.946664
28.371811
28.545856
29.848814
30.053854
30.656457
31.379461
32.451749
32.345653
32.736659
32.294989
32.761693
32.283664
31.568408
31.511784
31.879544
31.065941
30.920506
31.271577
30.850768
30.466914
29.668808
29.430985
28.937459
28.710961
28.129816
28.941631
27.331710
27.689934
27.314425
##ZVALUE=295
1.019835
0.947714
1.022816
1.132488
1.230836
1.034737
1.024604
0.993609
1.054406
1.029968
1.271963
1.294613
1.465678
1.432896
1.242757
1.442432
1.570582
1.278520
1.772642
1.652837
1.850724
1.833439
2.061725
2.115965
2.325773
2.669692
2.901554
3.467798
3.803968
8.593798
35.874844
153.299570
334.380865
743.620992
1015.911698
1015.911698
1015.911698
1015.911698
1015.911698
1015.911698
1015.911698
1015.911698
956.118703
500.882864
269.664526
97.113848
46.762824
29.616952
35.110712
52.848458
70.697665
96.515417
114.822984
135.370493
143.893957
141.684413
133.095980
113.472939
94.097853
69.655776
55.257678
39.508939
32.528639
27.729869
25.758743
24.964809
25.218725
25.467873
26.425719
27.399659
27.827621
28.932691
28.533936
30.420423
30.478835
31.131506
30.396581
30.797720
30.422807
29.821992
30.686855
30.662417
29.618740
29.516816
29.908419
29.248595
29.384494
29.914975
29.094815
28.474927
28.117895
28.544664
27.772784
26.633739
27.172565
26.770830
##ZVALUE=300
0.874996
0.758767
0.872612
0.798702
1.012683
0.886917
0.874996
1.022816
0.831485
0.894666
0.890493
1.018643
0.995994
1.026988
1.183748
0.934601
1.226664
1.299977
1.365542
1.358986
1.334548
1.588464
1.606941
1.915693
2.002716
2.028942
2.248883
2.655983
2.691746
2.855659
3.528595
4.414916
15.031695
93.510747
224.999785
542.697906
889.356732
1015.793681
1015.793681
1015.793681
1015.793681
1015.793681
1015.793681
1015.793681
1015.793681
655.032396
388.578773
172.448754
79.228878
29.081702
24.140477
32.970905
44.237971
66.212416
85.107684
109.371543
125.348568
136.263967
134.792924
125.604868
112.380981
88.635683
71.376562
53.126812
41.056871
31.652451
27.300715
25.418997
24.263859
25.309920
25.835633
26.507974
27.640462
28.296709
28.810501
29.712915
29.947758
29.275417
29.817820
29.389858
29.450655
29.200912
30.225515
29.894710
29.579997
29.898882
29.394627
30.070543
29.629469
28.801560
28.307438
28.398633
27.557611
26.926994
27.350783
26.372671
##ZVALUE=305
0.847578
0.760555
0.912547
0.745654
0.604987
0.682473
0.692606
0.849962
0.896454
0.900626
0.928640
0.905991
0.917912
0.974536
0.971556
1.004934
1.117587
1.252890
1.267791
1.245737
1.334548
1.263618
1.339912
1.537800
1.566410
1.668930
1.632571
1.986623
2.065897
2.264977
2.397895
2.654791
2.871752
3.597736
7.528663
55.452585
152.124763
405.306816
707.764626
1015.794873
1015.794873
1015.794873
1015.794873
1015.794873
1015.794873
1015.794873
1015.794873
883.658528
543.356538
242.005587
116.893649
39.358735
21.663904
23.011565
31.066537
46.070814
62.416792
85.088611
102.640986
122.069716
128.192902
128.403902
123.027563
105.599761
89.149475
66.073537
52.527785
40.656924
33.119917
28.409958
26.947856
26.790500
26.579499
27.849674
28.065443
28.891563
29.404759
29.834509
29.442906
30.542612
30.947924
30.263662
30.444860
30.747652
31.283498
31.401515
30.599833
30.460954
30.429959
29.897690
29.756427
28.823614
28.829575
28.392673
28.758645
28.127432
##ZVALUE=310
0.580549
0.625849
0.474453
0.675917
0.603795
0.556707
0.698566
0.705719
0.568628
0.733733
0.724792
0.778437
0.834465
0.888705
0.641942
0.839829
0.768900
0.635982
0.872612
0.896454
0.987649
1.200438
1.075864
1.326799
1.323819
1.473427
1.493692
1.633763
1.721978
1.899600
1.752973
2.032518
2.048612
2.396703
2.642870
3.388524
4.134774
24.756789
86.879730
265.546441
492.094755
948.600769
1015.702486
1015.702486
1015.702486
1015.702486
1015.702486
1015.702486
1015.702486
1015.702486
779.950023
381.232500
199.053884
71.159601
29.352903
18.000603
21.184683
30.158758
39.859414
58.915615
74.399710
97.140670
110.595822
121.916533
123.959780
116.951466
105.544925
87.298751
71.038604
53.449869
44.242740
36.349893
31.913519
29.559731
28.965473
29.086471
29.801726
29.985905
30.268431
30.069947
30.522943
31.157732
31.165481
31.390786
31.709671
31.121969
31.260848
32.071471
31.419992
31.237602
30.430555
30.723810
29.376745
29.999614
28.876662
28.910637
##ZVALUE=315
0.556707
0.712872
0.713468
0.709891
0.795722
0.886917
0.722408
0.732541
0.654459
0.936985
0.773668
0.722408
0.858903
0.691414
0.818968
0.930429
0.979900
0.923872
1.049638
1.125932
1.036525
1.049638
1.148582
1.374483
1.394749
1.342893
1.352429
1.489520
1.507998
1.503825
1.404881
1.806617
2.045631
2.081990
2.140999
2.450943
2.894998
2.977848
3.457665
8.889437
40.004849
169.323683
357.751846
761.742592
1015.793681
1015.793681
1015.793681
1015.793681
1015.793681
1015.793681
1015.793681
1015.793681
987.578630
532.457829
282.727480
102.057457
42.051673
18.208623
17.376542
20.868778
26.834607
39.898753
52.680969
72.528720
88.777542
108.134747
116.078854
119.811893
115.498900
101.675987
87.992549
70.206523
56.520700
44.726729
37.502646
32.615662
30.864477
30.616522
30.732751
30.625463
31.445622
31.605959
32.769442
31.501651
31.975508
32.518506
33.426881
32.551885
32.546520
32.022595
32.010674
31.785965
31.470656
30.148625
30.593872
29.989481
##ZVALUE=320
0.585914
0.672936
0.700951
0.540614
0.594854
0.561476
0.661612
0.607967
0.896454
0.672936
0.625849
0.731945
0.780821
0.657439
0.812411
0.783801
0.779629
0.899434
0.967979
1.134872
1.069903
0.969768
1.177788
1.146793
1.075864
1.191497
1.254678
1.123548
1.210570
1.348853
1.477599
1.570582
1.664758
1.749992
1.859665
1.854897
2.083778
2.159476
2.566576
2.692938
3.351569
4.128814
20.523667
75.667500
262.945890
506.981015
962.793827
1015.794873
1015.794873
1015.794873
1015.794873
1015.794873
1015.794873
1015.794873
1015.794873
785.461664
350.219607
180.302858
63.107610
27.128458
15.466809
15.968680
18.984675
24.656653
35.875440
48.025846
66.588521
82.062483
102.710724
112.012625
115.666986
112.372637
101.562738
88.182688
69.983602
58.749914
44.859648
38.958788
34.226775
32.259822
32.212734
32.245517
32.070875
32.329559
32.982826
32.361746
32.939911
32.413602
32.753944
32.132864
32.200813
32.225847
31.733513
31.757951
30.918717
31.459928
##ZVALUE=325
0.555515
0.606775
0.655651
0.538826
0.562668
0.666976
0.635982
0.658631
0.645518
0.711679
0.766516
0.748634
0.686646
0.685453
0.595450
0.709891
0.698566
0.831485
0.782609
0.835657
1.013875
0.956655
0.873804
1.041889
1.106858
1.084805
0.978708
1.052618
1.237988
1.179576
1.115799
1.366735
1.329780
1.527667
1.449585
1.539588
1.804829
1.888871
1.987815
2.196431
2.526641
2.515912
3.070831
3.536940
8.401871
57.779551
152.799487
393.380523
701.469779
1015.793681
1015.793681
1015.793681
1015.793681
1015.793681
1015.793681
1015.793681
1015.793681
886.268616
523.556471
224.248767
104.010701
32.314658
16.955733
15.055537
15.833974
19.412637
25.368929
36.543608
48.591495
67.271590
82.549453
99.880695
107.439756
112.190843
107.951760
95.379949
82.283616
66.645741
55.294633
44.052601
38.810968
34.124851
33.087730
32.155514
32.458901
31.722784
32.001734
31.927824
32.309890
32.068491
31.767488
31.442642
31.711459
31.052828
30.487776
30.334592
##ZVALUE=330
0.552535
0.579953
0.539422
0.521541
0.454783
0.554919
0.602603
0.511408
0.543594
0.728965
0.638962
0.654459
0.694990
0.641942
0.525713
0.735521
0.448823
0.707507
0.682473
0.747442
0.909567
0.854731
0.772476
0.713468
0.715852
1.073480
0.966787
0.975728
1.077652
1.240969
1.017451
1.172423
1.197457
1.207590
1.248717
1.460910
1.366735
1.555681
1.699924
1.812577
1.951456
2.074838
2.530813
2.424717
2.997518
3.295541
4.802942
18.305779
99.789500
237.023830
565.320849
933.284760
1015.793681
1015.793681
1015.793681
1015.793681
1015.793681
1015.793681
1015.793681
1015.793681
645.015836
360.375643
143.454671
61.956644
20.950437
14.660954
15.316606
16.611814
20.759702
26.084781
37.976503
48.035979
65.187812
80.435872
95.531940
103.594661
106.362700
102.911592
91.541409
78.982711
64.384937
54.467916
45.093894
39.515495
34.419894
32.703876
32.040477
31.194687
31.067729
31.148791
30.874610
30.630827
30.466914
30.246973
29.614568
30.063987
##ZVALUE=335
0.516772
0.403523
0.473857
0.452995
0.519753
0.572801
0.588894
0.578761
0.610948
0.610948
0.660419
0.700951
0.619888
0.739694
0.738502
0.627637
0.727773
0.655651
0.855923
0.782609
0.814795
0.719428
0.757575
0.701547
0.744462
0.890493
0.881553
1.031756
0.905991
0.972748
1.058578
0.985861
0.959635
0.939965
1.183748
1.084805
1.376867
1.199841
1.296997
1.464486
1.561642
1.640916
1.780987
1.982450
2.104640
2.328753
2.645850
3.018975
3.314614
10.408759
40.325522
163.416862
342.594981
751.124024
1015.793681
1015.793681
1015.793681
1015.793681
1015.793681
1015.793681
1015.793681
1015.793681
869.290829
445.920825
231.281519
78.738928
32.849908
16.189814
15.461445
16.406775
17.735958
21.194816
26.557446
36.244988
47.338605
64.783692
77.082515
91.194510
99.157691
101.282597
98.299980
87.221861
77.508688
63.154697
53.586960
43.572783
38.416982
33.728480
31.495690
30.329823
29.505491
28.926730
29.407740
29.044747
29.213428
28.579831
##ZVALUE=340
0.415444
0.436902
0.618696
0.491738
0.531673
0.653863
0.354648
0.758767
0.543594
0.606775
0.682473
0.482798
0.678897
0.589490
0.502467
0.543594
0.661612
0.639558
0.839829
0.823736
0.753999
0.899434
0.687838
0.745654
0.684857
0.699759
0.927448
0.794530
0.848770
0.969768
0.980496
0.848770
1.078844
1.099706
1.025796
1.062751
1.214743
1.212955
1.121759
1.407862
1.427531
1.401901
1.507998
1.616478
1.694560
1.837611
1.967549
2.054572
2.333522
2.818704
3.055930
5.081892
18.818974
101.431012
246.454477
601.728559
968.067646
1015.793681
1015.793681
1015.793681
1015.793681
1015.793681
1015.793681
1015.793681
1009.345651
551.934838
302.213430
120.728612
48.090816
18.586516
15.981793
16.172528
17.044544
19.111633
21.425486
27.441978
34.695864
47.134757
59.262514
75.014830
85.432529
94.453692
95.837712
92.909932
86.106658
73.457956
62.937737
50.655603
42.922497
35.800934
32.094717
29.052496
27.568936
27.757883
27.341843
27.131438
##ZVALUE=345
0.611544
0.484586
0.424981
0.579953
0.529885
0.393987
0.582933
0.596642
0.470877
0.513792
0.462532
0.391603
0.503659
0.356436
0.553727
0.687838
0.586510
0.550747
0.680685
0.712872
0.720620
0.689626
0.776649
0.635982
0.684857
0.515580
0.731945
0.695586
0.779629
0.819564
0.655651
0.678897
0.892878
0.997782
0.900626
1.020432
1.046658
1.021624
1.182556
1.335740
1.149774
1.253486
1.300573
1.305938
1.482964
1.414418
1.542568
1.759529
1.721978
2.156496
2.220869
2.575517
2.744794
3.630519
8.062720
55.878758
158.575773
415.639877
733.020902
1015.793681
1015.793681
1015.793681
1015.793681
1015.793681
1015.793681
1015.793681
1015.793681
754.573941
421.397686
161.872506
72.882771
25.173426
16.637444
15.734434
16.164780
16.839504
18.020868
20.688772
24.642944
33.340454
41.801929
56.639910
67.818761
79.442859
86.798668
89.165568
86.745620
79.307556
71.583986
59.685707
49.719810
40.029883
34.422874
30.144453
27.993917
26.126504
##ZVALUE=350
0.449419
0.416636
0.425577
0.503659
0.571609
0.419617
0.472665
0.551939
0.393987
0.565648
0.633597
0.580549
0.544786
0.670552
0.721812
0.518560
0.628829
0.580549
0.477433
0.686646
0.519753
0.577569
0.714660
0.573993
0.649691
0.605583
0.849962
0.633597
0.825524
0.702739
0.861883
0.863671
0.838637
1.045465
0.937581
0.901818
0.839829
1.057982
1.068711
1.023412
1.020432
0.903606
1.184940
1.102686
1.249909
1.382828
1.287460
1.809597
1.636744
1.648664
1.882911
2.119541
2.100468
2.347827
2.630949
3.020763
4.400611
26.078820
87.715983
276.561975
519.211888
979.664922
1015.792489
1015.792489
1015.792489
1015.792489
1015.792489
1015.792489
1015.792489
889.694691
539.933443
239.986777
110.476613
32.889843
16.682744
14.500618
14.527440
14.927983
15.562773
16.807914
19.067526
24.360418
29.739738
40.174723
49.237609
62.167645
70.355535
78.963637
81.289411
79.309940
74.916482
63.929558
56.737661
46.062469
39.351583
32.593608
##ZVALUE=355
0.612736
0.620484
0.487566
0.581741
0.458956
0.471473
0.523925
0.555515
0.554919
0.520945
0.542998
0.428557
0.602603
0.538826
0.604987
0.688434
0.621676
0.641942
0.781417
0.702739
0.700951
0.712872
0.526905
0.623465
0.741482
0.819564
0.687838
0.604987
0.858903
0.737906
0.776649
0.645518
0.752807
0.780821
0.889897
0.979900
0.855923
1.028776
1.011491
1.119971
1.129508
1.103878
1.143813
1.035929
1.126528
1.317859
1.345873
1.507998
1.365542
1.810789
1.733899
1.774430
1.904964
1.912713
2.090931
2.293587
2.626777
2.927780
3.366470
12.094975
47.296882
184.845924
376.016498
776.798725
1015.794873
1015.794873
1015.794873
1015.794873
1015.794873
1015.794873
1015.794873
1015.794873
689.425468
299.872756
143.310428
43.857694
19.639730
13.875961
13.398528
13.913512
13.916492
14.909506
16.125441
18.004775
21.169782
26.979446
33.692718
44.513941
52.777529
63.124895
69.326758
73.904991
72.662830
67.231655
61.086416
51.739812
##ZVALUE=360
0.539422
0.499487
0.428557
0.482798
0.492930
0.503659
0.524521
0.520945
0.562668
0.480413
0.687838
0.629425
0.482798
0.610948
0.589490
0.805855
0.615716
0.598431
0.701547
0.481606
0.780821
0.704527
0.871420
0.616908
0.869632
0.793934
0.664592
0.954866
0.595450
0.684857
0.872612
0.914931
0.827909
0.870824
0.903606
0.974536
0.984669
0.907779
1.076460
1.093745
1.082420
1.119971
1.182556
1.035929
1.320839
1.385808
1.379848
1.286864
1.287460
1.254678
1.487732
1.458526
1.446605
1.745820
1.750588
2.189875
2.089739
2.352595
2.576709
2.880692
3.197789
5.501509
20.298958
97.885728
236.725807
579.865575
945.080519
1015.793681
1015.793681
1015.793681
1015.793681
1015.793681
1015.793681
1015.793681
860.132575
409.955978
209.902525
73.691607
29.589534
13.913512
13.162494
13.276935
13.365746
13.675690
14.149547
14.472604
15.860796
19.001961
22.702813
29.523969
36.190748
46.830773
53.778887
62.289834
66.153407
66.701770
##ZVALUE=365
0.477433
0.532866
0.568628
0.441670
0.416636
0.378489
0.544786
0.491738
0.429749
0.440478
0.584722
0.437498
0.653863
0.621676
0.649691
0.588894
0.623465
0.735521
0.688434
0.644922
0.641942
0.690818
0.829697
0.687838
0.814795
0.665784
0.778437
0.815988
0.700951
0.745654
0.844598
0.730753
0.726581
0.879765
0.763535
0.895858
0.934601
1.105666
0.976920
0.840425
1.054406
1.016855
1.088977
1.072884
1.158714
1.045465
1.188517
1.285672
1.316667
1.421571
1.422763
1.489520
1.606941
1.727939
1.718998
1.709461
2.016425
1.941919
2.173781
2.391934
2.617836
3.052950
3.378987
3.924966
8.295774
55.248737
151.221752
395.969748
719.244480
1015.793681
1015.793681
1015.793681
1015.793681
1015.793681
1015.793681
1015.793681
1000.403762
570.162535
305.640697
107.439756
42.687654
14.980435
12.141466
12.099743
12.131929
12.316704
12.114644
12.460947
13.338923
14.396906
16.418695
20.023584
24.497509
32.531619
39.606690
48.629642
##ZVALUE=370
0.453591
0.428557
0.616908
0.665784
0.421405
0.382662
0.468493
0.400543
0.437498
0.589490
0.425577
0.573993
0.474453
0.642538
0.686646
0.513792
0.465512
0.487566
0.617504
0.653863
0.627637
0.553727
0.620484
0.614524
0.596642
0.720620
0.632405
0.757575
0.837445
0.791550
0.720620
0.848770
0.773668
0.814795
0.843406
0.879765
0.905991
1.005530
0.710487
0.820756
0.799894
0.883937
0.881553
0.900626
1.055598
0.977516
0.994802
1.074672
1.100898
1.227856
1.183748
1.253486
1.348853
1.276731
1.327991
1.385808
1.534820
1.642704
1.726747
1.971722
1.972914
2.315640
2.371669
2.750754
2.915859
3.294945
5.041957
26.802421
94.642043
304.824710
563.127995
999.304652
1015.793681
1015.793681
1015.793681
1015.793681
1015.793681
1015.793681
1015.793681
679.717660
375.378728
144.973993
65.679550
22.519827
12.559891
10.941625
11.057854
10.620952
10.956526
11.173487
11.449456
11.837482
12.850761
14.861822
17.373562
22.339821
##ZVALUE=375
0.603795
0.689626
0.421405
0.514984
0.543594
0.694990
0.514984
0.673532
0.592470
0.644922
0.555515
0.655651
0.626445
0.650883
0.720620
0.647902
0.552535
0.725985
0.707507
0.624657
0.792742
0.849962
0.763535
0.747442
0.805855
0.770688
0.820756
0.719428
0.746846
0.825524
0.713468
1.008511
0.869632
0.879765
0.831485
0.918508
0.951886
0.875592
0.905991
0.952482
0.977516
0.910759
1.190901
1.110435
0.892878
1.051426
0.993609
1.080632
1.158714
1.082420
1.031756
1.098514
1.514554
1.314878
1.438856
1.457930
1.549721
1.484752
1.452565
1.657605
1.728535
1.834631
1.758933
1.934767
2.201796
2.414584
2.578497
3.290772
3.547668
12.879968
48.292875
179.653764
382.597446
838.300586
1015.950441
1015.950441
1015.950441
1015.950441
1015.950441
1015.950441
1015.950441
870.688558
541.597605
260.675550
127.371550
39.595962
16.232729
10.318756
10.082722
10.246634
9.902716
10.277629
10.087490
10.426641
10.873675
12.024641
##ZVALUE=380
0.513792
0.410676
0.443459
0.613928
0.449419
0.547767
0.664592
0.649691
0.675917
0.609756
0.486970
0.526905
0.409484
0.597835
0.500679
0.486970
0.503659
0.552535
0.812411
0.640750
0.584722
0.684857
0.579953
0.609756
0.508428
0.611544
0.669956
0.602603
0.719428
0.725985
0.753999
0.704527
0.696778
0.799894
0.744462
0.789762
0.659823
0.780821
0.901818
0.763535
0.881553
0.914931
0.944734
0.902414
0.786781
0.920892
1.058578
0.954866
1.056790
1.092553
1.049638
0.997782
1.117587
1.057982
1.099706
1.119971
1.254678
1.234412
1.256466
1.169443
1.437664
1.538992
1.413822
1.733899
1.935959
1.922846
2.152920
2.233982
2.809763
3.200769
3.524423
6.303787
25.268793
127.286911
297.866464
686.717629
1015.892029
1015.892029
1015.892029
1015.892029
1015.892029
1015.892029
1015.892029
1015.892029
755.373836
363.272429
183.280706
61.687827
24.465919
10.621548
9.172559
9.147525
9.198785
9.267926
9.469986
9.662509
##ZVALUE=385
0.605583
0.668764
0.706911
0.596642
0.615716
0.648499
0.585914
0.654459
0.705719
0.623465
0.542998
0.639558
0.662804
0.740886
0.641942
0.609756
0.707507
0.787973
0.590682
0.694990
0.587702
0.850558
0.666976
0.612736
0.765920
0.868440
0.658631
0.917912
0.679493
0.717640
0.688434
0.841618
0.892878
0.765920
0.821948
0.774860
0.921488
0.853539
0.820756
0.753999
0.783801
0.781417
0.868440
0.827909
0.847578
1.072884
1.005530
1.053810
1.037717
1.043677
1.079440
1.050830
1.000762
1.195669
1.193881
1.134872
1.204610
1.134872
1.222491
1.532435
1.160502
1.492500
1.432896
1.521707
1.578927
1.858473
2.018809
2.078414
2.205968
2.679825
2.914667
3.100634
3.453493
4.124641
11.712909
72.435737
190.998912
482.344031
846.176744
1016.024947
1016.024947
1016.024947
1016.024947
1016.024947
1016.024947
1016.024947
972.332954
526.643991
293.174982
117.061734
46.061873
13.087988
8.859634
8.400679
8.125901
8.512735
##ZVALUE=390
0.365973
0.484586
0.421405
0.538826
0.453591
0.456572
0.446439
0.565648
0.671744
0.573993
0.475645
0.558496
0.512600
0.484586
0.489950
0.652671
0.526905
0.660419
0.722408
0.544786
0.444651
0.788569
0.676513
0.601411
0.543594
0.640750
0.609756
0.646710
0.668764
0.567436
0.655651
0.612736
0.764728
0.601411
0.585914
0.583529
0.672936
0.682473
0.790954
0.830889
0.826716
0.885725
0.811815
0.809431
0.814795
0.860691
0.775456
0.918508
0.967979
0.854731
0.904799
0.863671
0.729561
0.835657
1.015663
0.961423
1.007915
0.962615
1.133680
1.226664
1.265407
1.157522
1.221895
1.251698
1.409650
1.447797
1.673698
1.812577
2.192855
2.267957
2.506971
2.659559
2.725720
2.705455
2.931952
3.315806
5.679727
37.473440
121.366978
373.505950
692.114830
1015.923023
1015.923023
1015.923023
1015.923023
1015.923023
1015.923023
1015.923023
1015.922427
763.952732
433.681607
170.028806
74.181557
20.117760
9.722710
7.919669
##ZVALUE=395
0.539422
0.478625
0.486970
0.411868
0.597835
0.383854
0.423789
0.425577
0.416636
0.441670
0.409484
0.418425
0.457764
0.637770
0.663996
0.434518
0.673532
0.500679
0.550747
0.483990
0.602603
0.476837
0.560880
0.567436
0.570416
0.621676
0.671744
0.693798
0.534654
0.589490
0.610948
0.571609
0.691414
0.676513
0.615716
0.617504
0.635982
0.718832
0.634789
0.846982
0.735521
0.795722
0.724792
0.803471
0.829697
0.888705
0.869632
0.704527
1.033545
0.829697
0.759959
0.927448
0.724792
0.964999
0.954866
1.144409
0.808835
1.066923
1.134872
1.085997
1.195669
1.147985
1.078844
1.186728
1.334548
1.380444
1.399517
1.896620
1.873970
2.080798
2.390742
2.473593
2.512932
2.546906
2.490878
2.456903
2.597570
2.937913
3.948808
21.072626
81.401467
277.297497
517.507792
954.506993
1015.917659
1015.917659
1015.917659
1015.917659
1015.917659
1015.917659
1015.917659
936.284065
580.200553
261.976719
122.883916
37.636757
##ZVALUE=400
0.357628
0.416636
0.303984
0.270605
0.359416
0.291467
0.360608
0.256896
0.413656
0.423789
0.438690
0.325441
0.411868
0.369549
0.393987
0.381470
0.453591
0.381470
0.473857
0.388622
0.307560
0.390410
0.363588
0.464916
0.457764
0.569820
0.430942
0.514984
0.453591
0.532866
0.571609
0.514984
0.566840
0.526905
0.603795
0.449419
0.378489
0.640750
0.686646
0.568628
0.647902
0.673532
0.618696
0.562668
0.602603
0.576973
0.556707
0.791550
0.673532
0.672936
0.722408
0.881553
0.619888
0.475645
0.780821
0.780821
0.789762
0.842810
0.796914
0.879765
1.100898
1.005530
1.159906
1.005530
1.063943
1.122952
1.320839
1.551509
1.664758
1.889467
2.091527
2.124906
2.117753
1.943707
2.029538
2.091527
2.141595
2.327561
2.406836
2.636909
3.296733
9.743571
40.569901
165.887475
350.505710
750.463605
1015.796661
1015.796661
1015.796661
1015.796661
1015.796661
1015.796661
1015.796661
1015.796661
730.620027
354.740620
##END
