##TITLE=FQP00652
##FORMAT=SPECTACLE-ASCII V-1.2
##DATA TYPE=ULTRAVIOLET SPECTRUM
##SECOND TYPE=ULTRAVIOLET SPECTRUM
##DATE=10/24/17
##TIME=17:28:50
##SPECTROMETER/DATA SYSTEM=SPECTACLE
##XUNITS=NM EM
##YUNITS=ENERGY
##YFACTOR=1
##FIRSTX=220
##LASTX=410
##NPOINTS=96
##3DDATA=Equidistant
##ZUNITS=NM EX
##FIRSTZ=210
##LASTZ=400
##ZPOINTS=39
##XYDATA=(Y..Y)
##ZVALUE=210
2.195835
2.362728
2.269745
2.558827
2.672672
2.432466
2.497435
2.743602
3.581643
2.329946
2.798438
2.978444
2.658963
3.032684
2.947450
3.189445
3.240705
3.730655
3.727674
3.998876
4.076958
5.248785
5.402565
5.435944
5.012751
5.814433
5.419850
6.054640
6.291866
7.371902
7.155538
6.857514
7.165670
6.620884
6.269813
6.490946
7.561445
7.622838
7.086992
7.530451
8.153915
7.942915
7.538795
8.439422
8.040667
8.373857
8.249879
8.873940
8.086562
8.009672
8.541942
8.795857
8.901954
8.386970
8.386970
8.539557
8.371472
8.353591
9.137988
8.923411
8.728504
9.330511
8.925796
9.403825
9.701848
9.861588
9.871721
11.010766
11.351705
14.068484
17.132759
17.492771
20.779967
25.699735
28.297901
29.070973
28.368831
29.680729
26.620626
27.446747
23.623705
19.684434
18.472672
15.631914
13.245940
11.659861
9.990931
9.373426
8.160472
8.085966
7.434487
7.308722
7.737875
7.949471
7.977486
8.345842
##ZVALUE=215
7.152557
5.954504
6.473660
4.877448
4.500747
4.725456
4.211664
4.866719
4.675984
4.302859
4.851818
5.346537
4.320741
4.080534
3.282428
3.559589
3.558993
3.779531
3.655553
4.292727
3.719926
3.852844
4.459620
4.213452
5.359650
5.617738
5.675554
4.912615
6.079674
5.724430
6.619692
5.619526
6.909966
6.516576
6.902814
6.779432
6.624460
7.508993
6.943941
7.033944
6.593466
7.480979
7.609725
6.989837
7.519722
7.862449
7.514954
8.243918
7.306933
8.140802
7.398725
7.951856
7.358789
8.906722
7.778406
8.781552
9.096861
8.115768
8.351803
7.762909
8.246899
8.274913
9.358525
8.992553
8.923411
8.523464
9.002686
8.903742
10.928512
11.463761
15.120506
14.741421
17.196536
20.765662
21.918416
22.712946
24.108887
23.629665
20.833611
21.167994
20.321608
16.790628
14.266968
14.491677
10.920763
8.826852
7.652640
8.707643
6.947517
6.612539
7.131696
6.623864
7.292628
7.283688
7.257462
7.576942
##ZVALUE=220
18.713474
19.227862
23.621917
21.871924
21.333694
17.556548
13.648868
10.872483
10.306835
9.750724
8.489490
10.487437
10.926723
10.428429
9.222627
7.349849
5.754828
5.286932
4.604459
3.747940
3.822446
4.453659
3.759861
5.265474
5.501509
4.749894
5.769730
5.153418
6.630421
7.245541
7.063746
6.976724
7.093549
7.159710
7.374883
7.605553
8.198619
7.012486
7.644892
8.375645
8.521676
9.075999
8.824468
8.580685
7.726550
8.627772
8.231997
8.651614
7.964969
10.126829
9.753704
8.970499
9.553432
8.965731
9.223819
9.047985
8.939505
8.713603
8.696914
8.122921
7.776618
9.328723
9.210706
9.057522
8.955598
9.371638
11.004806
9.104609
11.374950
13.663769
15.679598
16.555786
18.223524
20.558834
19.088984
21.420717
23.094416
22.209883
21.586418
21.944642
19.480586
18.503666
16.891956
14.312863
13.182759
10.247827
10.182858
9.613633
7.693768
8.834600
8.143783
8.056760
7.712841
7.475615
8.325577
7.217526
##ZVALUE=225
32.889843
36.662817
46.009421
63.096881
71.128607
74.373484
69.273710
60.460567
46.463609
35.394430
25.789738
19.748807
21.721721
22.961497
24.001598
23.952723
19.347668
16.638637
13.850927
9.725690
7.123947
6.032586
4.651546
5.814433
6.031990
5.537868
5.579591
5.353689
6.650686
7.095933
7.302761
6.795526
8.656979
8.539557
9.929538
8.213520
9.039640
9.583831
9.319782
9.349585
9.518862
10.122657
10.319948
10.145903
9.934902
9.300709
10.150671
10.763407
10.913610
11.121631
11.415482
11.539459
11.519790
10.561943
11.658669
11.323690
12.146831
10.570884
11.504889
12.641549
11.508465
12.235641
12.704730
11.774898
12.622476
12.620687
11.722445
12.335777
13.997555
15.135407
16.476512
15.686750
17.791986
19.273758
21.368861
21.133423
20.681620
21.199584
19.645691
19.034743
18.417835
16.873479
15.508533
13.768673
12.874603
11.948943
13.480783
11.260509
10.266900
10.142922
9.985566
9.692907
9.652972
10.211468
9.719729
8.514524
##ZVALUE=230
27.883649
29.741526
49.135685
86.227655
118.427873
160.485506
180.687904
189.510584
179.752707
149.179697
115.642548
77.163577
53.769946
41.944981
40.318966
42.930841
48.513412
47.078729
39.625764
35.735965
26.473999
21.203756
12.954473
9.664893
7.364750
6.043911
7.099509
7.481575
6.616712
7.244945
6.732941
8.502603
7.632971
8.818507
8.984804
9.834766
9.890795
9.573698
11.190772
10.349751
10.964870
12.345910
12.313724
13.503432
12.719631
13.792515
13.923645
13.380647
15.054941
15.033484
14.798641
13.537407
16.497970
14.793873
15.165806
15.660524
16.646981
15.538931
15.966892
15.779734
16.603470
16.332865
16.450882
16.737580
17.231703
18.057823
17.566681
18.446445
19.248724
20.005703
21.612644
22.240877
25.180578
24.407506
25.848746
27.382970
25.891662
24.751425
25.022626
22.009611
21.307468
20.774603
18.804669
18.184781
17.877817
17.299652
17.286539
16.282797
15.797615
15.121698
15.925765
13.171434
14.271736
13.457537
14.570951
12.576580
##ZVALUE=235
9.669662
10.654926
24.224520
62.033534
99.292994
171.124935
235.177875
326.968431
369.100571
382.956862
354.737639
298.584700
204.166770
154.492855
102.501512
80.048442
67.758560
74.580908
77.411532
80.970526
78.730583
64.757466
54.120421
38.589835
25.351644
16.197562
12.205839
8.438826
8.027554
8.367896
8.473992
8.606911
8.231997
9.155869
9.880662
10.029674
9.988546
11.897683
12.632608
13.261437
13.813972
14.424920
15.157461
16.291738
17.208457
16.004443
16.483665
18.007755
18.221736
19.642711
20.682812
20.255446
21.149516
21.752715
22.642612
22.211671
23.586750
21.717548
23.708940
23.241639
22.469759
24.531484
25.443435
23.316741
24.720430
25.242567
27.257800
27.189851
27.215481
28.224587
30.365586
31.841993
32.621622
33.450723
35.524964
36.838651
35.322905
33.769608
34.428835
29.980540
30.806661
28.312802
26.930571
26.891828
24.194717
24.228692
23.771524
22.679567
20.581484
21.357536
20.229816
20.320415
18.763542
18.341541
20.287633
18.508434
##ZVALUE=240
2.166629
2.106428
4.452467
12.152791
39.208531
75.407624
154.732466
241.964459
383.411646
483.364463
580.964684
596.486926
562.994480
476.663709
376.306772
250.466466
180.296898
117.011666
95.537901
97.417831
109.428763
112.107992
111.255646
100.247860
81.956983
68.166852
47.259927
34.243464
22.158623
13.744831
11.005998
9.451509
9.112954
10.510683
11.107922
10.793805
10.342598
12.441874
12.406707
14.718771
14.830828
15.666485
17.075539
16.716719
18.971562
20.760894
21.744967
24.778843
23.874640
26.665926
27.861595
27.462840
28.850436
28.884411
29.404759
31.099916
30.290484
30.888915
31.583905
30.151606
29.848814
31.044483
30.375719
32.256842
32.149553
33.719540
35.129786
32.277703
33.932924
35.422444
37.378669
38.388968
38.464665
41.230917
43.919683
40.784478
40.199757
42.494535
38.571954
37.765503
37.450790
35.687685
33.097863
32.994747
30.978918
29.937625
28.385520
30.805469
27.662516
27.964711
26.058555
25.796890
23.938417
25.975704
26.149750
23.468733
##ZVALUE=245
1.969934
2.073646
1.835823
2.177954
3.765821
16.848445
40.955544
102.343559
189.341903
298.568606
485.788584
630.129576
754.920840
784.407854
751.452446
671.162009
505.563617
382.919908
303.725004
161.065459
115.359426
96.054673
107.910633
122.580528
128.053427
122.904778
111.287832
93.880892
74.457526
53.662658
37.781000
22.973418
16.746521
12.048483
10.943413
10.852814
11.633635
12.324452
12.753606
14.207959
15.650988
16.390681
17.737746
19.927621
21.049976
22.145510
24.136901
25.971532
29.238462
27.203560
30.269623
30.776858
32.627583
32.407641
33.313632
35.043955
32.978654
33.701658
32.207966
31.303763
34.531951
33.732653
32.586455
32.072663
33.590794
31.905770
32.823682
32.428503
34.156442
32.750964
36.817789
35.912991
38.791895
39.911866
40.009618
38.210750
38.191676
39.079785
37.667751
36.688447
36.366582
32.641888
31.034946
31.352639
30.078888
29.923916
28.028488
28.400421
26.789904
25.815964
26.939511
25.623441
24.910569
26.264787
25.460720
23.981929
##ZVALUE=250
2.131462
2.078414
1.931787
2.009869
2.014637
2.236962
3.249645
9.255409
41.278601
88.715553
208.491683
347.268581
504.240990
719.248652
841.106772
958.516002
951.342583
855.612755
729.953647
514.961481
352.506638
227.442980
129.272938
101.710558
101.029873
113.464594
132.941604
138.121843
132.413507
120.908618
106.524825
79.527497
62.027574
40.274858
27.612448
17.857552
14.077425
12.503862
12.440681
14.465451
15.465617
17.410517
19.078851
20.479560
22.015572
24.068952
25.439858
27.811527
27.242899
28.897524
29.581785
29.775500
32.736659
33.264756
32.539964
33.062696
32.718778
31.439662
32.423735
31.336546
31.441450
29.485822
30.654669
31.500459
31.602979
30.912757
30.481815
30.670762
30.131936
31.672716
32.157898
33.724904
33.131838
33.379793
31.850934
35.263896
33.381581
32.711625
32.747984
30.221939
30.146837
28.566718
27.815700
26.670694
25.935769
26.494861
25.913715
25.249720
23.554564
25.208592
22.648573
23.222566
22.687912
22.910833
23.786426
22.501945
##ZVALUE=255
1.762509
1.730919
1.658797
1.595616
1.579523
1.923442
1.949668
2.203584
2.505779
4.509687
27.474761
65.598488
131.438971
277.101994
424.589515
655.040741
821.259022
982.870460
1016.041636
1005.547643
889.891982
720.052719
460.582972
297.550559
154.360533
109.460950
89.686513
97.599626
118.925571
133.163929
143.498778
140.133500
129.139423
102.289915
85.851550
57.393909
43.155551
27.489662
20.844936
16.524792
15.132427
16.639829
17.135739
18.805861
19.466877
21.406412
23.097992
24.811625
24.828911
26.935935
25.817752
28.417706
28.106570
29.314756
29.511452
29.015541
28.097630
27.435422
28.378963
26.261806
25.397539
26.364923
25.939941
25.899410
25.552511
25.463700
25.469661
26.072860
26.643872
25.643706
26.214719
27.274489
27.195811
27.572513
29.038787
28.118491
27.049780
27.291775
26.293993
26.955605
25.457740
24.391413
24.826527
23.535490
22.925735
22.020936
22.510886
21.716952
21.955967
21.658540
21.957755
21.109581
21.096468
20.730495
20.293593
21.339655
##ZVALUE=260
1.262426
1.303554
1.761913
1.464486
1.534820
1.521707
1.641512
1.596808
1.765490
1.983643
2.064705
2.447963
9.766817
47.328472
112.545490
263.242722
426.796675
677.627921
882.048011
1015.793681
1015.793681
1015.793681
1015.793681
938.857794
642.215610
435.765982
250.985622
154.170990
91.013908
82.311630
96.293688
121.623874
138.217807
150.509477
149.223804
133.768916
118.023753
87.491870
66.068769
45.940876
32.645464
23.322701
18.807650
18.436909
17.660856
19.163489
20.549893
20.620823
20.844936
22.510886
23.086667
22.266507
22.951961
22.584796
23.026466
23.702979
23.447871
23.150444
23.075938
21.887422
21.787882
21.188855
21.263957
21.622777
21.489859
20.582676
20.445585
20.478964
21.542907
20.658970
22.484660
22.307634
22.213459
22.861958
23.543835
23.888946
22.740960
22.857785
22.487640
22.643805
21.468997
20.458698
21.189451
20.001531
21.270514
18.952489
19.782782
18.602610
19.330978
18.978715
18.202662
19.014478
18.782616
18.408895
18.895864
18.350482
##ZVALUE=265
1.233816
1.133680
1.107454
1.434684
1.304746
1.352429
1.471639
1.528859
1.511574
1.599789
1.521707
2.086759
1.677871
2.403855
5.753636
39.184690
100.380778
235.869884
390.205979
674.338937
904.333591
1015.794873
1015.794873
1015.794873
1015.794873
1015.794873
837.156773
595.025420
331.640840
196.858644
102.795959
76.630712
80.429912
105.922818
128.347874
147.644877
155.415535
151.768923
139.585733
112.988949
92.720985
65.837502
48.198700
31.297803
24.559498
19.569993
18.434525
18.381476
18.194914
17.978549
19.581914
19.037724
19.776821
19.701719
19.146800
19.831657
20.227432
19.803643
18.667579
18.005967
17.522573
17.707944
17.463565
17.712712
17.038584
17.023683
17.275810
18.288493
18.151999
18.581748
18.374920
19.112825
19.838810
19.649863
20.703673
20.354986
20.309687
20.757914
19.847751
19.834638
18.999577
17.838478
17.664433
18.542409
18.723607
17.693639
16.929507
17.069578
17.897487
16.975999
16.783476
17.448664
16.202927
17.014742
16.757846
17.177463
##ZVALUE=270
1.074672
0.983477
1.097918
1.143813
1.414418
1.262426
1.354814
1.196861
1.168847
1.211762
1.504421
1.357794
1.595616
1.687407
2.053976
2.051592
2.324581
11.427999
36.331415
126.262903
254.182816
435.612798
765.503645
994.106531
1015.793681
1015.793681
1015.793681
1015.793681
1000.733972
787.814856
556.216836
296.806693
163.923502
77.943802
66.413879
83.691478
103.825927
133.931637
148.584843
158.892870
156.860948
140.776634
119.060874
92.096925
70.528984
45.484900
34.617782
24.881959
21.243691
18.607974
17.906427
18.177629
17.034411
17.588735
17.205477
16.955733
17.561913
16.475916
16.516447
16.707778
16.433001
16.052723
16.316772
16.022921
16.025901
15.226603
15.907884
16.298890
16.757846
16.267896
16.943812
17.629862
17.016530
18.529892
18.114448
18.345714
18.420815
19.051433
17.196536
16.851425
17.008781
16.349554
16.899705
15.849471
15.890598
15.608668
16.051531
16.158819
15.628934
14.920831
15.741587
15.096664
15.071630
15.201569
15.838742
15.505552
##ZVALUE=275
0.749826
0.939965
0.747442
0.867844
0.939965
0.805855
1.013875
1.110435
0.939965
1.265407
1.146793
1.119971
1.162887
1.240969
1.588464
1.610518
1.841784
1.822710
2.144575
5.130768
18.560886
55.767894
167.545676
318.226814
611.562729
852.009654
1015.793681
1015.793681
1015.793681
1015.793681
1015.793681
974.668860
707.414746
384.866595
223.014951
97.839832
61.569810
60.819983
77.787638
107.525587
129.346848
148.924589
156.915784
155.304670
140.444636
113.136768
95.123649
68.114996
50.155520
35.417676
26.036501
20.600557
17.721653
16.396642
15.872717
15.475750
16.195774
15.975833
15.500784
16.286969
15.409589
15.840530
15.702844
15.164614
15.574694
15.190840
15.622973
14.916658
15.845895
15.847683
16.751885
16.766787
16.693473
18.062592
17.977953
18.109679
17.708540
17.113686
16.280413
16.847849
15.800595
16.433001
15.726686
15.497804
15.635490
14.428496
14.279485
14.504790
14.427900
14.701486
14.811754
13.424754
14.139414
13.403893
13.631582
13.857484
##ZVALUE=280
0.963807
0.856519
1.028776
0.893474
0.929832
1.186728
0.949502
0.957847
1.165867
1.088977
1.125932
1.108646
1.202822
1.372695
1.389980
1.364946
1.409650
1.605749
1.749992
2.100468
1.978874
2.661943
12.462735
44.340491
150.691867
279.653668
534.260869
797.211528
1015.793681
1015.793681
1015.793681
1015.793681
1015.793681
1015.793681
849.752426
493.785739
296.626687
132.381916
69.712996
47.014952
55.120587
79.919696
103.450418
129.979849
145.520568
153.585672
150.467753
135.845542
118.306875
90.166926
69.968700
47.823787
34.645796
24.097562
19.237995
15.586615
14.712811
15.032887
14.988780
14.763474
14.860630
15.443563
15.300512
14.718771
15.125871
14.833808
14.914870
16.243458
15.578866
15.699863
16.410947
16.924739
17.235875
16.921759
17.672777
17.174482
17.060637
16.548634
16.794801
15.616417
14.792681
15.449524
15.080571
14.967918
14.996529
14.451742
14.123917
14.507771
14.129877
14.086962
13.317466
13.800859
12.877584
12.981892
13.499856
12.853742
##ZVALUE=285
0.844598
0.963807
0.771880
0.777841
0.780821
0.684857
0.870824
0.796914
0.991821
0.856519
1.012683
1.042485
1.047850
0.963807
1.072884
1.090765
1.531839
1.302958
1.573563
1.513958
1.453757
1.754761
1.857877
2.524853
7.387400
29.517412
104.028583
218.254924
467.795730
718.217492
981.592536
1015.793681
1015.793681
1015.793681
1015.793681
1015.793681
1015.793681
693.609715
436.352491
207.358599
105.199814
47.342777
38.452744
53.257942
73.810816
103.416443
121.196508
141.378641
148.124695
147.136450
137.453675
114.178658
95.562935
68.556666
48.940778
32.432675
23.759604
17.731786
15.537739
14.284849
14.529824
13.893843
14.249682
13.832450
14.139414
14.680624
15.197992
15.442967
15.266538
15.786886
15.594959
16.197562
16.710758
16.546845
16.513467
16.636848
16.526580
16.231537
15.550852
14.816523
14.965534
14.701486
14.967918
14.597774
14.044642
13.894439
13.795495
14.019608
13.614893
13.852715
13.307929
13.122559
12.831688
12.554526
12.201667
12.566447
##ZVALUE=290
0.817776
0.828505
0.784993
0.731945
0.747442
0.821948
0.863671
0.639558
0.865459
0.804663
0.875592
0.999570
0.898838
0.904799
1.101494
1.208782
1.052618
1.102686
1.148582
1.474619
1.300573
1.564622
1.598597
1.801848
1.943707
2.242923
2.736449
7.688403
42.863488
111.895800
224.267840
512.620807
807.773471
1015.794873
1015.794873
1015.794873
1015.794873
1015.794873
1015.794873
867.660046
580.077767
297.403932
151.632428
56.016445
32.170415
34.984946
48.223734
70.220828
90.260506
115.934610
133.095980
143.056512
142.298937
131.332874
112.930536
86.523890
66.481829
44.767857
33.304691
22.596717
18.297434
14.546514
13.956428
13.766885
13.669729
14.035702
13.939738
14.385581
14.669895
14.391541
15.032887
15.095472
15.557408
15.745759
15.504956
15.548468
15.374422
15.158653
14.841557
14.699697
14.339685
13.780594
13.597608
13.428926
13.781786
13.689995
12.993813
13.196468
12.950897
13.007522
12.987852
12.416840
12.193918
12.193918
12.194514
11.896491
##ZVALUE=295
0.699759
0.706911
0.724792
0.700951
0.567436
0.523925
0.650883
0.516772
0.788569
0.609756
0.869632
0.853539
0.774860
0.921488
0.880957
0.739694
0.954866
0.863671
0.897646
1.099706
1.295805
1.101494
1.337528
1.358986
1.521707
1.707673
1.719594
2.066493
2.267957
3.477931
11.278987
53.677559
132.362843
337.706804
575.324893
966.740847
1015.752554
1015.752554
1015.752554
1015.752554
1015.752554
987.894535
717.929006
389.488935
213.067532
77.587962
37.042499
23.628473
29.719472
45.901537
63.384771
90.100765
108.098984
129.971504
137.666464
135.311484
126.228929
107.409954
87.830424
62.220693
48.095584
30.967593
22.192597
16.863942
14.490485
13.226867
13.168454
13.169646
13.495684
13.507605
13.922453
14.139414
14.334917
14.546514
14.901757
14.133453
14.274716
14.247894
14.360547
13.976693
13.884902
13.554692
12.857914
12.212992
12.725592
12.883544
12.426972
12.424588
12.174845
12.058616
11.688471
11.887550
11.942983
11.547804
11.398792
11.296868
##ZVALUE=300
0.628829
0.517964
0.533462
0.590682
0.598431
0.647902
0.631809
0.584722
0.699759
0.677705
0.745654
0.662804
0.811815
0.625849
0.775456
0.946522
0.724792
0.875592
0.780821
1.010895
0.909567
0.984669
1.146793
1.191497
1.468658
1.113415
1.128912
1.533628
1.561642
1.716614
1.843572
2.175570
7.401705
26.871562
98.733902
203.361511
436.632037
692.334771
1015.794873
1015.794873
1015.794873
1015.794873
1015.794873
1015.794873
853.626728
569.523573
292.227864
155.471563
53.012967
24.787784
19.651651
26.654601
41.798949
57.247877
80.770850
101.071000
122.282505
128.526688
129.746795
124.076605
103.879571
86.489916
63.140988
48.388839
31.381845
23.351908
16.725659
14.348626
13.238788
12.640953
13.417602
13.390779
13.645887
13.889670
13.530850
14.154911
13.303757
13.143420
13.060570
13.023615
12.946725
12.972951
12.769699
13.153553
12.481809
12.490749
12.759566
12.118816
11.964440
11.853576
11.495948
11.367798
11.342764
11.819601
11.234879
11.256933
##ZVALUE=305
0.499487
0.671744
0.682473
0.531673
0.541806
0.477433
0.796914
0.592470
0.653863
0.638962
0.639558
0.710487
0.682473
0.743866
0.684857
0.794530
0.870824
0.839829
0.822544
0.926852
0.916719
0.945926
0.987649
1.188517
1.084805
1.091957
1.273751
1.092553
1.466870
1.508594
1.588464
1.878738
1.994967
2.320409
3.308654
18.643737
55.955648
164.818764
313.409567
606.241822
883.107781
1015.793681
1015.793681
1015.793681
1015.793681
1015.793681
1015.793681
755.271912
503.502488
239.151716
119.315982
37.831664
18.540621
18.981695
25.888681
40.900707
56.545734
78.209639
96.819997
115.876794
122.793913
123.735666
115.296841
98.570585
82.065463
59.565902
44.682622
30.897856
22.623539
16.289949
14.034510
13.719797
12.900829
13.529658
13.882518
12.992620
13.176799
12.626648
12.825727
12.777448
12.929440
12.565851
13.082623
12.974739
12.757778
12.805462
12.514591
12.453794
12.099743
12.079477
11.769533
11.959672
11.388659
11.486411
11.657476
11.085868
##ZVALUE=310
0.421405
0.382662
0.321865
0.210404
0.433922
0.397563
0.445843
0.408888
0.421405
0.549555
0.304580
0.352859
0.659823
0.528693
0.351667
0.585914
0.449419
0.500679
0.551939
0.571609
0.659823
0.674725
1.016855
0.691414
0.826716
0.638962
0.704527
0.852942
0.881553
1.115799
1.124740
1.328588
1.295805
1.355410
1.701713
1.692772
2.205968
6.135702
36.753416
92.833638
243.847966
428.541899
781.991482
1015.631557
1015.631557
1015.631557
1015.631557
1015.631557
1015.631557
897.626877
520.188808
313.936472
134.687424
62.354803
22.528768
14.248490
17.405748
23.029447
35.545826
49.476624
70.676804
86.805820
105.167627
115.148425
115.993619
111.117959
96.496940
81.186891
59.619546
45.076609
29.989481
23.016930
16.705990
14.655590
13.407469
12.504458
12.614727
12.681484
12.248755
12.332797
12.434721
12.661815
12.214780
12.532473
12.203455
11.850595
12.225509
12.096763
12.016892
11.936426
11.606812
11.999607
11.105537
11.226535
11.092424
10.780692
##ZVALUE=315
0.500679
0.521541
0.461936
0.449419
0.672936
0.502467
0.447631
0.548959
0.606775
0.508428
0.449419
0.372529
0.500679
0.540614
0.747442
0.577569
0.624657
0.514984
0.485778
0.788569
0.712872
0.718832
0.925660
0.832677
0.881553
0.907779
0.917912
0.965595
0.978708
1.076460
0.920892
1.023412
1.088977
1.308918
1.509786
1.458526
1.730919
1.846552
2.127886
3.215671
18.631816
56.177974
168.018937
313.686728
634.757876
933.312774
1015.793681
1015.793681
1015.793681
1015.793681
1015.793681
1015.793681
663.395524
419.074893
194.636583
91.996789
27.972460
14.301538
13.205409
14.771819
22.499561
31.360984
47.333837
62.132478
84.380507
97.144842
108.215809
110.863447
103.170872
92.167854
72.966814
59.843659
41.990876
32.034516
21.601915
17.663836
14.036894
13.283491
12.642741
12.351871
12.603998
12.157559
12.808442
12.373924
12.472868
12.525916
12.372732
12.395978
12.053847
11.618733
12.272596
11.565685
11.600852
11.911988
11.594892
11.811852
##ZVALUE=320
0.507832
0.385642
0.556707
0.427961
0.503659
0.464916
0.422597
0.456572
0.243783
0.400543
0.391603
0.405908
0.552535
0.649691
0.615716
0.613928
0.463724
0.507832
0.721812
0.572801
0.745654
0.574589
0.603795
0.599623
0.605583
0.735521
0.784993
0.761747
0.754595
0.777841
0.840425
1.100898
1.098514
1.072884
1.232624
1.214743
1.415610
1.359582
1.401901
1.602769
1.839995
2.498627
5.944967
35.516620
94.780922
260.334015
444.144011
778.103471
1015.747786
1015.747786
1015.747786
1015.747786
1015.747786
1015.747786
566.234589
538.686514
272.019506
143.188834
51.516891
13.402700
10.754466
13.831854
14.277697
25.340915
29.853582
45.123696
58.662891
76.403618
90.254545
103.448629
102.263689
100.388527
75.500607
72.698593
59.831738
33.772588
29.136539
22.828579
13.943911
13.829470
12.376904
12.229681
12.030602
12.039542
12.328625
11.775494
11.900663
11.822581
11.946559
12.005568
11.996627
11.996627
11.495948
11.774898
11.731982
11.386871
##ZVALUE=325
0.457764
0.328422
0.342727
0.650883
0.508428
0.445843
0.484586
0.336766
0.414848
0.574589
0.509620
0.480413
0.536442
0.579953
0.565648
0.495911
0.679493
0.587702
0.518560
0.557899
0.532866
0.495911
0.630617
0.590682
0.610948
0.799894
0.902414
0.727773
0.816584
0.912547
0.890493
1.088977
1.057982
1.002550
0.912547
1.105666
0.914931
1.336932
1.448989
1.457930
1.633763
1.794696
1.708865
1.975894
3.482699
21.570921
61.526895
171.036720
320.078731
631.510019
922.273993
1015.794873
1015.794873
1015.794873
1015.794873
1015.794873
1015.794873
670.240521
410.400629
181.357861
87.220669
27.539730
12.905598
9.935498
10.660887
13.814569
18.266439
27.862787
39.776564
58.355927
72.891712
87.798834
96.498728
99.897981
95.782876
81.395507
68.918467
52.455664
39.817691
27.178526
20.348430
15.916824
13.885498
12.630820
12.668967
11.936426
12.176633
11.883974
12.065768
11.545420
11.626482
11.646748
11.803508
11.375546
11.632442
11.293888
##ZVALUE=330
0.456572
0.403523
0.559688
0.328422
0.476837
0.406504
0.502467
0.375509
0.445843
0.261664
0.402927
0.350475
0.480413
0.347495
0.341535
0.488758
0.511408
0.520945
0.466704
0.528693
0.618696
0.612736
0.474453
0.676513
0.650883
0.787973
0.499487
0.816584
0.511408
0.642538
0.632405
0.777841
0.679493
0.761747
0.908971
0.975728
0.913739
1.137853
0.990629
1.242757
1.292825
1.332760
1.595616
1.460910
1.844764
1.917481
2.364516
9.327531
31.752586
110.459924
224.424601
480.988622
742.181540
1015.793681
1015.793681
1015.793681
1015.793681
1015.793681
1015.793681
784.221888
503.270626
230.689645
115.736723
41.406751
16.899705
9.671450
9.813905
10.732412
12.858510
19.082427
26.152730
39.355755
52.716732
72.225928
82.782507
93.240738
93.327761
87.792873
79.292655
62.870979
51.119924
35.930872
27.061701
19.763708
16.206503
13.734698
12.766719
11.764765
11.741519
11.464953
11.502504
11.568666
11.418462
11.339784
11.111498
10.850430
##ZVALUE=335
0.458956
0.497699
0.353456
0.389814
0.394583
0.415444
0.425577
0.495911
0.287890
0.342727
0.353456
0.438690
0.422597
0.399947
0.522733
0.484586
0.352859
0.484586
0.415444
0.481606
0.549555
0.378489
0.404716
0.506639
0.583529
0.577569
0.545979
0.607967
0.649691
0.723600
0.727773
0.533462
0.605583
0.612736
0.778437
0.713468
0.809431
0.851750
0.914931
1.035929
0.976920
1.024604
1.082420
1.350641
1.176000
1.435876
1.441836
1.749992
2.018809
4.053712
14.453530
64.651966
145.341754
345.005393
585.759878
973.790884
1015.794873
1015.794873
1015.794873
1015.794873
1015.794873
894.220471
614.013672
326.686502
171.823502
59.224963
24.484992
10.803938
9.369850
9.471774
10.800958
13.087988
17.409921
26.612878
36.430955
52.432418
65.081716
78.288913
85.106492
87.702870
83.167553
71.806908
61.632991
48.097968
38.141608
27.505755
21.294951
16.064644
13.825893
12.349486
11.863708
11.111498
10.976791
11.118650
10.636449
10.943413
##ZVALUE=340
0.338554
0.421405
0.358820
0.295639
0.184774
0.300407
0.292659
0.452995
0.498891
0.353456
0.560880
0.398755
0.437498
0.358820
0.444651
0.432730
0.489950
0.433922
0.418425
0.600815
0.451803
0.396967
0.351667
0.506639
0.448823
0.560880
0.561476
0.581741
0.593662
0.520945
0.598431
0.570416
0.620484
0.671744
0.729561
0.740886
0.734925
0.881553
0.687838
0.820756
0.951886
0.947714
0.980496
0.988841
0.927448
1.232624
1.042485
1.345873
1.567602
1.777411
1.889467
2.445579
7.219911
39.977431
103.038549
267.405510
467.963815
817.481875
1015.793681
1015.793681
1015.793681
1015.793681
1015.793681
1000.753641
744.916797
405.073762
217.730999
82.156658
34.320951
12.655854
9.786487
9.645820
9.413958
10.515451
12.625456
17.659664
24.523735
36.248565
46.926737
62.377453
72.827935
80.683827
82.016587
78.722835
70.643425
58.201551
48.164725
35.704970
27.613640
19.830465
16.072989
12.776852
11.753440
11.239648
10.708570
10.569692
##ZVALUE=345
0.375509
0.442863
0.114441
0.250936
0.431538
0.286698
0.358820
0.376701
0.378489
0.485778
0.440478
0.381470
0.378489
0.392795
0.375509
0.351667
0.418425
0.350475
0.483990
0.506639
0.409484
0.358820
0.328422
0.400543
0.426769
0.487566
0.570416
0.447631
0.609756
0.734925
0.621676
0.671744
0.625849
0.533462
0.627637
0.639558
0.560880
0.722408
0.634789
0.697970
0.716448
0.811815
1.008511
1.030564
0.983477
0.860691
1.064539
1.227856
1.194477
1.305938
1.643896
1.629591
1.766682
1.907945
4.275441
17.185807
76.763630
164.621472
365.429521
585.107803
955.680013
1015.793681
1015.793681
1015.793681
1015.793681
1015.793681
846.148729
559.942722
259.725451
128.150582
42.463541
18.459558
10.254979
9.428859
9.130836
9.173751
9.850860
11.257529
16.210675
22.570491
33.561587
43.297410
56.197643
64.738989
73.958635
76.393485
73.677897
68.130493
56.160688
46.528578
34.594536
27.075410
19.109845
14.967918
12.470484
11.575818
##ZVALUE=350
0.360608
0.256896
0.422597
0.419617
0.227690
0.339746
0.429749
0.361800
0.348687
0.304580
0.305772
0.290871
0.350475
0.341535
0.387430
0.521541
0.385642
0.430942
0.354648
0.459552
0.488758
0.457764
0.501871
0.425577
0.379682
0.404716
0.475645
0.424981
0.356436
0.506639
0.415444
0.610948
0.527501
0.732541
0.575781
0.575781
0.569820
0.569820
0.674725
0.616908
0.744462
0.642538
0.669956
0.740886
0.710487
0.873804
1.026988
0.867844
1.039505
0.848770
1.019835
1.139641
1.292825
1.518726
1.622438
1.834631
2.416968
11.021495
39.067864
132.349730
261.637568
539.985895
803.799629
1015.793681
1015.793681
1015.793681
1015.793681
1015.793681
981.463790
608.667731
381.433964
177.145600
82.461834
23.927689
11.564493
8.792877
8.475780
8.561611
8.458495
9.091496
11.130571
15.571713
20.354986
29.205680
38.028955
50.436854
58.989525
66.728592
70.205927
67.876577
62.397718
52.534938
44.449568
32.767653
26.093721
18.807650
##ZVALUE=355
0.291467
0.349879
0.396967
0.292659
0.397563
0.356436
0.389814
0.317693
0.283718
0.349879
0.383854
0.452995
0.472665
0.248551
0.278950
0.322461
0.497699
0.417829
0.332594
0.483990
0.352859
0.569820
0.472665
0.482798
0.496507
0.484586
0.547767
0.423789
0.504851
0.548959
0.463724
0.594854
0.650883
0.594854
0.757575
0.592470
0.577569
0.746846
0.632405
0.522733
0.549555
0.693798
0.673532
0.705719
0.705719
0.873804
0.892878
0.808835
0.810623
1.003742
1.002550
1.049638
1.105666
1.414418
1.311898
1.480579
1.615882
1.826882
2.044439
5.214810
20.054579
85.079670
181.656480
399.734974
660.429597
1015.794873
1015.794873
1015.794873
1015.794873
1015.794873
1015.794873
729.388595
456.904769
206.915736
103.935003
35.548806
14.815927
8.192658
7.881522
7.915497
7.810593
8.348823
8.537769
10.291934
12.786984
18.394589
24.556518
34.729838
42.749643
53.394437
59.755445
63.458681
62.697530
57.322979
50.929785
41.299462
##ZVALUE=360
0.401735
0.322461
0.278950
0.398755
0.205636
0.330806
0.321865
0.454783
0.289679
0.282526
0.317693
0.396967
0.371933
0.354648
0.375509
0.505447
0.427961
0.375509
0.386834
0.401735
0.444651
0.398755
0.438690
0.498891
0.434518
0.620484
0.297427
0.408888
0.400543
0.492930
0.572801
0.497699
0.579953
0.533462
0.572801
0.619888
0.631809
0.612736
0.668764
0.567436
0.615716
0.678897
0.633597
0.649691
0.630617
0.781417
0.799894
0.840425
0.991821
0.792742
0.974536
0.934601
1.011491
1.155734
1.253486
1.230836
1.263618
1.418591
1.782775
1.668930
1.934767
2.749562
8.673668
43.018460
109.529495
285.195708
489.771962
836.160779
1015.791893
1015.791893
1015.791893
1015.791893
1015.791893
888.325572
598.435998
293.611884
153.484941
55.372715
21.620989
9.005666
7.827878
7.890463
7.627606
7.620454
7.660985
7.642508
8.948445
11.275411
14.733672
20.928979
27.870536
37.930608
45.340657
53.214431
57.479739
57.346821
##ZVALUE=365
0.465512
0.489950
0.428557
0.530481
0.404716
0.533462
0.491738
0.363588
0.299811
0.499487
0.614524
0.458956
0.448823
0.378489
0.430942
0.521541
0.559688
0.621676
0.525713
0.577569
0.514984
0.443459
0.503659
0.497699
0.455976
0.635982
0.576973
0.640750
0.571609
0.652671
0.722408
0.601411
0.709891
0.690818
0.838637
0.801682
0.673532
0.628829
0.807643
0.603795
0.803471
0.840425
0.853539
0.836849
0.819564
0.717640
0.901818
0.790954
0.876784
0.891685
0.858903
0.967979
1.129508
1.033545
1.206994
1.308918
1.451969
1.356602
1.395941
1.481771
1.755953
1.882911
2.141595
2.481937
4.701614
16.329885
68.896413
161.190629
395.748615
655.424595
1008.680463
1015.918851
1015.918851
1015.918851
1015.918851
1015.918851
720.096827
452.991724
207.932591
98.201632
28.800964
12.119412
7.748604
7.538795
7.228851
7.081628
7.111430
7.027984
7.247925
7.914901
9.716749
12.505651
18.114448
24.066567
32.755733
39.012432
##ZVALUE=370
0.281930
0.382662
0.449419
0.310540
0.366569
0.353456
0.378489
0.397563
0.305772
0.468493
0.417829
0.295639
0.353456
0.437498
0.443459
0.334978
0.215769
0.329614
0.526905
0.440478
0.487566
0.590682
0.486970
0.442863
0.474453
0.276566
0.519753
0.485778
0.492930
0.321865
0.509620
0.536442
0.494719
0.550747
0.654459
0.525713
0.643730
0.561476
0.461936
0.752807
0.595450
0.666976
0.821948
0.691414
0.688434
0.702739
0.670552
0.491738
0.777841
0.684857
0.851750
0.979900
0.964999
0.951886
0.712872
0.887513
0.947714
1.174808
1.168847
1.162887
1.214743
1.319647
1.415610
1.660585
1.856685
1.946688
2.771616
8.770823
49.072504
125.814676
311.909914
516.664982
858.908892
1015.794873
1015.794873
1015.794873
1015.794873
1015.794873
833.891630
552.772880
260.071754
131.251812
47.979951
19.172430
7.634759
7.042885
6.596446
6.385446
6.384850
6.192923
6.117821
6.633997
6.925464
8.396506
11.171699
14.593601
##ZVALUE=375
0.235438
0.222921
0.392795
0.292659
0.529885
0.231862
0.276566
0.305772
0.246763
0.209808
0.471473
0.414848
0.304580
0.518560
0.335574
0.474453
0.322461
0.483990
0.338554
0.430942
0.215769
0.415444
0.504851
0.344515
0.468493
0.360608
0.660419
0.613928
0.359416
0.520945
0.375509
0.566840
0.401735
0.753999
0.444651
0.479817
0.598431
0.577569
0.580549
0.655651
0.495911
0.501871
0.555515
0.614524
0.530481
0.525713
0.637770
0.538826
0.593662
0.643730
0.735521
0.745654
0.716448
0.719428
0.682473
0.637770
0.836849
0.922680
0.854731
0.951886
1.107454
1.090765
1.270771
1.392961
1.340508
1.413822
1.672506
1.898408
2.206564
5.732775
21.365881
89.783669
201.969743
473.713875
756.840706
1015.793681
1015.793681
1015.793681
1015.793681
1015.793681
1015.793681
682.296753
435.295701
214.152932
105.241537
31.608939
11.822581
6.557703
5.916953
6.095767
5.702972
5.861521
5.845428
5.775690
5.668998
6.520748
##ZVALUE=380
0.435710
0.246763
0.375509
0.487566
0.317693
0.191927
0.259876
0.295639
0.433922
0.294447
0.248551
0.408888
0.434518
0.316501
0.315905
0.299811
0.391603
0.475645
0.451803
0.350475
0.449419
0.400543
0.345707
0.220537
0.372529
0.374913
0.439882
0.363588
0.447631
0.447631
0.422597
0.411868
0.533462
0.514984
0.570416
0.537634
0.373721
0.461936
0.491738
0.500679
0.641942
0.583529
0.642538
0.439882
0.565648
0.370741
0.628829
0.618696
0.432730
0.586510
0.756979
0.815988
0.627637
0.575781
0.636578
0.750422
0.673532
0.713468
0.882745
0.885725
0.883937
0.719428
1.079440
1.025796
0.794530
1.103878
1.263618
1.496673
1.716614
1.977682
2.306700
3.379583
10.567904
55.950880
144.160986
375.564694
640.282631
1010.044813
1015.800834
1015.800834
1015.800834
1015.800834
1015.800834
890.472531
609.172583
309.197903
159.931779
55.377483
20.543933
7.639527
6.082654
5.641580
5.603433
5.562901
5.470514
5.174875
##ZVALUE=385
0.164509
0.041723
0.235438
0.156760
0.107884
0.051856
0.072718
0.190735
0.031590
0.026822
0.093579
0.102520
0.082850
0.059605
0.051856
0.004768
0.049472
0.093579
0.059605
0.153780
0.169873
-0.039935
0.172853
0.152588
0.299811
0.335574
0.241995
0.244975
0.222921
0.185966
0.110865
0.108480
0.152588
0.156760
0.157952
0.207424
0.137687
0.479817
0.325441
0.177622
0.294447
0.219941
0.316501
0.219941
0.298619
0.237823
0.296831
0.324845
0.353456
0.282526
0.367761
0.355840
0.350475
0.270605
0.390410
0.468493
0.550747
0.585914
0.580549
0.682473
0.726581
0.595450
0.650883
0.684857
0.719428
0.696778
0.888705
1.086593
1.057982
1.440644
1.629591
1.634955
2.042651
2.182722
5.030632
31.001568
86.404681
240.624547
454.035997
860.359669
1015.623808
1015.623808
1015.623808
1015.623808
1015.623808
999.075770
729.298592
393.302441
219.692588
87.371469
35.024881
9.542704
5.737543
5.209446
4.951954
4.954934
##ZVALUE=390
0.422597
0.366569
0.342727
0.427961
0.271797
0.220537
0.226498
0.321865
0.270605
0.378489
0.368953
0.255704
0.305772
0.185966
0.196695
0.237823
0.197887
0.351667
0.362992
0.373721
0.400543
0.396967
0.392795
0.350475
0.270605
0.309944
0.330806
0.348687
0.309944
0.306964
0.204444
0.405908
0.339746
0.339746
0.502467
0.347495
0.398755
0.459552
0.440478
0.568628
0.346899
0.389814
0.631809
0.527501
0.472665
0.459552
0.332594
0.378489
0.549555
0.420809
0.582933
0.462532
0.467896
0.535846
0.574589
0.567436
0.592470
0.632405
0.752807
0.526905
0.710487
0.727773
0.766516
0.849962
0.855923
0.906587
0.923872
0.977516
1.291633
1.420975
1.425743
1.534820
1.771450
1.662970
1.973510
1.966953
3.093481
11.251569
58.529973
143.653750
365.136862
607.578754
974.664688
1015.794873
1015.794873
1015.794873
1015.794873
1015.794873
898.069739
602.063537
302.839875
150.454640
50.062537
18.201470
6.468892
5.114675
##ZVALUE=395
0.323653
0.366569
0.273585
0.260472
0.378489
0.372529
0.174642
0.308752
0.385642
0.302792
0.364780
0.338554
0.469685
0.286698
0.264645
0.197887
0.280738
0.246763
0.363588
0.190735
0.279546
0.363588
0.403523
0.402927
0.430942
0.396967
0.373721
0.513792
0.257492
0.416636
0.411868
0.222921
0.576973
0.450611
0.497699
0.337958
0.532866
0.346899
0.524521
0.491738
0.369549
0.433922
0.485778
0.500679
0.443459
0.450611
0.459552
0.472665
0.410676
0.605583
0.426769
0.461936
0.546575
0.510812
0.396967
0.494719
0.630617
0.672936
0.685453
0.676513
0.713468
0.823736
0.715852
0.670552
0.983477
0.885725
0.799894
1.031756
1.106858
1.271963
1.416802
1.600981
1.601577
1.466870
1.484752
1.544952
1.570582
1.762509
2.273917
8.209944
32.948852
125.842690
249.828696
505.529642
782.742500
1015.833020
1015.833020
1015.833020
1015.833020
1015.833020
1015.833020
712.857842
447.150469
192.703009
91.105700
29.019713
##ZVALUE=400
0.377893
0.277758
0.302792
0.472665
0.260472
0.401735
0.374913
0.244975
0.356436
0.398755
0.286698
0.100732
0.273585
0.181794
0.228882
0.295639
0.327826
0.362992
0.318885
0.306964
0.458956
0.311732
0.554919
0.546575
0.303984
0.314713
0.328422
0.424981
0.351667
0.373721
0.288486
0.358820
0.322461
0.380874
0.414848
0.295639
0.320673
0.456572
0.438690
0.452995
0.504851
0.276566
0.345707
0.422597
0.404716
0.483990
0.501871
0.544786
0.575781
0.443459
0.526905
0.622869
0.687838
0.676513
0.732541
0.658631
0.464916
0.732541
0.707507
0.681877
0.702739
0.808835
0.561476
0.875592
0.747442
0.760555
0.963807
0.973940
1.105666
1.282692
1.196861
1.380444
1.343489
1.330972
1.339912
1.421571
1.310706
1.530647
1.596808
1.799464
2.124906
4.843473
19.236803
76.076984
167.663693
385.835767
625.323653
985.067487
1015.870571
1015.870571
1015.870571
1015.870571
1015.870571
757.269859
501.513481
252.079964
##END
