##TITLE=FQP00301
##FORMAT=SPECTACLE-ASCII V-1.2
##DATA TYPE=ULTRAVIOLET SPECTRUM
##SECOND TYPE=ULTRAVIOLET SPECTRUM
##DATE=10/24/17
##TIME=17:08:57
##SPECTROMETER/DATA SYSTEM=SPECTACLE
##XUNITS=NM EM
##YUNITS=ENERGY
##YFACTOR=1
##FIRSTX=220
##LASTX=410
##NPOINTS=96
##3DDATA=Equidistant
##ZUNITS=NM EX
##FIRSTZ=210
##LASTZ=400
##ZPOINTS=39
##XYDATA=(Y..Y)
##ZVALUE=210
3.324747
2.901554
2.717972
2.839565
2.718568
2.806783
3.575683
3.458858
3.566742
3.728867
4.014969
4.629493
5.728602
5.259514
6.015897
5.481839
6.511807
6.661415
7.441640
6.952882
8.356571
9.256601
8.756518
10.264516
10.202527
11.409521
11.454821
11.208653
11.522770
12.942553
13.338923
12.431741
13.958812
15.021563
14.391541
13.844967
13.804436
14.829636
15.120506
14.379621
15.313625
14.867783
15.769601
15.244484
17.442703
16.830564
18.213987
18.388629
17.275810
18.668771
17.972589
18.161535
16.943812
20.063519
19.705892
18.525720
19.772649
19.487739
19.483566
18.695593
21.106601
19.953847
20.110607
19.748807
21.395683
20.874739
21.734834
24.709702
27.299523
30.977726
39.916635
45.601726
53.102970
64.713955
71.358681
80.762506
84.706545
86.077452
84.935427
85.851550
81.951618
73.557496
65.928698
52.508712
43.610930
34.834743
28.437972
25.449991
20.445585
18.773675
19.740462
19.027591
18.375516
18.031597
17.707944
18.428564
##ZVALUE=215
11.534691
13.007522
10.946989
6.875992
6.519556
5.435944
4.938841
4.393458
5.248785
6.091595
6.067753
5.969405
5.918741
5.451441
5.486608
5.954504
6.076694
6.975532
7.252693
6.876588
7.708669
7.413626
8.047819
8.953810
9.498596
9.732842
9.502769
10.475516
10.543466
11.865497
11.626482
11.961460
12.077689
13.412833
12.979507
11.872649
13.892651
14.935732
14.133453
13.570786
13.703704
14.631748
13.962984
14.401674
14.711618
13.828874
14.861822
15.460849
15.326738
15.695691
15.678406
15.486479
18.040538
16.835928
16.426444
16.689897
17.877817
17.576814
16.680956
18.577576
17.735958
16.783476
17.216802
16.939640
18.806458
17.591715
18.919706
20.005703
22.194982
23.446679
28.218627
35.531521
41.056871
47.399998
53.801537
57.513714
58.249831
62.228441
64.430833
61.031580
58.461428
51.148534
45.933723
40.722489
33.243895
28.158426
23.440719
20.355582
17.766953
17.492771
16.670823
14.964938
13.841987
16.037822
13.854504
15.627742
##ZVALUE=220
43.373704
43.655634
47.421455
48.423409
42.585731
35.492778
26.217699
17.975569
13.726950
11.802912
11.231899
11.986494
10.448694
11.008978
9.906888
9.265542
8.572936
7.092953
6.481409
6.744862
7.730722
7.281899
6.945729
7.439852
7.585883
8.864999
9.212494
10.510683
10.550618
10.784864
11.951923
12.212992
12.442470
12.906790
13.119578
13.645887
12.131929
13.761520
13.588667
13.422966
13.432503
14.804602
14.907718
13.989806
14.968514
14.045835
15.068650
15.492439
14.855862
14.879704
15.274882
15.551448
15.524626
15.734434
16.385913
16.927719
15.671849
15.787482
16.537905
15.817881
15.846491
17.540455
16.107559
16.646981
17.009974
16.859770
17.552972
20.193458
21.315813
22.956729
27.049780
29.843450
34.750700
41.479468
43.754578
46.400428
46.918988
49.936771
53.444505
51.347613
49.788952
44.792891
39.553642
33.511519
28.795600
25.009513
21.839738
18.574595
16.789436
15.937686
14.741421
14.681816
15.821457
16.013980
14.740825
15.137792
##ZVALUE=225
77.133775
80.100894
106.647611
132.933855
142.687559
143.502951
131.374598
101.528764
78.136921
58.362484
35.446882
27.055740
24.355650
24.874806
25.127530
27.186871
20.770431
17.631650
13.932586
10.811687
9.032488
8.651614
8.395910
7.427931
8.551478
8.542538
8.790493
9.827614
11.089444
11.533499
11.443496
9.825826
12.357831
12.861490
12.684464
12.150407
13.136864
14.146566
13.593435
14.606714
13.659596
14.549494
15.294552
14.553666
15.835762
15.733838
16.009808
16.627908
15.877485
16.324520
16.415715
17.078519
17.132759
17.937422
16.852617
17.323494
18.025637
17.418861
17.494559
18.111467
17.970800
19.449592
19.104481
17.796755
19.113421
19.284487
21.915436
19.433498
22.998452
25.445819
27.391911
30.767918
32.824874
36.757588
40.793419
41.708946
43.424964
46.382546
43.547750
41.295886
39.375424
35.612583
33.095479
29.522777
25.192499
22.946596
21.764636
19.074678
18.377900
18.669963
17.945766
18.328428
18.073916
18.414855
16.275644
16.714931
##ZVALUE=230
66.598654
73.012710
133.650899
190.503001
275.237560
324.570537
364.211798
359.405875
322.546959
257.441998
174.487829
125.935674
81.853867
53.886771
45.337677
46.853423
47.159791
45.091510
45.873523
39.181709
29.846430
22.915602
16.294718
12.624860
10.351539
10.579824
9.135604
11.155605
10.610819
11.714697
11.470914
12.560487
11.764765
12.690425
12.676716
12.784600
14.684796
14.725924
15.217662
14.361739
17.058849
16.785860
17.220974
18.536448
19.311905
21.092892
20.241737
20.387769
21.286607
22.016764
22.780895
24.672747
23.797750
22.683740
24.482608
23.826957
24.402738
24.315715
26.534796
25.691986
27.685761
27.401447
27.321577
27.275681
25.893450
26.923418
27.907491
28.371811
31.910539
32.877922
34.849644
37.644506
40.717721
44.198632
47.693849
44.794679
49.864650
49.069524
49.711466
46.082735
46.736598
42.806864
38.237572
36.407709
34.174919
30.873418
31.010509
27.247667
27.693510
27.573705
25.665760
25.982857
27.409792
23.831725
25.086999
26.162863
##ZVALUE=235
27.393699
32.054782
69.527626
154.016614
248.583555
389.967561
504.316688
629.912019
688.221455
692.890882
616.267920
501.516461
335.232615
233.981609
141.229630
102.853775
76.401830
75.501800
79.879761
81.114769
79.784989
67.687631
55.893660
39.751530
29.041767
20.461679
17.373562
12.710690
12.238622
12.543797
11.758804
11.602640
13.146996
13.292432
13.533831
15.230775
15.318990
16.030669
16.145706
16.698837
18.651485
20.394921
21.783710
21.701455
23.206472
24.128556
25.472641
29.102564
30.335784
29.739738
29.079914
34.577847
33.416748
34.389496
36.699772
34.871697
34.801960
37.112832
36.948919
38.222671
38.795471
39.123893
37.953854
37.388802
40.538907
40.612817
41.385889
42.078495
41.600466
44.457912
44.931769
48.820972
53.477883
56.856871
58.297515
61.793923
60.838461
60.364604
61.623454
60.323477
55.453777
52.757859
51.892996
46.536922
45.894980
41.909814
41.832924
37.407875
37.586689
39.785504
36.255717
36.444664
37.531853
34.992695
36.508441
36.171675
##ZVALUE=240
3.179908
3.326535
14.819503
41.133761
114.448667
205.533504
392.600894
575.846434
841.255784
985.677838
1015.793681
1015.793681
989.441872
790.855885
607.587695
367.648602
248.827934
153.420568
111.605525
102.174878
110.457540
118.501782
113.491416
105.412006
85.775852
70.652962
47.953725
38.221478
26.520491
20.385981
15.962720
15.959740
13.904572
16.126633
15.031695
15.468597
15.208721
18.273592
17.405748
20.571947
21.221638
22.983551
26.036501
28.938651
29.599667
31.319857
34.867525
38.160682
40.032864
41.992664
43.049455
45.332909
46.464801
45.549870
47.442913
49.026608
48.835874
50.324798
49.865842
48.650503
51.256418
49.251914
50.515532
52.196980
56.068897
52.793622
54.806471
54.251552
59.495568
61.021447
59.831738
61.743855
63.732862
67.457557
66.908002
70.447922
75.064898
72.461963
70.092678
68.548918
65.853000
63.649416
61.839819
54.920912
55.375695
53.480864
52.872896
50.417781
52.726865
48.735738
48.645735
44.686794
46.832561
44.979453
45.802593
42.932630
##ZVALUE=245
2.329946
2.646446
3.120899
2.955794
9.574890
32.041669
108.039975
218.111873
448.915958
660.662651
974.157453
1015.802622
1015.802622
1015.802622
1015.802622
1015.802622
849.699378
563.551784
381.672978
209.343433
139.521956
112.285614
114.428997
124.691725
131.529570
128.444433
117.350817
99.320412
78.560710
56.796670
44.749975
29.132962
21.423697
18.096566
16.169548
15.053749
17.983913
18.578768
19.708872
21.901727
23.238659
26.114583
28.849840
31.997561
34.040809
37.549734
39.747953
43.076873
45.195818
46.229959
48.614740
51.492453
51.991940
53.502917
55.133700
56.424737
53.658485
53.682923
58.630705
55.890679
54.711699
58.254600
55.407882
54.829717
56.303740
55.045485
54.083467
56.842566
57.216883
59.107542
59.264898
60.270429
64.828992
62.377453
62.109828
70.350766
67.482591
66.356659
66.046715
65.159798
63.943863
60.474873
58.607459
57.328939
53.820610
53.409934
52.560568
48.065782
48.964620
47.065616
45.416951
44.960976
45.529604
46.543479
46.047568
44.613481
##ZVALUE=250
2.252460
2.249479
2.261996
2.339482
2.573729
2.909899
4.495978
17.306805
83.710551
179.083943
412.852764
660.148859
921.635032
1015.793681
1015.793681
1015.793681
1015.793681
1015.793681
1015.793681
778.522491
511.165857
320.459604
170.302987
117.732882
114.143491
124.624968
139.811635
143.465996
138.536692
124.281645
113.312602
86.150765
67.303777
41.229725
31.817555
23.097992
20.364523
19.768476
20.551682
21.787882
23.044944
25.755763
29.274821
31.897426
34.426451
37.160516
40.691495
42.857528
44.390559
47.895908
48.853755
53.072572
53.460598
54.582953
56.469440
54.146647
56.512952
54.743886
53.941607
52.625537
53.563714
50.188899
51.168799
51.025748
51.217675
50.717592
50.655603
49.394965
50.506592
51.167607
54.776669
53.490996
53.372979
57.035685
58.933496
56.799650
59.023499
59.019923
57.591796
56.263804
56.936741
51.809549
49.657822
49.138665
47.285557
45.916438
46.052933
44.328570
44.026971
42.850971
42.281747
40.564537
40.029883
40.814877
42.117834
39.818883
##ZVALUE=255
1.944900
2.026558
1.874566
1.974702
2.029538
2.361536
2.552867
2.882481
4.132986
11.155605
58.965683
142.231584
287.751555
586.069822
881.160498
1015.794873
1015.794873
1015.794873
1015.794873
1015.794873
1015.794873
1015.794873
720.548630
446.102619
224.728584
142.477751
103.318691
106.933713
131.896734
141.217709
150.953531
150.199533
135.347843
110.787749
88.310838
62.057972
47.162771
32.010674
26.351810
23.460984
24.084449
24.348497
26.250482
30.662417
32.261610
35.409927
35.828948
39.949417
41.536689
43.575764
46.248436
44.710636
47.943592
46.721697
48.450828
48.011541
49.508810
46.750903
46.209693
45.513511
46.231747
43.571591
45.679808
44.320822
43.004751
44.103861
41.991472
43.048859
44.145584
43.508410
42.951703
44.250488
45.046806
46.972632
47.707558
49.718618
48.446655
47.823787
49.019456
46.061873
46.904683
44.692755
42.048693
41.367412
41.420460
40.766597
40.072799
41.070580
39.048791
38.758516
37.937760
37.489533
37.301779
37.903786
37.684441
36.846995
##ZVALUE=260
1.892447
1.680851
1.754761
1.821518
1.979470
1.887679
2.392530
2.426505
2.782941
2.541542
3.087521
5.124807
19.421577
87.424517
190.198421
446.434617
719.481707
1015.793681
1015.793681
1015.793681
1015.793681
1015.793681
1015.793681
1015.793681
973.819494
674.069524
369.996428
214.200616
115.574002
94.525814
105.116963
128.649473
146.708488
157.215595
154.335499
139.485598
116.283894
91.101527
70.685744
49.434900
36.786795
29.981732
27.763844
26.942492
27.289987
30.159950
32.545924
34.085512
34.955740
36.965609
37.641525
37.725568
40.054917
39.285421
38.999915
39.006472
37.659407
38.365722
38.274527
38.905740
38.506985
37.694573
36.389828
36.539435
34.860969
34.918785
34.224987
36.154985
35.446882
35.578609
37.577748
38.465858
38.752556
39.484501
41.051507
40.954947
41.520596
39.754510
41.272640
39.521456
39.899945
39.821863
37.473440
38.829446
35.551786
36.930442
36.679506
35.754442
34.733415
36.353469
35.604835
36.183596
34.403801
35.352707
35.573840
34.918785
##ZVALUE=265
1.656413
1.837611
1.681447
1.927614
1.692772
1.948476
1.762509
2.119541
2.184510
2.448559
2.322793
2.686977
3.037453
3.847480
11.365414
61.273575
144.952536
342.721939
583.502054
1001.238823
1015.793681
1015.793681
1015.793681
1015.793681
1015.793681
1015.793681
1015.793681
932.337046
516.857505
296.109915
167.530775
90.690851
88.921785
115.001798
136.586428
154.152513
160.283446
154.119730
140.502453
115.957856
95.876455
70.379972
53.841472
38.484931
33.499599
27.896762
28.353930
29.135942
31.218529
31.833649
31.743646
31.876564
34.359694
32.702684
33.356547
32.898784
32.750964
32.210946
32.150745
31.674504
32.450557
31.064749
30.529499
31.725764
30.808449
30.345917
30.339956
30.372739
30.672550
32.233000
33.543706
33.982992
34.509897
35.236478
36.231875
37.914515
36.763549
36.689639
36.594868
36.297441
35.329461
34.578443
33.643842
34.035444
33.151507
32.834411
33.202767
33.674836
32.606721
31.638741
32.072663
31.472445
33.252835
32.044649
32.048821
31.963587
##ZVALUE=270
1.409650
1.407862
1.488924
1.467466
1.464486
1.650453
1.695752
1.671910
1.870990
2.021790
2.268553
2.484918
2.430677
2.745986
2.799630
3.073812
4.568696
25.550723
78.622699
240.310431
464.294553
805.160999
1015.793681
1015.793681
1015.793681
1015.793681
1015.793681
1015.793681
1015.793681
1015.793681
826.417804
423.619747
231.731534
101.114511
75.879693
89.052916
111.488700
139.344931
155.367851
164.953470
159.072876
145.366788
126.186609
96.267462
76.071620
52.281618
42.381883
33.692718
30.397773
29.895902
28.341413
28.853416
29.192567
29.140711
29.964447
29.409528
29.174685
29.534698
29.314756
29.996634
30.422807
28.444529
28.294921
28.539896
28.569698
27.959943
29.224753
28.801560
30.465722
31.007528
30.003786
31.517744
33.396482
32.642484
33.933520
35.407543
34.973621
34.614801
34.333467
33.876896
33.287406
32.348633
32.701492
32.061934
31.202435
32.126904
30.559897
30.830503
31.186938
30.868649
29.927492
29.952526
30.154586
30.097961
30.925870
30.190945
##ZVALUE=275
1.163483
1.147985
1.257658
1.489520
1.424551
1.579523
1.680851
1.589656
1.767874
1.780987
2.038479
1.980662
2.140999
2.286434
2.335906
2.410412
2.636909
3.116727
3.247857
10.320544
40.873885
115.351677
355.426669
674.202442
1015.790701
1015.790701
1015.790701
1015.790701
1015.790701
1015.790701
1015.790701
1015.790701
998.444557
549.157858
311.107635
131.483674
73.572993
67.075491
86.299777
114.941001
137.490630
155.985951
162.980556
159.112811
145.366788
120.222569
98.625422
75.298548
60.164928
44.007897
36.213994
30.367970
29.097795
28.457642
28.245449
27.967691
27.579665
28.550625
27.926564
27.999878
28.666854
28.333664
28.573871
28.760433
28.875470
28.697848
29.423833
28.843880
30.302405
30.698776
31.011701
33.252835
33.430457
34.419894
35.074949
36.044717
35.347939
34.471750
33.653975
33.191442
32.239556
31.995773
31.566620
29.902458
30.774474
31.424761
30.169487
29.444695
29.978752
29.059649
29.524565
28.589964
29.540658
28.300881
29.095411
28.609633
##ZVALUE=280
1.101494
1.328588
1.219511
1.181960
1.279712
1.365542
1.367927
1.553893
1.499653
1.558661
1.607537
1.347661
1.959801
1.788735
2.142787
2.228618
2.086759
2.519488
2.578497
2.987981
3.467798
4.369617
28.383732
93.553662
280.775428
526.353717
975.103974
1015.790701
1015.790701
1015.790701
1015.790701
1015.790701
1015.790701
1015.790701
1015.790701
712.719560
422.018766
183.351636
91.360807
54.355860
62.619448
88.496804
113.007426
137.927532
153.167844
161.885619
158.455968
139.489770
123.309493
98.145604
76.617599
55.774450
44.820905
34.904480
29.457808
28.345585
27.632713
27.451515
27.724504
27.834773
28.472543
28.961897
28.895736
28.382540
28.841496
29.688478
29.341578
30.553937
30.812621
31.177998
30.640960
32.939911
33.798814
34.359694
34.509897
34.798980
35.462976
34.682751
33.991933
33.106804
32.985806
31.887889
31.172633
31.033754
30.759573
29.945970
30.472875
29.131770
28.769970
28.742552
28.227568
27.911663
28.012991
27.382970
27.021766
27.655959
##ZVALUE=285
0.937581
1.220703
1.200438
1.069903
0.876784
1.165867
1.245737
1.372695
1.180768
1.364946
1.377463
1.466870
1.555681
1.622438
1.787543
1.753569
1.983643
1.934767
2.140999
2.365708
2.456903
2.634525
2.982616
3.495812
13.779998
51.487684
171.582699
343.001485
739.552975
1015.754938
1015.754938
1015.754938
1015.754938
1015.754938
1015.754938
1015.754938
1015.754938
957.835913
603.172779
282.526612
141.205788
58.001876
45.375824
61.266422
82.462430
110.369921
130.129457
149.805546
158.984661
153.973699
143.413544
123.098493
101.740956
76.697469
60.476661
42.547584
35.295486
30.206442
27.314425
27.311444
27.488470
27.825832
28.114915
28.438568
28.778911
29.349923
30.174851
29.579997
30.454993
31.381845
32.032728
32.499433
33.573508
32.687783
33.663511
34.253597
33.796430
33.152699
32.110810
32.481551
31.973720
30.548573
30.985475
30.392408
30.407906
30.134916
29.685497
28.259754
28.685927
28.885603
28.081536
28.204918
27.503967
27.011633
27.331710
26.643872
##ZVALUE=290
1.125932
1.084805
1.089573
1.077652
0.979900
1.005530
1.284480
1.036525
1.184940
1.205802
1.121759
1.109838
1.429915
1.541972
1.334548
1.529455
1.523495
1.824498
1.961589
1.920462
1.959801
2.197623
2.934933
2.664924
3.055930
3.425479
4.790425
30.341744
92.976689
261.116624
472.995639
916.061997
1015.793681
1015.793681
1015.793681
1015.793681
1015.793681
1015.793681
1015.793681
1015.793681
824.332833
413.680673
215.249658
80.533624
40.086508
40.862560
54.314733
78.186989
99.287629
125.459433
143.974423
154.567957
153.247714
138.349533
122.693777
95.652938
76.523423
56.449771
44.486523
34.796000
31.503439
28.271675
27.498603
27.722716
27.676821
28.401613
28.343797
29.461980
29.554963
30.386448
31.420588
31.606555
32.936931
32.208562
31.802654
32.903552
32.606721
32.728910
31.819940
31.223893
31.064749
30.430555
30.727983
30.098557
30.125976
29.766560
29.879808
28.848648
28.750896
28.377771
27.237535
27.031898
27.661920
27.326941
27.104616
26.443601
##ZVALUE=295
0.926852
0.935793
0.888705
0.956655
0.921488
0.893474
0.978708
1.032948
1.041889
1.100898
1.103878
1.099706
1.038909
1.223683
1.349449
1.417994
1.380444
1.359582
1.587868
1.685619
1.802444
1.907945
2.003908
2.144575
2.322793
2.744794
3.154874
3.516674
3.969669
10.622740
49.011707
185.616016
364.652872
738.052726
1015.793681
1015.793681
1015.793681
1015.793681
1015.793681
1015.793681
1015.793681
1015.793681
1015.793681
578.715801
312.111974
111.927986
53.052902
29.807687
35.549998
54.164529
71.542859
98.766685
115.945935
137.915611
146.237612
144.808888
133.517981
114.201903
97.218752
71.910620
58.154464
43.198466
34.982562
29.825568
28.026700
27.819872
28.118491
28.182864
28.662682
29.447675
30.451417
30.243993
30.998588
31.722784
31.800866
31.615496
31.996965
31.429529
31.329989
31.149983
31.078458
29.648542
30.413866
30.072927
30.534863
29.564500
28.955936
29.192567
28.891563
28.426647
27.843714
26.928782
27.117729
26.959777
26.614666
26.121736
##ZVALUE=300
0.975728
0.821948
0.947714
0.884533
0.736713
0.910759
0.811815
0.871420
1.054406
0.941753
0.971556
1.014471
1.095533
1.062751
1.074672
1.250505
1.320839
1.453757
1.308918
1.360774
1.407862
1.489520
1.726747
1.812577
1.783967
2.120733
2.232790
2.563596
2.732873
2.913475
3.233552
4.362464
20.971894
79.794526
252.771974
468.201041
904.007554
1015.794873
1015.794873
1015.794873
1015.794873
1015.794873
1015.794873
1015.794873
1015.794873
849.346519
423.272848
226.745605
82.979798
36.343932
27.196407
34.283996
51.305890
66.675544
92.105865
111.822486
132.447481
140.031576
140.070915
131.826997
112.603903
96.174479
73.655844
58.824420
43.078661
36.144853
31.256676
28.514862
27.320981
29.176474
29.080510
29.446483
30.236840
30.703545
30.858517
30.737519
31.664968
31.759739
30.339956
31.070709
30.511618
30.975938
29.997826
29.795766
29.850602
29.694438
29.978752
29.611588
29.225945
28.162599
28.807521
28.056502
28.283596
26.910901
27.059913
26.955605
##ZVALUE=305
0.819564
0.826716
0.722408
0.854731
0.840425
0.861883
0.783801
0.840425
0.855923
0.699759
0.955462
0.944734
1.030564
0.913739
1.019835
1.081824
1.304746
1.231432
1.393557
1.361966
1.320839
1.357794
1.447797
1.422763
1.601577
1.419783
1.830459
1.915693
1.975894
2.296567
2.759695
2.862811
3.070831
3.635883
6.759763
43.973923
125.913024
354.526639
639.539957
1015.805602
1015.805602
1015.805602
1015.805602
1015.805602
1015.805602
1015.805602
1015.805602
981.140733
636.484027
291.075706
139.809847
46.743751
25.712848
26.636720
33.923984
50.807595
67.486763
91.070533
108.385682
127.685666
135.219693
135.027766
126.998425
110.290647
93.616843
70.196986
56.475997
43.095946
35.835505
30.624866
29.652715
29.329658
30.029416
29.792786
30.546784
30.594468
31.418800
31.572580
31.590462
31.438470
31.535625
30.910969
30.893683
31.385422
31.091571
30.550957
30.277967
30.310750
30.363798
30.082464
29.550791
29.294491
28.788447
27.897954
27.795434
27.497411
##ZVALUE=310
0.922680
1.035929
1.067519
0.895858
0.963807
1.000762
1.012683
0.968575
1.179576
0.914931
1.067519
1.142621
1.139641
1.186728
1.245737
1.227856
1.290441
1.225471
1.473427
1.190901
1.397729
1.347661
1.373887
1.605749
1.495481
1.676679
1.916885
1.839995
1.971722
2.104640
2.250671
2.265573
2.507567
2.901554
3.167987
3.372431
4.250407
19.652843
66.993833
215.190649
420.671105
853.054523
1016.016603
1016.016603
1016.016603
1016.016603
1016.016603
1016.016603
1016.016603
1016.016603
882.302523
441.986918
234.469771
83.776712
35.837889
21.393895
24.476647
33.509731
43.885708
63.026547
80.142617
102.467537
114.800930
125.970840
127.850771
120.430589
110.136867
91.399550
73.578954
56.220889
45.957565
36.776662
33.223629
30.806661
30.386448
30.211806
31.206608
31.046867
30.923486
31.459928
31.855702
31.497478
32.679439
32.044649
32.610893
32.649636
32.080412
32.150745
31.035542
30.792952
29.902458
29.297471
29.002428
28.840899
28.723478
28.724670
##ZVALUE=315
0.589490
0.636578
0.629425
0.676513
0.652671
0.651479
0.639558
0.825524
0.786781
0.779629
0.835657
0.843406
0.897646
0.756979
0.804663
0.635982
0.949502
0.942945
0.854731
0.813603
0.980496
1.037717
1.223683
1.242757
1.214743
1.220703
1.421571
1.351833
1.548529
1.516938
1.620650
1.693964
1.909733
2.171993
1.973510
2.441406
2.881885
2.941489
3.422499
6.195903
39.534569
113.281608
315.211415
569.054484
1011.404991
1015.793681
1015.793681
1015.793681
1015.793681
1015.793681
1015.793681
1015.793681
1007.166505
673.301816
310.462713
144.449472
43.118596
22.384524
20.407438
23.381710
30.962825
40.075779
57.163835
72.689652
95.034838
108.627677
120.566487
122.526884
115.154982
104.344487
84.882975
71.518421
55.720806
46.122670
37.466884
33.182502
31.493902
30.915737
30.376911
30.016899
31.703711
31.702518
31.488538
31.777620
31.692982
31.441450
31.949878
31.902790
31.496882
31.150579
30.423999
30.198693
30.439496
29.030442
28.580427
28.887987
##ZVALUE=320
0.587702
0.591874
0.505447
0.611544
0.639558
0.573993
0.513792
0.532866
0.602603
0.692606
0.566840
0.549555
0.586510
0.719428
0.741482
0.652671
0.882745
0.816584
0.714660
0.808835
0.989437
0.873804
0.997782
1.021624
1.088977
1.199841
1.085997
1.209974
1.494884
1.396537
1.421571
1.467466
1.638532
1.676679
1.589656
1.739860
1.925826
2.222657
2.473593
2.684593
2.898574
4.291534
14.328957
77.812672
191.301703
482.005477
791.546702
1015.738845
1015.738845
1015.738845
1015.738845
1015.738845
1015.738845
1015.738845
1015.738845
846.005082
486.080647
202.176571
87.451935
27.236938
17.565489
17.530918
20.339489
26.921630
35.912991
52.406788
67.430735
87.870955
101.942420
113.539696
117.504597
111.831427
102.149844
84.906816
71.037412
54.694414
45.421720
37.303567
32.544732
31.508803
30.265450
30.682683
30.852556
31.335950
31.055808
31.498671
31.162500
31.254888
30.937791
30.805469
30.314922
30.416846
30.325651
29.365420
29.196739
29.036999
##ZVALUE=325
0.742674
0.693798
0.634789
0.565648
0.605583
0.626445
0.528693
0.676513
0.727773
0.749826
0.695586
1.012683
0.745654
0.807643
0.872612
0.878572
0.855923
0.954866
0.811815
0.816584
0.928640
0.992417
0.943542
1.086593
1.086593
1.171827
1.148582
1.329780
1.307726
1.268983
1.395941
1.314878
1.506805
1.703501
1.704693
1.966953
1.793504
2.014637
2.090931
2.260804
2.228618
2.494454
2.950430
3.659725
7.676482
55.372715
139.846802
344.186425
609.393716
1015.861034
1015.861034
1015.861034
1015.861034
1015.861034
1015.861034
1015.861034
1015.861034
990.992785
636.506677
277.407765
129.606724
38.418770
17.825961
15.204549
16.050935
20.606518
25.526881
35.927892
48.556924
68.679452
82.717538
99.783540
108.370781
111.038685
105.728507
94.008446
81.121922
65.815449
53.773522
42.928457
36.548972
32.958984
30.547976
30.968785
30.102730
30.690432
30.704737
31.112432
30.738711
30.333996
30.267835
29.682517
29.782653
29.529929
29.450655
28.525591
##ZVALUE=330
0.500679
0.621676
0.726581
0.424981
0.504851
0.492930
0.639558
0.453591
0.607967
0.654459
0.779629
0.583529
0.752807
0.688434
0.678897
0.698566
0.661612
0.654459
0.662804
0.740886
0.823736
0.749826
0.838637
1.019835
0.842810
0.859499
0.954866
1.172423
1.003742
1.272559
1.088977
1.203418
1.398921
1.322627
1.368523
1.260638
1.375675
1.584888
1.569986
1.678467
1.838803
2.068877
2.344847
2.579689
2.731681
3.369451
4.569888
23.750663
76.289773
235.941410
437.659621
856.475830
1015.826464
1015.826464
1015.826464
1015.826464
1015.826464
1015.826464
1015.826464
1015.826464
808.357596
382.207632
194.199681
66.898465
26.362538
14.717579
14.873743
16.437769
18.995404
26.270747
34.918785
49.398541
62.772632
81.989765
94.267726
103.462934
105.599761
100.742579
91.096759
76.161623
63.250661
50.666928
42.938590
36.573410
33.607483
31.593442
30.113459
29.695630
29.591918
29.264688
29.331446
28.926730
29.007792
28.226972
28.204918
27.656555
##ZVALUE=335
0.395775
0.518560
0.417829
0.620484
0.281930
0.466704
0.408888
0.516772
0.475645
0.470877
0.703931
0.524521
0.591874
0.661612
0.665784
0.598431
0.630617
0.510812
0.520945
0.782609
0.634789
0.601411
1.026988
0.875592
0.939965
0.791550
0.903606
0.916719
0.956655
0.794530
0.890493
1.077652
1.049638
0.943542
1.161695
1.253486
1.157522
1.445413
1.425743
1.535416
1.659989
1.562834
1.761913
1.806617
2.076626
2.350807
2.508759
2.752542
3.410578
8.848906
35.794973
140.080452
289.035439
634.092689
983.911753
1015.793681
1015.793681
1015.793681
1015.793681
1015.793681
1015.793681
1015.793681
983.964801
535.164475
288.167000
103.137493
39.335489
16.348958
14.997721
15.604496
17.426610
20.751953
25.239587
36.254525
46.959519
63.654780
76.778531
90.026855
97.890496
99.352598
95.486641
85.806847
75.886846
60.943961
52.301884
42.385459
36.480427
31.820536
29.719472
27.802587
27.735829
27.549863
27.312636
27.488470
27.227998
27.371645
##ZVALUE=340
0.581741
0.577569
0.444651
0.503659
0.471473
0.545979
0.499487
0.563860
0.487566
0.492930
0.640750
0.387430
0.525713
0.601411
0.486970
0.414848
0.643730
0.571609
0.658631
0.563860
0.584722
0.743866
0.603795
0.736713
0.745654
0.891685
0.902414
0.734925
0.859499
0.872612
0.838637
1.011491
0.972748
1.117587
1.092553
1.017451
1.038909
1.136661
1.235604
1.269579
1.377463
1.458526
1.559854
1.660585
1.743436
1.912713
1.823902
2.228618
2.418756
2.575517
3.138781
4.846454
16.945601
87.084770
208.809376
503.043532
840.741992
1015.794873
1015.794873
1015.794873
1015.794873
1015.794873
1015.794873
1015.794873
1015.794873
653.835535
365.570784
148.182511
58.744550
18.948913
15.555620
15.493631
16.633868
18.187761
20.539761
27.018785
33.658743
46.292543
58.261752
75.807571
84.599853
93.347430
94.911456
91.836452
83.727837
72.439909
61.505437
48.931837
41.835904
34.411550
30.714869
27.456880
25.945902
25.074482
25.426745
25.976896
##ZVALUE=345
0.396967
0.496507
0.428557
0.481606
0.494719
0.540614
0.568628
0.482798
0.564456
0.565648
0.435710
0.595450
0.511408
0.517964
0.481606
0.470877
0.565648
0.516772
0.662804
0.662804
0.694990
0.641942
0.766516
0.648499
0.670552
0.789762
0.766516
0.893474
0.676513
0.950694
0.923872
0.910759
0.859499
1.009703
0.938773
0.898838
1.074672
0.966787
1.011491
1.079440
1.280904
1.221895
1.263618
1.385808
1.544952
1.358986
1.597404
1.764894
1.885891
2.074838
2.076626
2.499819
2.643466
3.264546
7.550716
49.625635
135.919452
352.416635
621.795654
1015.793681
1015.793681
1015.793681
1015.793681
1015.793681
1015.793681
1015.793681
1015.793681
842.515826
488.516688
205.359459
89.427829
28.105974
16.568899
15.420914
15.386939
16.291738
17.386675
19.947886
23.917556
32.721758
42.041540
56.269765
67.141652
78.732967
85.249543
87.115765
85.351467
77.818632
69.784522
57.168603
48.382878
38.257837
32.609701
28.157830
25.713444
24.338961
##ZVALUE=350
0.458956
0.470877
0.531673
0.395775
0.576973
0.538826
0.487566
0.526905
0.581741
0.630617
0.557899
0.507832
0.532866
0.675917
0.496507
0.523925
0.473857
0.589490
0.616908
0.606775
0.663996
0.742674
0.750422
0.623465
0.697970
0.703931
0.733733
0.845790
0.866652
0.687838
0.702739
0.747442
0.872612
1.028776
0.878572
0.909567
0.854731
0.986457
0.936985
1.087785
0.982881
1.151562
1.166463
1.205802
1.356602
1.289845
1.401901
1.603961
1.491904
1.615882
1.901984
1.936555
2.200603
2.259612
2.610683
3.168583
4.442930
24.528503
80.148578
246.551633
460.093617
914.278030
1015.794873
1015.794873
1015.794873
1015.794873
1015.794873
1015.794873
1015.794873
977.216959
629.223585
288.490653
133.079886
37.494898
17.598867
14.422536
14.308691
14.610887
15.058517
16.373992
18.991828
23.824573
29.447675
38.660765
48.245788
61.036944
69.200993
77.987909
80.915689
78.600645
73.472857
63.348413
54.278970
42.765737
36.301613
30.288696
##ZVALUE=355
0.355840
0.475645
0.437498
0.521541
0.419617
0.481606
0.516772
0.578761
0.383854
0.522733
0.547767
0.492930
0.472665
0.682473
0.422597
0.471473
0.553727
0.467896
0.695586
0.508428
0.590682
0.610948
0.780821
0.618696
0.808835
0.718832
0.719428
0.858903
0.812411
0.811815
0.894666
0.815988
0.746846
0.842810
1.011491
0.877976
1.005530
0.967979
1.004934
0.811815
1.112819
1.034737
1.210570
1.200438
1.267791
1.172423
1.267791
1.363754
1.486540
1.505613
1.501441
1.616478
1.751781
1.968741
2.182722
2.297759
2.618432
2.905726
3.468990
11.400580
43.159723
165.262818
333.406925
687.702894
1015.793681
1015.793681
1015.793681
1015.793681
1015.793681
1015.793681
1015.793681
1015.793681
787.763000
353.912711
171.117783
51.579475
21.496415
13.829470
13.173819
13.515949
13.747811
14.721751
15.675426
17.914772
20.401478
26.500821
33.291578
43.511987
52.033663
62.158704
68.111420
72.476864
71.919560
66.558719
60.441494
50.823689
##ZVALUE=360
0.560880
0.403523
0.395775
0.337958
0.495911
0.515580
0.563860
0.623465
0.477433
0.779629
0.709891
0.517964
0.452995
0.448823
0.429749
0.610948
0.544786
0.478625
0.676513
0.502467
0.557899
0.670552
0.690818
0.704527
0.750422
0.685453
0.744462
0.732541
0.634789
0.897646
0.646710
0.812411
0.714660
0.889897
0.864863
0.893474
0.776649
0.787973
1.031756
0.931621
1.019835
0.996590
1.074672
1.044869
1.070499
1.170635
1.300573
1.522899
1.377463
1.475811
1.392961
1.593828
1.584888
1.770854
1.849532
2.115965
2.042651
2.220869
2.539754
3.086925
3.447533
5.765557
19.215941
87.088943
203.368664
482.601523
819.344521
1015.793681
1015.793681
1015.793681
1015.793681
1015.793681
1015.793681
1015.793681
955.998898
481.743813
250.445604
90.654492
34.463406
14.419556
12.831688
13.019443
12.913942
13.364553
13.726950
14.494658
15.526414
18.209815
22.070408
28.732419
36.282539
46.239495
53.674579
61.557889
65.203905
65.326691
##ZVALUE=365
0.520945
0.354648
0.505447
0.466704
0.590682
0.470877
0.483990
0.567436
0.585914
0.534654
0.603795
0.537634
0.697970
0.597835
0.698566
0.477433
0.598431
0.626445
0.716448
0.753999
0.590682
0.657439
0.602603
0.733733
0.658631
0.682473
0.724792
0.762939
0.803471
0.746846
0.859499
0.814795
0.949502
0.722408
0.730753
0.935793
0.814795
0.829697
0.886917
0.952482
1.048446
0.957847
1.166463
1.238585
1.099706
1.171827
1.031756
1.319647
1.212955
1.425743
1.424551
1.488924
1.526475
1.540780
1.760721
1.788735
1.960993
1.962781
1.995564
2.279878
2.429485
2.843738
3.258586
3.775954
9.912848
37.395954
142.555833
305.380821
691.015720
1015.793681
1015.793681
1015.793681
1015.793681
1015.793681
1015.793681
1015.793681
1015.793681
719.893575
321.691036
151.283741
43.300986
18.839836
12.232661
12.384653
12.373924
12.018681
12.000799
12.396574
12.806654
13.846755
15.920997
19.032955
24.999976
30.986667
40.159822
46.251416
##ZVALUE=370
0.395775
0.372529
0.404716
0.668764
0.435710
0.657439
0.392795
0.561476
0.531673
0.651479
0.715852
0.635982
0.420809
0.584722
0.595450
0.674725
0.533462
0.625849
0.472665
0.655651
0.715852
0.728965
0.680685
0.616908
0.680685
0.644922
0.663996
0.813603
0.770688
0.777841
0.837445
0.913739
0.855923
0.870824
0.846982
0.933409
0.938773
0.967979
0.922680
0.871420
1.128912
1.065731
0.909567
0.902414
1.194477
1.092553
1.157522
1.129508
1.157522
1.219511
1.298785
1.182556
1.320839
1.268983
1.470447
1.576543
1.501441
1.640916
1.758933
1.965761
2.103448
2.242923
2.506971
2.676845
3.019571
3.450513
5.512834
19.452572
101.781487
238.797665
550.357699
883.942842
1015.793681
1015.793681
1015.793681
1015.793681
1015.793681
1015.793681
1015.793681
874.809027
413.324833
211.488008
76.028705
30.781627
12.633801
11.350513
10.811687
10.692477
10.870695
10.933876
11.315942
11.432767
12.803674
14.000535
17.504692
21.123886
##ZVALUE=375
0.365973
0.542998
0.545979
0.471473
0.557899
0.531673
0.516772
0.566840
0.536442
0.616908
0.576973
0.545979
0.576973
0.668764
0.697970
0.641942
0.629425
0.719428
0.590682
0.681877
0.593662
0.787973
0.605583
0.671744
0.614524
0.708699
0.853539
0.735521
0.627637
0.626445
0.649691
1.119971
0.752807
0.848770
0.781417
0.773668
0.851750
0.962615
0.854731
0.805855
0.976920
0.963807
1.033545
1.002550
0.976920
0.868440
0.923872
0.994802
1.019835
0.982881
1.076460
1.073480
1.376867
1.333952
1.504421
1.253486
1.151562
1.447797
1.409650
1.571774
1.658797
1.823902
1.717806
1.919866
2.045631
2.188683
2.574921
3.046989
3.759861
11.968613
44.171810
157.716870
330.325961
720.474720
1015.793681
1015.793681
1015.793681
1015.793681
1015.793681
1015.793681
1015.793681
987.114906
661.770701
329.889655
163.802505
49.699545
18.533468
10.035634
9.809732
9.173751
9.176731
9.573698
9.922981
9.858608
10.220408
11.250973
##ZVALUE=380
0.492930
0.442863
0.584722
0.531673
0.551939
0.507832
0.571609
0.536442
0.461936
0.386834
0.439882
0.537634
0.544786
0.557899
0.640750
0.650883
0.612736
0.609756
0.627637
0.682473
0.591874
0.448823
0.661612
0.759959
0.752807
0.693798
0.794530
0.749826
0.641942
0.667572
0.707507
0.642538
0.584722
0.774860
0.753999
0.805855
0.866652
0.665784
0.750422
0.596642
0.633597
0.645518
0.866652
0.896454
0.926852
0.918508
0.763535
1.018643
0.855923
1.020432
1.119971
1.031756
0.884533
1.040697
0.992417
1.070499
1.016855
1.347661
1.206994
1.191497
1.340508
1.331568
1.431704
1.724958
1.614690
1.692772
2.102852
2.258420
2.535582
3.001690
3.424883
6.204844
23.567677
113.759637
257.299542
590.764880
951.140523
1015.793681
1015.793681
1015.793681
1015.793681
1015.793681
1015.793681
1015.793681
879.305601
440.066457
227.267742
77.462792
29.600859
11.103749
8.953810
8.534789
8.734465
8.616447
8.840561
8.834600
##ZVALUE=385
0.569820
0.382662
0.505447
0.453591
0.429749
0.404716
0.507832
0.414848
0.449419
0.525713
0.576973
0.458956
0.571609
0.438690
0.364780
0.605583
0.634789
0.408888
0.506639
0.530481
0.489950
0.530481
0.619888
0.626445
0.548959
0.645518
0.661612
0.662804
0.653863
0.624657
0.655651
0.768900
0.558496
0.771880
0.711679
0.697970
0.709891
0.611544
0.752807
0.621676
0.771880
0.585914
0.576973
0.683665
0.744462
0.729561
0.653863
0.683665
0.744462
0.827909
0.733733
0.837445
0.891685
0.930429
0.948906
1.052618
1.021624
1.062751
0.968575
1.165867
1.142621
1.213551
1.394749
1.333952
1.370907
1.401901
1.616478
1.708865
1.933575
2.196431
2.427697
2.764463
3.069639
3.864765
11.365414
66.769719
169.376731
418.334603
728.030801
1015.795469
1015.795469
1015.795469
1015.795469
1015.795469
1015.795469
1015.795469
1015.796065
604.511499
344.944596
140.626431
55.752993
13.992786
8.537769
7.854700
7.690787
7.940531
##ZVALUE=390
0.536442
0.318885
0.320673
0.437498
0.425577
0.364780
0.304580
0.480413
0.433922
0.395775
0.619888
0.345707
0.424981
0.562668
0.377893
0.392795
0.467896
0.547767
0.502467
0.456572
0.372529
0.573993
0.534654
0.628829
0.576973
0.419617
0.523925
0.570416
0.366569
0.432730
0.663996
0.462532
0.618696
0.512600
0.526905
0.609756
0.645518
0.603795
0.747442
0.705719
0.635982
0.668764
0.690818
0.686646
0.633597
0.632405
0.570416
0.833869
0.690818
0.761747
0.766516
0.761747
0.761747
0.793934
1.008511
0.822544
0.987649
0.892878
0.918508
0.949502
0.927448
1.022816
1.139641
1.089573
1.277924
1.269579
1.376867
1.777411
1.766682
2.048612
2.227426
2.435446
2.453923
2.794862
2.804995
3.170967
5.812645
35.937428
111.709833
328.148007
605.903864
1015.794873
1015.794873
1015.794873
1015.794873
1015.794873
1015.794873
1015.794873
1015.794873
856.730938
502.665639
203.908682
89.976788
23.177862
9.992719
7.631779
##ZVALUE=395
0.383854
0.557899
0.347495
0.297427
0.305772
0.438690
0.464916
0.264645
0.415444
0.476837
0.434518
0.443459
0.370741
0.510812
0.359416
0.483990
0.446439
0.435710
0.605583
0.347495
0.449419
0.351667
0.429749
0.398755
0.433922
0.339746
0.403523
0.488758
0.448823
0.592470
0.592470
0.458956
0.540614
0.488758
0.559688
0.452995
0.584722
0.483990
0.616908
0.520945
0.623465
0.640750
0.753999
0.533462
0.572801
0.687838
0.709891
0.796914
0.817776
0.824928
0.704527
0.795722
0.745654
0.777841
0.757575
0.916719
0.950694
0.929832
0.973940
0.859499
0.777841
0.971556
1.049638
1.115799
1.160502
1.126528
1.385808
1.534820
1.694560
2.021790
2.169609
2.106428
2.256632
2.278686
2.379417
2.467632
2.597570
2.909899
3.728867
19.611716
74.337721
246.981382
453.548431
844.217539
1015.826464
1015.826464
1015.826464
1015.826464
1015.826464
1015.826464
1015.826464
988.656878
648.225546
283.068419
132.975578
40.845871
##ZVALUE=400
0.420809
0.283718
0.368953
0.435710
0.349879
0.317693
0.389814
0.227690
0.468493
0.265837
0.213981
0.308752
0.245571
0.349879
0.361800
0.403523
0.408888
0.385642
0.371933
0.400543
0.345707
0.494719
0.352859
0.426769
0.337958
0.361800
0.429749
0.458956
0.579953
0.391603
0.450611
0.405908
0.440478
0.567436
0.461936
0.635982
0.231862
0.563860
0.731945
0.559688
0.516772
0.677705
0.498891
0.472665
0.652671
0.565648
0.688434
0.645518
0.513792
0.626445
0.531673
0.801682
0.758767
0.662804
0.749826
0.698566
0.744462
0.919700
0.789762
0.828505
0.825524
0.980496
0.966787
1.120567
0.917912
1.330972
1.439452
1.294613
1.591444
1.925826
1.999736
2.028942
2.007484
1.970530
2.084970
2.091527
2.000928
2.289414
2.388954
2.734661
3.362894
7.201433
41.318536
117.901564
324.211717
583.971739
1008.663774
1015.794873
1015.794873
1015.794873
1015.794873
1015.794873
1015.794873
1015.794873
735.089779
441.902876
##END
