##TITLE=FSH702
##FORMAT=SPECTACLE-ASCII V-1.2
##DATA TYPE=ULTRAVIOLET SPECTRUM
##SECOND TYPE=ULTRAVIOLET SPECTRUM
##DATE=10/24/17
##TIME=15:55:02
##SPECTROMETER/DATA SYSTEM=SPECTACLE
##XUNITS=NM EM
##YUNITS=ENERGY
##YFACTOR=1
##FIRSTX=220
##LASTX=410
##NPOINTS=96
##3DDATA=Equidistant
##ZUNITS=NM EX
##FIRSTZ=210
##LASTZ=400
##ZPOINTS=39
##XYDATA=(Y..Y)
##ZVALUE=210
2.592802
1.917481
1.962781
2.178550
2.181530
2.284646
2.347827
2.437830
2.833605
3.136992
2.871752
2.727509
3.442764
3.440976
3.654957
3.954768
3.803968
4.069805
4.782677
4.412532
5.028844
4.898906
6.070733
5.916953
6.201863
5.478859
6.400943
6.267428
7.482767
6.758571
6.693602
8.078814
7.104874
6.639957
7.617474
7.624626
7.479787
7.975698
7.667542
8.131862
7.007718
8.972883
8.904934
8.651614
7.812977
8.977652
8.698702
9.688735
9.056926
9.639859
9.322762
9.480715
9.265542
9.847879
10.029674
8.903742
10.626912
10.823607
8.543730
10.304451
10.556579
10.459423
10.099411
9.660721
9.571910
10.108948
11.958480
12.006760
13.570786
15.286803
16.696453
19.774437
21.482706
26.065707
27.882457
30.758977
31.363964
30.905604
31.553507
29.330850
27.427673
23.694634
22.681952
18.313527
15.808940
13.506413
11.320710
10.099411
8.804798
8.255839
9.112954
8.843541
8.679628
9.009838
8.939505
9.092689
##ZVALUE=215
3.160834
3.344417
3.402829
2.566576
2.510548
2.927780
2.756715
2.822876
3.443956
3.723502
4.184842
3.822446
3.449917
3.349781
3.751516
3.438592
4.172921
4.417896
5.315542
4.279613
5.333424
5.052686
5.608797
5.031824
6.217957
6.607771
5.963445
6.469488
6.487966
7.749796
6.452799
8.014441
8.126497
7.380843
7.434487
8.079410
8.593798
8.848906
8.098483
9.239912
9.412766
9.588599
9.081960
9.640455
9.679794
9.554625
9.767413
9.624958
9.388924
9.451509
9.685755
10.041595
10.452867
9.368658
9.102821
9.161830
10.625720
9.287596
10.046959
9.867549
10.166764
9.964705
10.095835
9.323955
10.710955
11.196733
11.449456
12.545586
13.050437
14.922619
17.066598
19.631982
21.513700
24.590492
27.209520
28.596520
29.583573
30.297637
27.527809
27.310848
24.208426
21.103621
19.796491
16.875863
15.437603
12.540817
10.576844
11.013746
9.773970
8.358955
9.228587
9.518862
8.953810
9.021759
8.886456
8.707643
##ZVALUE=220
11.552572
10.926723
13.367534
12.925863
12.371540
10.404587
8.177757
6.727576
6.354451
5.881786
6.729960
7.028580
7.749796
8.093715
7.636547
6.128550
6.042719
5.869865
5.164742
5.219579
5.818605
5.598664
6.152987
6.472468
5.963445
7.203817
7.153749
7.491708
7.478595
8.608699
8.698702
8.871555
10.003448
10.787845
10.646582
12.122989
12.048483
11.914968
12.203455
13.833642
12.946725
13.103485
14.430881
13.156533
13.276935
12.296438
12.062788
13.218522
12.533665
14.002919
13.078451
12.871623
14.581680
13.078451
12.922883
13.469458
11.485815
13.420582
13.216734
12.197495
12.360811
13.729930
12.866855
13.178587
12.627840
13.263822
13.540983
14.094710
16.178489
18.920898
19.700527
22.644997
22.979975
27.191639
28.297901
28.726459
29.901862
31.220913
31.393766
29.586554
26.807785
25.659800
24.788976
20.566583
17.817616
17.209649
13.384819
13.463497
12.915730
12.483597
11.911988
11.481643
11.207461
12.001991
11.132956
11.989474
##ZVALUE=225
24.471879
23.332834
35.740733
48.200488
60.560703
61.532855
59.273839
48.955679
41.391850
28.490424
20.066500
15.471578
16.444921
15.128851
17.983913
17.186999
16.817451
15.120506
12.552738
9.182692
8.461475
6.271601
6.769896
7.635951
6.701946
6.828904
7.808805
7.624626
10.089874
10.479689
12.869835
14.981627
17.434955
18.226504
19.850731
21.783710
24.553537
26.435852
25.627613
27.245879
26.704669
25.953650
24.358630
28.640628
25.105476
25.389791
24.740696
23.806691
26.515722
23.219585
24.398565
21.681786
24.426579
21.814704
24.438500
21.995902
21.981001
21.245480
22.471547
22.603869
21.668673
21.987557
22.192597
21.225810
21.885633
21.841526
22.934675
22.225976
23.751855
24.604797
27.746558
29.138923
32.680631
34.256577
37.768483
37.728548
41.430593
38.631558
38.925409
35.503507
34.637451
30.800700
29.932857
26.532412
24.571419
21.382570
19.362569
20.812750
18.711686
18.606782
19.456744
18.875599
18.803477
18.409491
17.715693
17.354488
##ZVALUE=230
27.133822
29.138923
52.485466
99.950433
142.016411
195.193887
235.304832
251.932740
231.918693
198.832750
141.544938
91.675520
57.086945
38.634539
36.569834
38.480759
40.240884
40.202737
38.234591
32.517910
26.516914
18.829703
15.279651
11.338592
9.934902
9.933710
10.222793
11.421442
14.224648
15.486479
18.876791
25.632977
29.040575
33.657551
35.688877
42.532682
45.690536
50.451756
51.451921
53.554773
52.042603
53.451657
51.352978
52.409768
51.134825
49.215555
49.271584
48.559904
47.283769
46.265721
45.640469
46.294928
46.261549
43.751597
43.575764
39.994717
41.586757
41.397810
39.580464
39.620996
39.318800
40.929914
40.862560
39.443970
36.881566
38.076639
41.743517
41.394830
42.116642
43.199658
45.051575
48.531890
53.128600
55.139661
60.140491
58.977604
59.596896
59.817433
56.076646
54.793954
56.722760
52.939653
48.952699
43.203831
42.627454
37.995577
36.773682
36.466718
33.891797
35.032630
34.385920
31.327605
32.809973
30.747652
30.852556
31.772852
##ZVALUE=235
11.813641
14.667511
32.610893
87.260604
157.286525
273.046494
384.196639
519.567728
599.470735
619.748831
571.301579
456.478000
339.149833
198.186636
132.979751
90.689659
68.493485
69.121718
75.089931
75.620413
72.147846
64.714551
48.490763
38.978457
27.138591
20.291805
15.528798
14.385581
16.434789
20.661950
23.400784
29.344559
38.180947
44.847727
52.257776
58.069825
60.981512
65.767765
71.963668
72.600842
75.805783
73.786974
75.575709
74.180961
70.862770
72.211623
68.529844
65.692663
66.363811
63.574910
65.786839
63.752532
64.289570
63.206553
59.167743
60.237646
61.118603
60.802698
60.918927
60.830712
61.187744
61.958432
62.345862
60.982704
60.596466
63.041449
64.111948
65.993667
65.635443
65.843463
68.331957
73.329806
76.448917
78.834891
80.654621
81.437826
82.128644
83.658695
83.618760
83.404779
77.590942
73.554516
72.658658
64.377785
62.748790
59.903860
59.219599
56.930780
56.405663
54.759979
53.792596
53.439736
51.425695
52.362680
50.703883
49.741864
##ZVALUE=240
2.970695
3.613830
6.989837
31.241775
67.153573
157.761574
274.423957
489.465594
681.370497
843.778849
1006.971598
1015.793681
939.710736
811.658502
574.323535
399.441719
219.382644
142.666698
111.182928
93.494654
102.443695
114.922523
110.248923
99.404454
83.850622
63.234568
50.651431
34.643412
28.056502
24.902821
24.458766
29.904842
34.158826
39.905906
46.637654
54.242611
57.772994
61.370730
64.934492
68.086982
65.675974
65.239668
68.399906
69.029927
66.498518
64.629912
65.720677
65.634847
67.046881
65.507889
68.641901
68.304539
69.047809
67.710876
68.190694
67.658424
65.356493
73.114634
70.222616
71.722865
72.131753
75.145960
74.224472
73.604584
74.974895
74.216723
73.134899
78.110695
79.586506
82.912445
79.865456
84.513426
88.896751
89.653730
91.498494
91.283917
91.769695
89.658499
87.264776
87.498426
87.578893
84.547997
81.958771
83.371997
77.215433
74.006915
75.862408
73.192716
71.602464
72.997808
69.392920
68.318844
68.094730
66.160560
67.088604
65.774918
##ZVALUE=245
2.202988
2.825856
2.566576
2.408624
4.811883
28.367639
71.048737
182.713866
324.516892
581.184626
797.104836
1015.923023
1015.923023
1015.923023
1015.923023
998.157859
823.461413
539.623499
358.000994
189.184546
130.735636
106.476545
110.863447
127.401948
130.977631
122.127533
110.713840
97.405910
74.478984
60.371757
44.074655
33.034682
27.474761
27.313828
28.764606
32.643676
34.206510
36.716461
37.630796
39.173961
40.386915
42.432547
41.508675
39.404631
42.597651
42.180419
42.331815
44.109821
44.611692
46.118498
49.631000
50.171614
52.836537
54.425001
54.185987
56.754947
59.240460
60.708523
60.579777
62.703490
65.413713
64.334869
63.571930
66.990852
65.154433
66.698790
68.127513
71.811676
69.202781
74.126720
74.407458
74.663758
78.037977
79.362988
82.391500
83.633661
82.926750
83.118677
81.490874
80.844760
80.978870
81.378818
79.268813
76.923966
76.761842
73.609948
72.065592
73.238611
70.960522
72.697997
71.046948
70.758462
68.594813
66.960454
71.748495
68.703890
##ZVALUE=250
1.837611
2.215505
2.373457
2.099872
2.778769
2.423525
3.617406
16.946793
48.950911
114.226937
296.834707
520.482659
881.122947
1015.793681
1015.793681
1015.793681
1015.793681
1015.793681
1015.793681
823.366642
543.521047
284.813643
174.411535
109.407902
107.046962
121.452808
134.921670
140.295625
133.912563
124.927759
105.343461
84.711909
63.974857
46.073794
35.779476
25.993586
24.380684
23.062825
24.109483
25.242567
25.016665
25.471449
27.530789
27.654767
28.173923
27.816892
27.727485
29.821992
31.645894
35.181642
37.781596
39.781928
39.991736
42.040944
42.958856
45.068860
46.230555
48.264861
50.341487
50.887465
53.060651
49.905777
53.160787
54.815412
55.392981
56.157708
55.394769
58.569908
60.634613
62.145591
62.307715
66.526532
64.525604
68.753958
69.990754
70.297718
73.633790
74.204803
72.603822
72.072744
73.168874
69.604516
70.547462
69.493651
67.962408
68.501830
67.669749
67.085624
67.417622
67.435503
66.908002
65.259933
64.197779
64.822435
65.129995
65.507889
##ZVALUE=255
1.771450
1.763701
2.019405
1.922846
2.347827
2.447963
2.578497
2.426505
2.973676
7.622838
37.672520
94.320774
203.844905
456.691980
730.885863
1015.793681
1015.793681
1015.793681
1015.793681
1015.793681
1015.793681
1015.793681
716.407895
438.147783
214.187503
132.772923
100.390911
106.225610
126.824975
142.907500
145.253539
145.797729
134.536624
112.178922
90.563893
66.734552
52.871704
36.661625
29.862523
26.368499
25.937557
25.968552
25.952458
26.997924
27.623773
27.125478
27.601719
28.278828
29.462576
30.813813
32.484531
34.905672
36.964417
35.205483
37.539601
39.342642
40.878654
40.304661
42.217970
43.354630
45.784712
44.601560
44.165850
45.939684
46.906471
47.169924
49.693584
48.810840
51.021576
54.439902
55.324435
56.336522
61.103702
61.210990
61.728954
62.044859
64.200759
62.172413
64.209700
64.617991
64.410567
63.342452
63.108802
60.643554
61.505437
61.739683
60.857534
61.651468
60.786605
61.652660
62.033534
64.116716
61.785579
62.609911
62.399507
61.843991
##ZVALUE=260
1.696944
1.626611
1.996756
1.818538
1.781583
1.973510
2.273917
2.350807
2.226830
3.167987
2.688766
4.242659
21.515489
58.037639
170.723796
338.693857
701.431036
1002.402902
1015.793681
1015.793681
1015.793681
1015.793681
1015.793681
1015.793681
1015.681028
622.626543
384.078622
187.688470
118.901730
93.226433
105.624795
132.638812
149.151683
162.687898
158.562660
144.840479
126.769543
97.957850
77.890754
58.151484
45.925975
35.881996
31.253695
30.018687
29.811859
29.572845
29.526949
31.740665
31.273961
32.991767
33.600926
35.753846
35.085678
36.811829
37.358999
38.040876
38.958788
39.972663
41.698813
41.877627
41.507483
42.146444
42.424798
44.537783
44.777989
45.368671
44.732690
46.994686
47.519803
49.334764
51.073432
52.737594
53.618550
54.847002
56.530833
56.799650
57.698488
59.077740
57.417750
58.553815
59.458613
59.466958
57.843924
58.342814
56.318641
57.956576
58.898926
57.472587
57.066679
57.912469
57.870746
56.345463
55.705905
58.215857
58.881640
57.344437
##ZVALUE=265
1.667738
1.525879
1.689792
1.717806
1.541972
1.866817
1.921654
2.113581
2.359748
2.168417
2.854466
2.379417
2.782941
2.846718
7.955432
40.130615
102.216601
283.665657
522.488952
980.818868
1015.793681
1015.793681
1015.793681
1015.793681
1015.793681
1015.793681
1015.793681
920.324922
508.974791
293.023586
165.885687
93.138814
93.696713
123.474598
143.611431
167.480707
170.902610
168.003440
156.793594
128.849745
107.318759
80.520511
65.713525
49.926639
41.875839
36.702752
36.146641
34.911633
36.343932
37.228465
37.762523
38.475990
39.596558
40.849447
40.846467
41.088462
41.817427
44.386983
43.705702
45.572519
43.745637
46.246648
45.905709
45.775771
47.178864
46.959519
48.319697
48.726797
49.678683
50.017834
51.706433
53.756833
53.406954
53.976774
55.109859
56.515932
57.714581
57.017803
55.327415
57.084560
55.979490
56.604743
55.099726
56.152940
55.919886
54.443479
55.056810
54.969788
54.786801
55.240989
55.668950
53.862929
54.212809
55.277944
54.676533
54.189563
##ZVALUE=270
1.680851
1.644492
1.483560
1.541972
1.568794
1.683831
1.928806
1.944900
1.731515
1.832843
2.346635
2.104640
2.404451
2.711415
2.820492
3.079772
4.781485
21.389723
63.349009
199.516416
414.001942
763.163567
1015.793681
1015.793681
1015.793681
1015.793681
1015.793681
1015.793681
1015.793681
1015.793681
832.502842
427.631736
237.612724
111.851692
89.482665
105.582476
129.433870
158.464909
174.654722
182.532668
177.454948
161.218643
139.847994
111.925602
88.444948
67.722797
55.027604
46.290755
40.923953
41.141510
41.471720
40.515661
44.354796
44.041872
45.327544
46.343803
47.059655
48.335791
49.564838
49.568415
50.233603
51.242709
50.199628
49.805641
52.275658
50.705671
51.127672
51.389933
52.590966
53.339601
55.188537
55.924654
56.639910
57.768822
57.042837
56.688786
58.021545
56.376457
56.964755
55.434704
56.382418
54.250956
55.162907
53.882599
53.769946
51.922798
53.759813
53.136945
52.927732
52.603483
52.652955
53.302646
52.017570
51.760674
51.420927
52.123666
##ZVALUE=275
1.362562
1.442432
1.475811
1.223683
1.573563
1.613498
1.269579
1.809597
1.593828
1.678467
1.903772
1.963973
1.810789
2.093911
2.090931
2.847910
3.011823
3.211498
3.520846
9.744763
38.586855
114.131570
329.322815
631.849766
1015.779972
1015.779972
1015.779972
1015.779972
1015.779972
1015.779972
1015.779972
1015.779972
1012.046933
565.521717
317.565799
142.398477
90.167522
84.543824
102.166533
134.146810
153.062940
174.686909
180.960894
175.486803
162.402987
135.102868
114.113688
89.967847
73.093772
58.859587
51.711798
49.005747
47.328472
48.208833
48.502684
50.311685
52.368641
52.487850
54.748654
55.232644
55.617690
55.485964
55.593848
56.330562
56.344867
56.940913
57.424903
57.318807
58.703423
57.649612
57.919621
60.005784
58.730841
59.629679
60.223937
58.968663
58.522820
59.144497
58.409572
57.544708
55.981874
56.525469
55.493712
55.791736
54.249763
54.054856
52.924752
53.043962
53.166747
52.068830
52.503943
50.505996
52.067637
50.366521
49.146414
51.358938
##ZVALUE=280
1.256466
1.239777
1.316667
1.465678
1.069903
1.334548
1.478791
1.599789
1.443624
1.290441
1.447797
1.626611
1.705885
1.914501
1.936555
1.804829
2.154708
2.346635
2.526641
2.710819
3.358722
4.594922
26.185513
78.991652
173.347592
460.361838
793.885589
1015.793681
1015.793681
1015.793681
1015.793681
1015.793681
1015.793681
1015.793681
1015.793681
730.121732
426.566601
183.366537
100.610852
69.747567
78.470707
104.383826
127.198696
153.872967
168.845654
174.330473
169.275999
156.040788
136.622787
113.562942
96.676946
75.301528
67.064762
56.438446
53.697824
53.607821
54.459572
56.662560
58.305860
60.006976
61.105490
62.143803
62.700510
61.980486
63.038468
62.087774
62.237978
64.073801
63.199997
63.915849
64.311624
62.868595
64.208508
64.172745
63.560605
62.691569
62.293410
61.112642
60.034990
59.600472
59.973598
57.911873
56.901574
55.657625
55.432916
54.786801
54.289699
52.529573
52.762628
51.982999
50.490499
51.216483
49.116611
50.924420
48.848987
49.821734
##ZVALUE=285
1.263618
1.039505
1.074672
1.242757
1.236796
1.270771
1.374483
1.163483
1.302958
1.223683
1.361966
1.280904
1.360774
1.557469
1.663566
1.710653
1.719594
2.083778
1.845956
2.485514
2.243519
2.686977
2.907515
3.614426
10.282993
34.356713
116.905570
256.018043
587.542653
955.666900
1015.793681
1015.793681
1015.793681
1015.793681
1015.793681
1015.793681
1015.793681
947.843790
590.450764
277.040601
141.096711
63.529611
52.230954
71.233511
89.285970
119.269490
137.544870
158.941746
167.903900
165.986419
161.019564
140.290856
123.300552
99.806786
85.106492
71.053505
64.981580
63.935518
63.821673
65.938830
66.956878
67.362785
67.490935
68.143606
68.576932
68.892837
70.181489
69.037676
69.976449
68.130493
67.849755
68.760514
67.476630
68.332553
67.348480
65.361857
65.635443
65.058470
64.313412
63.442588
62.372684
61.354637
58.805943
58.189631
58.151484
56.556463
56.317449
54.268837
54.075718
53.378940
51.983595
51.422715
49.341917
49.156547
48.983693
48.953891
##ZVALUE=290
1.024604
1.016855
1.333952
0.959635
1.046658
1.044869
1.164675
1.357794
1.035929
1.182556
1.344681
1.293421
1.440644
1.314878
1.482964
1.315475
1.565814
1.783967
1.822710
1.965761
1.971722
1.865625
2.043843
2.447963
2.805591
3.245473
4.315972
13.106465
65.647960
155.289769
308.329463
702.468753
1015.794873
1015.794873
1015.794873
1015.794873
1015.794873
1015.794873
1015.794873
1015.794873
798.831582
395.754576
201.331973
77.327490
42.489767
46.366453
60.640574
86.275935
110.019445
140.011907
160.565972
173.173547
175.204873
164.340734
148.781538
127.663612
110.799670
93.916655
85.048676
77.924728
75.025558
74.204803
73.065758
73.217750
73.964000
75.143576
76.397657
74.970722
74.999928
74.751973
74.908733
72.723627
71.649551
71.310997
70.904493
69.084764
68.705678
68.124533
67.181587
65.077543
65.166950
63.098669
61.987638
61.284900
59.371591
58.888793
57.685971
55.935979
54.762959
53.722858
53.916574
52.346587
50.461888
50.039887
50.284863
49.162507
##ZVALUE=295
0.937581
0.877976
1.045465
0.906587
0.967979
0.875592
1.083612
1.252890
1.190901
1.034737
1.297593
1.241565
1.176596
1.304746
1.116991
1.419783
1.408458
1.344681
1.613498
1.530647
1.878738
1.768470
2.006888
2.037883
2.326965
2.364516
2.521873
3.059506
3.548861
6.040931
30.653477
91.310740
216.815472
546.848774
939.199924
1015.793681
1015.793681
1015.793681
1015.793681
1015.793681
1015.793681
1015.793681
977.433920
519.034863
282.090902
106.296539
51.863790
36.400557
46.077967
68.725944
91.645718
121.575594
144.099593
168.035626
178.234577
178.784728
171.520710
155.617595
141.559839
122.115612
107.828975
92.991590
86.715817
80.728531
77.668428
78.250766
78.153610
78.224540
78.085661
77.727437
76.872706
76.410770
75.700879
74.159503
72.845817
72.474480
70.767999
69.632530
68.004727
66.538453
65.372586
63.936710
63.157678
62.556863
61.512589
60.643554
59.084892
57.880878
57.273507
55.559874
53.416491
51.921606
52.511692
49.907565
50.289631
49.471855
##ZVALUE=300
0.853539
0.943542
0.700951
0.786781
0.832677
0.842810
0.907779
1.041889
1.050830
1.029968
0.970960
0.953674
1.035929
1.038909
1.019835
1.135468
1.203418
1.209974
1.401901
1.381636
1.491904
1.452565
1.657605
1.757741
1.788735
1.979470
2.000928
2.463460
2.348423
2.908707
3.398657
3.698468
14.633536
50.538778
176.584721
353.967547
760.175586
1015.794873
1015.794873
1015.794873
1015.794873
1015.794873
1015.794873
1015.794873
1015.794873
791.993737
393.320918
212.316513
83.806515
46.680570
45.589805
56.629777
78.017712
96.394420
124.424696
147.097707
171.085596
181.073546
184.187889
180.003643
164.444447
149.145722
125.432611
111.417770
96.395612
89.530945
83.134770
81.091523
80.300570
79.325438
78.071952
77.723861
75.576901
75.322986
74.688792
72.190762
71.427822
71.159601
69.758892
68.458915
67.251921
65.859556
63.886642
63.322783
62.978864
61.848760
60.722828
58.808923
56.556463
56.813955
54.316521
52.682757
51.565766
50.954819
51.149726
49.793720
##ZVALUE=305
0.733733
0.750422
0.754595
0.799894
0.821948
0.797510
0.702739
0.977516
1.064539
0.775456
0.930429
0.893474
0.867844
0.897646
0.886917
1.047850
1.207590
1.079440
1.137853
1.281500
1.151562
1.227856
1.562834
1.608729
1.336932
1.856685
1.719594
1.962781
1.989603
2.358556
2.306700
2.721548
2.898574
3.253818
6.327629
36.148429
103.870630
302.783847
559.212565
1006.124616
1015.793681
1015.793681
1015.793681
1015.793681
1015.793681
1015.793681
1015.793681
922.576785
577.376485
275.622606
144.311786
63.789487
49.351454
53.702593
65.467954
85.025430
104.252696
131.674409
151.536465
173.302889
183.681846
182.578564
174.973607
157.216787
140.926838
121.352673
105.614662
91.776848
84.171891
79.469681
77.487826
74.796677
72.487593
72.195530
72.257519
69.465637
69.720745
68.740845
67.890882
66.900849
65.904856
65.049529
63.615441
63.023567
61.370730
60.954690
60.689449
58.842897
57.214499
55.687428
54.628849
53.535700
53.165555
52.335858
51.068664
50.218701
##ZVALUE=310
0.742674
0.887513
0.875592
0.792742
0.820756
0.892878
0.811815
0.783801
0.816584
0.885725
0.891685
0.890493
0.902414
0.851750
0.906587
0.952482
0.867844
1.131892
1.043677
1.096725
1.097918
1.303554
1.315475
1.286864
1.393557
1.519918
1.464486
1.580715
1.674891
1.763701
1.878738
1.960993
2.543926
2.470613
2.726912
3.234744
3.763437
15.960932
53.617954
184.342861
370.845795
792.560577
1015.793681
1015.793681
1015.793681
1015.793681
1015.793681
1015.793681
1015.793681
1015.793681
822.256804
419.613719
230.729580
98.493695
57.002902
48.226714
54.582953
66.276789
78.509450
100.916624
120.347738
142.638683
155.869722
167.898536
168.417692
161.818862
149.170756
130.403638
114.925504
94.638467
84.806681
74.200630
69.301724
66.541433
65.472722
65.035820
63.196421
63.408613
62.844753
63.262582
62.158704
61.610937
61.640739
60.728788
60.617924
59.606433
58.682561
57.910681
56.302547
55.144429
54.577589
54.151416
52.320957
51.824450
51.688552
49.980879
##ZVALUE=315
0.641942
0.696778
0.603795
0.653863
0.585914
0.816584
0.796914
0.696778
0.835657
0.696778
0.887513
0.768900
0.755787
0.693798
0.869632
0.852942
0.871420
0.954866
0.832677
0.873804
1.004934
1.018643
0.937581
1.214743
1.303554
1.263618
1.441836
1.405478
1.639724
1.602769
1.758933
1.737475
1.772642
2.017617
2.057552
2.412796
2.705455
2.629757
3.454685
6.884933
25.191903
111.456513
254.372954
599.983931
977.228880
1015.758514
1015.758514
1015.758514
1015.758514
1015.758514
1015.758514
1015.758514
1005.146503
569.273829
315.450430
128.451586
67.708492
44.985414
45.549870
51.879883
58.302879
73.363781
86.443424
106.956959
123.143792
144.620538
150.302649
153.378844
148.218870
133.091807
119.962692
101.057887
86.933970
73.665977
66.577792
62.204599
59.230924
57.763457
57.360530
58.330894
58.295727
57.189465
56.893826
57.880878
57.675838
56.254864
55.926442
55.519938
55.390596
53.520799
54.232478
52.633882
51.511526
50.117970
50.644875
50.004721
##ZVALUE=320
0.669956
0.610948
0.638962
0.812411
0.614524
0.815988
0.671744
0.704527
0.834465
0.720620
0.563860
0.882745
0.702739
0.630617
0.834465
0.827909
0.854731
0.740886
0.955462
0.992417
0.964999
1.051426
0.996590
1.103878
0.956655
1.067519
1.213551
1.259446
1.209974
1.400709
1.418591
1.645684
1.633763
1.651645
1.980662
1.950860
2.022982
2.340674
2.419949
2.766848
3.084540
3.846884
13.057590
72.080493
175.733566
448.722839
766.149759
1015.793681
1015.793681
1015.793681
1015.793681
1015.793681
1015.793681
1015.793681
1015.793681
728.597641
410.790443
171.030760
86.739659
41.402578
34.149885
36.161542
38.710833
46.172738
54.552555
72.728992
87.401867
109.024644
123.181939
135.238767
137.333870
131.059885
122.419000
104.507804
90.548992
75.243711
66.310763
57.692528
54.634809
52.775741
52.080750
52.819848
52.085519
53.162575
53.214431
52.831769
52.470565
51.853657
51.882863
51.637888
50.936937
50.534606
49.784780
49.607754
49.320459
49.261451
##ZVALUE=325
0.498891
0.765920
0.716448
0.662804
0.508428
0.372529
0.682473
0.596642
0.688434
0.745654
0.680685
0.690818
0.636578
0.892878
0.785589
0.811815
1.022816
0.602603
0.706911
0.957847
0.808835
0.844598
0.936985
0.950694
0.950694
1.033545
1.076460
1.337528
1.229644
1.012683
1.273751
1.514554
1.444817
1.571774
1.605749
1.546741
1.632571
1.882911
2.082586
2.224445
2.338886
2.602935
2.771616
3.403425
6.710887
43.954849
119.243860
320.400000
579.066873
1015.794873
1015.794873
1015.794873
1015.794873
1015.794873
1015.794873
1015.794873
1015.794873
898.889899
540.064573
235.731602
113.955736
40.312409
24.270415
22.449493
24.025440
28.489828
34.329891
45.528412
58.805943
79.433918
94.400644
111.868978
120.814443
123.597980
120.083690
108.815432
96.240640
80.527663
69.514513
58.087707
52.750707
49.645901
48.580766
48.806667
48.112869
48.128963
49.073696
49.369931
48.663616
49.380660
48.101544
48.301816
47.388673
47.820807
47.382712
47.949553
##ZVALUE=330
0.652671
0.429749
0.634789
0.491738
0.583529
0.663996
0.567436
0.507832
0.621676
0.568628
0.647902
0.608563
0.811815
0.735521
0.694990
0.674725
0.630617
0.621676
0.585914
0.899434
0.700951
0.875592
0.947714
0.823736
0.883937
0.812411
1.027584
0.920892
1.012683
1.033545
1.174808
1.125932
1.206994
1.189709
1.402497
1.426935
1.478791
1.602769
1.586676
1.765490
1.960993
1.925826
2.302527
2.434850
2.735853
3.159642
4.039407
19.742846
64.556003
211.423635
412.335992
846.033692
1015.793681
1015.793681
1015.793681
1015.793681
1015.793681
1015.793681
1015.793681
1015.793681
725.262761
330.880880
164.717436
57.968497
26.773810
18.249750
19.236803
21.488667
24.981499
32.669902
41.980743
57.693720
71.900487
92.543960
105.413795
115.797520
116.856694
111.718774
104.654431
90.014935
78.496933
65.843463
58.088899
51.938891
48.873425
47.207475
46.536922
46.212673
46.579838
46.562552
46.577454
46.557784
46.023726
45.797825
46.233535
46.641827
##ZVALUE=335
0.641942
0.607967
0.453591
0.580549
0.412464
0.495911
0.427961
0.648499
0.578761
0.548959
0.594854
0.691414
0.472665
0.546575
0.560880
0.463724
0.698566
0.872612
0.668764
0.707507
0.658631
0.885725
0.821948
0.911951
0.786781
0.725985
0.649691
0.758767
0.850558
1.033545
0.921488
1.152754
1.145601
1.130700
1.230836
1.153946
1.301765
1.396537
1.508594
1.572967
1.714826
1.701713
1.585484
2.042651
2.189875
2.326965
2.593994
2.613664
3.075600
8.592606
31.795502
127.187967
269.096494
601.612926
966.866016
1015.793681
1015.793681
1015.793681
1015.793681
1015.793681
1015.793681
1015.793681
939.739943
495.154858
258.789659
88.928938
36.471486
19.242764
18.680692
20.202994
22.094846
26.286840
32.208562
43.717623
56.207776
72.687864
86.802840
101.966858
110.425949
112.842917
109.029412
98.228455
88.182688
76.357722
67.412853
57.311654
52.868724
47.653913
45.931935
44.934750
44.681430
44.242740
44.354796
44.196844
44.587851
44.588447
##ZVALUE=340
0.456572
0.610948
0.451803
0.481606
0.633597
0.596642
0.542998
0.670552
0.518560
0.420809
0.512600
0.606775
0.495911
0.505447
0.538826
0.477433
0.587702
0.549555
0.594854
0.667572
0.645518
0.728965
0.597835
0.792742
0.679493
0.858903
0.898838
0.927448
0.878572
0.961423
0.888705
0.966787
0.997782
0.995994
1.012683
1.076460
1.147985
1.250505
1.142621
1.402497
1.339912
1.323819
1.424551
1.514554
1.622438
1.844764
1.872778
2.149940
2.180934
2.560616
2.925992
4.374981
14.934540
77.223778
187.444687
465.088487
796.826482
1015.793681
1015.793681
1015.793681
1015.793681
1015.793681
1015.793681
1015.793681
1015.793681
580.963492
322.387815
132.793784
54.505467
21.691918
19.049644
20.364523
21.529794
24.456978
27.735829
34.815669
42.237639
56.388974
68.340898
85.820556
96.469522
105.352998
107.390881
103.879571
96.235871
85.638762
75.252652
63.960552
56.430697
49.992800
46.252608
43.771863
42.489767
41.841865
42.217970
42.506456
##ZVALUE=345
0.551939
0.513792
0.520945
0.467896
0.545979
0.513792
0.422597
0.468493
0.447631
0.564456
0.540614
0.689626
0.576973
0.643730
0.568628
0.496507
0.590682
0.591874
0.697970
0.669956
0.548959
0.536442
0.763535
0.728965
0.456572
0.556707
0.637770
0.802875
0.754595
0.740886
0.739694
0.838637
0.982881
0.921488
0.956655
1.062751
0.934601
0.975728
1.070499
1.065731
1.228452
1.273751
1.331568
1.272559
1.495481
1.460910
1.512766
1.849532
1.764894
1.959801
2.278686
2.337694
2.623796
3.128648
7.910728
32.195449
137.555003
284.248590
618.250966
969.336033
1015.793681
1015.793681
1015.793681
1015.793681
1015.793681
1015.793681
1015.793681
852.558613
391.777754
192.509890
64.411759
30.069947
19.755960
19.957423
21.329522
22.541881
24.470687
27.285814
33.881664
41.282773
54.402947
65.379739
80.170631
89.822412
98.661780
101.290941
97.633004
92.689991
82.667470
73.265433
61.402917
54.228902
47.173500
43.774843
40.902495
40.680766
##ZVALUE=350
0.410676
0.386834
0.351667
0.507832
0.488758
0.476837
0.437498
0.489950
0.537634
0.310540
0.475645
0.463724
0.616908
0.443459
0.626445
0.452995
0.621676
0.344515
0.503659
0.758767
0.623465
0.534654
0.615716
0.703931
0.627637
0.753999
0.739694
0.752807
0.763535
0.646710
0.808835
0.622869
0.712872
0.780821
0.786781
0.932813
0.901818
0.973940
0.860691
1.031756
1.071692
0.915527
1.084805
1.197457
1.292825
1.355410
1.335740
1.446605
1.673698
1.746416
1.775622
1.793504
2.035499
2.351999
2.478957
3.031492
3.911853
19.456744
64.343810
206.939578
400.386453
826.102495
1015.793681
1015.793681
1015.793681
1015.793681
1015.793681
1015.793681
1015.793681
903.281569
555.025935
259.274840
122.007728
37.854910
21.150708
18.886924
19.317865
20.559430
21.496415
24.178624
27.178526
33.108592
39.419532
50.003529
59.395432
73.327422
82.115531
90.327859
92.510581
92.024803
86.744428
76.843500
68.282485
57.537556
51.353574
44.513941
##ZVALUE=355
0.474453
0.542998
0.432730
0.527501
0.470877
0.427961
0.582933
0.540614
0.458956
0.357628
0.532866
0.553727
0.532866
0.735521
0.465512
0.539422
0.700951
0.512600
0.525713
0.624657
0.603795
0.515580
0.667572
0.722408
0.757575
0.770688
0.703931
0.803471
0.751615
0.760555
0.638962
0.721812
0.874996
0.932813
0.704527
0.885725
0.871420
0.800490
0.878572
1.041889
1.246929
0.937581
0.989437
1.165867
1.080632
1.132488
1.304746
1.275539
1.360774
1.437664
1.601577
1.723766
1.815557
1.843572
1.895428
2.150536
2.294779
2.754927
3.164411
9.639859
34.067631
136.899948
283.659697
610.495806
962.340832
1015.786529
1015.786529
1015.786529
1015.786529
1015.786529
1015.786529
1012.889743
682.421923
303.579569
145.793557
47.917962
23.265481
17.709732
17.862916
19.500852
20.267963
21.363497
22.938848
26.154518
29.964447
36.862493
43.625832
55.123568
63.749552
73.976517
81.079602
84.449649
84.105730
79.540610
73.621869
64.303875
##ZVALUE=360
0.469685
0.437498
0.484586
0.446439
0.231862
0.432730
0.456572
0.410676
0.337958
0.675917
0.485778
0.581741
0.510812
0.576973
0.398755
0.596642
0.615716
0.638962
0.526905
0.514984
0.520945
0.723600
0.560880
0.675917
0.692606
0.614524
0.600815
0.624657
0.754595
0.663996
0.853539
0.571609
0.682473
0.908971
0.834465
0.841618
0.879765
0.900626
0.998974
0.867844
0.936985
0.866652
0.926852
1.038909
1.226664
1.088977
1.040697
1.233816
1.228452
1.392961
1.431704
1.470447
1.377463
1.651645
1.714826
1.788735
1.989603
2.159476
2.337694
2.726912
3.019571
4.852414
14.787912
69.431663
171.872973
432.204604
734.169483
1015.793681
1015.793681
1015.793681
1015.793681
1015.793681
1015.793681
1015.793681
844.419599
408.608913
212.720633
78.613758
33.035874
17.562509
17.063618
17.991662
18.257499
19.396544
20.073652
21.682978
23.130774
26.612878
30.698776
38.223863
46.364665
57.088733
65.045953
73.188543
76.674819
76.875687
##ZVALUE=365
0.454783
0.565648
0.426769
0.534654
0.515580
0.404716
0.406504
0.406504
0.424981
0.572801
0.559688
0.498891
0.400543
0.696778
0.557899
0.494719
0.482798
0.596642
0.647902
0.616908
0.378489
0.557899
0.692606
0.619888
0.633597
0.827909
0.626445
0.834465
0.768900
0.660419
0.717640
0.844598
0.760555
0.763535
0.828505
0.842810
0.893474
0.840425
0.884533
0.789762
0.836849
0.855923
0.937581
1.049638
1.056790
1.088977
1.089573
1.193881
1.369715
1.362562
1.318455
1.442432
1.438856
1.661777
1.528859
1.655817
1.738667
1.943707
2.102852
2.154708
2.411604
2.611876
2.934933
3.475547
6.586909
36.361814
104.179978
297.034979
550.513864
981.841683
1015.788913
1015.788913
1015.788913
1015.788913
1015.788913
1015.788913
989.821553
567.698479
309.574604
115.718842
49.359798
19.395947
16.258955
16.710758
17.014742
17.484426
17.781854
18.330812
18.934608
20.993948
23.190975
27.950406
32.804608
40.477514
48.630834
57.678819
##ZVALUE=370
0.495911
0.414848
0.333786
0.570416
0.591874
0.548959
0.415444
0.521541
0.493526
0.431538
0.406504
0.590682
0.548959
0.417829
0.616908
0.680685
0.422597
0.639558
0.662804
0.593662
0.593662
0.555515
0.670552
0.567436
0.704527
0.676513
0.689626
0.718832
0.744462
0.705719
0.674725
0.632405
0.784993
0.800490
0.667572
0.702739
0.764728
0.806451
0.909567
0.922680
0.829697
0.972748
0.952482
0.987649
0.986457
1.247525
1.076460
1.157522
1.125932
1.172423
1.209974
1.300573
1.246929
1.124740
1.296997
1.423955
1.532435
1.548529
1.556873
1.820922
1.938939
2.132654
2.321601
2.499819
2.660751
3.239512
4.454851
19.740462
66.030622
218.892694
416.534543
825.412869
1015.794873
1015.794873
1015.794873
1015.794873
1015.794873
1015.794873
1015.794873
682.946444
382.183790
151.180625
71.204901
26.688576
16.605854
14.942884
15.349984
15.229583
15.919805
16.260743
16.985536
17.723441
18.913746
21.802783
25.032759
30.083656
##ZVALUE=375
0.477433
0.441670
0.461936
0.242591
0.562668
0.405908
0.474453
0.543594
0.476837
0.571609
0.491738
0.527501
0.532866
0.512600
0.602603
0.437498
0.619888
0.458956
0.552535
0.635982
0.500679
0.546575
0.595450
0.543594
0.472665
0.556707
0.749826
0.743866
0.695586
0.798702
0.793934
0.619888
0.696778
0.785589
0.749826
0.815988
0.728965
0.845790
0.849962
0.948906
0.959635
0.717640
0.910759
0.919700
0.800490
0.919700
0.950694
0.994802
1.138449
0.956655
1.048446
1.119971
1.134872
1.210570
1.148582
1.154542
1.266599
1.413822
1.314878
1.500845
1.483560
1.668930
1.841784
2.085567
1.981854
2.322793
2.404451
2.709627
3.454685
9.421706
34.993887
131.053925
280.866027
645.045638
995.010734
1015.793681
1015.793681
1015.793681
1015.793681
1015.793681
1015.793681
887.243748
559.762716
274.367929
136.788487
44.989586
19.670725
13.640523
13.437867
13.779998
14.071465
14.703870
15.184879
15.519857
16.197562
17.229915
##ZVALUE=380
0.559688
0.384450
0.533462
0.447631
0.540614
0.584722
0.445843
0.509620
0.497699
0.384450
0.505447
0.387430
0.619888
0.656843
0.472665
0.646710
0.631809
0.520945
0.572801
0.574589
0.542998
0.485778
0.423789
0.553727
0.579953
0.797510
0.573993
0.605583
0.732541
0.777841
0.607967
0.724792
0.620484
0.667572
0.667572
0.734925
0.639558
0.648499
0.773668
0.866652
0.868440
0.834465
0.950694
0.797510
0.818968
0.906587
0.784993
0.922680
0.928640
0.885725
0.874996
0.941753
0.951886
0.955462
1.085997
1.106858
1.020432
1.287460
1.046658
1.273751
1.323819
1.487732
1.559854
1.668930
1.659989
1.803637
1.924634
2.049804
2.498627
2.791882
3.246665
5.384684
18.298626
89.818835
213.184953
518.139601
871.979594
1015.792489
1015.792489
1015.792489
1015.792489
1015.792489
1015.792489
1015.792489
785.799026
384.826660
198.591948
70.899725
29.988885
13.424754
12.161732
12.368560
12.674928
13.060570
13.529658
14.029741
##ZVALUE=385
0.385642
0.482798
0.557899
0.520945
0.453591
0.400543
0.474453
0.332594
0.382662
0.505447
0.393987
0.558496
0.418425
0.530481
0.387430
0.355840
0.527501
0.319481
0.472665
0.479817
0.399947
0.461936
0.341535
0.578761
0.639558
0.580549
0.494719
0.687838
0.712872
0.523925
0.648499
0.688434
0.610948
0.553727
0.572801
0.663996
0.575781
0.847578
0.646710
0.705719
0.688434
0.655651
0.613928
0.725985
0.608563
0.792742
0.633597
0.737906
0.757575
0.763535
0.748634
0.833869
0.891685
0.856519
0.923872
0.908971
0.896454
1.073480
1.006722
1.142621
1.030564
1.221895
1.204610
1.325607
1.574755
1.301765
1.536608
1.625419
1.956820
2.265573
2.381802
2.789497
2.994537
3.589988
8.789897
50.234795
134.354830
349.552631
642.576814
1015.793681
1015.793681
1015.793681
1015.793681
1015.793681
1015.793681
1015.793681
984.326601
549.469590
307.721496
124.574900
51.251650
16.211867
11.398792
11.213422
11.027455
11.647940
##ZVALUE=390
0.499487
0.373721
0.375509
0.423789
0.324845
0.383854
0.484586
0.466704
0.458956
0.446439
0.504851
0.562668
0.494719
0.295639
0.298619
0.357628
0.475645
0.529885
0.524521
0.419617
0.641942
0.432730
0.280738
0.394583
0.464916
0.487566
0.522733
0.527501
0.768900
0.660419
0.569820
0.545979
0.577569
0.713468
0.620484
0.697970
0.557899
0.570416
0.680685
0.522733
0.534654
0.723600
0.695586
0.620484
0.595450
0.788569
0.672936
0.751615
0.777841
0.751615
0.793934
0.713468
0.716448
0.890493
0.893474
0.796914
0.861883
0.836849
0.781417
1.116991
0.963807
1.144409
1.102686
1.157522
1.287460
1.274943
1.204610
1.565814
1.730919
2.113581
2.176762
2.235770
2.461672
2.559423
2.886653
3.091693
4.757643
25.257468
81.574917
260.220766
503.367782
971.424580
1015.807986
1015.807986
1015.807986
1015.807986
1015.807986
1015.807986
1015.807986
802.539587
456.689000
181.455612
81.365705
23.962855
12.286901
10.091662
##ZVALUE=395
0.268817
0.363588
0.371933
0.390410
0.344515
0.277758
0.515580
0.237823
0.380874
0.404716
0.342727
0.301600
0.356436
0.377893
0.415444
0.397563
0.383854
0.540614
0.327826
0.462532
0.412464
0.251532
0.482798
0.440478
0.480413
0.591874
0.480413
0.572801
0.451803
0.465512
0.291467
0.441670
0.498891
0.500679
0.385642
0.488758
0.504851
0.439882
0.679493
0.535846
0.557899
0.657439
0.482798
0.591874
0.590682
0.526905
0.606775
0.682473
0.618696
0.762939
0.789762
0.830889
0.659823
0.791550
0.588894
0.864863
0.771880
0.755787
0.907779
1.095533
0.785589
0.897646
1.089573
0.969768
1.039505
1.126528
1.261830
1.471639
1.539588
1.736879
1.894832
2.067685
2.255440
2.253652
2.353787
2.341866
2.344847
2.747774
3.162622
14.215708
53.653717
188.016891
364.894867
725.835562
1015.794873
1015.794873
1015.794873
1015.794873
1015.794873
1015.794873
1015.794873
975.513458
616.136789
258.343816
120.872855
39.361715
##ZVALUE=400
0.357628
0.371933
0.321865
0.263453
0.478625
0.437498
0.231862
0.317693
0.372529
0.387430
0.401735
0.433922
0.413656
0.398755
0.417829
0.203848
0.487566
0.404716
0.458956
0.399947
0.440478
0.570416
0.545979
0.307560
0.222921
0.330806
0.571609
0.356436
0.431538
0.390410
0.534654
0.556707
0.354648
0.547767
0.431538
0.584722
0.500679
0.515580
0.620484
0.545979
0.541806
0.491738
0.646710
0.504851
0.673532
0.682473
0.708699
0.728965
0.753999
0.420809
0.761747
0.720620
0.673532
0.811815
0.738502
0.853539
0.843406
0.769496
0.830889
0.826716
0.863671
1.089573
1.112819
1.123548
1.100898
1.118779
1.185536
1.315475
1.721978
1.699924
1.750588
1.973510
1.944900
1.980662
1.946688
1.939535
1.854897
2.218485
2.133846
2.546906
3.036857
8.102655
28.416514
106.033683
231.640935
540.990829
907.518864
1015.812755
1015.812755
1015.812755
1015.812755
1015.812755
1015.812755
1015.812755
774.757862
378.229618
##END
