##TITLE=FSH751
##FORMAT=SPECTACLE-ASCII V-1.2
##DATA TYPE=ULTRAVIOLET SPECTRUM
##SECOND TYPE=ULTRAVIOLET SPECTRUM
##DATE=10/24/17
##TIME=15:12:44
##SPECTROMETER/DATA SYSTEM=SPECTACLE
##XUNITS=NM EM
##YUNITS=ENERGY
##YFACTOR=1
##FIRSTX=220
##LASTX=410
##NPOINTS=96
##3DDATA=Equidistant
##ZUNITS=NM EX
##FIRSTZ=210
##LASTZ=400
##ZPOINTS=39
##XYDATA=(Y..Y)
##ZVALUE=210
8.343458
8.350611
7.196665
6.570816
6.257892
6.295443
5.941987
5.493760
5.145669
4.974604
3.566742
3.570914
3.639460
3.939867
3.676414
3.843904
4.348755
3.675818
4.637837
4.534721
4.499555
4.993677
5.275607
5.925894
5.973577
7.115602
7.970929
8.434653
8.677840
9.537935
8.652806
10.090470
9.407997
10.729432
10.869503
10.529757
11.395812
10.255575
11.345744
10.664463
11.757612
11.227727
11.012554
10.379553
10.415912
10.745525
11.751652
11.447668
11.348724
11.574626
11.587739
12.440681
10.797977
11.984706
11.219978
11.783838
11.677742
12.245774
11.512637
11.543632
11.985898
13.233423
12.613535
11.170506
13.167858
13.167858
12.362599
13.668537
14.823675
17.419457
19.670725
22.878647
25.239587
28.174520
33.126473
36.099553
36.968589
38.364530
40.341616
34.875870
35.828948
30.859709
28.214455
24.381876
19.792914
15.874505
14.978647
13.173819
11.868477
10.883808
11.471510
12.788773
13.499856
14.029741
14.987588
17.010570
##ZVALUE=215
26.710629
30.137897
23.432970
20.330548
15.770793
11.490583
10.342598
10.573864
10.200739
10.593534
9.577870
8.192658
6.153584
5.132556
5.762577
4.459620
3.836751
4.146695
4.875660
5.110502
4.878640
4.708767
5.034804
5.932450
7.381439
6.430745
8.109808
8.690953
10.219812
11.371970
11.132956
12.220740
13.237000
13.096929
13.886690
13.714433
13.305545
13.384819
13.777614
12.464523
12.631416
13.832450
12.963414
13.016462
12.889504
13.287663
12.644529
12.946725
12.947917
12.474656
12.811422
12.936592
13.052821
13.007522
13.607740
12.728572
12.464523
13.245940
13.445616
12.249947
13.301969
12.833476
13.510585
12.894869
14.115572
14.292598
14.498830
15.359521
17.272830
20.260811
22.576451
22.341609
27.201772
30.978918
32.611489
36.566854
37.688613
39.452910
40.817857
37.602782
34.929514
32.395720
28.496981
25.636554
21.154881
17.418861
15.707612
16.199946
14.895797
13.775826
12.728572
12.015700
12.476444
12.783408
13.529658
15.206933
##ZVALUE=220
75.162649
68.532825
77.172518
71.154833
61.044693
46.590567
35.285950
26.151538
20.017624
17.491579
17.995834
19.847751
17.813444
15.849471
12.895465
10.672808
7.545948
6.076694
5.498528
4.906654
4.971623
4.984736
6.338954
6.627440
7.589459
7.992983
8.173585
10.535717
11.525750
13.273954
13.053417
14.697909
16.814470
15.544891
16.527772
17.242432
17.589927
16.651750
15.780926
16.765594
15.842915
15.345812
14.352798
16.414523
15.345812
14.485717
16.245842
14.522672
15.248656
14.582872
15.668869
14.760494
15.133619
15.237927
16.989708
16.393661
15.862584
14.901757
15.887618
18.471479
17.048717
16.851425
16.499758
15.168786
17.591715
15.717745
16.958714
17.774701
20.522475
21.660924
22.186637
24.648905
29.111505
31.716824
33.450723
36.128759
38.245916
39.950609
37.337542
39.751530
39.265752
33.755898
29.006600
29.377937
25.354624
20.073652
17.957687
17.442703
15.581846
15.846491
15.672445
15.068650
15.321970
14.921427
15.275478
14.001727
##ZVALUE=225
99.415779
98.522902
127.378702
148.465633
152.149796
142.334700
125.522614
93.412995
70.408583
50.784945
36.227703
32.822490
33.964515
33.186674
33.817887
29.893517
25.317669
20.788908
17.029643
11.124611
9.177923
6.988645
7.440448
6.234646
7.228851
7.953644
9.394884
10.014772
10.651946
12.738705
13.110638
13.362765
14.425516
16.730428
17.474890
16.493797
17.118454
16.923547
17.826557
17.518997
18.343925
17.318726
17.296672
17.423630
16.116500
15.324950
18.058419
19.800663
18.604994
16.677976
17.159581
19.231439
18.218756
19.266605
19.205809
21.207929
20.152926
19.263625
19.047856
20.173788
21.425486
21.410584
20.652413
19.364953
20.583868
21.518469
21.632910
22.551417
23.167729
23.544431
26.656985
28.242469
29.237866
30.881763
35.459995
33.702850
36.014915
37.318468
35.959482
33.893585
32.080412
29.913783
27.715564
24.448633
25.512576
23.682714
21.399856
21.306872
21.428466
19.375682
20.811558
18.907785
18.818974
20.267963
19.453764
18.440485
##ZVALUE=230
69.849491
77.780485
118.441582
187.518597
240.022540
292.006731
311.273932
290.619731
262.725949
192.242861
141.712427
88.607669
68.702698
52.690506
52.224994
56.132674
54.090619
55.340528
49.861670
37.466884
30.290484
20.773411
13.288856
10.453463
8.522868
8.029938
8.751750
8.631945
9.303689
10.174513
11.293888
12.435913
12.475848
12.190938
14.396906
15.567541
14.713407
15.078783
17.124414
17.670989
16.151667
17.905831
19.476414
19.039512
18.709898
19.086599
21.751523
21.175742
21.207929
22.584796
22.435784
21.143556
26.943684
25.026798
26.519895
26.629567
25.032759
27.793646
27.226806
27.695894
27.490854
27.551651
26.820898
26.979446
28.491616
28.792620
28.652549
29.186606
31.706691
32.239556
35.731792
37.258863
39.692521
37.528872
41.872859
43.049455
40.108562
41.601658
44.027567
39.806962
38.928986
37.911534
34.221411
35.141706
31.430721
29.438734
28.989911
28.938651
27.832985
28.049946
28.431416
28.216839
26.360750
26.599765
28.355718
25.698543
##ZVALUE=235
21.004677
25.825500
55.146813
113.078952
183.741450
282.995701
369.953513
453.369617
488.849878
488.258004
423.311591
338.875651
231.663585
162.706971
109.220743
86.095929
76.345801
75.577497
81.246495
87.064505
80.792904
65.434575
55.471659
39.022565
26.230812
19.598603
13.496876
10.771751
11.308789
10.110736
10.080934
10.354519
11.900663
11.282563
12.474656
12.992620
14.462471
14.496446
15.823841
17.104745
16.966462
20.647645
21.679997
20.827651
23.647547
23.389459
26.293993
27.539730
28.375983
28.024912
27.693510
32.018423
31.153560
34.710765
32.606721
36.121607
34.284592
34.415722
35.370588
35.942793
35.764575
35.480857
37.815571
36.404729
37.372708
37.777424
37.837625
39.458871
40.722489
41.947961
41.043758
42.907000
45.136809
45.477748
48.610568
50.032735
47.591925
49.141645
48.691630
45.950413
44.901967
42.437911
42.286515
40.318966
39.516687
37.602782
37.380457
35.287738
36.329627
37.426949
36.550760
36.842823
34.030676
32.880902
35.282969
34.310818
##ZVALUE=240
2.558827
2.950430
7.898808
22.005439
47.666430
112.433434
197.026730
341.048837
465.516448
602.010489
670.591593
671.576858
631.461740
506.227016
391.018987
250.223875
175.958872
115.022659
99.545717
101.761818
107.483864
117.869973
111.315846
102.995634
82.426667
67.692995
47.727823
35.238862
22.615790
18.401742
14.829636
12.361407
11.457801
13.260841
14.428496
13.255477
15.637875
16.047955
16.592741
18.076897
21.788478
20.845532
22.674799
26.716590
27.466416
29.558539
32.450557
35.721660
35.123825
36.161542
37.783980
37.619472
40.459633
41.900873
43.308735
43.266416
43.726563
43.369532
44.046640
44.014454
45.140982
44.092536
45.920610
46.077967
45.406818
44.631958
46.368837
46.439767
48.272610
50.044656
51.672459
53.056479
54.755807
56.053996
56.151748
56.724548
53.943992
54.124594
55.701733
50.862432
51.835775
50.852895
49.289465
47.652721
47.060847
47.279596
47.280788
45.067668
44.874549
43.541789
42.338967
42.391419
43.284893
40.974617
38.842559
41.234493
##ZVALUE=245
2.324581
1.862645
2.282858
2.680421
4.590750
15.354753
37.281513
100.944638
186.768770
310.827494
515.689850
671.729445
810.709596
858.454704
810.847878
716.140866
523.774624
385.180712
303.355455
156.055689
116.717815
103.148818
111.514926
129.063725
131.150484
123.547912
116.791725
96.246600
77.622533
54.707527
43.651462
28.893948
20.272732
17.265677
14.898777
15.854836
16.864538
17.151833
17.955899
19.210577
22.607446
23.883581
23.964643
27.210712
30.605793
32.090545
32.781959
36.683679
36.254525
38.593411
38.740635
43.736696
41.735768
44.186711
44.267774
43.369532
45.354962
43.389797
44.927597
45.375824
46.804547
45.004487
46.727657
45.291781
44.372678
46.614408
46.518445
46.215653
48.116446
48.640966
48.599839
52.148700
51.138997
52.514672
53.124428
52.248836
51.337481
52.044988
51.673651
50.324798
49.281716
49.299002
46.256781
46.158433
46.247840
44.118762
45.477748
43.931603
42.250752
41.502714
42.900443
41.980743
40.940642
38.751960
39.899945
39.661527
##ZVALUE=250
1.775622
2.004504
1.900792
2.169609
1.956820
2.253652
2.988577
7.860661
29.014945
69.518685
179.514885
304.645896
457.429886
677.472949
821.629763
932.085514
936.713815
836.374760
706.513524
489.215851
332.468748
217.188001
128.104687
101.887584
106.854439
122.589469
131.474733
143.684745
133.949518
124.206543
107.067823
79.727769
62.510967
42.171478
30.848980
22.519827
19.061565
17.954707
17.701983
19.948483
20.995736
23.330450
25.055408
27.088523
28.189421
29.683709
33.797622
35.070777
34.732819
37.980676
37.268996
40.005445
41.031837
39.296746
42.014718
42.879581
43.288469
42.396784
42.489767
42.551756
41.371584
41.713715
41.126609
41.406751
40.956736
41.576624
41.448474
42.795539
42.048693
41.273832
42.187572
43.051839
46.783686
47.121644
46.815872
47.128797
45.618415
47.661662
46.279430
44.892430
44.465661
42.104721
43.365955
43.434501
41.251779
41.265488
40.538907
39.622784
38.664937
40.031672
39.515495
39.396882
38.944483
37.017465
38.510561
38.036704
##ZVALUE=255
1.543760
1.483560
1.336932
1.664758
1.784563
1.901984
1.811981
2.034903
2.568960
4.632473
20.948648
52.194595
112.162828
252.473950
396.947861
626.902580
789.790750
957.324505
1012.284756
951.609015
835.500956
672.125816
426.618457
278.159976
147.683620
105.686784
92.478991
105.027556
127.919912
140.671730
148.630738
144.245625
135.642886
107.072592
87.351799
61.818957
45.600533
31.075478
24.007559
20.446777
20.290613
20.990968
21.742582
24.498701
25.078654
27.474761
27.638674
27.984977
29.971600
32.568574
33.505559
35.820603
33.467412
36.865473
36.590695
36.277771
36.518574
37.008524
36.833882
36.192536
36.399961
35.439730
35.354495
35.254955
35.453439
35.409927
33.938885
35.266876
35.108924
36.307573
35.285950
37.383437
37.733912
38.799644
39.831996
39.681792
38.753748
39.553642
38.207769
38.741827
39.843917
38.811564
38.928986
37.108660
38.140416
37.038922
36.771894
37.409663
37.359595
35.709739
35.627484
35.405755
34.526587
35.134554
34.311414
34.285784
##ZVALUE=260
1.262426
1.408458
1.347661
1.665950
1.511574
1.578927
1.711845
1.715422
2.006888
1.931787
1.968741
2.685785
7.794499
34.817457
81.186891
202.750564
335.693955
561.140776
745.304823
989.919901
1015.793681
1015.793681
995.133519
836.164951
565.190911
389.257669
218.985677
137.801766
89.145899
90.051889
102.745891
130.409598
146.765709
154.063702
151.371956
134.662986
119.346976
89.062452
67.481995
47.657490
35.174489
26.268959
23.270845
21.109581
22.346973
23.534894
23.358464
26.255846
26.300550
27.052760
27.787685
27.312636
29.630661
28.620958
29.414892
29.909611
30.509830
30.599833
30.217767
30.207634
30.179620
29.797554
29.572845
30.324459
29.616952
30.254722
29.376745
31.184554
30.989647
31.481981
31.591654
31.948686
33.864975
34.857988
34.384727
34.979582
34.726858
35.061836
36.095977
34.950972
34.856796
35.131574
34.762621
34.504533
33.356547
34.078956
35.153627
35.555959
33.320785
33.228993
33.870935
33.603907
32.856464
32.978654
32.473803
33.254623
##ZVALUE=265
1.572967
1.346469
1.365542
1.382828
1.487732
1.552701
1.424551
1.459718
1.675487
1.589656
1.669526
1.769662
2.309680
2.277493
4.877448
22.363663
53.719878
140.243769
256.459713
486.406684
706.622601
924.049020
1015.793681
1015.793681
1015.793681
997.549891
757.761598
549.769998
313.040614
184.791684
113.080740
79.793930
85.437894
114.833713
135.339499
156.511664
157.383680
153.010488
140.138865
114.117861
92.191696
64.789653
50.065517
35.403967
27.933717
23.642778
22.758842
22.388697
22.681952
23.173690
24.289489
24.790764
24.659634
25.957823
25.434494
26.184916
26.084781
25.669932
26.078820
25.662780
25.416613
25.960803
24.943948
26.253462
26.475787
26.675463
26.908517
27.016997
27.624965
27.878881
28.529763
28.703809
30.275583
30.505657
31.331778
31.599998
32.678843
31.417608
31.878948
32.661557
32.730699
32.033920
32.502413
31.696558
31.805634
32.870770
30.678511
32.571554
32.366514
32.027960
31.363964
32.650828
32.213926
31.147599
31.402707
30.837655
##ZVALUE=270
1.156926
1.112819
1.266599
1.282692
1.261830
1.310706
1.206994
1.221895
1.234412
1.417994
1.485944
1.584888
1.249909
1.670718
1.736879
2.013445
2.499819
10.231733
29.017925
95.116496
193.364620
355.312824
657.701492
909.504890
1015.765667
1015.765667
1015.765667
1015.765667
966.171026
734.058619
505.782962
264.568925
151.972771
78.772902
69.555640
91.043711
112.327933
140.702724
153.708458
162.556767
158.949494
139.431953
120.496750
92.505813
71.971416
47.818422
37.706494
28.026700
26.131868
23.143888
22.907853
22.874475
23.257732
23.765564
24.738908
24.529696
25.216937
25.439858
25.584698
24.712682
24.648905
25.082827
24.406910
25.171638
25.006533
25.635958
26.373863
25.325418
25.523901
27.115941
27.241707
28.359890
29.341578
30.297637
30.379891
29.622912
31.018853
31.057596
30.384660
30.889511
30.976534
30.596852
30.929446
30.619502
31.068921
30.855536
30.402541
30.382872
30.624866
30.591488
31.277537
30.788779
29.475689
29.972792
29.906631
29.989481
##ZVALUE=275
1.247525
1.133680
1.147985
1.032948
0.938773
1.170635
1.228452
1.159906
1.366735
1.109838
1.166463
1.289845
1.497865
1.616478
1.659989
1.819730
1.835823
1.879930
2.240539
5.551577
18.547773
49.880743
151.912570
310.158730
630.506873
905.408859
1015.793681
1015.793681
1015.793681
1015.793681
1015.793681
966.606736
681.387782
360.309482
204.717517
93.872547
61.388612
65.518618
84.400773
112.432837
134.798884
153.661966
162.061453
157.852769
141.538978
116.444826
96.904635
71.868896
55.433512
40.472746
32.530427
25.625825
23.734570
24.645925
24.099946
24.876595
24.592876
25.021434
25.532842
25.679469
24.753809
24.894476
25.925636
25.304556
25.705695
26.073456
25.434494
26.505589
26.569963
27.197599
28.330684
28.301477
30.066967
30.648708
29.883981
30.542612
31.366944
31.255484
30.833483
30.577779
30.509830
29.545426
30.976534
30.225515
29.773712
29.540658
29.571652
29.011965
29.795766
28.910637
29.556751
28.974414
29.074550
28.930902
29.063821
28.682947
##ZVALUE=280
0.966787
1.011491
0.942945
1.125932
1.026988
1.028776
1.054406
1.225471
1.174808
1.212955
1.221895
1.108646
1.284480
1.272559
1.304746
1.428723
1.573563
1.743436
1.648664
1.991987
2.064705
2.764463
11.617541
38.985610
120.759606
233.730674
476.553440
735.167861
1015.793681
1015.793681
1015.793681
1015.793681
1015.793681
1015.793681
815.745592
463.677645
276.256800
124.202967
68.251491
49.611926
60.838461
89.091659
111.616850
138.430595
154.035687
161.661506
156.457424
137.705803
121.136904
95.275640
74.492693
53.885579
41.887760
31.926632
26.965737
25.895834
25.035739
25.547743
25.008917
25.357604
26.103854
26.114583
26.256442
25.315881
24.988651
26.175976
25.695562
26.743412
26.953816
27.843714
28.166771
28.269887
29.929876
29.867887
29.425621
29.450655
30.024648
29.549599
31.127930
30.148625
31.187534
29.736757
29.122829
29.777884
29.058456
29.274821
29.599667
28.573871
28.994679
27.948618
28.810501
28.923750
28.243661
28.097630
26.947856
27.946830
##ZVALUE=285
0.977516
1.072884
1.029968
0.886917
0.985861
0.885725
1.041889
1.215935
0.949502
1.057982
0.902414
1.054406
1.024604
1.294613
1.182556
1.083612
1.357794
1.393557
1.541972
1.541972
1.701713
1.701713
2.245903
2.520680
6.621480
22.215843
58.026910
161.512494
300.228596
584.285855
847.497582
1015.793681
1015.793681
1015.793681
1015.793681
1015.793681
972.832441
607.236624
386.275649
182.554722
95.987916
47.490001
43.814778
62.136650
81.708431
113.515854
132.042766
150.756836
159.166455
155.095458
143.220425
120.685697
101.295710
74.993968
56.869984
39.730668
33.812523
27.096868
25.874972
25.413632
24.977922
24.954677
24.846792
25.400519
25.829673
26.032925
26.083589
26.195645
26.673675
27.339458
27.549863
28.326511
28.668642
29.631853
29.770732
29.552579
29.685497
29.620528
30.108690
29.318929
29.424429
29.645562
28.761625
28.882623
29.101968
30.200481
28.383732
27.780533
28.163791
27.175546
27.559996
27.810931
27.165413
27.018785
26.888847
26.946664
##ZVALUE=290
0.777841
0.937581
0.766516
0.738502
0.758767
0.737906
0.812411
0.751615
0.884533
1.210570
1.052618
1.012683
1.052618
1.041889
0.916719
1.248717
1.172423
1.145601
1.234412
1.288652
1.419783
1.580715
1.499653
1.615882
1.985431
2.272725
2.954602
8.264780
38.333535
90.942979
166.804790
431.973934
714.609027
1015.793681
1015.793681
1015.793681
1015.793681
1015.793681
1015.793681
779.212713
513.174534
259.549618
137.272477
56.156516
35.692453
42.423606
55.074692
80.356002
99.558830
128.854513
142.169595
152.282715
152.457952
137.019753
120.816827
94.903708
73.682666
53.668618
41.581988
32.487512
28.047562
25.324821
24.845600
24.682879
24.351478
25.283694
24.663806
25.895834
26.889443
26.820898
27.647614
28.201938
28.573871
28.700829
28.764606
29.474497
28.841496
29.484630
28.508902
28.665662
29.207468
29.438734
28.904676
28.971434
28.883815
28.919578
28.808713
29.033422
28.116703
27.817488
27.060509
27.389526
27.618408
26.010871
26.471615
26.007891
##ZVALUE=295
0.730753
0.764728
0.841618
0.796914
0.770688
0.944734
0.782609
0.939965
0.724792
0.791550
0.913739
0.699759
0.904799
0.965595
0.977516
1.044869
1.133680
1.029968
1.212955
1.322627
1.316667
1.301765
1.385808
1.375675
1.519918
1.787543
2.019405
2.105832
2.301931
4.340410
20.762682
58.588982
132.301450
324.775577
554.590821
956.372023
1015.781760
1015.781760
1015.781760
1015.781760
1015.781760
961.886644
670.731664
353.771448
197.201967
76.352954
39.872527
27.855635
34.654737
53.994656
71.148872
98.293424
116.149783
135.914683
142.738819
142.507553
132.052898
112.700462
92.052817
69.471002
54.425597
39.314628
32.098889
25.866628
24.447441
23.136735
24.167895
24.211407
24.774671
25.558472
25.238991
25.597811
26.982427
26.891828
27.422905
27.726889
27.791858
28.086901
27.704835
27.967691
27.806759
27.899742
28.363466
28.057694
28.164983
28.090477
27.554631
26.943684
27.936697
27.804971
27.025938
27.070642
26.933551
26.236773
26.354790
25.602579
##ZVALUE=300
0.754595
0.728965
0.772476
0.829697
0.813603
0.812411
0.729561
0.695586
0.742674
0.653863
0.971556
0.740886
0.793934
0.816584
0.975728
0.918508
1.152754
1.107454
1.032948
1.147985
1.146793
1.227856
1.269579
1.258850
1.257658
1.490712
1.426935
1.571774
1.844764
1.915693
2.244711
2.681613
9.465814
35.017729
115.916729
221.684575
460.003614
725.315809
1015.793681
1015.793681
1015.793681
1015.793681
1015.793681
1015.793681
812.897682
531.665683
263.396502
139.178634
51.552653
26.132464
24.119616
32.182932
48.980713
65.189600
90.165734
110.519528
131.075978
138.489604
137.401819
129.848719
110.981464
92.512965
69.459677
54.280758
38.693547
31.588674
25.766492
23.735762
23.418665
23.639798
24.006963
24.847984
25.278926
26.241541
26.007891
27.124882
27.331710
28.069615
28.075576
28.232932
28.299689
28.021932
28.337836
27.927756
27.626753
27.518868
27.204752
27.874708
27.414560
26.558638
26.734471
26.192665
26.161671
25.758743
25.380850
25.754571
##ZVALUE=305
0.755787
0.803471
0.705719
0.709891
0.799894
0.746846
0.794530
0.799894
0.738502
0.832677
0.861883
0.878572
0.908971
0.815988
0.739694
0.879765
0.730753
0.833869
0.854731
0.935793
0.861883
0.939965
1.030564
1.021624
1.199841
1.228452
1.188517
1.272559
1.261830
1.478791
1.714826
1.691580
2.001524
2.311468
4.968643
19.436479
79.122782
174.751878
393.298864
621.792674
975.268483
1015.793681
1015.793681
1015.793681
1015.793681
1015.793681
938.689709
662.678480
346.781015
193.297863
76.790452
35.466552
19.801855
22.028685
31.517744
43.899417
67.020655
83.120465
108.074546
119.770765
130.638480
129.588842
120.745897
107.977986
84.876418
68.223476
50.387979
39.802790
29.921532
25.630593
24.257898
24.499893
23.806691
24.415851
25.178790
25.647879
26.207566
26.607513
26.647449
26.628971
27.115941
27.413964
27.118921
27.839541
27.922988
27.302504
27.318597
27.586818
27.517676
26.453733
26.404858
25.938749
25.928617
25.734901
24.722815
25.625825
##ZVALUE=310
0.613928
0.607967
0.730753
0.600815
0.546575
0.689626
0.692606
0.573993
0.747442
0.616908
0.511408
0.764728
0.783801
0.877976
0.635982
0.870824
0.692606
0.762939
0.861883
0.695586
0.847578
1.009703
1.078844
0.994802
1.096725
1.032948
1.023412
1.162887
1.087785
1.173615
1.281500
1.453757
1.542568
1.941919
2.022982
2.242923
2.542734
9.379983
31.306744
108.399987
221.229792
478.855968
745.067596
1015.793681
1015.793681
1015.793681
1015.793681
1015.793681
1015.793681
813.802481
555.487871
282.886624
153.136849
56.000948
24.783611
17.165542
20.514727
28.952956
40.160418
59.062839
75.122714
97.339749
110.935569
122.787952
125.257969
117.867589
105.010867
84.121823
68.495870
50.658584
41.510463
31.516552
27.621984
25.223494
24.881959
25.323629
25.611520
25.662780
25.613904
25.866628
26.585460
27.268529
27.301908
27.066469
27.795434
28.131604
27.195811
27.895570
27.546883
27.242899
26.465654
26.427507
26.863813
25.957823
25.617480
25.741458
##ZVALUE=315
0.659823
0.697970
0.518560
0.650883
0.416636
0.474453
0.484586
0.569820
0.583529
0.574589
0.674725
0.701547
0.552535
0.850558
0.615716
0.726581
0.739694
0.774860
0.676513
0.768900
0.818968
0.795722
0.895858
0.990629
0.926852
0.940561
0.938773
1.177788
1.098514
1.072884
1.148582
1.177788
1.226664
1.496673
1.351833
1.534820
1.698732
1.719594
2.164841
4.114509
14.824867
63.231587
145.723820
347.017050
573.088527
951.936841
1015.793681
1015.793681
1015.793681
1015.793681
1015.793681
932.219625
662.719607
361.256599
201.289654
77.839494
33.791661
15.987754
15.852451
19.181967
25.861859
39.319992
51.837564
72.645545
88.917613
107.272863
116.069913
117.351413
112.528801
97.879767
83.465576
65.434575
52.393675
39.248466
32.745600
27.650595
25.651455
25.239587
24.997592
25.394559
25.588870
26.412606
26.634932
26.965737
26.753545
27.670860
26.769638
26.818514
26.959777
27.005672
26.277900
26.408434
25.757551
25.827885
25.662780
25.458932
##ZVALUE=320
0.590682
0.413656
0.329614
0.497699
0.516772
0.531673
0.588894
0.478625
0.453591
0.407696
0.621676
0.548959
0.710487
0.549555
0.543594
0.557899
0.573993
0.521541
0.724792
0.685453
0.684857
0.659823
0.816584
0.689626
0.854731
0.885725
0.736713
0.826716
0.721812
0.926852
0.842810
0.874996
0.987649
1.233816
1.336932
1.136661
1.311898
1.434684
1.719594
1.641512
1.699924
2.431870
6.984472
37.030578
93.112588
242.795944
411.892533
722.152591
981.074572
1015.730500
1015.730500
1015.730500
1015.730500
1015.730500
835.526586
471.514463
274.127722
116.509795
53.512454
18.906593
13.352633
14.236569
17.138720
24.296641
32.385588
49.172640
63.551664
85.751414
99.216700
110.708475
111.966729
107.335448
97.340941
78.846812
65.594912
48.897862
39.651990
31.722784
28.625727
26.338696
24.940968
25.509000
25.781989
25.654435
25.947690
26.178956
26.372671
26.605725
26.059747
26.307702
26.544929
25.872588
26.100874
25.417805
25.220513
25.107861
##ZVALUE=325
0.531673
0.503659
0.494719
0.572801
0.523925
0.497699
0.543594
0.519753
0.436902
0.488758
0.674725
0.461936
0.638962
0.597835
0.590682
0.489950
0.553727
0.435710
0.644922
0.554919
0.696778
0.713468
0.644922
0.742674
0.802875
0.644922
0.736713
0.845790
0.948906
0.891685
0.892878
0.954866
1.062751
1.014471
1.013875
1.116991
1.105666
1.268983
1.276731
1.426935
1.527667
1.724958
1.682639
1.915693
3.960729
23.020506
62.429905
165.416002
299.159884
574.784875
828.251839
1015.793681
1015.793681
1015.793681
1015.793681
1015.793681
933.612585
588.679910
365.425944
165.537596
80.932975
26.044846
13.463497
11.835694
13.154745
16.511679
22.067428
33.046603
45.879483
65.922737
79.602599
96.203685
103.727579
107.239485
102.569461
89.906454
75.635910
60.943961
49.569607
37.089586
31.676888
27.328730
26.145577
25.318861
24.780631
25.488734
25.343895
25.155544
25.465488
25.251508
25.943518
25.709867
24.890900
25.160909
24.947524
25.006533
##ZVALUE=330
0.495911
0.354648
0.609756
0.287890
0.491738
0.453591
0.349879
0.489950
0.590682
0.559688
0.514984
0.471473
0.554919
0.498891
0.508428
0.516772
0.590682
0.577569
0.654459
0.586510
0.440478
0.502467
0.565648
0.717640
0.742674
0.718832
0.675917
0.746846
0.882745
0.738502
0.931621
0.835657
0.960827
0.925660
0.913739
1.151562
1.076460
1.094937
1.128912
1.223683
1.154542
1.338720
1.442432
1.683831
1.788735
1.705885
2.428889
10.942817
37.494898
95.430613
243.573785
418.924689
739.716887
986.389518
1015.793681
1015.793681
1015.793681
1015.793681
995.999575
764.759779
439.184904
252.661705
104.170442
46.081543
15.674829
11.585951
11.675954
13.176799
17.342567
22.379756
32.802820
43.894649
62.943697
76.738000
91.746449
99.498630
101.349950
96.815825
85.675716
73.168874
56.653619
46.364665
36.987662
32.009482
27.839541
25.501847
24.412870
24.025440
24.442673
23.931861
24.297833
23.804903
24.253726
23.988485
23.834705
24.384856
##ZVALUE=335
0.414848
0.396967
0.550747
0.446439
0.330806
0.385642
0.432730
0.496507
0.712872
0.446439
0.502467
0.622869
0.452995
0.489950
0.500679
0.412464
0.478625
0.460744
0.582933
0.575781
0.602603
0.587702
0.418425
0.616908
0.608563
0.697970
0.557899
0.659823
0.778437
0.856519
0.807643
0.876784
0.847578
0.836849
0.609756
0.758767
0.848770
0.848770
0.918508
0.999570
1.049638
1.143813
1.145601
1.289845
1.442432
1.622438
1.626611
1.824498
2.064705
4.653931
16.755462
74.706674
164.082646
379.458666
623.323917
983.420014
1015.793681
1015.793681
1015.793681
1015.793681
1015.793681
845.006704
590.879917
321.851969
173.097849
61.131716
25.538802
12.336969
11.597872
12.525916
14.173985
17.254949
21.914840
32.330751
43.556690
60.015917
72.896481
86.934566
94.067454
96.687675
91.449618
80.773830
70.490837
57.523847
47.880411
36.865473
30.981898
26.902556
24.861693
23.939610
22.768974
22.910833
23.005605
22.533536
22.815466
23.055673
##ZVALUE=340
0.437498
0.326633
0.439882
0.322461
0.275970
0.496507
0.371933
0.285506
0.494719
0.534654
0.498891
0.476837
0.519753
0.579953
0.416636
0.466704
0.387430
0.492930
0.409484
0.685453
0.467896
0.500679
0.598431
0.534654
0.528693
0.639558
0.612736
0.709891
0.616908
0.705719
0.684857
0.733733
0.745654
0.623465
0.887513
0.896454
0.844598
0.881553
1.015663
0.939965
0.977516
1.028776
0.980496
1.194477
1.121759
1.050830
1.329780
1.384616
1.537800
1.709461
1.745820
2.689958
8.016825
39.854646
100.918412
268.922448
473.815799
829.851627
1015.793681
1015.793681
1015.793681
1015.793681
1015.793681
981.324911
712.514520
383.215547
217.868686
89.554787
37.285686
13.689995
11.709929
11.967421
12.591481
14.327765
16.989708
23.323894
30.691624
43.399930
54.586530
70.822835
81.298947
89.034438
90.080500
85.306764
79.543591
66.178441
56.880713
44.062734
37.588477
29.774904
26.621819
23.480654
22.472739
21.987557
21.442771
21.722913
##ZVALUE=345
0.400543
0.515580
0.637770
0.440478
0.355840
0.328422
0.479817
0.317693
0.405908
0.351667
0.310540
0.411868
0.426769
0.510812
0.404716
0.490546
0.473857
0.533462
0.472665
0.315905
0.381470
0.442863
0.377893
0.540614
0.483990
0.515580
0.633597
0.583529
0.501871
0.629425
0.649691
0.538826
0.738502
0.724792
0.627637
0.668764
0.681877
0.839829
0.724792
0.638962
0.860691
0.937581
0.860691
0.948906
1.003742
1.058578
1.109838
1.107454
1.076460
1.272559
1.388788
1.607537
1.655817
2.065897
3.877878
22.603869
65.445900
181.337595
324.239731
616.936684
878.243446
1015.792489
1015.792489
1015.792489
1015.792489
1015.792489
843.577981
511.476994
294.325948
118.588805
53.435564
17.683506
11.890531
11.816621
11.816621
12.467504
13.347864
16.576648
20.647645
29.434562
39.154887
53.629875
63.982606
75.238943
80.685616
83.734989
81.887841
74.501634
66.267848
53.793788
44.606924
33.983588
29.300451
23.908615
22.408962
20.903945
##ZVALUE=350
0.401735
0.250936
0.437498
0.404716
0.491738
0.508428
0.397563
0.386834
0.391603
0.453591
0.460744
0.460744
0.462532
0.445843
0.523925
0.460744
0.500679
0.309944
0.398755
0.535846
0.488758
0.623465
0.480413
0.575781
0.519753
0.506639
0.640750
0.397563
0.641942
0.531673
0.522733
0.566840
0.652671
0.631809
0.559688
0.609756
0.643730
0.741482
0.656843
0.718832
0.836849
0.828505
0.851750
0.867844
0.858903
1.059771
0.905991
1.223683
1.230836
1.195669
1.223683
1.466870
1.328588
1.516938
1.542568
1.777411
2.555847
11.559725
36.086440
112.655759
218.518972
456.691980
688.593984
997.136831
1015.802026
1015.802026
1015.802026
1015.802026
962.198973
602.196455
381.824970
179.800987
85.251927
24.565458
12.815595
11.166930
11.516809
11.591911
11.867881
13.400912
15.788674
20.975471
26.509762
35.943985
44.961572
58.154464
66.864491
75.223446
76.776743
76.069832
70.415735
59.804916
51.672459
41.475892
34.440756
27.674437
##ZVALUE=355
0.342727
0.456572
0.381470
0.416636
0.373721
0.294447
0.485778
0.386834
0.374913
0.295639
0.479817
0.459552
0.417829
0.411868
0.485778
0.521541
0.591874
0.451803
0.389814
0.435710
0.574589
0.614524
0.513792
0.405908
0.436902
0.450611
0.348687
0.571609
0.465512
0.548959
0.492930
0.610948
0.698566
0.642538
0.434518
0.603795
0.677705
0.741482
0.597835
0.554919
0.670552
0.685453
0.683665
0.712872
0.766516
1.005530
0.829697
0.780821
0.931621
0.976920
1.071692
1.164675
1.106858
1.105666
1.217723
1.331568
1.641512
1.715422
1.795888
5.704761
19.828677
77.247620
156.115890
333.374739
533.939600
851.686597
1015.786529
1015.786529
1015.786529
1015.786529
983.427763
685.898662
454.300642
212.205648
104.961991
33.516884
14.895797
10.190606
10.275841
10.692477
11.172891
11.442900
12.638569
14.835596
17.969608
24.054646
31.141639
41.785836
50.459504
60.530901
67.668557
71.355700
70.324540
64.395666
57.544708
47.930479
##ZVALUE=360
0.449419
0.349879
0.431538
0.493526
0.365973
0.399947
0.431538
0.459552
0.371933
0.476837
0.344515
0.351667
0.306964
0.402927
0.422597
0.577569
0.652671
0.497699
0.508428
0.488758
0.526905
0.394583
0.424981
0.425577
0.495911
0.575781
0.556707
0.545979
0.581741
0.425577
0.446439
0.478625
0.469685
0.576973
0.746846
0.495911
0.756979
0.605583
0.627637
0.736713
0.659823
0.720620
0.721812
0.799894
0.651479
0.660419
0.762939
0.691414
0.737906
0.954866
1.116991
1.203418
1.252890
1.126528
1.256466
1.240969
1.451969
1.452565
1.493692
1.700521
2.047420
2.893806
8.278489
39.153695
96.606612
245.670676
411.558747
691.285729
925.397873
1015.827656
1015.827656
1015.827656
1011.952758
742.308497
512.763858
262.518525
141.801834
53.867698
21.904707
10.353923
9.994507
9.905696
10.076761
10.976791
10.983944
11.720657
13.172626
16.202927
19.945502
26.678443
34.151673
44.755936
52.244663
60.206652
64.140558
64.145923
##ZVALUE=365
0.502467
0.612736
0.575781
0.491738
0.290871
0.444651
0.567436
0.552535
0.491738
0.479817
0.548959
0.434518
0.680685
0.558496
0.441670
0.618696
0.630617
0.540614
0.626445
0.654459
0.505447
0.585914
0.638962
0.680685
0.535846
0.563860
0.498891
0.672936
0.518560
0.699759
0.716448
0.652671
0.807643
0.729561
0.749826
0.805855
0.581741
0.676513
0.844598
0.826716
0.816584
0.917912
0.838637
0.949502
0.817776
0.842810
0.700951
0.998974
0.843406
0.953674
0.974536
1.165867
0.874996
1.026988
1.007915
1.008511
1.301765
1.385808
1.211762
1.586676
1.591444
1.672506
1.929998
2.410412
4.021525
21.974444
60.469508
162.383914
301.803946
574.698448
796.198845
1015.917659
1015.917659
1015.917659
1015.917659
834.779739
613.057613
350.595713
196.947455
74.415803
30.543804
11.527538
9.498000
9.453893
9.741783
9.471774
9.892583
10.133982
10.804534
11.711717
13.916492
18.191934
22.735596
31.183958
38.067698
47.138929
##ZVALUE=370
0.377893
0.575781
0.500679
0.353456
0.384450
0.253916
0.392795
0.329614
0.329614
0.398755
0.476837
0.439882
0.472665
0.464916
0.456572
0.334978
0.443459
0.272989
0.523925
0.398755
0.440478
0.421405
0.489950
0.499487
0.608563
0.575781
0.518560
0.539422
0.517964
0.506639
0.582933
0.473857
0.410676
0.398755
0.420809
0.625849
0.467896
0.750422
0.566840
0.634789
0.533462
0.688434
0.601411
0.675917
0.672936
0.588894
0.607967
0.782609
0.649691
0.758767
0.684857
0.885725
0.793934
0.867844
0.950694
0.944734
1.010895
1.042485
1.123548
1.211762
1.211762
1.326799
1.361966
1.488924
1.707673
2.003908
2.569556
11.913776
39.651990
126.136541
238.814950
467.213988
691.650510
988.574624
1015.793681
1015.793681
1015.793681
935.188532
713.445544
418.929458
242.768526
100.167990
47.334433
17.167926
9.640455
8.383989
8.588433
8.683801
8.753538
8.760691
8.964539
10.180473
10.597706
12.744665
15.614629
20.394921
##ZVALUE=375
0.279546
0.259876
0.324845
0.355840
0.350475
0.407696
0.265837
0.334978
0.398755
0.352859
0.306964
0.499487
0.417829
0.349879
0.325441
0.347495
0.366569
0.249743
0.390410
0.414848
0.295639
0.284910
0.246763
0.453591
0.515580
0.464916
0.448823
0.439882
0.378489
0.609756
0.529885
0.583529
0.448823
0.552535
0.501871
0.426769
0.536442
0.617504
0.609756
0.594854
0.586510
0.575781
0.532866
0.491738
0.619888
0.730753
0.637770
0.848770
0.685453
0.691414
0.815988
0.714660
0.742674
0.821948
0.679493
0.807643
0.768900
0.784993
0.903606
0.762939
0.920892
0.990629
1.158714
1.172423
1.196861
1.367927
1.513958
1.788735
2.078414
6.399751
23.472905
88.650584
190.300941
424.181819
654.488802
976.139903
1015.794873
1015.794873
1015.794873
1015.794873
822.131634
514.692664
333.727598
172.311664
68.945885
33.551455
11.872649
8.228421
7.634759
7.937551
8.213520
8.448958
8.431673
8.506775
8.979440
9.760857
##ZVALUE=380
0.265837
0.302792
0.236630
0.338554
0.207424
0.219941
0.170469
0.279546
0.286698
0.376701
0.235438
0.343919
0.310540
0.178814
0.428557
0.282526
0.292659
0.199676
0.367761
0.359416
0.337958
0.282526
0.485778
0.386834
0.430942
0.374913
0.328422
0.243783
0.349879
0.348687
0.416636
0.337958
0.453591
0.302792
0.310540
0.378489
0.284910
0.352859
0.414848
0.403523
0.373721
0.425577
0.397563
0.302792
0.409484
0.445843
0.470877
0.529885
0.447631
0.620484
0.511408
0.673532
0.680685
0.529885
0.418425
0.734925
0.703931
0.819564
0.550747
0.807643
0.812411
0.875592
0.776649
0.995994
0.861883
1.039505
1.065731
1.376867
1.243949
1.838803
2.074838
3.261566
12.176633
61.353445
146.864653
356.944799
584.898591
921.712518
1015.693545
1015.693545
1015.693545
1015.693545
960.171819
670.266747
457.523465
228.961706
119.623542
43.268800
18.035769
8.262992
7.146597
7.278919
7.242560
7.560849
7.737875
7.317662
##ZVALUE=385
0.076890
0.113845
0.114441
0.322461
0.129938
0.086427
0.169873
0.244975
0.277758
0.247955
0.262856
0.178814
0.262856
0.256896
0.347495
0.158548
0.300407
0.119805
0.251532
0.155568
0.183582
0.330806
0.157952
0.053644
0.186563
0.311732
0.360608
0.187755
0.275970
0.296831
0.255704
0.375509
0.306964
0.264645
0.304580
0.353456
0.286698
0.480413
0.354648
0.312924
0.399947
0.450611
0.380874
0.286698
0.288486
0.422597
0.331998
0.393987
0.389814
0.473857
0.399947
0.296831
0.525713
0.341535
0.459552
0.502467
0.461936
0.435710
0.558496
0.516772
0.553727
0.448823
0.762939
0.625849
0.756979
0.764728
0.880957
1.024604
1.171827
1.227856
1.578927
1.755953
1.641512
2.080798
5.479455
31.396747
84.543824
229.114890
425.217748
793.093443
1015.654802
1015.654802
1015.654802
1015.654802
1015.654802
855.408907
603.706837
329.908729
187.295675
78.555942
32.717586
9.869933
6.637573
6.439686
6.310940
6.517768
##ZVALUE=390
0.195503
0.322461
0.356436
0.191927
0.200868
0.221729
0.358820
0.265837
0.461936
0.376701
0.224710
0.389814
0.346899
0.325441
0.285506
0.223517
0.247955
0.351667
0.396967
0.304580
0.383854
0.219941
0.339746
0.372529
0.267625
0.413656
0.391603
0.330806
0.306964
0.213981
0.385642
0.360608
0.515580
0.519753
0.523925
0.467896
0.450611
0.484586
0.607967
0.573993
0.475645
0.496507
0.427961
0.493526
0.513792
0.593662
0.521541
0.373721
0.574589
0.540614
0.621676
0.676513
0.507832
0.686646
0.608563
0.762939
0.529885
0.620484
0.673532
0.695586
0.801682
0.872612
0.808835
0.749826
0.787973
0.876784
0.927448
1.069903
1.360774
1.312494
1.389980
1.684427
1.627803
1.837611
1.816750
1.858473
2.683401
15.241504
49.145818
163.399577
325.016975
661.448836
943.711996
1015.793681
1015.793681
1015.793681
1015.793681
1015.793681
878.067017
522.983670
297.254920
117.126703
52.037835
14.927983
7.523894
6.028414
##ZVALUE=395
0.341535
0.296831
0.291467
0.266433
0.331998
0.269413
0.261664
0.231862
0.334978
0.370741
0.286698
0.387430
0.381470
0.158548
0.311732
0.332594
0.298619
0.359416
0.208616
0.275970
0.231862
0.417829
0.389814
0.331998
0.321865
0.420809
0.366569
0.432730
0.402927
0.540614
0.409484
0.529885
0.536442
0.548959
0.647902
0.576973
0.401735
0.558496
0.486970
0.541806
0.575781
0.639558
0.416636
0.540614
0.583529
0.593662
0.628829
0.639558
0.622869
0.514984
0.563860
0.578761
0.490546
0.705719
0.686646
0.583529
0.594854
0.677705
0.661612
0.622869
0.611544
0.516772
0.624657
0.823736
0.872612
0.919700
0.873804
1.053810
1.107454
1.186728
1.458526
1.412630
1.407862
1.461506
1.388788
1.618862
1.525879
1.746416
2.140999
8.660555
32.970905
120.415688
234.579444
461.498499
708.954930
1015.810966
1015.810966
1015.810966
1015.810966
1015.810966
986.303687
632.537603
394.486785
171.317458
80.181956
24.630427
##ZVALUE=400
0.278950
0.255704
0.217557
0.262856
0.244975
0.233650
0.178814
0.405908
0.295639
0.448823
0.208616
0.289679
0.239611
0.216961
0.279546
0.253916
0.229478
0.367761
0.356436
0.324845
0.370741
0.272989
0.331998
0.366569
0.300407
0.263453
0.321865
0.346899
0.433922
0.473857
0.611544
0.567436
0.486970
0.571609
0.524521
0.443459
0.471473
0.508428
0.606775
0.549555
0.488758
0.574589
0.531673
0.552535
0.440478
0.630617
0.585914
0.425577
0.478625
0.681877
0.602603
0.427961
0.540614
0.548959
0.531673
0.670552
0.666976
0.669956
0.606775
0.709891
0.645518
0.663996
0.574589
0.810623
0.747442
0.707507
0.823736
0.813603
0.997782
1.094937
1.139641
1.092553
1.296997
1.164675
1.148582
1.237988
1.351833
1.362562
1.559854
1.534820
1.940727
3.600717
17.191768
49.587488
146.596432
278.531909
545.198917
782.883763
1015.794873
1015.794873
1015.794873
1015.794873
978.919864
737.420917
438.047647
265.254974
##END
