##TITLE=FSH752
##FORMAT=SPECTACLE-ASCII V-1.2
##DATA TYPE=ULTRAVIOLET SPECTRUM
##SECOND TYPE=ULTRAVIOLET SPECTRUM
##DATE=10/24/17
##TIME=15:17:33
##SPECTROMETER/DATA SYSTEM=SPECTACLE
##XUNITS=NM EM
##YUNITS=ENERGY
##YFACTOR=1
##FIRSTX=220
##LASTX=410
##NPOINTS=96
##3DDATA=Equidistant
##ZUNITS=NM EX
##FIRSTZ=210
##LASTZ=400
##ZPOINTS=39
##XYDATA=(Y..Y)
##ZVALUE=210
6.269813
6.866455
6.075501
6.199479
6.643534
5.646944
6.580949
4.917979
4.931688
5.121827
3.733635
2.915859
2.906919
3.103614
3.232956
3.341436
3.192425
3.873706
3.567934
4.220605
3.724694
4.201531
4.366636
4.794598
5.299449
4.514456
4.697442
5.005598
6.084442
6.090999
7.848740
7.159710
8.190870
7.863641
9.195805
8.693933
9.453893
7.923841
8.137822
8.456707
8.337498
8.461475
8.760691
8.055568
9.033680
8.605719
10.466576
9.058714
9.106994
8.890629
8.716583
9.723902
9.174943
9.041429
8.657575
7.984638
8.589625
9.567738
8.706450
9.509921
9.358525
9.830594
10.253787
8.200407
9.425879
9.748936
9.962916
10.371804
10.252595
12.637973
13.246536
15.919805
17.354488
18.681884
19.825697
20.989776
21.785498
21.212697
19.032955
19.004941
18.458962
17.818809
15.801787
13.246536
12.154579
11.247993
9.857416
9.248853
8.782744
7.570982
7.828474
10.196567
9.272695
10.336637
12.091994
12.231469
##ZVALUE=215
21.898746
21.858811
19.686818
16.708970
13.518929
12.113452
11.483431
9.705424
10.039806
9.308457
8.261800
6.729960
6.011724
5.105734
4.235506
4.336834
3.709793
3.852844
4.046559
4.215837
4.267693
4.179478
4.145503
4.596710
5.480647
5.832911
6.591678
6.514788
7.192492
8.570552
8.480549
9.777546
9.830594
11.125803
9.651780
10.609627
10.551810
11.297464
10.824800
9.666681
11.011958
8.719563
10.354519
10.031462
9.438992
11.083484
10.748506
10.541677
10.467768
10.164976
10.070801
10.025501
10.143518
9.351969
10.237694
10.718703
11.316538
10.705590
10.242462
11.265874
10.152459
9.455681
9.944439
10.317564
10.264516
10.576844
11.282563
13.337731
12.474656
13.760924
15.113950
17.306805
18.763542
19.473433
19.433498
20.521879
21.854639
21.131635
21.529794
20.821691
18.398762
17.286539
16.954541
15.372634
15.328526
12.762547
12.400746
10.412931
9.619594
11.179447
9.153485
9.968877
10.721684
10.381937
11.236668
10.775924
##ZVALUE=220
54.860711
56.090951
56.548715
57.120919
50.433874
37.176609
30.594468
24.048686
20.151734
18.608570
20.143986
18.316507
17.206669
15.251637
13.227463
9.893775
7.919669
6.099939
5.480647
4.582405
5.067587
4.852414
5.489588
4.959702
5.865693
6.520748
6.680489
7.502437
9.356737
9.563565
9.464622
11.871457
12.506843
11.887550
12.596846
13.237596
13.438463
12.637973
12.940764
13.551712
13.323426
13.431907
13.124943
12.397766
13.214946
12.720823
12.146831
11.687875
12.164712
12.480617
13.055801
12.845993
13.334751
13.234615
13.542771
13.381839
13.681650
12.909770
15.559793
13.745427
13.852715
14.185905
13.620853
14.004707
14.135838
13.620853
15.001893
16.051531
15.376806
17.551780
17.774701
19.339919
20.194650
23.432970
24.336576
26.493669
26.529431
25.227666
25.622845
23.052692
23.240447
20.736456
19.870996
18.277764
18.549562
16.576648
15.590787
15.655756
14.535785
14.954805
13.530850
13.626814
12.745857
12.568831
14.649630
13.421774
##ZVALUE=225
76.304674
81.031919
103.399754
131.533742
135.552883
134.876966
122.584701
94.515681
73.197484
53.532720
37.239790
32.737851
33.848882
33.938885
31.525493
30.551553
26.805997
19.060969
14.476776
10.373592
7.392764
6.424785
6.362796
5.943775
6.127954
7.815957
8.144975
9.188652
8.048415
10.858774
11.049509
10.472536
11.142492
13.770461
12.880564
14.096498
13.697743
15.167594
14.463663
14.836788
14.266968
12.839437
14.867783
14.384985
13.845563
15.623569
15.511513
14.762878
15.292764
14.285445
17.106533
15.646815
15.722513
15.620589
17.031431
17.670989
15.907884
17.463565
17.727613
17.725825
17.275810
19.121766
17.600656
18.607974
18.617511
20.150542
20.567775
22.025704
21.262765
21.429658
21.975636
24.406910
25.221705
27.981997
27.562976
28.424859
30.176640
28.836727
27.754903
26.813745
26.815534
25.701523
25.897622
22.703409
22.594929
19.510984
19.409657
19.637942
18.525720
19.279718
19.854903
18.257499
17.861724
18.409491
19.087791
17.142892
##ZVALUE=230
52.940845
59.940815
96.751451
152.591467
203.313828
256.496668
274.146795
277.608633
247.075558
194.449425
141.744614
94.842911
69.729686
53.875446
52.080750
53.795576
54.196715
54.835677
45.643449
38.660765
27.947426
19.449592
12.870431
9.682775
7.733703
6.907582
6.460547
8.093715
8.132458
10.474920
9.706616
10.203719
10.091662
11.167526
12.295842
12.710690
12.891889
14.137626
14.368892
14.536977
13.592839
15.359521
15.824437
17.925501
16.603470
17.976761
16.934872
17.381907
19.513965
17.678738
17.287731
20.541549
20.023584
20.565987
21.276474
22.592545
20.925999
23.430586
24.180412
21.897554
24.264455
24.039745
24.595857
23.136735
24.185777
25.842786
24.008751
27.127862
26.281476
27.219653
30.280948
31.118989
32.820702
32.524467
36.535859
36.257505
35.966635
36.377907
36.317706
33.486485
34.403801
31.801462
31.772852
29.358864
30.313730
29.406548
27.554631
28.208494
26.865602
26.294589
25.354624
26.641488
25.431514
25.615692
25.770664
26.280880
##ZVALUE=235
16.363859
18.953681
42.800903
91.849566
151.322484
255.551934
328.232646
425.534844
482.952595
488.339663
442.267656
369.208455
252.220631
181.524754
118.484497
90.090632
80.488920
79.666972
85.023642
84.069967
76.333880
66.486001
54.541826
36.599636
27.490854
17.975569
12.428761
9.432435
9.144545
9.349585
8.822680
10.104775
10.093451
11.104941
10.659695
12.287498
12.704730
13.229847
14.975667
14.255643
15.952587
16.627908
16.965866
18.886924
19.031763
20.841956
19.964576
21.190643
22.728443
24.545789
23.282766
25.897622
25.908947
26.358962
27.883649
29.037595
29.218793
28.641820
28.296709
30.581951
31.277537
29.409528
33.011436
31.657815
31.420588
31.882524
33.487678
34.364462
34.684539
37.118793
38.103461
37.869811
40.364861
43.052435
44.890642
44.074655
44.976473
47.013760
43.997765
44.065714
40.805936
41.727424
41.384697
39.695501
37.840605
37.209988
38.303733
37.209988
33.837557
37.245750
36.683679
34.918785
35.062432
35.108924
33.074617
33.544898
##ZVALUE=240
2.405643
2.477765
5.391836
20.080805
47.673583
108.365417
186.609626
339.647532
467.612743
628.226995
718.060732
741.580725
684.362650
548.993945
438.996553
318.287611
189.415812
135.080814
98.303556
99.026561
108.625889
112.556815
112.268925
102.140903
81.806779
63.620806
49.198866
32.428503
21.091700
15.983582
12.782812
11.090636
10.944605
12.091994
12.555718
12.281537
12.206435
14.017820
14.762878
15.411973
16.078949
18.700957
18.775463
21.681786
23.962855
24.394989
24.773479
27.718544
27.186871
28.462410
28.851628
30.068755
32.726526
32.933950
32.388568
34.139752
32.751560
33.099651
35.021901
37.166476
35.494566
36.922693
36.108494
36.444664
37.239790
39.513707
38.578510
39.773583
41.272640
42.708516
43.266416
46.467781
48.966408
47.727823
50.524473
54.223537
51.488876
49.899817
52.538514
48.629642
49.606562
48.082471
49.363971
46.953559
47.540665
46.710968
43.213964
42.193532
45.582652
41.615963
38.448572
41.007996
42.430758
41.888952
39.360523
38.466454
##ZVALUE=245
2.166629
2.084970
1.705885
2.496839
4.941821
12.605786
41.217804
87.448955
203.653574
322.459936
540.248752
697.772503
836.662650
920.859575
882.624984
766.724944
622.497797
420.019627
286.572576
164.998770
119.939446
102.973580
113.103986
122.419000
129.752755
125.118494
111.337900
96.143484
74.153543
56.727529
39.690733
24.999976
18.355846
14.755726
14.160872
12.815595
13.910532
14.808774
15.066862
18.143654
17.500520
17.773509
19.549727
22.267699
23.830533
25.414824
27.428865
26.288629
28.374791
30.148625
31.826496
31.384826
32.524467
34.067631
35.258532
32.555461
34.711957
33.549666
36.118627
35.309792
35.600662
35.703778
35.537481
36.990643
37.090778
37.195683
38.326979
38.459897
38.955808
41.319728
42.325854
42.170882
43.551922
46.347976
48.480630
49.672723
48.349500
48.695803
48.179626
48.618913
47.565699
45.899749
46.242476
45.040846
43.200850
44.811964
44.944882
43.349862
40.718913
42.110682
42.839646
39.750934
42.106509
37.974715
39.586425
40.204525
##ZVALUE=250
2.040863
1.953840
2.075434
2.201796
2.191663
2.184510
2.891421
7.664561
31.546950
72.268844
182.128549
319.045782
477.482677
728.735924
889.035463
1015.785933
1015.785933
971.779823
835.284591
583.918691
392.401814
251.964927
140.023828
101.873875
103.917718
117.403865
131.929517
134.426951
134.658813
120.414495
104.861856
79.226494
60.757995
38.185716
26.864409
19.224882
16.356707
15.279651
14.963746
16.651750
17.478466
18.683672
19.989610
21.787882
22.747517
24.866462
25.964975
26.084781
28.283000
27.831793
29.328465
29.975772
30.661821
30.634999
32.257438
32.122731
32.444596
33.533573
32.351613
32.923818
32.745600
34.023523
32.663941
31.723976
32.669902
34.651756
33.195615
34.769773
35.716891
36.754608
37.265420
38.687587
40.918589
40.815473
41.639805
42.144656
43.335557
42.359829
42.551756
42.095780
42.043924
42.883754
41.700602
42.192936
40.648580
39.818883
39.652586
40.007830
39.612651
38.057566
38.894415
37.193894
37.418604
38.049817
36.871433
36.281943
##ZVALUE=255
1.508594
2.085567
1.713634
1.567602
1.699924
1.919866
2.160668
2.516508
2.433658
3.720522
17.770529
49.616694
136.461854
245.506763
458.253622
680.724978
961.257815
1015.793681
1015.793681
1015.793681
1015.793681
794.700980
562.157631
317.955017
189.423561
112.001896
93.582869
105.153918
122.857690
142.360926
146.665573
142.280459
129.534602
103.407502
87.088943
58.633685
44.253469
29.678941
21.455884
19.023418
17.404556
17.811656
18.275976
20.015836
19.925833
22.809505
22.728443
23.330450
24.729967
26.445985
28.321743
26.591420
27.153492
27.416945
28.059483
28.277636
28.973818
28.958917
30.247569
30.051470
30.101538
29.965639
28.705597
28.594732
29.374957
29.331446
30.048490
31.809807
31.286478
32.342672
34.101605
34.686923
36.283731
35.449862
36.430955
36.735535
38.559437
37.527680
37.532449
37.651658
38.881898
36.751628
38.085580
36.189556
36.911964
36.443472
36.609769
36.531687
35.095811
36.140680
33.748746
34.525990
34.738779
36.759973
33.183694
34.778714
##ZVALUE=260
1.742840
1.484752
1.792908
1.817942
1.691580
1.859665
1.919866
2.136827
2.289414
2.292991
2.513528
7.062554
9.393692
35.471916
81.135631
308.796763
369.029641
799.090862
939.581990
1015.875936
1015.875936
1015.875936
1015.875936
1015.875936
784.145594
475.598574
297.254920
101.616979
99.329948
89.625716
113.644600
126.088858
153.563619
152.253509
147.078633
137.667656
111.086965
90.105534
64.722896
47.781467
33.748746
23.493767
20.594001
19.269586
19.300580
19.985437
20.420551
21.912456
22.251606
23.409724
23.791790
23.780465
23.741722
25.480986
24.760962
25.682449
24.984479
26.526451
25.116801
25.509000
24.883747
26.885867
26.349425
26.132464
25.952458
26.352406
26.792884
27.792454
27.829409
29.541850
29.411912
30.628443
32.060742
33.417940
33.101439
33.207536
33.227801
35.405755
34.825802
33.778548
34.497976
35.773516
33.676624
34.527779
34.714937
34.394860
34.336448
33.506751
35.071969
33.193827
32.464862
33.932924
33.390522
32.344460
32.189488
33.303499
##ZVALUE=265
1.441836
1.273751
1.541972
1.527667
1.143813
1.647472
1.634955
1.674891
1.637936
1.862645
2.091527
1.940727
2.109408
2.604723
5.738735
16.819835
64.491630
139.464736
324.440598
545.776486
891.623497
1015.803814
1015.803814
1015.803814
1015.803814
1015.803814
990.097523
637.269020
417.932868
216.061473
126.891732
81.715584
84.758997
114.792585
133.078694
153.495669
160.667896
150.985718
140.965581
115.157962
91.077685
64.733624
49.088001
32.457709
27.072430
21.184683
21.330714
20.213723
20.002723
20.387769
21.501780
22.923946
21.705627
22.645593
22.631884
22.748709
22.626519
22.662878
22.689700
23.185611
22.873878
24.072528
23.028851
24.282932
24.189949
24.301410
23.942590
24.965405
25.996566
27.200580
26.128888
28.959513
30.250549
29.630661
31.040907
31.881928
31.228662
32.921433
31.868815
32.380819
32.021999
31.028986
30.646920
31.589866
31.416416
30.407906
32.562613
30.995607
32.279491
31.603575
30.428767
31.456947
31.888485
30.816793
30.894876
31.718612
##ZVALUE=270
1.153946
1.292825
1.267791
1.347661
1.340508
1.334548
1.445413
1.391768
1.500845
1.517534
1.694560
1.808405
1.822710
2.015829
2.116561
2.177954
3.019571
12.777448
34.551620
112.953782
234.130621
432.209969
809.493661
1015.793681
1015.793681
1015.793681
1015.793681
1015.793681
1015.793681
902.685523
625.425577
323.153734
179.639459
85.408688
69.589615
89.033842
110.908747
136.905909
154.356956
161.753893
157.546997
140.437484
120.478868
92.310905
71.821809
48.252940
36.450624
27.132630
22.870898
21.175742
20.675659
21.181703
21.380782
21.527410
21.712780
22.729635
23.140907
22.504926
23.610592
23.716688
23.729801
23.025870
24.058819
23.065805
23.574829
23.589730
23.814440
24.945736
25.586486
25.529861
26.540756
27.433634
29.055476
31.206608
30.368567
30.969977
30.746460
31.165481
31.402707
31.057000
30.469894
30.409694
29.866695
30.256510
30.588508
30.028820
29.250979
30.033588
30.728579
30.109882
29.536486
30.202866
30.367970
29.979944
30.695796
30.383468
##ZVALUE=275
1.071692
1.225471
1.142621
1.280904
1.097918
1.358986
1.732707
1.346469
1.352429
1.517534
1.683831
1.331568
1.488924
1.722574
1.708865
1.713634
2.205968
2.208948
2.733469
5.846620
21.325946
63.651800
189.333558
369.591713
723.937750
996.533632
1015.805602
1015.805602
1015.805602
1015.805602
1015.805602
1015.805602
799.747705
431.270599
244.649649
106.019974
65.961480
66.519976
84.507465
113.515854
136.104822
154.994726
160.502791
155.039430
143.291950
115.121603
94.842911
70.196986
53.134561
38.454533
30.786991
25.097728
23.040771
22.696853
22.496581
22.876859
23.685694
23.189783
24.010539
23.495555
24.626851
24.728775
24.237633
24.333596
24.021864
24.762750
24.197698
25.537610
26.067495
27.288795
27.689934
28.044581
27.515888
29.818416
29.775500
29.657483
31.125546
30.861497
30.260682
30.890703
30.534863
30.239820
29.902458
29.385686
30.213594
29.233694
28.903484
28.746724
30.583739
30.181408
29.133558
28.444529
27.912855
28.342605
28.017759
28.844476
##ZVALUE=280
1.089573
0.917912
1.015663
1.070499
1.255870
1.140833
1.062751
1.013875
1.284480
1.244545
1.203418
1.296997
1.495481
1.435876
1.360774
1.575947
1.570582
1.781583
1.940727
2.030730
2.533793
3.459454
11.670589
54.378510
132.792592
320.510864
541.366935
925.880671
1015.793681
1015.793681
1015.793681
1015.793681
1015.793681
1015.793681
942.859650
550.091863
322.295427
139.885545
76.370835
51.097870
61.295629
86.212754
110.262632
138.230920
152.892470
162.132978
153.117776
138.306618
119.428635
93.438625
74.697733
53.797960
41.189790
30.291677
26.271939
23.954511
23.907423
24.601817
24.555922
23.769736
24.189949
24.541616
24.187565
24.672747
25.135875
24.969578
25.882721
25.991797
26.436448
27.318001
27.293563
28.969646
27.725697
29.226542
29.894710
30.168891
30.430555
29.998422
29.792786
30.691624
30.023456
29.862523
29.266477
29.635429
29.344559
29.723644
28.656721
29.058456
28.923750
28.251410
28.193593
27.069449
28.065443
27.856827
27.802587
27.580857
##ZVALUE=285
0.915527
0.912547
0.993609
1.078844
1.154542
1.104474
0.680685
0.974536
1.076460
1.152754
1.006722
1.011491
1.026988
1.260638
1.203418
1.304746
1.444817
1.266599
1.504421
1.764894
1.887679
1.962781
1.955628
2.479553
6.629825
22.805929
83.871484
176.102519
393.572450
658.505559
966.993570
1015.735865
1015.735865
1015.735865
1015.735865
1015.735865
1015.735865
724.077821
460.037589
219.908953
113.169551
50.228834
42.901635
60.748458
81.503987
111.843944
130.994916
150.078535
159.382820
151.660442
142.483711
119.009614
99.540949
72.975755
56.023002
40.183663
31.088591
26.478767
24.954677
23.752451
24.809837
24.422407
23.765564
24.635792
25.239587
25.427938
25.305748
26.380420
26.717782
26.874542
27.446747
28.473735
28.016567
28.279424
28.709769
29.204488
29.836893
29.686689
29.517412
29.553771
28.676987
28.977990
29.443502
28.937459
28.829575
28.504729
28.566718
28.794408
28.583407
27.649999
28.204918
27.754903
26.819706
27.072430
26.707649
27.600527
##ZVALUE=290
0.890493
0.858903
0.846982
0.876784
0.932813
0.847578
0.924468
0.886917
0.827909
0.783801
1.043677
1.296997
1.035929
1.153946
1.053810
1.218915
1.176000
1.425743
1.378655
1.491904
1.441836
1.521707
1.869798
2.018809
2.296567
2.321601
3.046989
9.319782
44.173598
108.355880
222.867727
499.072671
805.573463
1015.793681
1015.793681
1015.793681
1015.793681
1015.793681
1015.793681
939.764977
623.255968
316.186547
165.442824
63.324571
37.066936
40.914416
53.212643
77.241659
98.469853
124.211907
140.398741
151.853561
149.032474
136.683583
120.397806
92.749596
75.145960
53.278804
41.213632
30.644536
26.964545
24.387836
23.403764
23.233891
23.930669
24.717450
24.347901
25.456548
25.922656
26.087761
26.756525
26.992559
27.517676
28.017759
28.818846
29.427409
30.056834
29.781461
28.098822
28.931499
29.068589
28.380752
28.691888
28.583407
28.375983
28.026700
28.100610
27.579665
27.357936
27.448535
27.974844
26.964545
27.117729
26.842952
26.133657
26.697516
##ZVALUE=295
0.650883
0.807643
0.711679
0.889897
0.964999
0.942945
1.010895
0.882745
0.950694
0.843406
0.922680
0.960827
0.967979
1.115799
0.908971
1.055598
1.062751
1.134872
1.096725
1.295805
1.411438
1.343489
1.464486
1.554489
1.879930
1.907945
2.029538
2.428889
2.599955
4.583597
23.479462
68.393946
159.627795
391.259789
670.929551
1015.794873
1015.794873
1015.794873
1015.794873
1015.794873
1015.794873
1015.794873
781.806707
403.837562
223.217010
85.568428
41.626692
28.191805
35.138726
53.774714
71.416497
97.838640
116.304755
136.379004
144.308805
141.578913
132.135749
108.884573
91.835856
69.458485
54.271817
38.372874
32.089949
25.670528
23.605824
23.268461
23.560524
23.724437
23.831725
24.774671
25.426745
25.955439
26.621819
27.311444
28.322935
27.166605
28.091669
27.787685
27.851462
28.452873
27.536750
27.947426
28.170943
27.972460
27.965903
28.063655
27.617812
27.329922
27.143955
27.176738
26.210546
26.576519
26.240945
25.467873
25.758743
25.684834
##ZVALUE=300
0.599623
0.784993
0.851750
0.735521
0.722408
0.787973
0.767708
0.687838
0.852942
0.946522
0.792742
0.903606
1.018643
0.947714
0.903606
0.985861
1.068711
1.258850
0.912547
1.200438
1.007915
1.196861
1.245737
1.526475
1.469851
1.472831
1.840591
1.765490
2.068877
2.051592
2.244711
2.874732
10.794997
35.951734
125.020742
249.361396
555.622578
888.284445
1015.793681
1015.793681
1015.793681
1015.793681
1015.793681
1015.793681
926.469564
608.457923
308.429599
166.908503
61.492920
28.600693
24.455786
32.326579
47.712922
64.697862
90.754628
108.113885
129.807591
137.276649
138.066411
128.088593
111.056566
93.108416
69.602728
54.441690
38.697720
31.249523
25.695562
24.101734
23.250580
23.607612
23.937821
24.301410
25.092959
25.512576
26.286840
26.027560
26.741624
27.000904
26.797652
27.212501
27.533770
27.448535
27.791858
27.564764
28.461814
27.702451
27.119517
26.883483
26.896000
26.597977
26.413798
25.928617
26.433468
26.347637
25.422573
25.344491
##ZVALUE=305
0.631809
0.589490
0.664592
0.765920
0.732541
0.605583
0.555515
0.888705
0.825524
0.577569
0.802875
0.787973
0.806451
0.793934
0.963807
0.998974
0.956655
0.902414
1.013875
0.993609
1.101494
1.045465
1.194477
1.224875
1.452565
1.338720
1.383424
1.416802
1.631975
1.604557
1.773834
1.966953
2.226830
2.904534
4.252791
24.601817
68.700910
205.408931
383.226871
758.885741
1015.794873
1015.794873
1015.794873
1015.794873
1015.794873
1015.794873
1015.794873
739.997029
464.046597
212.574005
103.286505
35.838485
20.446777
22.517443
30.758977
46.551824
63.088536
88.063478
105.099678
121.990442
131.163597
130.902529
122.069716
104.737878
87.134838
65.454841
50.851703
39.126873
31.815767
25.606751
24.166703
23.960471
24.221539
24.807453
25.424957
25.854707
25.841594
26.698709
26.401877
27.256608
27.572513
27.730465
27.955770
27.418733
27.993917
27.172565
26.791692
27.688742
26.694536
26.257634
26.449561
26.294589
25.949478
25.269985
25.704503
25.223494
##ZVALUE=310
0.625849
0.572801
0.504851
0.538826
0.651479
0.699759
0.534654
0.731945
0.914931
0.609756
0.483990
0.646710
0.772476
0.856519
0.754595
0.754595
0.831485
0.910759
0.713468
0.947714
0.952482
1.002550
1.122952
1.076460
1.023412
1.134872
1.188517
1.374483
1.317859
1.471639
1.608729
1.400709
1.767874
1.828671
2.310872
2.328753
3.082752
8.331537
45.009851
108.345747
275.623798
497.818589
929.222703
1015.793681
1015.793681
1015.793681
1015.793681
1015.793681
1015.793681
983.749628
584.720969
347.805619
149.187446
69.293976
24.709702
17.605424
21.597743
28.127432
42.251945
55.270791
77.526569
94.812512
113.041997
122.710466
123.469830
117.641687
102.670789
88.421702
66.170692
51.260591
39.017797
32.209754
27.269721
25.239587
24.458766
24.747849
25.511980
25.355816
25.890470
25.722980
26.348829
26.546717
26.830435
27.465820
27.368665
26.913881
28.156638
27.313828
27.376413
26.996732
26.393533
26.332736
25.852919
25.509596
25.636554
24.975538
##ZVALUE=315
0.520945
0.575781
0.429749
0.414848
0.658631
0.764728
0.604987
0.823736
0.664592
0.660419
0.759959
0.777841
0.639558
0.767708
0.817776
0.479817
0.747442
0.574589
0.522733
0.823736
0.989437
0.852942
0.940561
1.032948
0.969768
0.929832
1.130700
1.159906
1.317859
1.292825
1.340508
1.357794
1.515746
1.435876
1.651645
1.885891
2.053976
2.317429
2.581477
5.195737
17.822981
77.023506
170.089602
401.305556
689.512491
1015.793681
1015.793681
1015.793681
1015.793681
1015.793681
1015.793681
1015.793681
829.628706
443.516970
241.279602
88.770986
37.304759
16.922951
15.585423
20.161867
25.585890
39.366484
52.381754
72.295666
88.678598
106.799603
115.889907
117.359757
112.909675
98.336935
84.390640
64.846873
51.674843
39.073825
32.434464
27.149916
25.781989
25.191903
25.238991
24.904609
25.953650
26.700497
25.875568
26.291609
26.365519
26.189685
26.450753
26.203990
26.557446
26.364923
26.670694
25.724769
25.616884
25.385618
25.359988
25.363564
##ZVALUE=320
0.489950
0.404716
0.586510
0.736713
0.545979
0.572801
0.550747
0.545979
0.694990
0.656843
0.719428
0.743866
0.769496
0.564456
0.584722
0.686646
0.591874
0.766516
0.883937
0.740886
0.856519
0.755787
0.918508
0.915527
1.048446
0.859499
0.971556
1.022816
1.192689
0.944734
1.090765
1.048446
1.255870
1.431704
1.614690
1.418591
1.568794
1.855493
2.082586
1.952648
2.364516
3.022552
8.626580
44.624805
111.324787
291.043520
503.583550
907.270908
1015.793681
1015.793681
1015.793681
1015.793681
1015.793681
1015.793681
984.472632
575.490594
325.645804
132.621527
59.588552
20.378828
13.820529
14.784932
16.952753
24.129748
32.672882
49.337745
64.698458
84.469914
99.582672
111.069679
112.623572
106.967688
98.543763
79.382658
65.194964
49.518943
40.086508
31.715631
27.899742
25.346875
25.079846
25.320649
25.149584
25.658607
26.034713
25.690794
25.715828
26.160479
25.737882
25.289655
25.520921
25.300980
25.390983
25.239587
25.209785
25.092959
##ZVALUE=325
0.468493
0.674725
0.514984
0.486970
0.645518
0.657439
0.624657
0.574589
0.525713
0.563860
0.642538
0.590682
0.515580
0.623465
0.698566
0.721812
0.648499
0.639558
0.520945
0.608563
0.747442
0.613928
0.826716
0.715852
0.810623
0.813603
0.781417
0.789762
0.797510
0.947714
0.822544
1.041889
1.069903
1.222491
1.275539
1.295805
1.325607
1.489520
1.618862
1.597404
1.653433
1.968741
2.027750
2.698898
4.531741
27.583838
73.395967
200.062394
367.774963
730.832815
1015.793681
1015.793681
1015.793681
1015.793681
1015.793681
1015.793681
1015.793681
703.130960
426.451564
187.105536
87.745786
27.449727
14.255643
12.277961
13.260841
17.264485
22.417903
33.113956
45.454502
65.049529
79.684854
96.465945
104.956627
107.731819
102.811456
89.139938
76.115727
59.787631
48.645735
37.073493
31.069517
26.994944
24.776459
24.605989
23.926497
25.395751
24.958849
24.327636
24.448633
24.595857
24.371743
24.704933
24.170876
23.749471
23.860931
24.298429
##ZVALUE=330
0.354648
0.367761
0.498891
0.518560
0.439882
0.517964
0.667572
0.519753
0.546575
0.472665
0.572801
0.433922
0.662804
0.681877
0.468493
0.622869
0.544786
0.476837
0.673532
0.567436
0.632405
0.615716
0.758767
0.770688
0.958443
0.881553
0.741482
0.912547
0.902414
0.682473
0.963807
0.959635
0.766516
0.934601
0.975728
1.193881
1.196861
1.244545
1.369715
1.406670
1.386404
1.494884
1.653433
1.926422
2.128482
2.471805
2.981424
12.128949
39.565563
134.466887
265.254974
563.299656
869.897604
1015.799642
1015.799642
1015.799642
1015.799642
1015.799642
1015.799642
851.120949
550.378561
257.789493
129.064918
45.026541
18.561482
11.642575
12.028813
13.411641
16.183853
23.482442
31.382442
46.050549
59.282780
79.181790
90.584755
99.722743
100.950003
95.108747
86.352825
70.769787
58.589578
44.285655
37.260652
30.789971
27.010441
24.666786
23.633838
23.697615
23.485422
23.197532
23.187995
23.533702
22.785664
22.956729
23.207664
23.262501
##ZVALUE=335
0.498891
0.601411
0.548959
0.590682
0.606775
0.563860
0.615716
0.659823
0.510812
0.637770
0.575781
0.737906
0.620484
0.653863
0.652671
0.602603
0.668764
0.830889
0.691414
0.746846
0.673532
0.847578
0.761747
0.657439
0.689626
0.632405
0.860691
0.794530
0.904799
1.048446
0.877976
1.015663
1.007915
1.188517
1.167655
1.087785
1.117587
1.144409
1.182556
1.373887
1.322627
1.465678
1.494884
1.830459
1.610518
1.743436
1.820922
2.446771
2.469420
5.708933
20.492673
83.198547
181.382895
423.510671
709.691644
1015.923023
1015.923023
1015.923023
1015.923023
1015.923023
1015.923023
987.911820
693.985820
362.769961
187.527537
63.415766
26.515722
12.937784
11.984706
12.874603
13.883710
17.194748
22.050738
32.866597
43.336749
60.356855
72.538853
86.420774
94.040632
95.044971
91.404915
78.931451
69.557428
56.126714
47.016740
36.244988
30.743480
26.268959
24.228692
22.550821
22.631884
22.336841
22.071600
22.581816
22.353530
22.266507
##ZVALUE=340
0.541806
0.470877
0.607967
0.551939
0.703931
0.685453
0.805855
0.647902
0.609756
0.629425
0.786781
0.631809
0.593662
0.653863
0.684857
0.750422
0.856519
0.740886
0.738502
0.851750
0.731945
0.852942
0.796914
0.865459
0.780821
0.851750
0.839829
0.814795
0.901818
1.037717
0.845790
1.005530
0.886917
0.952482
0.921488
1.057982
1.095533
1.210570
1.131892
1.244545
1.163483
1.303554
1.309514
1.220703
1.486540
1.608729
1.734495
1.853704
2.075434
2.111793
2.449751
3.158450
9.976625
50.383806
126.193762
326.697826
569.736958
977.482796
1016.008854
1016.008854
1016.008854
1016.008854
1016.008854
1016.008854
850.057006
443.186760
243.758559
97.854733
39.256811
14.330745
12.199879
11.976957
13.069510
14.921427
17.332435
23.593903
30.296445
43.115616
55.603981
71.425438
81.668496
89.556575
90.243816
85.704923
78.639984
66.511631
56.963563
44.722557
36.688447
29.258728
25.418997
23.143888
21.629930
20.794868
21.161437
21.189451
##ZVALUE=345
0.581741
0.591874
0.652671
0.539422
0.449419
0.642538
0.479817
0.502467
0.386834
0.575781
0.652671
0.754595
0.585914
0.601411
0.716448
0.673532
0.606775
0.635982
0.644922
0.588894
0.483990
0.659823
0.710487
0.589490
0.838637
0.842810
0.841618
0.844598
0.941753
0.717640
0.766516
0.988841
0.840425
0.724792
0.895858
0.959635
1.088977
1.200438
1.103878
1.236796
1.201630
1.098514
1.031756
1.244545
1.192689
1.334548
1.364946
1.400709
1.517534
1.755953
1.832843
1.971722
2.293587
2.529621
4.667640
26.902556
77.794790
215.066671
397.740006
760.396719
1015.959978
1015.959978
1015.959978
1015.959978
1015.959978
1015.959382
989.615917
602.891445
342.308879
134.076476
59.262514
20.071864
12.813807
12.206435
12.065768
13.020635
13.835430
16.479492
20.689964
29.132962
39.242506
53.245425
64.282417
75.110793
80.740452
83.549619
81.456900
73.659420
65.541863
53.901672
44.103861
34.050941
28.211474
23.872852
21.972656
21.106601
##ZVALUE=350
0.300407
0.363588
0.480413
0.338554
0.488758
0.445843
0.368953
0.520945
0.548959
0.418425
0.416636
0.477433
0.213981
0.432730
0.490546
0.452995
0.486970
0.536442
0.478625
0.454783
0.534654
0.495911
0.530481
0.586510
0.556707
0.606775
0.617504
0.425577
0.574589
0.630617
0.579953
0.660419
0.741482
0.636578
0.453591
0.751615
0.781417
0.821948
0.889897
0.821948
0.697970
0.901818
1.045465
0.770688
0.956655
0.938773
0.900626
1.240969
1.050830
1.238585
1.475811
1.456738
1.556873
1.680851
1.818538
2.085567
2.744794
13.976693
44.565797
140.073895
277.941823
587.248802
888.654590
1015.793681
1015.793681
1015.793681
1015.793681
1015.793681
1015.793681
746.626854
453.870893
200.394988
90.494752
25.644898
13.084412
11.191964
11.374950
11.469722
11.732578
13.188720
15.332699
20.483732
25.769472
36.461949
44.668913
57.566762
66.411495
73.244572
76.394677
74.768662
70.014596
59.012771
51.000714
41.133761
34.073591
27.343631
##ZVALUE=355
0.470877
0.460744
0.416636
0.359416
0.463724
0.352859
0.381470
0.379682
0.297427
0.388622
0.342727
0.375509
0.404716
0.489950
0.452995
0.524521
0.507832
0.455976
0.311732
0.513792
0.346899
0.540614
0.438690
0.329614
0.582933
0.438690
0.534654
0.588894
0.584722
0.638962
0.592470
0.573993
0.660419
0.632405
0.745654
0.690818
0.778437
0.780821
0.730753
0.722408
0.821948
0.756979
0.940561
0.988841
0.954866
0.979900
0.883937
1.074672
1.137853
1.210570
1.310706
1.366735
1.481771
1.475811
1.439452
1.611710
1.770854
1.986623
2.355576
6.587505
23.168921
93.953609
196.053386
427.539945
706.185699
1015.793681
1015.793681
1015.793681
1015.793681
1015.793681
1015.793681
843.885541
528.417826
234.269500
114.167929
38.195848
16.733408
10.669827
10.477901
10.500550
11.323690
11.652708
12.366772
14.797449
17.448664
23.499727
30.236840
41.257739
49.598813
60.287714
67.024827
69.846511
68.885684
64.028502
57.116747
47.895908
##ZVALUE=360
0.393987
0.445843
0.436902
0.400543
0.478625
0.396967
0.338554
0.332594
0.315905
0.359416
0.326633
0.380874
0.516772
0.548959
0.403523
0.491738
0.450611
0.533462
0.599623
0.317693
0.346899
0.547767
0.395775
0.379682
0.585914
0.488758
0.511408
0.524521
0.654459
0.614524
0.689626
0.438690
0.527501
0.732541
0.653863
0.563860
0.693798
0.704527
0.915527
0.750422
0.820756
0.770688
0.797510
0.775456
0.920892
0.785589
1.006722
1.246929
1.045465
1.130700
1.095533
1.182556
1.215935
1.339912
1.363754
1.500845
1.610518
1.740456
1.954436
2.147555
2.357960
3.300905
10.402799
49.842596
121.812820
309.798717
525.938869
901.632905
1015.793681
1015.793681
1015.793681
1015.793681
1015.793681
972.941518
663.587451
325.153470
169.051886
60.829520
23.964643
11.045933
10.412931
10.643601
10.566711
10.620952
10.764599
11.915565
13.129711
16.186833
19.734502
26.453733
33.574700
44.347644
51.524639
59.551597
62.820911
64.319968
##ZVALUE=365
0.286698
0.447631
0.332594
0.338554
0.468493
0.490546
0.294447
0.466704
0.595450
0.356436
0.395775
0.420809
0.417829
0.372529
0.378489
0.468493
0.407696
0.458956
0.373721
0.463724
0.465512
0.350475
0.714660
0.477433
0.468493
0.524521
0.622869
0.659823
0.620484
0.498891
0.673532
0.562668
0.423789
0.647902
0.461936
0.668764
0.705719
0.642538
0.845790
0.731945
0.927448
0.829697
0.725985
0.721812
0.805855
0.966787
0.969768
0.919700
0.893474
0.971556
1.107454
1.018643
0.975728
1.045465
1.093745
1.371503
1.361966
1.546741
1.653433
1.736879
1.867414
2.081990
2.235770
2.576709
5.026460
28.571486
78.674555
211.054683
410.104990
780.916810
1015.787721
1015.787721
1015.787721
1015.787721
1015.787721
1015.787721
807.444453
449.643731
244.988799
88.272691
35.126805
12.188554
10.063648
9.482503
10.175705
9.839535
9.839535
10.297894
10.499954
11.699796
13.501644
17.788410
22.427440
30.068755
37.710667
46.195984
##ZVALUE=370
0.283718
0.381470
0.266433
0.270605
0.379682
0.413656
0.433922
0.440478
0.368953
0.462532
0.485778
0.454783
0.585914
0.506639
0.429749
0.491738
0.513792
0.494719
0.448823
0.508428
0.422597
0.423789
0.456572
0.511408
0.433922
0.580549
0.503659
0.556707
0.639558
0.481606
0.678897
0.666976
0.575781
0.700951
0.620484
0.611544
0.731945
0.615716
0.652671
0.667572
0.666976
0.789762
0.702739
0.858903
0.860691
0.719428
0.927448
0.891685
0.998974
0.949502
0.872612
0.880957
1.028776
1.010895
0.955462
1.153946
1.216531
1.017451
1.307726
1.557469
1.432896
1.525879
1.735687
2.040863
2.064705
2.458692
3.038645
13.068914
44.986606
152.041912
291.252732
577.835441
879.953504
1015.797853
1015.797853
1015.797853
1015.797853
1015.797853
927.934647
522.451997
294.550657
116.321445
53.654909
18.230677
10.391474
8.754730
9.015799
9.181499
9.006858
9.199977
9.425879
9.577870
10.585785
12.633801
15.362501
20.219684
##ZVALUE=375
0.321865
0.357628
0.393987
0.397563
0.521541
0.340939
0.477433
0.542998
0.341535
0.263453
0.284910
0.354648
0.427961
0.398755
0.559688
0.452995
0.410676
0.543594
0.545979
0.521541
0.448823
0.399947
0.481606
0.469685
0.477433
0.467896
0.379682
0.571609
0.449419
0.658631
0.444651
0.633597
0.597835
0.536442
0.462532
0.583529
0.650883
0.570416
0.632405
0.594854
0.582933
0.539422
0.666976
0.637770
0.777841
0.687838
0.719428
0.805855
0.724792
0.726581
0.812411
0.805855
0.731945
0.872612
0.941753
0.916719
0.975728
1.104474
0.981688
1.079440
1.283884
1.208782
1.333952
1.250505
1.355410
1.526475
1.778603
1.969934
2.559423
5.739927
30.829906
81.982613
224.804878
418.575406
793.575644
1015.780568
1015.780568
1015.780568
1015.780568
1015.780568
998.486876
737.586617
412.437916
232.552886
90.662837
38.095713
11.882782
8.310676
7.883906
7.982850
8.172989
8.293986
8.415580
8.549690
9.101629
9.663701
##ZVALUE=380
0.327826
0.295639
0.455976
0.310540
0.292659
0.287890
0.336766
0.286698
0.424981
0.307560
0.486970
0.521541
0.386834
0.395775
0.386834
0.434518
0.543594
0.331998
0.420809
0.478625
0.483990
0.387430
0.509620
0.519753
0.591874
0.561476
0.480413
0.490546
0.546575
0.512600
0.494719
0.640750
0.406504
0.459552
0.563860
0.619888
0.550747
0.613928
0.524521
0.610948
0.715852
0.685453
0.665784
0.686646
0.568628
0.692606
0.580549
0.826716
0.701547
0.552535
0.718832
0.731945
0.750422
0.895858
0.734925
0.837445
0.940561
0.972748
0.919700
0.835657
0.945926
1.001954
1.027584
1.072884
1.116991
1.109838
1.343489
1.663566
1.754761
1.995564
2.578497
3.718734
12.618899
62.258840
146.898627
357.152820
600.318909
980.264544
1015.792489
1015.792489
1015.792489
1015.792489
1015.792489
853.219628
578.685999
285.731554
145.738721
49.580932
19.983649
8.610487
7.595420
7.547736
7.537603
7.462502
7.681847
7.812977
##ZVALUE=385
0.470877
0.472665
0.383854
0.497699
0.374913
0.449419
0.353456
0.397563
0.522733
0.407696
0.606775
0.630617
0.538826
0.672936
0.589490
0.572801
0.529885
0.503659
0.412464
0.713468
0.504851
0.545979
0.521541
0.511408
0.478625
0.602603
0.706911
0.653863
0.663996
0.717640
0.602603
0.608563
0.686646
0.557899
0.655651
0.507832
0.717640
0.769496
0.602603
0.574589
0.717640
0.740886
0.708699
0.830889
0.757575
0.801682
0.744462
0.710487
0.822544
0.726581
0.822544
0.773668
0.721812
0.811815
0.797510
0.845790
0.820756
0.890493
0.701547
0.939965
0.917912
0.926852
1.117587
0.990629
1.049638
1.221895
1.285672
1.485944
1.578927
1.730919
1.979470
1.919866
2.170801
2.425909
7.664561
26.155710
98.996758
215.339065
474.777818
757.210851
1015.923023
1015.923023
1015.923023
1015.923023
1015.923023
1015.923023
692.142844
441.109538
199.995637
96.708536
31.210780
12.085438
6.952882
6.615520
6.596446
6.629825
##ZVALUE=390
0.220537
0.303984
0.295639
0.243783
0.293851
0.390410
0.272989
0.418425
0.305772
0.277758
0.485778
0.277758
0.236630
0.237823
0.385642
0.283718
0.256896
0.513792
0.446439
0.451803
0.443459
0.289679
0.347495
0.287890
0.422597
0.448823
0.292659
0.509620
0.457764
0.427961
0.553727
0.396967
0.446439
0.433922
0.529885
0.526905
0.605583
0.537634
0.535846
0.585914
0.638962
0.479817
0.586510
0.535846
0.448823
0.523925
0.573993
0.643730
0.460744
0.587702
0.524521
0.573993
0.778437
0.603795
0.693798
0.700951
0.688434
0.681877
0.634789
0.595450
0.634789
0.603795
0.602603
0.690818
0.872612
0.846982
0.958443
1.148582
1.184940
1.439452
1.641512
1.683831
1.730919
1.797676
1.910925
2.207756
3.191829
17.990470
55.866838
172.922015
332.454443
656.926632
943.439603
1015.793681
1015.793681
1015.793681
1015.793681
1015.793681
920.201540
565.484762
330.039859
132.677555
61.027408
17.676950
8.112788
6.206632
##ZVALUE=395
0.286698
0.254512
0.394583
0.256896
0.315905
0.171661
0.269413
0.245571
0.278950
0.247955
0.323653
0.206828
0.274777
0.360608
0.381470
0.204444
0.219941
0.292659
0.462532
0.317693
0.479817
0.332594
0.393987
0.333786
0.382662
0.414848
0.362992
0.351667
0.520945
0.311732
0.291467
0.465512
0.383854
0.359416
0.495911
0.500679
0.530481
0.420809
0.506639
0.574589
0.529885
0.548959
0.698566
0.421405
0.570416
0.514984
0.619888
0.482798
0.601411
0.526905
0.586510
0.546575
0.589490
0.648499
0.644922
0.719428
0.733733
0.866652
0.716448
0.845790
0.644922
0.712872
0.838637
0.783801
0.802875
0.922680
0.832677
0.981688
1.342893
1.098514
1.398921
1.506805
1.622438
1.694560
1.567602
1.561642
1.637936
1.963973
2.219677
9.780526
36.462545
129.430890
247.831941
484.515429
748.343468
1015.794873
1015.794873
1015.794873
1015.794873
1015.794873
1015.794873
691.867471
429.884791
185.063481
86.800456
26.906729
##ZVALUE=400
0.262856
0.394583
0.341535
0.384450
0.278950
0.421405
0.297427
0.214577
0.255704
0.274777
0.201464
0.295639
0.313520
0.304580
0.379682
0.402927
0.242591
0.276566
0.466704
0.432730
0.396967
0.327826
0.436902
0.495911
0.178814
0.307560
0.445843
0.290871
0.432730
0.456572
0.491738
0.494719
0.570416
0.444651
0.433922
0.408888
0.475645
0.416636
0.505447
0.503659
0.527501
0.513792
0.572801
0.678897
0.573993
0.701547
0.477433
0.561476
0.495911
0.490546
0.567436
0.559688
0.587702
0.548959
0.552535
0.607967
0.725985
0.734925
0.687838
0.872612
0.567436
0.658631
0.778437
0.829697
0.895858
0.890493
0.945926
0.839829
1.119971
1.174808
1.200438
1.509786
1.325607
1.310706
1.400709
1.378655
1.378655
1.584888
1.523495
1.933575
2.201796
5.561709
19.287467
73.048472
160.760880
363.659859
595.218539
964.617729
1015.793681
1015.793681
1015.793681
1015.793681
1015.793681
777.138472
512.780547
254.518986
##END
