##TITLE=FSKZ152
##FORMAT=SPECTACLE-ASCII V-1.2
##DATA TYPE=ULTRAVIOLET SPECTRUM
##SECOND TYPE=ULTRAVIOLET SPECTRUM
##DATE=10/25/17
##TIME=11:13:39
##SPECTROMETER/DATA SYSTEM=SPECTACLE
##XUNITS=NM EM
##YUNITS=ENERGY
##YFACTOR=1
##FIRSTX=220
##LASTX=410
##NPOINTS=96
##3DDATA=Equidistant
##ZUNITS=NM EX
##FIRSTZ=210
##LASTZ=400
##ZPOINTS=39
##XYDATA=(Y..Y)
##ZVALUE=210
5.648732
5.638599
5.537868
5.055666
4.949570
4.623532
5.532503
5.427599
4.688501
5.131960
4.779696
4.646778
4.088879
5.044937
3.842711
5.184412
5.046725
5.433559
5.297661
5.624890
6.914735
6.794930
6.797910
7.516742
7.551908
8.096695
8.566976
9.234548
9.520650
10.073781
10.321736
9.817481
10.921955
11.120439
11.935830
11.364818
12.724996
12.703538
12.438893
13.098717
13.113618
13.615489
12.744665
13.365746
14.480948
12.707710
15.153885
14.187694
14.542937
14.619827
15.700459
15.106797
15.860796
15.673637
14.663935
15.087724
16.517639
17.022491
15.212893
16.869903
15.918612
16.872883
16.764998
16.236901
16.911626
18.561482
18.854737
19.525886
22.872686
26.645660
29.085875
37.353635
42.327642
52.160621
53.343773
60.035586
64.518452
64.473748
64.318776
64.289570
61.926842
56.563616
50.664544
42.729974
37.872791
30.054450
25.788546
19.414425
18.407702
16.698837
16.040802
15.425682
15.427470
15.536547
16.706586
16.426444
##ZVALUE=215
19.963980
18.670559
19.732714
13.888478
13.502836
11.332631
8.409619
10.036826
9.382963
8.872747
9.219646
8.422732
6.599426
5.716681
5.138516
6.117821
4.916787
5.624890
5.996823
5.819798
5.784631
7.488728
7.485747
8.830428
9.056926
9.829998
9.791851
9.334683
9.563565
10.597706
11.416674
10.520816
11.974573
13.733506
12.641549
13.571978
13.222694
13.936758
14.210939
14.176965
14.098883
13.555884
15.671849
14.844537
16.052723
14.861822
15.423894
14.422536
16.116500
15.534759
15.798807
16.637444
17.558932
17.533898
16.202927
16.593933
16.520619
17.248988
16.823411
17.821789
18.095970
17.068982
17.573833
17.749667
18.810630
18.359423
18.866658
20.628572
23.102760
25.884509
29.469728
34.697652
38.044453
48.850775
52.393675
55.629611
59.841871
61.375499
62.743425
59.009790
54.755807
50.173998
44.993758
36.461949
31.937957
28.256774
23.438931
20.869970
19.548535
16.321540
16.259551
15.581846
15.721917
14.760494
14.300942
15.734434
##ZVALUE=220
53.519607
56.451559
58.815479
61.078668
56.318641
45.507550
36.342740
26.116967
21.482706
16.981959
18.428564
17.814636
16.699433
14.919639
13.318658
11.745691
8.961558
7.423759
7.061958
6.502867
6.644726
6.991625
7.264614
8.413792
8.617640
8.638501
10.075569
10.424852
11.243820
11.503696
12.837648
12.981892
11.936426
13.384819
13.274550
13.178587
14.359951
15.645623
15.749931
14.940500
16.685724
14.131665
16.607642
15.221834
16.841888
15.072823
16.540885
16.438961
15.544891
17.268658
18.831491
16.835928
15.808940
17.955899
15.355945
15.885830
15.723705
17.599463
17.275810
17.077923
17.064810
16.156435
16.071796
17.216802
17.995834
18.390417
18.084645
19.054413
19.988418
23.660660
26.164651
30.632615
34.992695
40.521622
44.983625
49.882531
50.354600
52.356720
53.267479
52.088499
55.199862
49.539804
45.142770
37.328601
31.672716
27.370453
21.934509
18.590689
16.450882
14.580488
14.826655
13.695955
13.768673
12.665987
13.146996
13.312697
##ZVALUE=225
70.054531
78.780651
99.107623
131.135583
138.727427
144.710541
136.705637
110.281706
85.821748
66.228509
41.241646
33.275485
30.599833
32.548904
33.544898
29.884577
25.592446
21.336675
16.266704
11.942983
8.183718
7.754564
9.173751
9.658933
8.548498
9.612441
10.995865
9.668469
10.782480
11.402965
11.744499
13.093948
12.244582
13.990998
14.268756
15.138984
14.542937
15.491843
14.507771
15.172958
15.468597
16.418695
14.540553
15.989542
16.704798
15.019774
15.846491
16.592741
16.992688
16.597509
17.621517
17.347932
18.101931
16.094446
17.407537
17.846823
18.128753
16.572475
18.456578
17.768741
17.756820
17.707944
17.914772
18.312931
17.564893
19.939542
18.762946
20.518899
21.589994
25.102496
25.498867
28.385520
31.822920
34.912825
38.789511
40.415525
40.433407
42.740703
45.020580
39.786696
41.485429
37.444830
36.866665
29.841661
27.473569
19.954443
18.978715
16.173720
16.448498
14.787912
15.628934
14.220476
13.234615
13.862848
13.592839
13.058782
##ZVALUE=230
53.926706
62.927604
102.253556
173.329711
235.037804
292.422771
322.878957
323.776603
290.890932
228.992701
167.292953
117.184520
71.151853
56.606531
49.202442
53.218603
53.622723
53.456426
46.007633
39.138794
29.240847
23.055673
14.339685
11.408925
9.173751
9.327531
9.178519
9.838939
10.796785
10.696650
11.084676
11.796951
11.185408
13.677478
13.152957
14.820695
13.519526
14.397502
14.174581
14.112592
15.188456
15.038848
14.041662
15.377998
15.460849
14.621615
14.791489
15.565753
16.178489
16.781688
17.670989
18.594861
18.635988
19.385815
20.398498
20.467639
19.363761
18.678904
19.592643
18.982887
20.127892
20.268559
20.643473
19.743443
21.206737
19.344687
18.997788
22.206903
23.272634
25.587678
26.720762
29.714704
30.336976
33.948421
37.691593
36.796927
37.682652
36.885738
35.916567
34.342408
31.081438
30.114651
26.751757
24.658442
21.369457
21.540523
18.457770
18.739700
16.703606
16.192794
15.941858
14.765859
14.320612
15.638471
14.231801
15.291572
##ZVALUE=235
21.580458
25.742650
52.423477
128.473639
207.305551
326.318741
425.835848
535.956621
593.066812
587.489009
516.844988
418.233871
278.215408
193.220973
122.731924
90.882778
75.603724
80.149770
87.330937
85.706711
83.401799
70.533752
55.376887
38.150549
28.804541
19.219518
12.550950
11.292696
11.318922
9.413958
11.294484
10.991693
11.112690
11.998415
12.476444
12.891889
12.235641
12.761950
14.232993
14.556646
15.267730
15.702844
16.941428
15.396476
15.572906
17.328858
17.589927
18.350482
17.816424
19.555688
21.537542
21.010637
20.194650
20.788908
22.184849
22.076964
22.011995
22.722483
22.526979
21.279454
23.688674
22.758842
25.127530
22.101998
24.140477
25.249720
24.075508
25.683641
25.467873
27.393699
28.981566
31.631589
35.861731
37.901998
38.509965
39.893985
38.404465
37.191510
37.178993
34.603477
32.903552
31.915903
29.013753
23.998618
23.825765
22.874475
21.766424
20.722747
20.397902
18.846989
18.760562
16.979575
17.334819
16.804934
17.199516
15.224814
##ZVALUE=240
3.227592
3.479719
10.821819
30.312538
88.576674
167.358518
324.817896
477.234721
696.305633
822.188854
910.112858
883.446932
806.552768
635.506511
490.473509
298.371911
206.872821
130.089521
102.232695
96.346736
108.229518
116.208792
112.250447
105.227828
83.742738
70.411563
50.611496
35.177469
23.709536
17.297864
13.500452
11.327863
11.584759
11.148453
11.630654
11.541843
11.303425
12.381673
11.920929
13.805628
15.560985
14.516711
15.564561
17.023683
17.595887
18.740892
19.485950
20.539761
20.596981
20.907521
22.941828
23.961663
24.209619
25.653839
25.231838
24.081469
27.186871
27.425885
26.841760
26.587844
27.502775
26.620626
27.800798
28.433800
26.881695
28.170943
27.633905
30.892491
29.641986
32.841563
35.213828
37.356615
37.897825
40.855408
42.392612
44.122934
41.638613
41.704774
41.024685
36.145449
36.288500
33.515692
33.224821
28.956532
26.352406
25.011897
22.726655
21.778941
20.185709
20.036697
19.017458
18.886924
20.932555
19.223690
17.726421
19.424558
##ZVALUE=245
2.674460
2.305508
2.703667
3.616810
6.339550
19.962788
76.127648
159.827471
346.247554
516.617894
785.312653
947.321653
1015.830636
1015.830636
952.155590
813.149810
581.076741
415.982008
312.351584
159.516931
115.071535
101.163983
110.940933
126.040578
130.095482
125.668645
115.909576
91.733932
78.372955
53.187609
38.320422
24.195910
16.656518
13.917685
12.527704
11.367798
11.509657
12.652874
12.680888
14.357567
13.601780
13.938546
15.386939
16.485453
18.026829
18.002987
20.060539
21.046996
22.680759
22.295713
23.550987
24.029613
24.224520
27.271509
26.118755
27.697682
25.521517
26.540756
27.975440
29.010773
27.592778
27.698874
27.712584
27.233958
27.601719
28.546453
28.443933
27.780533
30.318499
28.787851
31.823516
33.920407
34.145713
36.661625
38.257837
38.542747
38.492680
34.631491
34.870505
33.351779
32.004714
30.190945
27.342439
24.641752
23.935437
23.031831
21.328926
20.665526
19.219518
17.634630
18.822551
18.304586
18.080473
18.353462
17.656684
16.806722
##ZVALUE=250
2.239943
1.811981
2.288818
2.401471
2.450943
2.789497
3.702641
11.740923
54.188967
120.744705
282.234550
466.962457
674.235821
948.511958
1015.830636
1015.830636
1015.830636
1015.830636
986.255407
708.184838
504.101515
327.307582
177.216530
118.627548
105.420947
120.222569
132.415891
139.797926
134.473443
123.310685
107.975602
80.507994
60.879588
39.565563
26.175976
17.803907
13.657808
12.145638
12.001991
13.321638
13.133883
14.893413
15.301704
16.788840
17.022491
18.895864
19.376874
21.999478
22.014976
22.925735
25.104880
23.404956
23.585558
25.011897
25.948882
25.769472
24.434924
24.542809
25.298595
26.156902
25.915504
24.243593
25.865436
25.602579
23.552775
24.629831
24.217963
23.530722
25.034547
24.027824
26.635528
27.287602
28.316975
28.896928
29.792786
31.385422
29.221773
28.784871
28.663874
27.672648
24.607778
23.723841
22.980571
21.158457
19.679666
19.275546
19.677877
17.272830
16.486645
16.254783
15.942454
15.934706
15.778542
15.608668
15.672445
14.911890
##ZVALUE=255
1.814961
1.673698
1.908541
2.056956
2.309680
2.292991
2.154708
2.702475
2.974868
6.927848
24.110675
81.194639
168.922544
362.668633
565.233827
796.063542
1015.825868
1015.825868
1015.825868
1015.825868
1015.825868
976.234674
603.707433
378.058553
190.030932
115.095973
93.639493
103.015900
121.282935
140.029788
143.819451
138.237476
127.783418
106.058717
83.874464
57.728887
40.614605
25.627613
18.895864
13.798475
13.302565
13.564825
14.563799
16.208887
15.778542
17.356873
17.685890
18.887520
19.338727
20.459890
20.892620
21.687746
21.725893
24.013519
22.088885
21.102428
22.307634
21.996498
21.488667
21.665692
21.188855
22.132993
20.002723
20.675659
20.355582
20.079613
19.565821
20.477772
20.038486
20.384789
21.376610
23.435950
23.003817
22.916794
24.778843
23.958683
23.492575
23.453832
23.234487
22.381544
22.042990
19.212961
19.128919
17.592907
17.470717
15.171766
15.475750
13.831854
14.175773
14.459491
13.288856
14.737844
13.559461
13.323426
12.461543
13.743639
##ZVALUE=260
1.809597
1.634955
1.603961
1.884699
1.912713
1.890659
2.060533
2.237558
2.202988
2.285838
2.598763
3.842711
15.953779
44.848919
129.427910
258.949399
544.659495
800.894499
1015.830636
1015.830636
1015.830636
1015.830636
1015.830636
1011.797786
750.491619
416.976810
255.051851
125.491619
86.525679
85.847974
104.107857
129.109621
144.034624
150.473714
145.856738
131.454468
111.745000
82.239509
63.526630
40.852427
28.870702
20.393729
16.829967
15.108585
15.171766
15.375614
16.081929
16.949773
17.051697
17.643571
18.686652
18.791556
19.192696
18.701553
19.203424
18.961430
17.843843
18.323660
18.896461
18.345714
17.623901
17.171502
17.640591
17.011762
16.712546
16.731620
16.552806
17.484426
16.980767
17.400980
19.133687
18.795729
18.948913
20.321608
20.901561
20.954609
20.771623
19.894838
18.078685
18.225908
17.258525
16.633868
15.727878
15.047789
14.565587
13.840795
13.043880
12.809634
12.939572
12.283921
12.869835
12.229681
11.711717
11.796951
11.498928
11.673570
##ZVALUE=265
1.497865
1.471639
1.631975
1.484752
1.731515
1.813769
1.743436
1.891851
1.729727
1.755953
2.168417
2.144575
2.812743
3.046989
6.978512
35.700798
89.683533
238.046646
429.011583
795.425773
1015.822887
1015.822887
1015.822887
1015.822887
1015.822887
1015.822887
800.119638
549.857616
296.107531
166.918635
99.887848
73.666573
80.963969
108.948946
130.056739
150.027871
154.955983
148.899555
137.333870
110.942721
88.169575
61.471462
44.368505
28.255582
20.808578
16.827583
15.674829
15.154481
16.111732
15.057921
15.861988
16.416907
15.747547
16.770959
16.174912
16.266704
15.970469
15.351772
15.666485
16.000867
15.986562
15.184879
15.140772
15.103817
15.030503
14.652610
14.266968
14.762878
15.005469
15.258789
15.776753
16.303658
16.785860
16.654730
17.871857
16.718507
16.666651
16.259551
16.110539
14.909506
14.416575
13.078451
12.222528
12.909770
12.000799
11.659861
11.732578
11.198521
11.624694
11.184812
10.766983
10.838509
10.594726
10.654926
10.228753
10.228753
##ZVALUE=270
1.330972
1.280904
1.228452
1.472831
1.407862
1.354814
1.604557
1.571774
1.597404
1.506805
1.587868
1.998544
1.886487
2.054572
2.287626
2.310872
3.404617
16.787648
49.909949
167.253613
328.763723
573.368669
968.180895
1015.830636
1015.830636
1015.830636
1015.830636
1015.830636
924.472809
672.960877
453.526974
242.307782
140.121579
77.828765
69.000721
86.505413
108.082891
134.077668
149.894953
156.673789
150.611997
134.281516
113.684535
86.940527
65.462589
40.954947
30.134916
21.005869
17.556548
15.655756
15.313625
15.231967
14.718771
15.215874
14.885664
14.635921
15.031695
15.033484
14.345646
14.510751
14.524460
14.539957
13.450980
13.889670
13.591647
13.483763
13.597608
13.861656
13.957620
13.684630
14.126897
14.430881
14.807582
15.310645
14.808774
15.118718
14.293790
14.006495
13.379455
13.069510
12.783408
12.760758
11.716485
11.213422
11.321902
10.826588
10.152459
9.878874
9.562969
9.685755
9.864569
9.925961
9.778738
9.260774
9.121895
9.007454
##ZVALUE=275
1.255870
1.298785
1.323819
1.316667
1.140833
1.295805
1.289845
1.261830
1.401901
1.350641
1.521707
1.497865
1.460910
1.703501
1.778603
1.985431
2.108812
2.429485
2.574921
9.034872
34.537911
96.728802
270.619392
485.053658
844.699740
1015.830636
1015.830636
1015.830636
1015.830636
1015.830636
1015.830636
859.485865
609.432459
329.150558
194.931626
91.854930
59.716702
62.023997
80.733895
109.851956
128.993988
148.741603
155.123472
151.318908
136.030912
109.246969
87.909698
64.699650
46.452880
30.618906
22.667646
17.111897
14.900565
14.189482
13.801455
14.932752
13.299584
14.147758
14.141798
14.227629
14.689565
13.888478
13.491511
13.734698
13.957620
13.738871
13.877749
13.536811
13.336539
13.394952
13.575554
14.145970
14.602542
14.504790
15.299916
14.026761
14.501810
13.237596
13.486743
12.862682
11.606812
11.610985
11.241436
10.434985
10.203719
10.015965
9.595752
9.585619
9.462833
8.718967
9.264946
8.857846
9.349585
9.089708
8.453727
8.388758
##ZVALUE=280
1.074672
1.143813
1.180768
1.514554
1.260638
1.296997
1.318455
1.005530
1.160502
1.393557
1.288652
1.558661
1.488924
1.495481
1.518726
1.962781
1.739860
1.926422
2.014637
1.980662
2.297759
3.469586
23.397803
74.856877
213.224888
374.708772
661.832690
917.095542
1015.830636
1015.830636
1015.830636
1015.830636
1015.830636
958.880782
708.009005
405.889750
242.161751
110.503435
60.621500
44.228435
56.659579
81.867576
104.219913
128.733516
142.267942
152.684450
145.891905
131.125450
111.082792
83.925724
64.438581
43.988824
32.206774
20.668507
16.800761
14.434457
13.919473
13.608932
13.644695
13.686419
13.441443
12.934804
13.306737
13.115406
13.239980
13.178587
13.386607
13.348460
13.121963
13.745427
13.714433
14.289618
14.068484
13.767481
13.668537
14.060736
13.060570
12.675524
12.596846
11.789799
11.444688
10.719895
10.709763
10.088682
9.824634
9.534955
9.333491
8.798838
9.234548
8.586645
8.551478
8.195639
8.414984
7.962584
8.085966
7.800460
##ZVALUE=285
1.083612
1.090765
1.082420
1.133680
0.983477
1.125932
1.210570
0.946522
1.072884
1.204610
1.186728
1.333952
1.217723
1.368523
1.505613
1.350641
1.320839
1.499653
1.657605
1.811981
1.844764
1.916885
2.331734
2.469420
10.099411
37.168860
115.211606
223.752856
450.301766
677.952766
926.167965
1015.842557
1015.842557
1015.842557
1015.842557
1015.842557
866.537690
539.312959
333.625674
156.542659
79.706907
38.280487
37.740469
53.415895
74.788928
103.626847
123.266578
140.066743
147.418976
144.647956
133.495927
110.287666
89.440942
64.316988
46.248436
29.460788
22.748709
16.342998
15.272498
13.459921
13.294816
13.062954
13.239980
12.829900
12.955666
13.243556
13.232827
14.089942
13.192892
13.751984
13.567805
13.975501
13.448000
13.418794
13.462901
13.501644
12.728572
12.709498
12.192726
11.574626
11.512637
10.448694
10.082722
9.463429
10.160804
9.826422
9.215474
8.979440
8.583665
8.844733
8.136630
8.290410
8.186698
8.194447
7.593632
7.578731
##ZVALUE=290
1.049638
0.997782
0.882745
0.925660
0.911951
0.971556
1.042485
0.992417
0.889897
1.128912
0.987649
1.043677
0.863671
1.187921
1.208782
1.281500
1.352429
1.156926
1.404881
1.481771
1.643896
1.471639
1.899600
1.944900
2.316833
2.273917
3.601909
12.905598
60.286522
136.823654
258.050561
523.063540
774.894953
1015.826464
1015.826464
1015.826464
1015.826464
1015.826464
989.753604
670.796633
443.865657
222.482681
117.409825
46.252608
28.400421
35.841465
49.290657
72.128773
92.565417
117.991567
134.815574
143.347979
141.998529
130.419731
110.862851
84.384680
65.232515
44.877529
32.648444
22.465587
17.886758
14.502406
13.575554
13.175607
13.088584
12.887716
13.240576
13.561845
13.626814
13.708472
13.297796
13.857484
13.394952
13.385415
13.488531
13.288856
12.682676
11.884570
11.805892
11.488795
10.957718
11.012554
10.126829
10.022521
10.084510
9.510517
9.266734
9.496808
8.776784
8.563995
8.527637
7.977486
7.672906
7.618666
7.654428
7.808805
##ZVALUE=295
0.898838
0.747442
1.057982
0.962615
0.805855
1.018643
0.969768
0.933409
0.887513
0.884533
0.934601
1.039505
1.076460
1.035929
1.040697
1.163483
1.154542
1.192689
1.313686
1.233816
1.290441
1.279712
1.269579
1.723766
1.666546
1.860857
2.127886
2.167821
2.624989
5.186796
21.464825
89.073777
192.831755
430.786610
660.140514
985.755920
1015.829444
1015.829444
1015.829444
1015.829444
1015.829444
808.087587
566.589832
298.493505
162.396431
61.907768
31.747818
24.216771
30.591488
48.419833
65.592527
91.918707
110.576749
128.836632
136.227608
135.054588
124.655962
104.240775
85.324645
60.558915
46.997666
30.430555
23.295879
17.480850
14.477968
13.554692
13.407469
13.013482
13.114810
12.760758
13.414621
13.747811
12.666583
12.850761
12.885928
12.318492
12.460947
11.977553
11.533499
11.528730
11.272430
10.321736
9.993911
10.073781
9.676814
9.594560
9.215474
8.654594
9.107590
8.316636
8.328557
7.944703
8.000731
7.645488
7.689595
7.155538
##ZVALUE=300
0.897646
0.981688
0.989437
0.888705
0.802875
0.773668
0.773668
0.824928
0.843406
0.946522
1.095533
0.945926
0.968575
0.934601
0.980496
0.998974
0.894666
1.063943
1.232624
1.208782
1.358986
1.197457
1.460910
1.158714
1.356602
1.488924
1.429915
1.911521
1.922846
2.023578
2.235770
2.863407
14.327765
49.179792
155.769587
288.623571
559.147596
811.770558
1015.831828
1015.831828
1015.831828
1015.831828
1015.831828
995.923877
668.299794
439.638495
223.131776
119.319558
45.489669
23.111701
21.526814
28.705597
45.706630
60.650706
84.270835
103.824735
123.849511
130.938888
130.416751
121.770501
103.557706
85.800886
61.588883
47.337413
31.725764
23.705959
17.066598
14.597774
13.606548
12.953877
12.724996
12.922883
12.818575
12.865663
12.142658
12.174845
12.127757
11.547804
11.167526
10.558963
10.484457
10.597706
10.108948
9.455681
9.811521
8.890629
9.081960
8.315444
8.560419
8.126497
7.965565
7.669926
7.627606
7.594824
7.731915
7.317662
##ZVALUE=305
0.775456
0.797510
0.749826
0.757575
0.897646
0.762939
0.771880
0.825524
0.898838
0.878572
0.886917
0.923872
0.868440
1.034737
1.015663
0.983477
0.984669
0.910759
1.117587
1.241565
1.038909
1.154542
1.249909
1.343489
1.355410
1.493692
1.582503
1.467466
1.722574
1.772642
1.900792
2.116561
1.999736
2.488494
5.058646
33.714771
92.613697
240.677595
416.929722
741.870999
1002.447009
1015.830636
1015.830636
1015.830636
1015.830636
1015.830636
858.941674
516.496897
305.522680
134.098530
65.923929
25.992990
17.640591
20.993948
28.422475
43.413639
59.317946
82.425475
99.052787
117.624998
123.394728
123.350620
115.061998
98.857880
80.469847
58.428645
43.434501
30.273795
21.734834
16.188622
14.542937
12.875795
12.382865
11.927485
11.999607
11.273623
11.495948
10.833740
10.461807
10.267496
10.465980
10.189414
9.380579
9.509921
9.152889
8.886456
8.922815
8.474588
8.450747
7.991791
7.997751
7.646680
7.448792
7.151961
7.222891
7.676482
##ZVALUE=310
0.759959
0.940561
0.678897
0.788569
0.762939
0.778437
0.875592
0.842810
0.985861
0.882745
0.677705
0.871420
0.899434
1.170635
1.023412
1.009703
0.895858
0.976920
0.916719
0.921488
1.155734
0.969768
1.026988
1.067519
1.200438
1.280904
1.258850
1.253486
1.459718
1.662970
1.447797
1.615882
1.817942
1.826882
2.085567
2.286434
3.005862
14.830828
48.934817
153.509974
294.294953
586.455464
877.550840
1015.830636
1015.830636
1015.830636
1015.830636
1015.830636
1015.830636
678.038597
428.697467
200.214982
105.398893
38.721561
20.194650
15.390515
18.290877
26.549697
36.807656
54.778457
70.611835
93.036890
105.142593
115.727782
117.401481
109.391809
95.604658
76.547861
59.628487
41.085482
30.238628
20.317435
16.220808
12.722611
11.632442
10.804534
10.488629
9.701848
9.848475
9.535551
9.277463
8.798838
8.746982
8.724928
8.387566
8.312464
8.664727
7.856488
8.025765
7.835627
7.718801
7.202625
7.128716
7.065535
7.218719
7.296801
##ZVALUE=315
0.613928
0.750422
0.677705
0.637770
0.690818
0.770688
0.815988
0.809431
0.719428
0.837445
0.846982
0.888705
0.702739
0.736713
0.493526
0.826716
0.939965
0.909567
0.931621
0.909567
1.050830
0.898838
0.943542
1.115799
0.985861
1.146793
1.080632
1.184940
1.279712
1.301765
1.438856
1.524687
1.695752
1.521707
1.448989
1.720786
2.019405
2.167821
2.484918
6.388426
24.781823
96.110702
210.883617
466.547012
739.105940
1015.830636
1015.830636
1015.830636
1015.830636
1015.830636
1015.830636
823.957920
552.525520
274.522901
143.662691
53.723454
25.061965
13.872981
13.476610
16.972423
22.795796
35.565495
48.143864
66.369772
81.459880
100.047588
107.651949
109.461546
102.951527
88.379979
73.067546
54.528713
40.846467
26.230812
19.234419
13.189912
10.929704
9.693503
8.557439
8.662939
8.366704
7.724762
8.307695
7.662773
7.700920
7.454753
7.700920
7.372499
7.390976
7.475615
7.514954
6.899834
7.009506
7.073879
6.894469
6.726980
##ZVALUE=320
0.706911
0.641942
0.808835
0.648499
0.692606
0.787973
0.871420
0.657439
0.772476
0.817776
0.657439
0.806451
0.483990
0.929832
0.772476
0.783801
0.735521
0.852942
0.765920
0.899434
0.845790
0.830889
0.936985
0.956655
0.890493
0.951886
1.148582
0.983477
0.992417
1.076460
1.121759
1.289845
1.165867
1.204610
1.348853
1.467466
1.438856
1.725554
1.954436
2.123713
2.197623
3.241897
10.900497
57.964921
140.129924
355.818868
578.643680
934.501886
1015.825868
1015.825868
1015.825868
1015.825868
1015.825868
960.477591
666.558743
353.952646
195.888877
80.951452
37.516952
14.576912
11.138916
11.838675
14.047623
19.957423
27.814507
42.657852
57.007670
76.843500
90.093613
99.735856
101.411939
95.898509
85.365772
65.875649
52.145720
34.576654
24.887919
16.595721
12.604594
9.143949
8.308887
7.694960
7.575750
7.321835
7.317662
7.353425
6.837845
7.021427
6.775856
6.827712
6.662607
6.838441
6.780624
6.622672
6.479621
6.608963
##ZVALUE=325
0.653863
0.599623
0.506639
0.658631
0.571609
0.484586
0.584722
0.614524
0.576973
0.687838
0.800490
0.706911
0.806451
0.683665
0.743866
0.765920
0.805855
0.850558
0.770688
0.711679
0.676513
0.828505
0.897646
0.716448
0.912547
0.867844
0.852942
0.968575
1.035929
1.080632
1.106858
1.088977
1.256466
1.165867
1.332760
1.180768
1.241565
1.328588
1.295805
1.603961
1.690984
1.668930
2.152920
2.295971
5.427599
35.282969
90.233684
234.419703
415.385962
750.746727
1000.604630
1015.805602
1015.805602
1015.805602
1015.805602
982.661843
747.897029
454.543829
275.180936
120.053887
57.101846
18.616915
10.073781
8.761883
9.479523
12.508631
17.095804
26.727915
38.256645
56.970716
69.992542
85.168481
92.531443
94.458461
89.407563
75.210929
61.961412
45.617819
33.601522
21.395683
15.151501
10.372996
8.415580
7.351637
6.955862
6.690621
6.431937
6.524920
6.830692
6.543994
6.366968
6.029606
6.277561
5.892515
6.063581
6.266832
##ZVALUE=330
0.832677
0.743866
0.827909
0.729561
0.784993
0.719428
0.813603
0.768900
0.768900
0.714660
0.763535
0.756979
0.796914
0.765920
0.802875
0.833869
0.780821
0.847578
0.917912
0.960827
0.812411
0.891685
0.945926
0.967979
0.929832
1.110435
1.086593
0.899434
0.992417
1.190901
1.012683
1.003742
1.102686
0.950694
1.115799
1.306534
1.249909
1.150966
1.176000
1.233816
1.634955
1.678467
1.817942
1.886487
2.048612
2.216697
3.068447
16.008615
50.700903
163.367987
314.629674
608.218908
873.329639
1015.959978
1015.959978
1015.959978
1015.959978
1015.959978
881.357789
567.082763
367.221832
172.379613
87.047815
30.783415
13.212562
8.254647
7.795691
8.733869
11.138916
17.195940
35.795569
38.248897
49.842596
66.933632
78.587532
87.502599
88.511705
81.622601
72.291493
56.479573
43.751001
29.490590
21.806955
14.660954
11.397600
8.673668
7.392764
6.623864
6.685853
6.321669
6.205440
6.409883
6.040931
5.845428
6.169677
6.017685
##ZVALUE=335
0.795722
0.902414
0.801682
0.824928
0.800490
0.884533
0.807643
0.773668
0.709891
0.793934
0.972748
0.893474
0.946522
0.805855
0.854731
0.914931
0.902414
0.946522
0.803471
0.828505
0.841618
1.034737
0.907779
0.988841
0.853539
0.855923
1.091957
0.879765
1.171827
1.037717
1.188517
1.223683
0.967979
1.109838
0.989437
1.092553
1.038909
1.240969
1.246929
1.346469
1.290441
1.437664
1.584888
1.387596
1.700521
1.897812
2.094507
2.064705
2.300739
7.368922
25.569797
98.416805
205.423832
448.527932
703.204870
1015.131474
1016.034484
1016.034484
1016.034484
1016.034484
971.976519
658.172965
445.640683
231.373906
119.301677
39.042830
16.406775
8.475780
7.723570
7.650852
8.726716
11.429787
15.360713
24.804473
33.985972
49.928427
60.838461
74.721575
80.987811
81.189871
76.562762
65.458417
54.771900
41.876435
32.213926
21.753907
15.624762
10.923743
8.891821
7.188916
6.636977
6.191730
6.489754
6.104708
6.300807
6.165504
##ZVALUE=340
0.752807
0.612736
0.494719
0.431538
0.512600
0.695586
0.561476
0.608563
0.466704
0.590682
0.608563
0.601411
0.626445
0.445843
0.457764
0.571609
0.793934
0.783801
0.663996
0.538826
0.686646
0.762939
0.727773
0.802875
0.596642
0.606775
0.714660
0.560880
0.737906
0.757575
0.794530
0.921488
0.855923
0.764728
1.053810
0.887513
0.925660
0.964999
0.983477
1.065731
1.198649
1.118779
1.178980
1.154542
1.218915
1.183748
1.463890
1.608729
1.486540
1.675487
1.782775
3.352761
12.419820
60.970783
143.900514
352.233648
571.337938
897.365808
1015.830636
1015.830636
1015.830636
1015.830636
1012.163758
759.543777
537.422895
287.510753
156.521797
57.847500
23.063421
9.086728
7.455945
7.080436
7.375479
8.240938
10.462999
15.621781
21.952987
33.019781
43.808818
59.469938
68.058968
76.260567
76.466799
71.072578
63.904524
51.124692
41.755438
30.135512
22.404790
13.985634
10.455847
7.578731
6.782413
6.135702
6.037951
5.787611
##ZVALUE=345
0.577569
0.522733
0.549555
0.650883
0.643730
0.593662
0.693798
0.550747
0.586510
0.651479
0.564456
0.592470
0.534654
0.715852
0.492930
0.484586
0.550747
0.559688
0.633597
0.559688
0.724792
0.695586
0.611544
0.686646
0.752807
0.544786
0.668764
0.678897
0.672936
0.799894
0.747442
0.874996
0.738502
0.774860
0.729561
0.674725
0.757575
0.833869
0.929832
0.836849
0.902414
1.011491
0.924468
1.081824
1.200438
1.118779
1.236796
1.352429
1.344681
1.410842
1.649857
1.721978
1.890659
1.879930
6.758571
26.969910
106.838942
217.722654
452.134013
676.453710
986.007452
1015.831828
1015.831828
1015.831828
1015.831828
907.732844
613.438487
400.162935
184.122920
88.686943
28.972626
12.710690
7.859468
7.012486
7.009506
6.807446
7.272959
9.101629
13.515949
19.435883
31.027794
40.725470
52.530766
61.548948
68.756938
70.654750
66.980720
61.686635
49.789548
40.594935
29.457808
21.550655
14.123917
10.439754
7.735491
6.493926
##ZVALUE=350
0.451803
0.398755
0.501871
0.402927
0.663996
0.529885
0.514984
0.697970
0.470877
0.654459
0.638962
0.748634
0.617504
0.460744
0.525713
0.647902
0.472665
0.533462
0.690818
0.508428
0.556707
0.742674
0.747442
0.691414
0.663996
0.776649
0.680685
0.709891
0.654459
0.666976
0.553727
0.710487
0.645518
0.711679
0.720620
0.873804
0.737906
0.782609
0.857711
0.713468
0.906587
0.962615
0.922680
0.983477
0.996590
1.076460
0.974536
1.163483
1.111627
1.163483
1.369715
1.386404
1.384616
1.642704
1.730919
1.856685
2.975464
16.337633
51.877499
159.967542
302.958488
584.625602
821.041465
1015.830636
1015.830636
1015.830636
1015.830636
966.210961
737.378001
437.818766
269.149542
123.295784
56.120753
15.572906
8.331537
6.778836
6.317496
5.954504
5.940795
6.744862
8.434653
12.933612
17.584562
26.614666
34.387708
46.340823
54.239631
61.914921
64.418912
62.416792
57.052970
46.911836
38.456917
26.656985
20.441413
13.981462
##ZVALUE=355
0.533462
0.529885
0.615716
0.671744
0.595450
0.491738
0.506639
0.480413
0.526905
0.462532
0.563860
0.627637
0.430942
0.641942
0.600815
0.490546
0.593662
0.615716
0.765920
0.694990
0.487566
0.505447
0.653863
0.620484
0.678897
0.672936
0.569820
0.678897
0.667572
0.765920
0.705719
0.752807
0.588894
0.741482
0.723600
0.862479
0.714660
0.888705
0.885725
0.686646
0.902414
1.007915
1.041889
0.937581
1.062751
0.962615
1.040697
0.995994
0.948906
1.236796
1.218915
1.076460
1.405478
1.263618
1.611710
1.533628
1.663566
1.846552
2.141595
8.055568
29.052496
108.764768
219.310522
446.249843
677.731037
988.387465
1015.830636
1015.830636
1015.830636
994.435549
802.287459
527.201891
336.079001
147.635937
70.894957
21.267533
9.361506
6.384850
6.186962
5.691648
5.592704
5.658865
5.962849
7.835627
10.152459
15.789866
21.649599
31.266809
39.525628
48.940778
54.630637
58.320761
57.417750
51.473975
44.956803
35.764575
##ZVALUE=360
0.677705
0.488758
0.416636
0.571609
0.618696
0.562668
0.613928
0.598431
0.595450
0.558496
0.548959
0.565648
0.477433
0.621676
0.591874
0.690818
0.656843
0.688434
0.515580
0.786781
0.653863
0.503659
0.707507
0.715852
0.571609
0.677705
0.702739
0.682473
0.775456
0.700951
0.607967
0.636578
0.765920
0.626445
0.617504
0.714660
0.801682
0.731945
0.832677
0.923872
0.751615
0.750422
0.820756
0.948906
0.894666
1.046658
0.959635
0.926852
1.144409
1.078844
1.047850
1.069903
1.275539
1.318455
1.396537
1.335740
1.288652
1.530647
1.786947
1.970530
2.249479
3.911853
12.940764
58.174729
137.829781
334.509611
536.399484
833.981037
1015.830636
1015.830636
1015.830636
1015.830636
910.377502
615.274906
414.041877
203.857422
104.383826
37.786961
14.475584
6.523728
5.940795
5.613565
5.392432
5.173683
5.395412
5.642772
6.268620
8.988976
11.725426
18.194914
24.873614
34.751892
41.348934
48.650503
51.620603
52.636862
##ZVALUE=365
0.599623
0.499487
0.593662
0.576973
0.498891
0.538826
0.540614
0.803471
0.559688
0.611544
0.607967
0.655651
0.738502
0.637770
0.731945
0.695586
0.692606
0.631809
0.701547
0.575781
0.589490
0.679493
0.672936
0.646710
0.634789
0.507832
0.764728
0.703931
0.748634
0.772476
0.669956
0.678897
0.742674
0.665784
0.895858
0.730753
0.714660
0.903606
0.786781
0.815988
0.761747
0.720620
0.777841
1.004934
0.950694
0.976920
0.959635
0.824928
1.091957
0.992417
1.114607
1.067519
1.043677
1.022816
1.168847
1.260638
1.314878
1.423955
1.549721
1.509786
1.792908
1.639724
1.962781
2.422929
5.392432
33.234954
85.546970
221.878886
396.103859
702.868700
919.961929
1015.871763
1015.871763
1015.871763
968.580842
698.074698
494.722724
271.163583
146.970749
53.147674
21.087527
7.157922
5.936623
5.249977
4.925728
4.697442
4.775524
4.755855
4.726648
5.559921
7.118583
10.790825
14.711618
22.556782
28.724670
36.586523
##ZVALUE=370
0.567436
0.473857
0.455976
0.527501
0.648499
0.423789
0.540614
0.487566
0.586510
0.486970
0.383854
0.497699
0.663996
0.451803
0.583529
0.625849
0.526905
0.689626
0.647902
0.737906
0.611544
0.658631
0.663996
0.562668
0.685453
0.580549
0.642538
0.605583
0.582933
0.605583
0.478625
0.651479
0.557899
0.658631
0.745654
0.769496
0.683665
0.762939
0.768900
0.727773
0.887513
0.685453
0.753999
0.911951
0.869632
0.694990
0.787973
0.860691
0.704527
0.745654
0.796914
0.799894
0.986457
0.772476
0.854731
0.980496
1.083612
0.986457
1.074672
1.107454
1.187921
1.255870
1.318455
1.440644
1.425743
1.887679
2.959967
16.189814
52.757859
164.283514
300.892591
548.805594
768.094659
1006.440520
1015.830636
1015.830636
983.046889
750.837922
547.282696
303.898454
169.473886
67.810416
30.905604
10.597706
5.927682
5.069971
4.599690
4.529953
4.309416
4.309416
4.130602
4.224777
4.824996
6.534457
8.783937
13.130903
##ZVALUE=375
0.430942
0.415444
0.540614
0.540614
0.441670
0.461936
0.494719
0.296831
0.452995
0.510812
0.346899
0.462532
0.604987
0.469685
0.531673
0.436902
0.465512
0.530481
0.578761
0.558496
0.581741
0.643730
0.650883
0.640750
0.467896
0.588894
0.639558
0.647902
0.551939
0.682473
0.481606
0.458956
0.634789
0.820756
0.672936
0.597835
0.746846
0.496507
0.641942
0.469685
0.569820
0.580549
0.652671
0.715852
0.715852
0.735521
0.606775
0.714660
0.830889
0.757575
0.713468
0.796914
0.909567
0.756979
0.688434
0.772476
0.971556
1.016855
0.977516
0.889897
1.154542
0.969768
0.931621
1.325607
1.289845
1.419783
1.493692
1.774430
2.323985
7.936954
28.431416
98.864436
205.346942
443.762541
657.619834
925.068855
1015.830636
1015.830636
1015.830636
834.626555
640.229583
387.443900
237.193704
108.267665
53.654909
17.438531
7.297993
4.738569
4.577637
4.167557
4.103780
3.611445
3.843904
3.665686
3.522635
4.248619
##ZVALUE=380
0.291467
0.434518
0.336766
0.458956
0.420809
0.505447
0.414848
0.418425
0.473857
0.473857
0.380874
0.481606
0.406504
0.425577
0.383854
0.423789
0.427961
0.446439
0.434518
0.611544
0.506639
0.669956
0.582933
0.524521
0.372529
0.544786
0.500679
0.556707
0.519753
0.507832
0.731945
0.591874
0.638962
0.574589
0.600815
0.556707
0.527501
0.675917
0.597835
0.578761
0.678897
0.581741
0.612736
0.772476
0.683665
0.509620
0.632405
0.563860
0.605583
0.615716
0.595450
0.717640
0.604987
0.802875
0.838637
0.663996
0.737906
0.955462
0.795722
0.877976
0.794530
0.826716
0.816584
0.985861
1.102686
1.164675
1.201630
1.476407
1.463890
1.779795
2.087951
4.130006
17.784834
77.717900
167.642832
352.142453
550.561547
831.414461
995.951891
1015.830636
1015.830636
899.015665
724.730492
494.695902
325.277448
157.359838
80.562830
28.491616
11.529922
5.070567
4.354715
3.986955
3.722906
3.715754
3.733635
3.391504
##ZVALUE=385
0.377893
0.404716
0.473857
0.467896
0.452995
0.425577
0.374913
0.382662
0.498891
0.530481
0.381470
0.443459
0.327826
0.463724
0.495911
0.445843
0.534654
0.384450
0.446439
0.233650
0.440478
0.492930
0.380874
0.511408
0.558496
0.574589
0.527501
0.643730
0.666976
0.455976
0.527501
0.650883
0.443459
0.569820
0.555515
0.446439
0.643730
0.683665
0.492930
0.681877
0.678897
0.584722
0.514984
0.641942
0.647902
0.754595
0.586510
0.703931
0.606775
0.677705
0.573993
0.541806
0.749826
0.787973
0.682473
0.715852
0.765920
0.712872
0.767708
0.627637
0.826716
0.667572
0.646710
0.905991
0.939965
0.979900
1.025796
1.122952
1.215935
1.345873
1.439452
1.728535
1.738667
2.400875
7.379651
40.724874
101.322532
247.366428
421.306491
718.998909
930.149555
1015.833616
1015.833616
1006.446481
866.394639
610.307455
421.736836
224.284530
125.131011
51.141977
20.892620
6.042719
4.153848
4.068613
3.734827
3.589988
##ZVALUE=390
0.331998
0.339746
0.412464
0.450611
0.328422
0.414848
0.339746
0.353456
0.422597
0.395775
0.318885
0.492930
0.387430
0.391603
0.379682
0.402927
0.271797
0.411868
0.413656
0.305772
0.314713
0.415444
0.342727
0.314713
0.416636
0.332594
0.362992
0.510812
0.386834
0.412464
0.404716
0.445843
0.544786
0.377893
0.322461
0.564456
0.402927
0.407696
0.495911
0.478625
0.565648
0.657439
0.513792
0.389814
0.433922
0.504851
0.522733
0.603795
0.510812
0.569820
0.603795
0.614524
0.605583
0.805855
0.667572
0.478625
0.682473
0.706911
0.620484
0.647902
0.643730
0.656843
0.794530
0.768900
0.807643
0.816584
0.898838
1.022816
1.167655
1.241565
1.215935
1.440644
1.434684
1.613498
1.499653
1.796484
3.662705
22.020936
66.495538
196.941495
366.367698
653.045774
855.503678
1015.753746
1015.753746
1015.753746
980.401635
760.439634
571.023822
335.861444
192.114711
77.595711
33.858418
9.438992
4.579425
3.679991
##ZVALUE=395
0.329614
0.355840
0.479817
0.501871
0.456572
0.362992
0.344515
0.361800
0.387430
0.533462
0.649691
0.468493
0.433922
0.439882
0.339746
0.541806
0.406504
0.439882
0.434518
0.503659
0.532866
0.374913
0.508428
0.614524
0.553727
0.608563
0.435710
0.547767
0.485778
0.419617
0.673532
0.365973
0.684857
0.455976
0.543594
0.645518
0.629425
0.594854
0.535846
0.449419
0.614524
0.647902
0.606775
0.694990
0.501871
0.705719
0.576973
0.626445
0.590682
0.752807
0.597835
0.720620
0.800490
0.699759
0.658631
0.714660
0.757575
0.666976
0.751615
0.658631
0.824928
0.702739
0.872612
0.775456
0.754595
0.828505
0.795722
0.898838
1.055598
1.187921
1.306534
1.356602
1.499653
1.346469
1.388788
1.559854
1.515746
1.572967
2.138615
12.986660
44.823885
142.832994
262.967944
478.699803
683.963895
951.349735
1015.822887
1015.822887
1015.822887
883.290768
679.174662
409.583449
249.262452
106.111765
49.809813
15.998483
##ZVALUE=400
0.462532
0.359416
0.330806
0.471473
0.393987
0.579953
0.424981
0.426769
0.488758
0.451803
0.467896
0.473857
0.421405
0.382662
0.398755
0.426769
0.447631
0.547767
0.378489
0.365973
0.573993
0.329614
0.479817
0.378489
0.525713
0.386834
0.481606
0.682473
0.376701
0.596642
0.522733
0.539422
0.633597
0.618696
0.591874
0.535846
0.586510
0.651479
0.436902
0.583529
0.591874
0.683665
0.624657
0.548959
0.798702
0.685453
0.643730
0.691414
0.658631
0.498891
0.697970
0.650883
0.596642
0.681877
0.504851
0.690818
0.654459
0.673532
0.680685
0.778437
0.725985
0.726581
0.701547
0.793934
0.724792
0.892878
0.891685
0.900626
1.229644
1.216531
1.206994
1.110435
1.393557
1.328588
1.230836
1.211762
1.301765
1.364946
1.415610
1.736879
1.815557
6.409883
23.790598
86.236596
177.251697
377.285480
578.804016
852.676034
1008.783579
1015.830636
1015.830636
963.355899
776.064992
513.409972
327.887535
160.408616
##END
