##TITLE=FSKZ151
##FORMAT=SPECTACLE-ASCII V-1.2
##DATA TYPE=ULTRAVIOLET SPECTRUM
##SECOND TYPE=ULTRAVIOLET SPECTRUM
##DATE=10/25/17
##TIME=11:10:05
##SPECTROMETER/DATA SYSTEM=SPECTACLE
##XUNITS=NM EM
##YUNITS=ENERGY
##YFACTOR=1
##FIRSTX=220
##LASTX=410
##NPOINTS=96
##3DDATA=Equidistant
##ZUNITS=NM EX
##FIRSTZ=210
##LASTZ=400
##ZPOINTS=39
##XYDATA=(Y..Y)
##ZVALUE=210
6.930828
6.750822
5.262494
5.735755
4.852414
5.795956
6.024837
6.452799
6.307960
5.125999
5.355477
5.351901
4.768968
5.433559
5.139709
5.925894
5.386472
6.445646
6.282926
7.074475
6.318688
8.155704
8.181930
8.560419
8.551478
10.007620
9.375811
11.221766
11.490583
9.908676
11.108518
11.294484
11.261702
11.966825
11.545420
12.654662
11.359453
12.994409
11.469722
12.125969
13.078451
12.555718
12.429953
12.427568
13.248920
13.343692
13.149977
13.606548
13.721585
13.674498
13.261437
13.898611
13.875961
13.976693
13.828874
14.203787
15.217662
13.421774
15.895963
15.038848
14.449954
14.420748
13.968945
15.575886
14.692545
14.395714
15.199780
16.848445
18.554926
21.053553
26.256442
29.872656
36.037564
37.564635
43.458939
47.376752
52.864552
51.502585
50.201416
47.147870
46.391487
39.074421
37.179589
31.396747
26.616454
22.362471
20.348430
15.702844
13.522506
13.390779
12.806654
11.717677
12.803674
13.480783
13.784766
14.043450
##ZVALUE=215
29.864907
28.623939
22.412539
14.132857
11.502504
9.663701
9.765625
7.892847
8.441806
9.457469
9.773970
8.697510
6.627440
6.866455
5.529523
6.471872
5.816817
5.242825
5.958676
5.967617
6.329417
7.170439
7.598996
8.545518
8.080602
8.799434
9.978414
10.024905
11.171699
10.445714
11.745691
12.246966
12.340546
13.455749
12.709498
13.526678
13.344884
13.091564
13.820529
13.689995
13.078451
14.111996
14.634728
13.019443
13.041496
13.760924
14.012456
13.579726
13.138652
13.179779
13.013482
13.700724
12.560487
12.697577
11.570454
12.909770
12.782812
13.126731
13.226867
12.773871
13.483763
11.663437
12.733936
12.864470
12.138486
13.004541
13.659596
14.137626
15.890598
18.486977
18.994808
23.610592
26.928782
28.370619
30.907989
35.328865
36.568642
36.355853
32.161474
30.030608
28.509498
24.648905
22.936463
19.116998
17.379522
15.292764
13.265610
11.942983
11.938810
11.333823
10.116696
10.508895
10.148883
10.315776
10.509491
10.798573
##ZVALUE=220
99.642873
105.116963
101.456642
84.069967
67.570806
44.278502
31.468868
20.125508
19.114614
17.238855
17.750859
17.153621
16.892552
15.353560
13.800859
11.639595
10.482669
7.809997
7.129908
7.058978
5.647540
6.923676
6.941557
7.678866
8.204579
9.308457
10.421872
11.036992
11.569858
11.547804
13.041496
12.871623
14.940500
14.884472
13.151765
14.935732
14.369488
14.782548
15.416741
15.894771
13.808608
13.426542
13.902783
14.196634
13.888478
14.849901
13.875961
14.786720
13.638735
13.965964
12.863874
14.332533
15.540719
13.866425
12.899637
13.588667
13.598800
13.922453
13.621449
13.286471
13.702512
12.743473
13.926625
13.474822
13.960600
13.623834
13.856888
14.947653
16.745925
18.423796
20.705462
20.405650
25.285482
26.721954
27.352571
29.643774
31.427741
31.153560
29.370785
29.304624
28.265715
23.121834
19.785762
18.383861
16.921759
14.170408
12.656450
12.247562
11.874437
11.195540
10.754466
10.430813
9.948611
10.224581
10.729432
10.031462
##ZVALUE=225
169.823766
175.807476
216.271877
248.409510
239.595771
203.524828
166.092515
104.244947
73.873997
50.999522
35.830736
30.575991
31.044483
32.951832
30.877590
30.884743
26.947856
21.348596
17.024875
11.677742
10.229945
8.560419
8.006692
8.863807
8.619428
9.603500
9.658933
10.694861
11.568666
13.052821
14.603734
13.851523
14.113784
15.350580
15.065670
15.897751
16.730428
14.995933
15.721917
15.495420
16.312599
15.160441
14.047623
16.337633
16.002655
17.610788
15.654564
15.465617
17.207861
17.624497
17.492771
15.824437
16.916990
17.181635
16.839504
15.927553
16.624928
17.855763
17.451644
16.479492
18.012524
15.947819
16.165972
20.167828
17.274618
18.608570
18.079877
20.678639
20.307899
21.655560
22.116899
24.173856
27.483702
29.414892
28.716922
29.501915
31.170845
29.562712
29.446483
27.674437
25.418997
22.463799
19.180775
17.462969
18.203855
14.491677
15.036464
13.209581
14.419556
12.836456
12.935996
13.283491
11.326671
11.613965
11.958480
11.495948
##ZVALUE=230
164.285898
181.984901
265.230536
398.918986
480.962992
543.988943
524.864793
449.486971
350.314975
253.172517
145.012736
95.404983
60.228705
54.057837
52.463412
54.463744
56.346655
54.710507
50.894618
41.312575
30.878782
22.306442
17.162561
12.750626
9.361506
10.175705
10.413527
10.493994
12.213588
11.728406
11.098981
13.324618
15.189648
13.886690
13.251901
16.227961
16.306639
15.726686
16.199946
15.786886
19.172430
17.708540
17.270446
18.874407
19.208789
20.445585
20.307899
21.758676
23.242831
23.146868
22.560954
24.617910
23.884773
25.877953
26.205778
25.666952
24.067760
22.989511
26.295781
25.250912
26.349425
26.467443
25.501847
26.029944
25.972724
27.265549
26.600957
28.936863
29.127598
31.463504
31.799674
34.071803
36.971569
37.813783
37.833452
40.646791
38.274527
38.647652
37.551522
33.781528
32.982826
30.970573
28.525591
23.294687
24.266839
21.656752
20.987988
18.895864
19.473433
18.762946
17.682910
15.289783
16.956925
16.568899
16.662478
15.684962
##ZVALUE=235
60.666800
77.619553
157.702565
338.939428
516.289473
754.627585
899.178982
1015.830636
1007.636786
912.912488
684.462786
499.540567
296.395421
193.748474
123.297572
93.075633
77.649951
80.714822
87.608695
88.389516
81.753731
69.274902
57.098866
42.281747
29.596686
21.043420
15.231967
13.184547
13.121963
13.257861
12.754798
11.520982
14.570951
13.180971
13.809800
14.469624
14.104843
16.488433
16.305447
19.222498
17.801523
19.193888
21.792650
24.351478
24.860501
26.322603
28.158426
29.436946
34.076571
32.909513
34.671426
35.820603
35.811663
34.630895
37.978888
36.018491
37.883520
37.104487
38.018823
40.857792
37.980676
39.219856
38.930774
38.238764
40.297508
40.203929
40.951967
42.188764
44.260621
45.106411
47.697425
49.437881
50.893426
50.740838
52.995682
55.361986
52.428842
50.097704
49.046874
47.514439
42.398572
39.538741
36.404729
34.887791
32.787919
29.793978
27.255416
27.819872
25.872588
25.789738
23.164749
22.434592
21.636486
23.650527
21.480918
19.534826
##ZVALUE=240
4.843473
4.994869
27.239919
86.462498
248.712897
440.922976
805.810690
1015.830636
1015.830636
1015.830636
1015.830636
1015.830636
1015.830636
826.972723
590.201616
336.935520
228.723884
144.434571
115.118623
102.648735
108.617544
118.684769
115.152597
106.521845
84.492564
73.032975
50.702691
38.041472
25.706887
19.727945
16.597509
14.580488
14.472604
14.469624
15.992522
16.192794
15.717745
16.961694
18.166900
19.894838
22.090673
26.117563
26.228428
29.379725
33.020973
35.889745
39.735436
41.744709
42.842627
47.561526
48.709512
50.010681
50.970912
49.928427
52.051544
54.570436
52.790642
55.872798
53.471923
55.431724
53.764582
51.255822
54.816604
55.484772
53.161979
55.087805
55.230856
54.350495
55.364966
59.521794
57.571530
61.161518
62.427521
62.629580
66.700578
63.144565
65.112710
61.000586
58.217645
54.735541
51.836967
47.294497
44.206977
44.301748
38.899779
39.316416
35.750866
32.684803
31.575561
30.573606
29.555559
27.722716
28.119683
26.226640
27.002692
23.838878
##ZVALUE=245
3.298521
3.277659
3.253818
4.233718
13.200641
75.617433
190.314651
488.591790
819.580555
1015.830636
1015.830636
1015.830636
1015.830636
1015.830636
1015.830636
1015.830636
786.914825
543.009639
319.916010
206.311941
132.097602
111.596584
118.053555
128.152966
132.321715
124.572515
117.423534
97.773671
77.512860
55.026412
41.977763
26.392937
20.891428
16.713738
14.530420
15.697479
16.914606
17.544627
19.339919
20.289421
23.578405
26.051998
29.879808
33.151507
37.910938
40.866733
44.030547
48.016906
51.427484
52.224994
55.430532
59.458613
57.917833
61.349869
60.007572
62.285662
60.042739
62.812567
61.633587
61.482787
61.246753
58.605671
55.588484
57.183504
58.024526
57.586432
56.762695
56.945682
55.647492
56.375861
55.452585
56.341887
58.442950
58.436990
57.727695
58.774948
57.870746
55.513978
53.489804
51.120520
49.907565
45.761466
41.738749
39.692521
34.840703
32.719970
32.883883
31.502843
30.282736
27.466416
28.597713
25.654435
26.443601
24.363995
25.451779
22.894740
##ZVALUE=250
2.940893
2.441406
3.412962
3.339648
3.441572
4.485846
8.343458
35.621524
177.441835
386.252403
857.110023
1015.830636
1015.830636
1015.830636
1015.830636
1015.830636
1015.830636
1015.830636
1015.830636
674.525499
426.283479
267.312527
142.857432
106.992722
106.613636
121.345520
133.960843
139.683485
136.580467
125.243664
108.107924
82.248449
63.171983
41.752458
31.697750
20.737648
17.771721
18.975735
18.999577
20.765662
23.906827
27.524829
28.883815
37.321448
38.666725
42.035580
44.697523
49.639940
51.302910
55.421591
55.532455
56.030750
60.522556
60.596466
61.064959
62.247515
63.634515
61.334968
58.922768
57.534575
57.364702
56.771636
57.112575
53.961873
53.878427
51.432848
50.073862
49.126744
48.374534
49.909949
46.093464
48.025846
47.360659
48.515797
48.624873
48.544407
46.229959
46.059489
43.675900
40.043592
36.545992
35.599470
33.164620
31.635761
29.519796
27.998686
26.994944
25.221705
24.518967
22.373796
23.284554
21.198988
22.653937
21.227598
20.362735
20.363927
##ZVALUE=255
2.404451
2.542734
2.493858
3.184676
3.095865
3.434420
3.671646
4.062653
4.671812
20.973682
88.237524
321.781635
631.907582
1015.830636
1015.830636
1015.830636
1015.830636
1015.830636
1015.830636
1015.830636
1015.830636
963.966846
533.312559
322.868824
165.916681
112.828612
94.754696
104.684830
126.759410
141.925812
149.616599
145.639777
135.280490
109.024644
87.111592
61.237812
47.095418
31.065941
25.603771
22.164583
23.983717
25.923848
29.267669
33.000708
35.963655
38.670897
41.443706
44.412613
48.159957
49.016476
50.682425
54.988861
55.986643
54.537654
56.138635
56.315660
54.005980
53.965449
54.490566
51.936507
50.364733
46.580434
46.141744
46.941638
44.317842
41.880608
41.057467
42.995811
41.479468
40.567517
40.158629
40.257573
40.639639
39.677620
38.407445
37.675500
36.594868
33.443570
34.193993
32.392740
28.756857
28.216839
25.786757
24.997592
24.580956
22.712946
21.499991
21.402836
20.767450
19.688606
20.604730
18.967986
18.799901
18.754601
17.603636
18.855929
##ZVALUE=260
2.443790
2.682805
2.432466
2.814531
2.880692
2.990961
3.413558
3.298521
3.432631
3.962517
4.510880
7.508993
37.683845
195.298791
439.097881
953.576565
1016.082764
1016.082764
1016.082764
1016.082764
1016.082764
1016.082764
1016.082764
1016.082764
645.661950
411.389470
227.607489
141.044855
91.373920
88.864565
104.772449
130.299926
146.082640
154.609680
150.367618
136.324763
119.583607
90.023875
70.786476
50.380826
39.415956
32.415986
29.845834
30.119419
31.493902
33.379793
35.594702
38.614869
39.894581
41.074753
43.035746
43.866634
43.351650
44.341683
43.692589
42.715669
43.317676
42.451620
41.453838
39.889812
38.531423
38.335919
37.413836
36.642551
37.537813
34.876466
33.695698
32.465458
33.995509
32.280684
32.543540
32.366514
31.297803
32.162666
31.091571
31.557679
30.159950
28.650761
26.615858
25.892854
24.995804
23.383498
22.368431
21.165609
20.773411
19.284487
20.046830
17.853975
17.460585
16.967654
16.691685
16.095638
17.547607
16.134977
15.632510
15.535951
##ZVALUE=265
2.354980
2.182722
2.041459
2.333522
2.640486
2.692938
2.782941
2.699494
2.995729
2.668500
3.345609
3.836751
4.001856
6.022453
20.956993
90.542436
351.974964
689.487457
1015.830636
1015.830636
1015.830636
1015.830636
1015.830636
1015.830636
1015.830636
1015.830636
937.935710
541.597605
341.582894
178.303719
107.616782
76.558590
87.667704
114.143491
134.965777
151.546597
159.012675
153.948665
139.684677
115.675926
96.270442
70.225596
55.066943
40.676594
34.244657
30.942559
30.810833
31.672716
33.599734
35.076737
35.499930
34.910440
35.280585
36.073923
35.909414
34.678578
34.631491
33.035874
31.076670
31.002760
30.586720
30.474663
28.804541
28.613806
27.240515
27.066469
28.174520
27.070642
26.387572
26.954412
26.728511
26.423931
27.384758
26.545525
26.802421
25.812984
24.666786
24.224520
22.533536
22.000670
20.105839
19.257665
19.508600
18.153787
17.995834
16.922951
16.944408
15.812516
15.527606
14.739633
14.220476
14.339685
13.637543
14.348626
13.973713
12.917519
##ZVALUE=270
1.855493
1.932979
2.139807
2.206564
2.148747
2.202988
2.224445
2.404451
2.639890
2.691746
2.769828
2.935529
3.023744
3.552437
4.011989
4.848838
9.782910
49.534440
236.090422
526.883006
1015.830636
1015.830636
1015.830636
1015.830636
1015.830636
1015.830636
1015.830636
1015.830636
1015.830636
700.477958
446.133018
217.885971
123.037696
72.086453
69.045424
89.570880
111.373663
139.206648
152.969956
162.596703
157.711506
142.743587
124.304891
96.660852
77.292919
56.095719
44.507980
34.211874
32.503605
31.172633
30.056834
29.830933
30.448437
29.719472
29.342771
28.776526
28.393865
28.477907
26.647449
26.451945
26.640892
25.480986
24.653673
24.837852
24.954677
25.242567
24.046898
23.576617
23.493767
23.462772
22.953749
23.934841
24.496913
24.399757
23.920536
23.801923
24.131536
22.092462
20.657778
20.418763
18.876791
18.227696
18.105507
16.240478
16.228557
15.937686
16.026497
15.070438
14.455914
13.371706
13.107657
12.571812
13.622642
13.677478
12.455583
11.899471
##ZVALUE=275
1.817942
1.767874
1.912713
1.839995
2.125502
2.035499
2.023578
2.296567
2.242923
2.414584
2.394915
2.669692
2.765656
2.874732
3.131628
3.205538
4.215837
4.335642
5.691648
17.682910
136.714578
375.188589
934.344530
1015.830636
1015.830636
1015.830636
1015.830636
1015.830636
1015.830636
1015.830636
1015.830636
857.153535
560.212731
285.138488
160.573721
78.660846
56.296587
67.087412
85.398555
114.382505
135.206580
157.007575
162.927508
159.195662
145.455599
119.583607
99.777579
74.016452
58.218837
41.837692
36.476851
30.984879
27.949810
26.886463
27.140975
25.347471
25.181770
24.658442
25.316477
24.049878
23.665428
23.640990
24.100542
23.493767
23.246408
23.153424
22.544861
22.750497
22.463799
22.554994
22.566915
22.981763
23.620725
23.095608
23.360848
22.671819
21.532774
21.189451
21.495819
18.521547
18.591881
17.269850
16.286969
16.123652
15.686750
15.753508
14.676452
14.192462
14.056563
13.994575
13.706684
12.501478
12.309551
11.394620
12.079477
11.267662
##ZVALUE=280
1.660585
1.687407
1.567602
1.651645
1.743436
1.681447
1.833439
1.781583
1.983643
2.173781
2.048612
2.070665
2.246499
2.668500
2.747774
2.784729
2.964735
3.403425
3.548861
3.972650
5.070567
7.981658
82.514882
269.625783
740.283728
1015.830636
1015.830636
1015.830636
1015.830636
1015.830636
1015.830636
1015.830636
1015.830636
988.417864
682.459474
358.806849
209.239721
96.733570
56.530833
49.162507
62.090755
88.378787
108.200908
137.200952
150.112510
160.744786
157.472491
140.138865
120.784640
94.643831
75.275898
54.003000
41.188002
32.683611
27.130842
24.301410
23.429990
23.317933
23.448467
23.098588
23.490787
22.337437
21.356940
21.566749
21.914840
21.651983
22.045970
21.860600
21.902919
22.569895
21.942854
22.204518
22.261739
22.781491
21.537542
21.362901
20.835996
20.241737
18.414855
18.362999
17.676950
17.063618
16.290545
15.520453
14.628768
14.791489
13.819933
13.264418
13.457537
13.027787
12.944937
12.323856
11.798739
11.406541
11.337996
11.121631
##ZVALUE=285
1.372695
1.536608
1.609921
1.568794
1.818538
1.586676
1.707673
1.628995
1.728535
2.033710
1.871586
2.120733
1.865625
2.155900
2.363920
2.293587
2.170801
2.851486
3.026724
3.071427
3.498793
4.019737
4.994869
5.418658
39.227605
151.311755
462.086797
846.754909
1015.815735
1015.815735
1015.815735
1015.815735
1015.815735
1015.815735
1015.815735
1015.815735
861.767530
488.233566
293.082595
138.829947
75.487494
40.430427
41.718483
59.968829
79.953671
110.254884
131.217837
147.707462
154.984593
150.482655
141.090751
119.122863
98.706484
70.998669
53.843856
36.638975
28.809905
23.412704
21.189451
20.187497
18.857718
19.981861
19.650459
20.254850
19.983649
20.039678
20.079613
20.137429
20.088553
20.259619
20.788908
20.469427
20.881891
20.357966
20.375848
19.986629
19.158721
18.135905
18.510818
17.022491
16.270876
15.508533
15.387535
15.080571
14.333725
13.746619
13.971925
13.262630
13.021827
12.199879
12.229681
11.730790
11.231899
10.450482
10.440946
11.206865
##ZVALUE=290
1.385808
1.448989
1.270771
1.425743
1.512766
1.408458
1.595616
1.576543
1.648664
1.992583
1.573563
1.819730
1.828671
1.922846
1.911521
2.233982
2.024770
2.423525
2.145767
2.519488
2.904534
3.055930
3.484488
3.744960
4.201531
5.124807
9.021759
83.284974
244.351625
645.478964
1006.226540
1015.830636
1015.830636
1015.830636
1015.830636
1015.830636
1015.830636
1015.830636
1003.665924
637.964010
398.839712
193.266869
101.988912
43.872595
31.784773
39.772987
53.526759
77.859759
97.808838
122.307539
138.835907
146.865845
146.752596
132.526755
116.189718
87.429881
68.186522
47.791600
36.065578
25.232434
21.248460
18.170476
17.932653
17.096996
17.376542
16.628504
16.650558
17.855763
17.569661
17.996430
18.552542
18.628836
18.113852
17.772913
17.705560
16.899705
16.844869
16.435981
15.792847
14.986992
14.919639
14.379621
13.526678
13.451576
13.291836
12.548566
12.811422
11.971593
11.693835
11.951923
10.885596
10.543466
10.471940
10.530949
10.008812
9.835958
##ZVALUE=295
1.369715
1.094937
1.323819
1.283884
1.385808
1.322627
1.432896
1.403689
1.499653
1.466870
1.659989
1.562834
1.608729
1.559854
1.648664
1.771450
1.940727
1.921654
2.222657
2.281666
2.385974
2.412796
2.877712
2.821684
3.347993
3.286600
4.305840
4.709959
5.514622
22.428632
105.215907
390.986800
767.442584
1015.827656
1015.827656
1015.827656
1015.827656
1015.827656
1015.827656
1015.827656
1015.827656
807.260871
527.423620
273.248553
148.372650
57.528615
31.064749
25.870800
33.404827
50.251484
69.031715
94.431639
113.133788
132.654905
139.899850
136.840940
125.484467
104.521513
86.223483
61.707497
46.215653
30.861497
23.708940
18.126965
15.781522
14.770627
14.750957
14.457703
14.848709
14.531612
15.550852
15.468597
15.331507
15.299916
14.805794
14.515519
14.664531
14.038682
13.475418
12.812614
12.611747
12.061000
12.318492
11.786819
11.631846
11.801720
11.052489
10.647774
10.269880
10.120869
10.293722
10.264516
9.819865
9.933710
9.329915
9.187460
##ZVALUE=300
1.321435
1.283884
1.223683
1.064539
1.208782
1.332760
1.285672
1.492500
1.465678
1.435876
1.551509
1.505613
1.441836
1.535416
1.511574
1.598597
1.652837
1.720786
1.665950
1.822710
1.995564
2.032518
2.316833
2.345443
2.733469
2.687573
2.951622
3.254414
3.654957
4.003644
4.443526
7.400513
45.710802
253.655910
545.272827
1015.830636
1015.830636
1015.830636
1015.830636
1015.830636
1015.830636
1015.830636
1015.830636
967.428088
662.086606
344.344974
202.148557
89.456439
43.329000
21.612644
21.193624
30.658841
42.155981
63.433647
81.605911
106.248856
120.499730
129.899979
129.694939
116.605759
103.022456
79.692602
63.409805
44.694543
32.199621
21.276474
16.710758
13.970733
13.061762
13.463497
13.196468
12.974739
12.997985
12.920499
12.939572
12.509823
12.263656
11.978745
11.978745
11.274815
11.726618
11.057854
10.965466
10.554790
10.670424
10.422468
10.099411
9.999871
9.891987
9.716749
9.674430
9.213686
9.302497
8.776784
9.135604
9.118915
##ZVALUE=305
1.063943
1.254678
1.140833
1.047850
1.126528
1.065731
1.191497
1.157522
1.354814
1.499653
1.332760
1.302958
1.402497
1.479983
1.575947
1.469851
1.577735
1.672506
1.751781
1.855493
1.683831
1.975894
1.942515
2.088547
2.092719
2.092719
2.403855
2.506971
2.765656
3.056526
3.462434
3.616810
4.230738
5.539656
20.279884
158.995986
381.754637
864.858031
1015.831828
1015.831828
1015.831828
1015.831828
1015.831828
1015.831828
1015.831828
1015.831828
805.476904
472.890735
284.627676
128.952861
63.668489
25.148988
17.248988
20.667911
27.283430
43.305755
58.989525
82.546473
99.024773
116.168857
122.630000
123.736858
113.654733
96.823573
79.657435
57.263970
42.513609
28.634667
21.285415
16.088486
14.148951
13.327599
12.521744
12.727976
12.813807
12.013912
11.550784
11.733770
11.575818
11.232495
11.190772
11.035800
10.814667
10.655522
10.578632
10.347962
10.248423
10.375977
10.373592
9.483695
9.750724
9.470582
9.037852
9.061694
8.717775
8.623600
##ZVALUE=310
1.074672
1.147985
1.113415
1.263618
0.996590
0.997782
1.241565
1.197457
1.226664
1.113415
1.193881
1.259446
1.338720
1.163483
1.243949
1.106858
1.446605
1.355410
1.504421
1.487732
1.723766
1.639724
1.614690
1.874566
1.928806
2.080798
2.079606
2.295971
2.541542
2.333522
2.746582
3.068447
2.938509
3.676414
3.934503
4.408956
7.030964
70.532560
220.561624
587.182641
966.216922
1015.818715
1015.818715
1015.818715
1015.818715
1015.818715
1015.818715
1015.818715
1006.131768
645.263791
411.104560
197.099447
103.701949
38.688779
19.062757
14.443994
17.583966
25.531650
35.567880
53.540468
69.664717
91.760755
105.430484
114.777684
116.668940
107.982755
95.416903
76.086521
59.976578
40.622950
30.959845
21.372437
16.682744
14.010668
12.558699
11.810660
11.608601
11.243820
11.115670
10.867715
10.481477
10.851622
10.372996
10.724664
10.630488
10.784864
10.891557
10.018945
10.344982
10.145903
9.578466
9.588599
9.177923
9.105802
8.839965
8.892417
##ZVALUE=315
1.105666
1.194477
0.951886
0.997782
1.100898
1.153946
1.155734
1.121759
1.136661
1.220703
1.242757
1.236796
1.220703
1.300573
1.186728
1.246929
1.405478
1.448989
1.304746
1.447797
1.713634
1.587868
1.570582
1.877546
1.777411
1.628995
1.976490
2.057552
2.056956
2.123713
2.075434
2.475977
2.660751
2.869964
2.847910
3.331900
3.737807
4.149675
4.809499
27.997494
124.780536
410.670638
749.539733
1015.830636
1015.830636
1015.830636
1015.830636
1015.830636
1015.830636
1015.830636
1015.830636
792.139769
528.215766
270.875692
145.904422
53.481460
24.521947
13.796687
13.307929
17.355680
22.375584
35.304427
47.614574
66.138506
82.258582
99.532604
107.317567
109.656453
104.338527
89.425445
75.105429
55.125952
42.306781
27.926564
20.868778
15.258789
13.435483
12.092590
11.283755
10.736585
11.318922
10.695457
10.770559
10.551810
10.555983
10.261536
10.397434
10.107756
10.386705
10.457635
9.989738
9.608865
9.500980
9.483695
9.171963
9.238720
##ZVALUE=320
1.004934
0.976920
0.877976
1.137853
1.184940
0.995994
1.061559
1.149774
1.133680
1.087785
1.104474
1.081824
1.149774
1.122952
1.288652
1.364946
1.268983
1.400709
1.211762
1.379848
1.401901
1.425743
1.532435
1.593828
1.683831
1.642704
1.625419
1.804829
1.804829
1.883507
2.105832
1.944900
2.086759
2.183914
2.168417
2.577901
2.540946
2.852678
3.272891
3.562570
4.001856
8.803606
55.784583
268.911719
542.995930
1007.632017
1015.841961
1015.841961
1015.841961
1015.841961
1015.841961
1015.841961
1015.841961
961.662531
654.938817
346.663594
191.931725
80.404878
36.884546
14.872551
11.578798
12.178421
14.750957
20.673871
29.327869
45.112967
59.207678
78.901649
91.261864
102.787614
105.133653
98.658800
87.807775
69.283843
55.531859
37.375689
28.015971
19.731522
15.580654
12.512803
11.473894
10.816455
10.588765
10.519624
10.543466
10.487437
10.410547
10.491610
10.184646
10.143518
9.995699
9.666681
9.480715
9.624958
9.408593
9.405613
##ZVALUE=325
0.884533
0.804663
0.756979
0.888705
0.943542
1.087785
0.962615
1.047850
0.939965
0.965595
0.735521
0.952482
1.132488
1.023412
1.097918
0.891685
1.068711
1.056790
1.070499
1.123548
1.074672
1.384616
1.372695
1.300573
1.315475
1.349449
1.484752
1.520514
1.491904
1.411438
1.680851
1.533628
1.673698
1.932979
1.840591
2.124906
2.170801
2.193451
2.470613
2.636909
2.751946
3.172755
3.945827
4.385710
31.167865
135.958791
417.156816
731.918812
1015.766859
1015.766859
1015.766859
1015.766859
1015.766859
1015.766859
1015.766859
1015.766859
706.439614
463.714004
238.012671
128.423572
48.188567
21.937490
11.524558
10.375977
11.552572
13.546944
19.786954
27.819872
44.047832
58.490634
77.408552
87.893605
97.616911
97.963810
91.954470
81.282854
64.543486
50.801635
35.340786
25.629997
17.713904
14.233589
12.117624
11.023879
10.454655
10.267496
9.979606
10.007620
10.084510
9.913445
9.893775
9.682775
9.568930
9.158850
9.217858
9.358525
##ZVALUE=330
1.040697
1.031756
0.855923
0.838637
0.888705
0.981688
1.028776
1.064539
0.920892
1.009703
0.972748
0.823736
0.947714
1.025796
0.840425
1.057982
1.107454
1.102686
1.257658
1.277924
1.251698
1.042485
1.021624
1.184940
1.284480
1.371503
1.464486
1.410842
1.459718
1.594424
1.535416
1.547933
1.498461
1.711845
1.848936
1.574755
1.900792
2.087951
2.122521
2.121925
2.395511
2.484918
2.603531
3.019571
3.470778
4.217625
8.336902
78.651905
231.765509
586.841702
957.829952
1015.830636
1015.830636
1015.830636
1015.830636
1015.830636
1015.830636
1015.830636
922.150612
557.889938
347.026587
159.224868
80.750585
29.810667
14.212728
10.336637
10.387897
11.472702
13.958812
20.354986
27.824640
40.977597
52.926540
71.228743
82.341433
90.732574
91.348886
85.729957
75.846910
59.159994
46.585798
33.032894
25.521517
18.271804
14.804602
11.716485
11.011958
9.969473
9.863973
9.965897
9.681582
9.109974
9.305477
9.009838
9.167790
9.207726
##ZVALUE=335
0.876784
0.807643
0.764728
0.967979
0.814795
0.996590
0.868440
1.010895
0.768900
0.820756
0.982881
1.011491
0.813603
0.859499
1.052618
1.080632
1.089573
1.031756
1.061559
1.109838
1.255870
0.926852
1.275539
1.043677
1.213551
1.344681
1.113415
1.134872
1.462698
1.251698
1.362562
1.535416
1.530647
1.401901
1.481771
1.663566
1.546741
1.731515
1.769662
1.914501
2.057552
2.191663
2.078414
2.437830
2.632737
2.763867
3.061891
3.859997
4.480481
31.262636
127.787590
401.614904
708.971024
1015.830636
1015.830636
1015.830636
1015.830636
1015.830636
1015.830636
1015.830636
1010.274887
662.923455
432.617664
221.123695
114.767551
40.741563
18.460751
10.837913
10.146499
10.503531
11.337996
14.185905
18.213987
27.380586
37.361979
52.815676
64.224601
77.154636
83.698630
84.675550
81.013441
68.404675
59.003830
44.686794
35.312772
24.585724
18.671751
13.726950
11.755824
10.056496
9.551644
9.295940
9.274483
9.082556
9.055734
8.966923
##ZVALUE=340
0.814795
0.840425
0.863671
0.784993
0.625849
0.754595
0.858903
0.920892
0.993609
0.861883
0.950694
1.004934
0.978708
0.808835
1.113415
1.124740
0.853539
0.903606
0.940561
0.943542
1.014471
1.084805
1.148582
1.091957
1.207590
1.058578
1.282692
1.094937
1.111627
1.178980
1.269579
1.209974
1.374483
1.264811
1.302958
1.424551
1.281500
1.439452
1.495481
1.743436
1.712441
1.696944
1.953840
1.858473
1.999736
2.373457
2.403855
2.746582
2.846718
3.432631
3.770590
11.539459
64.189434
271.792412
540.331602
996.013880
1015.830636
1015.830636
1015.830636
1015.830636
1015.830636
1015.830636
1015.830636
795.942545
538.462996
279.286504
150.890946
55.914521
24.606586
11.778474
10.146499
9.776950
9.964705
10.558963
12.593865
17.813444
24.110675
36.265850
46.208501
61.536431
71.109533
78.652501
79.458952
74.252486
66.795945
54.089427
44.160485
31.978488
24.630427
18.114448
13.810992
10.844469
9.651780
9.126663
8.580685
8.540750
##ZVALUE=345
0.832677
0.758767
0.846982
0.922680
0.870824
0.914931
0.812411
0.975728
0.699759
0.824928
0.847578
0.824928
0.838637
0.876784
0.887513
1.038909
0.868440
0.872612
0.972748
1.010895
1.021624
0.951886
1.106858
1.064539
0.954866
1.000762
1.084805
1.284480
1.282692
1.252890
1.210570
1.405478
1.320839
1.294613
1.299977
1.253486
1.303554
1.487732
1.486540
1.604557
1.578927
1.648664
1.602769
1.648664
1.687407
1.867414
1.918674
2.033710
2.149940
2.496839
2.685785
3.196597
3.495812
4.642010
23.097396
165.392756
377.584696
784.486532
1015.830636
1015.830636
1015.830636
1015.830636
1015.830636
1015.830636
1015.830636
916.065574
646.371841
366.426706
203.008652
78.583956
36.615729
14.968514
10.229945
9.075999
9.138584
8.777976
9.330511
11.725426
15.217662
23.294687
32.124519
45.085549
54.749846
65.022707
70.851445
73.196888
70.075989
62.081814
54.438710
42.638779
33.027530
23.059845
17.837882
12.886524
10.504723
9.066463
##ZVALUE=350
0.819564
0.946522
0.934601
0.974536
0.935793
0.908971
0.931621
0.941753
0.811815
0.911951
1.108646
0.908971
0.777841
0.983477
0.887513
0.901818
1.010895
1.008511
0.821948
0.915527
1.141429
1.080632
0.967979
0.913739
1.060963
1.182556
1.193881
1.177788
1.021624
1.133680
1.169443
1.239777
1.259446
1.325607
1.230836
1.332760
1.243949
1.390576
1.408458
1.499653
1.372695
1.522899
1.609921
1.473427
1.627803
1.548529
1.656413
1.829863
1.962781
2.132654
2.311468
2.174973
2.597570
2.702475
3.115535
3.748536
9.250641
84.716678
240.082741
577.650666
924.795866
1015.821695
1015.821695
1015.821695
1015.821695
1015.821695
1015.821695
1006.432772
754.078031
420.827866
252.973437
113.792419
52.840710
17.286539
9.900928
8.400679
7.891655
7.902980
7.784963
8.639693
10.271668
14.617443
19.774437
29.212832
37.238002
49.521923
57.630539
64.600706
66.621900
65.231919
59.226751
49.684644
40.744543
30.486584
23.657680
16.784668
##ZVALUE=355
0.973940
0.905991
0.952482
0.885725
0.937581
1.000762
0.984669
0.947714
0.870824
1.004934
0.884533
0.828505
1.086593
1.081824
1.105666
0.997782
1.078844
1.062751
1.016855
1.044869
1.003742
1.106858
1.082420
1.127720
1.164675
1.202822
1.154542
1.186728
1.233816
1.281500
1.282692
1.367927
1.185536
1.276731
1.328588
1.246929
1.280904
1.226664
1.480579
1.391768
1.430511
1.345873
1.453757
1.448989
1.550913
1.716614
1.723766
1.808405
1.942515
1.886487
1.949668
1.987815
2.341866
2.275705
2.510548
2.794862
2.994537
3.561974
4.830956
37.795901
137.465596
414.389372
702.966452
1015.830636
1015.830636
1015.830636
1015.830636
1015.830636
1015.830636
1015.830636
862.269998
530.850887
322.719812
140.524507
67.423582
22.354722
10.968447
8.461475
7.752776
7.483959
7.487535
7.530451
7.699728
9.621978
12.039542
17.577410
23.804903
33.562779
41.699409
51.135421
57.167411
61.410666
59.755445
53.499937
46.652555
37.359595
##ZVALUE=360
0.810623
0.888705
0.994802
0.778437
0.828505
0.802875
0.813603
0.776649
0.969768
0.988841
0.797510
0.967979
0.925660
1.029968
1.065731
0.964999
0.973940
0.898838
1.093745
1.164675
0.999570
1.116991
1.122952
1.184940
1.205802
1.044869
1.099706
1.208782
1.049638
1.252890
1.273751
1.343489
1.244545
1.235604
1.372695
1.291633
1.282692
1.308918
1.307726
1.388788
1.411438
1.379848
1.522899
1.455545
1.520514
1.576543
1.573563
1.847744
1.692772
1.827478
1.759529
1.925826
2.061725
2.027750
2.350807
2.211928
2.362728
2.851486
3.512502
4.240870
4.664660
12.855530
61.962605
247.039795
490.237474
943.538547
1015.830636
1015.830636
1015.830636
1015.830636
1015.830636
1015.830636
986.571908
632.413626
406.907797
192.136765
98.485947
36.795735
15.757680
8.151531
7.412434
7.163882
6.784797
6.722808
6.746650
7.034540
7.920861
10.380745
13.841987
19.941926
26.473999
36.457777
43.233633
51.044822
53.447485
54.347515
##ZVALUE=365
0.802875
0.926852
0.814795
0.842810
0.832677
0.986457
0.951886
0.940561
0.956655
0.896454
1.041889
0.932813
0.842810
0.847578
0.897646
0.949502
0.928640
1.016855
0.930429
1.062751
1.018643
0.983477
1.162887
1.100898
0.899434
0.914931
0.917912
1.075864
1.083612
1.205802
1.038909
1.097918
1.172423
1.285672
1.202822
1.128912
1.119971
1.339912
1.138449
1.237988
1.321435
1.287460
1.395941
1.248717
1.318455
1.335740
1.549721
1.319647
1.427531
1.503825
1.414418
1.672506
1.552701
1.841784
1.915693
1.947880
1.969934
2.227426
2.790689
2.833605
3.382564
3.820658
3.964901
5.175471
22.040606
149.602890
337.775350
693.236589
1010.429859
1015.830636
1015.830636
1015.830636
1015.830636
1015.830636
1015.830636
775.350928
532.431602
285.051465
152.214766
53.513646
21.184683
8.474588
6.947517
6.568432
6.393790
5.999804
5.736947
5.691648
5.913973
6.890893
8.016825
11.643767
15.833974
23.298860
29.912591
37.964582
##ZVALUE=370
0.847578
0.784993
0.841618
0.837445
1.006722
0.818968
0.933409
0.972748
0.871420
0.762939
0.618696
0.859499
0.842810
0.879765
0.783801
0.774860
0.935793
0.697970
0.827909
0.821948
0.865459
0.943542
0.884533
0.914931
0.778437
0.994802
0.931621
1.025796
1.078844
1.037717
1.095533
0.938773
1.000762
0.888705
1.009703
0.982881
1.043677
1.173615
1.085997
1.000762
0.991821
0.916719
1.143813
1.147985
1.211762
1.180768
1.221895
1.024604
1.186728
1.144409
1.134872
1.004934
1.276731
1.468658
1.449585
1.584888
1.471639
1.528859
1.726747
1.854897
2.095699
2.350807
2.527833
2.874732
3.116727
3.832579
8.733869
76.936483
229.786038
567.179918
896.017551
1015.830636
1015.830636
1015.830636
1015.830636
1015.830636
1015.830636
855.851769
597.295761
319.217443
175.591707
66.879988
31.127930
11.371970
7.035732
5.994439
5.845428
5.476475
5.367994
5.046725
5.411506
5.490780
5.980730
7.613897
9.992719
14.211535
##ZVALUE=375
0.454783
0.530481
0.514984
0.501871
0.525713
0.507832
0.715852
0.575781
0.788569
0.565648
0.576973
0.749826
0.534654
0.631809
0.564456
0.659823
0.687838
0.654459
0.626445
0.735521
0.663996
0.807643
0.528693
0.653863
0.725985
0.576973
0.645518
0.696778
0.654459
0.741482
0.792742
0.690818
0.810623
0.803471
0.720620
0.785589
0.657439
0.967979
0.852942
0.918508
0.788569
0.835657
0.824928
0.630617
0.745654
0.605583
0.843406
0.890493
0.893474
0.876784
0.790954
0.978708
0.912547
1.193881
1.196861
1.154542
1.076460
1.096725
1.217723
1.331568
1.287460
1.471639
1.632571
1.836419
1.900792
2.268553
2.571940
2.889633
4.400611
36.957860
134.637952
384.613872
675.495863
1015.704870
1015.704870
1015.704870
1015.704870
1015.704870
1015.704870
981.202722
724.716783
422.770977
256.781578
114.275813
55.498481
18.226504
8.317828
5.638599
5.189776
5.023479
4.949570
4.775524
4.551411
4.582405
4.594922
5.090833
##ZVALUE=380
0.434518
0.432730
0.544786
0.446439
0.379682
0.448823
0.531673
0.625849
0.476837
0.555515
0.618696
0.738502
0.558496
0.520945
0.388622
0.552535
0.554919
0.542998
0.458956
0.495911
0.580549
0.466704
0.680685
0.601411
0.679493
0.673532
0.548959
0.676513
0.611544
0.719428
0.551939
0.640750
0.711679
0.768900
0.787973
0.754595
0.717640
0.482798
0.729561
0.706911
0.690818
0.791550
0.888705
0.563860
0.736713
0.715852
0.657439
0.890493
0.709891
0.872612
0.924468
0.873804
0.959635
0.761747
0.849962
1.006722
1.192689
1.076460
1.144409
1.156926
1.161695
1.148582
1.287460
1.412630
1.469851
1.755953
1.977682
2.282858
2.456903
3.118515
3.536940
13.860464
72.992444
293.594003
551.481843
980.077982
1015.676856
1015.676856
1015.676856
1015.676856
1015.676856
1015.676856
827.938914
545.099974
355.435014
169.947743
85.683465
29.350519
12.260675
5.891919
4.983544
4.679561
4.459620
4.469752
4.103780
4.082918
##ZVALUE=385
0.512600
0.619888
0.514984
0.643730
0.494719
0.430942
0.500679
0.467896
0.528693
0.457764
0.490546
0.544786
0.460744
0.565648
0.551939
0.595450
0.733733
0.597835
0.526905
0.551939
0.595450
0.598431
0.730753
0.761747
0.646710
0.666976
0.668764
0.686646
0.802875
0.719428
0.857711
0.805855
0.797510
0.780821
0.869632
0.690818
0.762939
0.839829
0.734925
0.875592
0.916719
0.782609
0.822544
0.895858
0.794530
1.012683
0.771880
0.831485
0.892878
0.916719
0.761747
0.867844
1.016855
0.952482
0.915527
1.029968
1.065731
1.051426
1.156926
1.046658
0.986457
1.135468
1.170635
1.323819
1.400709
1.652837
1.640916
1.911521
2.146959
2.352595
2.735853
2.974868
3.196597
5.411506
32.949448
185.715556
391.948819
768.425465
1015.766859
1015.766859
1015.766859
1015.766859
1015.766859
1015.766859
991.352797
680.431724
461.722016
241.842866
134.954453
53.980947
22.182465
6.981492
4.873872
4.369617
4.258752
4.135966
##ZVALUE=390
0.515580
0.496507
0.528693
0.504851
0.488758
0.555515
0.616908
0.573993
0.530481
0.587702
0.464916
0.382662
0.455976
0.655651
0.456572
0.647902
0.637770
0.578761
0.528693
0.524521
0.550747
0.700951
0.577569
0.594854
0.683665
0.690818
0.656843
0.671744
0.757575
0.781417
0.680685
0.771880
0.895858
0.847578
0.836849
0.767708
0.815988
0.761747
0.787973
0.865459
0.921488
0.696778
0.808835
0.748634
0.884533
0.847578
0.884533
0.836849
0.862479
1.020432
0.818968
1.019835
0.926852
1.007915
0.887513
0.967979
1.042485
1.131892
1.040697
0.997782
1.028776
1.149774
1.196861
1.246929
1.198649
1.538992
1.406670
1.802444
2.060533
2.092719
2.266765
2.309680
2.533793
2.466440
2.854466
3.493428
13.182759
104.491711
275.192857
633.879900
971.813798
1015.757918
1015.757918
1015.757918
1015.757918
1015.757918
1015.757918
848.983526
614.362955
358.217955
203.568935
81.473589
36.573410
10.412931
5.522966
4.557967
##ZVALUE=395
0.479817
0.588894
0.482798
0.652671
0.462532
0.590682
0.450611
0.668764
0.509620
0.571609
0.656843
0.626445
0.556707
0.588894
0.703931
0.710487
0.817776
0.619888
0.677705
0.627637
0.802875
0.742674
0.588894
0.647902
0.593662
0.707507
0.831485
0.836849
0.989437
0.781417
0.769496
0.817776
0.971556
0.848770
0.947714
0.932813
0.820756
0.956655
0.926852
0.847578
0.881553
0.846982
0.959635
0.963807
1.024604
0.875592
0.968575
0.913739
0.845790
0.908971
0.865459
0.983477
1.003742
0.967979
1.094937
1.047850
1.048446
1.060963
1.012683
1.231432
1.128912
1.091957
1.290441
1.108646
1.153946
1.369715
1.568794
1.625419
1.753569
1.586676
1.909733
1.980662
2.033710
2.207756
2.239943
2.340674
2.650619
2.944469
5.774498
60.811639
202.617049
513.736606
809.677839
1015.831828
1015.831828
1015.831828
1015.831828
1015.831828
1015.831828
998.837948
758.315921
445.784926
277.961493
126.634836
61.111450
20.612478
##ZVALUE=400
0.487566
0.710487
0.593662
0.636578
0.513792
0.528693
0.488758
0.609756
0.487566
0.530481
0.556707
0.614524
0.677705
0.644922
0.575781
0.531673
0.533462
0.440478
0.461936
0.467896
0.545979
0.591874
0.626445
0.771880
0.799894
0.771880
0.722408
0.715852
0.655651
0.763535
0.730753
0.799894
0.834465
0.765920
0.767708
0.758767
0.752807
1.156926
0.773668
0.797510
0.639558
0.844598
0.976920
0.911951
0.769496
0.958443
0.939965
0.789762
0.946522
0.778437
0.996590
0.942945
0.874996
0.898838
0.909567
1.062751
0.989437
1.079440
1.035929
1.045465
1.122952
1.235604
1.343489
1.275539
1.345873
1.464486
1.625419
1.623631
1.711845
1.776814
1.893640
1.971722
1.894832
1.910925
1.861453
2.020597
2.024770
2.082586
2.496839
2.988577
3.661513
30.173659
116.460919
336.333513
591.643453
998.299718
1015.789509
1015.789509
1015.789509
1015.789509
1015.789509
1015.789509
871.232748
547.199845
350.480676
174.079537
##END
