##TITLE=FSKZ102
##FORMAT=SPECTACLE-ASCII V-1.2
##DATA TYPE=ULTRAVIOLET SPECTRUM
##SECOND TYPE=ULTRAVIOLET SPECTRUM
##DATE=10/25/17
##TIME=10:56:40
##SPECTROMETER/DATA SYSTEM=SPECTACLE
##XUNITS=NM EM
##YUNITS=ENERGY
##YFACTOR=1
##FIRSTX=220
##LASTX=410
##NPOINTS=96
##3DDATA=Equidistant
##ZUNITS=NM EX
##FIRSTZ=210
##LASTZ=400
##ZPOINTS=39
##XYDATA=(Y..Y)
##ZVALUE=210
7.765889
6.794930
5.710721
5.569458
5.622506
5.528927
5.760789
5.384684
5.197525
6.176829
5.248785
5.985498
5.588531
5.619526
6.535649
6.003976
7.079840
6.905794
6.702542
8.249879
9.510517
9.498000
8.967519
10.711551
11.779666
10.937452
11.934638
12.625456
14.744997
12.543797
13.870597
14.849901
15.026927
15.928745
15.669465
17.036796
15.892982
17.159581
17.355680
18.993616
16.901493
17.381907
17.515421
17.632842
18.750429
20.972490
19.218922
21.651983
19.934773
21.765828
20.423532
20.357966
21.638870
21.303892
20.998716
22.574663
22.551417
22.821426
21.270514
23.858547
23.974776
22.299886
22.396445
21.710992
25.160909
24.402738
26.512742
27.744770
32.755733
36.607981
40.610433
49.893856
58.882833
69.636703
74.888468
79.796910
80.666542
79.389811
78.877807
77.030659
69.688559
64.103603
61.339736
51.938891
47.169924
38.309693
32.108426
27.990937
25.671721
22.683740
23.219585
19.458532
22.442937
22.890568
23.434758
26.321411
##ZVALUE=215
28.010607
24.972558
18.587708
17.884970
14.746785
11.391640
9.691715
9.306669
9.469986
9.680986
8.269548
7.950664
7.914901
5.840659
5.690455
5.934834
5.638599
6.064773
6.623864
5.939603
7.766485
7.644892
8.824468
8.372664
8.931756
9.669662
9.742975
10.580420
9.946823
11.104941
11.710525
11.986494
11.834502
13.182759
10.921955
13.404489
13.572574
14.527440
14.158487
13.594627
13.879538
14.354587
15.424490
14.377832
15.375614
14.571548
15.761852
16.655922
14.953613
16.470551
15.458465
15.568733
16.565919
15.818477
16.776919
16.617775
16.913414
17.207861
16.934872
17.813444
16.418695
16.711950
17.604828
16.612411
17.633438
17.022491
19.800663
20.478964
21.890998
25.430918
27.282834
33.155680
36.572814
42.161942
45.594573
47.113895
50.541759
49.491525
50.110817
46.932697
42.745471
37.686825
38.735867
31.487942
29.202700
25.886893
23.302436
20.188689
17.750859
15.410781
16.303658
15.981793
14.958978
16.275644
16.234517
14.923811
##ZVALUE=220
68.692565
69.612861
72.928667
71.898699
60.703754
46.785474
36.909580
25.168657
18.443465
15.855432
17.977953
18.306971
16.887784
14.702678
12.418628
9.236932
8.417964
6.611943
6.965995
6.800890
6.133914
6.827712
6.834865
6.302595
8.741617
7.900596
8.301735
8.533597
9.478927
10.763407
10.294914
11.309981
10.493994
11.596680
11.916757
12.579560
13.181567
12.018681
12.647510
12.671947
12.825727
13.716817
13.439655
14.137626
13.285875
13.785958
12.982488
13.318658
13.668537
15.068650
13.734698
14.968514
14.733672
15.206933
14.519691
16.803741
15.653968
13.782978
16.222596
15.920997
15.606880
14.962554
16.343594
17.416477
17.430782
17.284751
15.439987
17.371774
19.403696
20.845532
23.377538
25.563836
30.262470
34.455657
34.466982
35.611987
39.213896
40.396452
36.981702
35.800934
34.793615
31.055808
28.336644
26.419759
24.291873
20.124912
18.602610
16.842484
16.070604
15.202761
14.279485
12.348890
13.814569
12.455583
13.638735
14.120936
##ZVALUE=225
88.782907
93.688965
121.814609
153.623819
162.269473
155.687928
134.432912
104.218721
76.543689
59.867501
37.732720
32.488704
31.835437
30.210614
33.535957
29.509664
22.755861
20.123720
16.616583
11.250973
9.629726
7.288456
7.432699
7.975698
7.344484
8.452535
9.181499
9.589791
9.841919
9.414554
10.350943
11.304617
10.501742
11.153817
12.630820
12.523532
12.831688
14.725924
15.058517
14.375448
13.596416
15.429854
14.877915
14.024973
15.725493
15.350580
15.074611
16.412735
16.106963
15.652776
14.999509
16.903877
15.737414
16.261935
17.493963
17.181635
17.025471
17.841458
17.113686
18.153787
18.137693
18.664598
17.940998
18.836856
18.236637
17.099977
17.588735
20.431876
20.206571
22.692680
22.584796
25.246739
28.346777
32.061934
33.463836
33.792853
34.757853
31.551719
31.176805
29.912591
27.418733
25.843978
25.550723
23.771524
23.095608
20.481944
17.863512
16.896725
17.013550
16.285777
15.384555
15.005469
14.130473
15.224814
14.877915
16.228557
##ZVALUE=230
64.571500
69.835782
113.548636
191.883445
238.356590
305.257440
325.108767
319.852829
272.533894
236.187577
162.099600
109.515786
70.858002
58.009624
49.894452
52.923560
55.402517
53.639412
50.511956
38.999915
31.537414
23.381710
15.751719
11.783838
10.255575
9.233952
9.023547
9.189844
9.633899
9.608865
9.827614
10.094643
11.263490
12.124777
11.574626
12.787580
13.404489
13.640523
14.492869
13.780594
13.564825
15.344620
15.370846
15.915632
15.277863
15.453696
15.302896
15.513897
16.972423
18.293858
17.977953
18.962622
20.514727
21.290779
21.226406
21.441579
20.317435
21.306872
20.523667
20.103455
20.786524
21.910667
22.448897
22.459626
22.079945
22.258759
23.116469
24.235845
25.549531
27.049780
28.479695
33.076406
34.516454
34.668446
35.369992
38.052797
38.266778
37.471652
35.292506
35.056472
32.329559
31.268597
31.715631
26.334524
25.801659
24.616718
22.108555
22.212863
21.022558
20.657778
20.005703
19.234419
19.644499
18.707514
18.990636
18.320680
##ZVALUE=235
23.743510
25.574565
53.938627
121.163726
205.076933
341.275930
443.864465
567.290783
616.422892
620.652437
545.923710
453.326702
293.475986
219.283700
137.041807
96.938610
79.123974
79.112649
83.967447
85.212588
80.063939
70.364475
56.095719
39.074421
29.120445
19.564629
15.229583
11.435747
11.609793
11.329651
11.445880
11.991858
12.033582
11.795759
12.914538
12.797713
12.634993
13.544559
13.795495
13.091564
15.546679
16.230941
16.894937
17.367601
16.575456
18.475652
19.582510
18.849969
20.644665
21.926761
23.750663
23.161769
23.452640
22.841692
25.103688
23.479462
24.648905
25.330782
28.351545
27.870536
27.568936
28.303862
28.516650
27.506948
29.412508
30.676723
29.744506
31.873584
34.206510
32.979846
37.332773
38.497448
40.786862
42.646527
45.169592
46.645999
47.340989
47.544837
44.482946
40.776730
40.836930
39.215684
37.500858
33.574700
31.722784
30.030608
29.611588
28.402805
27.253628
24.653673
25.074482
25.548935
25.731921
23.692846
23.305416
24.627447
##ZVALUE=240
3.319979
3.154874
11.796951
29.707551
90.624690
168.713927
328.023434
493.618846
725.204945
876.698494
985.307693
993.064642
899.451971
722.346902
555.738807
346.274972
228.761435
145.698786
112.084746
101.895928
111.775994
113.765597
115.036964
106.040835
86.467862
73.473454
51.388741
38.588643
25.566816
18.174648
14.991760
13.428926
11.926889
13.472438
13.289452
13.830662
14.269948
14.483929
15.450716
15.554428
16.631484
18.125772
18.776655
19.507408
21.048784
20.681620
21.589994
21.753907
23.993850
24.546981
27.865767
25.393963
27.609468
28.824806
31.765699
28.645992
31.191707
29.328465
30.821562
32.169819
31.900406
32.626987
31.938553
33.111572
32.943487
33.450723
34.068823
35.085678
37.798882
38.488507
40.488839
46.194792
44.370890
50.522685
51.890612
51.626563
51.079988
48.960447
49.664974
45.727491
44.620633
43.310523
40.108562
36.019683
34.997463
34.326911
32.777786
31.029582
31.807423
29.924512
30.321479
29.445887
27.543902
28.318763
27.473569
28.972626
##ZVALUE=245
2.979636
2.733469
2.339482
2.619624
6.915927
22.954941
81.431866
163.003802
351.556540
530.722737
824.871659
993.877649
1015.853882
1015.853882
1015.853882
987.349749
817.141533
548.311472
375.397801
210.562944
144.095421
111.097693
114.619732
127.763748
134.721994
129.274726
118.062496
103.326440
74.207783
58.617592
44.593811
28.871894
20.288825
14.727712
14.979839
13.504624
13.369918
13.769865
14.069676
14.627576
16.127825
16.619563
17.331839
17.733574
19.769669
22.670627
22.364855
22.145510
23.675561
24.938583
25.645494
26.949644
28.755665
28.359890
30.037761
30.208826
31.905770
29.922724
30.540824
28.790832
31.064749
31.321645
32.281876
31.516552
31.406879
31.211972
33.243895
34.316778
32.313466
33.160448
36.807656
37.442446
39.654970
43.565631
44.494867
45.336485
44.835806
43.629408
40.488839
41.302443
37.592649
34.363866
36.546588
32.163858
30.925870
30.225515
28.176904
29.428601
27.451515
28.806925
27.082562
26.715994
26.997924
27.640462
26.025772
25.703907
##ZVALUE=250
2.442598
2.575517
2.696514
2.357960
2.671480
2.820492
4.373789
16.821623
50.831437
144.187808
285.844803
485.791564
803.809762
1004.910469
1015.830636
1015.830636
1015.830636
1015.830636
1015.830636
814.419985
493.061543
319.392681
166.501999
115.799904
111.472607
123.706460
134.608746
140.977502
135.385990
122.242570
105.381608
79.056621
61.786771
40.900707
28.705597
20.216703
14.958978
14.090538
14.561415
14.780760
14.857650
16.393661
17.699599
18.722415
19.606948
20.097494
20.732880
22.735000
23.379922
24.575591
24.521947
26.647449
25.079846
26.353598
27.941465
27.428865
27.429461
26.913881
28.235912
26.461482
27.278662
27.782917
27.230978
27.102828
26.770830
27.594566
26.575923
27.746558
27.543902
31.083822
29.846430
32.320619
32.717586
34.326911
35.320520
37.032962
35.960674
34.790635
34.683943
32.808781
31.477809
31.747818
29.366612
27.595758
25.988817
26.460886
23.501515
24.114847
24.875998
24.839640
23.237467
23.135543
23.140907
22.161603
22.639632
23.297668
##ZVALUE=255
2.402663
2.149940
2.195835
2.270937
2.409816
2.394915
2.779961
2.451539
3.387928
6.284714
31.648874
85.572004
178.411603
398.767591
630.262494
988.093019
1015.836000
1015.836000
1015.836000
1015.836000
1015.836000
1015.835404
708.026886
451.011658
229.466558
145.921707
103.813410
105.361938
127.518773
137.142539
144.884586
142.046809
132.102966
104.501843
85.150003
60.074925
44.165850
28.212667
19.835830
16.139746
15.053749
15.916824
16.746521
17.459989
19.119978
19.650459
22.021532
20.491481
22.116899
22.359490
22.314787
23.955703
23.447871
24.322867
24.536848
24.680495
24.263859
22.992492
23.869872
23.842454
23.667812
23.584962
23.715496
21.870732
22.485852
22.753477
24.278760
23.144484
23.334622
25.361776
25.655627
27.740598
27.002692
28.731823
30.002594
30.146837
31.178594
28.823614
27.674437
26.269555
26.510954
24.856925
23.916960
23.095608
22.385716
23.406744
21.850467
21.987557
21.172762
21.127462
21.955967
21.466613
21.538734
20.111799
20.095706
20.987988
##ZVALUE=260
1.918674
1.978874
2.077818
1.775622
2.144575
2.209544
2.216697
2.543926
2.854466
2.689958
2.795458
4.295707
13.290644
58.014989
132.012963
333.621502
547.694564
932.808518
1015.830636
1015.830636
1015.830636
1015.830636
1015.830636
1015.830636
958.142877
663.430691
374.748707
222.716928
117.000937
95.486641
104.311705
128.441453
141.207576
150.930882
150.883794
132.418871
114.776492
86.640716
66.137910
43.752789
32.716990
23.922920
18.642545
17.938614
17.948747
18.765926
19.792914
19.247532
20.458698
21.019578
21.365881
21.486878
21.053553
22.358894
21.071434
21.299720
21.794438
20.705462
21.625757
20.892620
20.454526
20.198822
20.017624
20.548701
20.253658
20.493865
20.552874
20.663738
20.793676
22.703409
23.172498
23.463964
24.800897
25.451779
25.050640
25.067925
25.543571
25.028586
24.065971
23.947954
21.839738
21.998882
22.681952
20.272732
20.168424
19.142628
19.942522
19.268990
19.187927
19.040704
18.894672
17.827749
18.776655
17.580986
18.416643
18.077493
##ZVALUE=265
1.772642
1.869798
2.064705
1.923442
2.003908
1.824498
1.925826
1.804829
2.197623
2.225637
2.807975
2.583861
2.668500
3.114939
7.167459
41.063428
102.038980
264.497399
471.785069
886.112452
1015.830636
1015.830636
1015.830636
1015.830636
1015.830636
1015.830636
1015.830636
808.274746
446.881056
255.905986
142.169595
81.226826
84.718466
111.542940
131.887794
152.039528
158.293843
151.360631
138.689876
113.386512
91.556907
63.576698
47.769547
32.326579
25.531650
20.223856
19.609928
18.384457
19.206405
18.978715
20.125508
20.266771
21.301508
19.838810
20.173788
20.183921
20.111799
19.085407
20.044446
18.903613
18.134713
19.911528
18.447638
19.082427
18.978715
18.402934
17.593503
19.068718
19.781590
19.621849
21.059513
22.108555
22.374988
23.494959
23.165941
24.376512
22.841692
23.256540
22.338629
20.603538
20.794868
19.969940
20.177960
19.316673
18.575788
17.241836
18.255711
17.465949
18.260479
17.699599
16.898513
17.526746
17.688870
17.163754
16.905665
16.665459
##ZVALUE=270
1.548529
1.403689
1.558661
1.671910
1.655817
1.758933
1.829863
1.831651
1.899600
2.044439
2.011657
1.938939
2.058744
2.409816
2.370477
2.876520
3.866553
18.356442
57.577491
189.470649
377.951860
660.004020
1015.833616
1015.833616
1015.833616
1015.833616
1015.833616
1015.833616
1015.833616
1004.320979
712.475777
359.688997
192.556977
87.489486
69.009662
87.648630
109.474659
137.009621
151.902437
159.135461
155.845881
139.229894
116.466880
90.821981
69.700480
46.581626
35.545826
26.183724
22.631884
19.829869
19.686818
19.298792
19.259453
19.716620
19.302964
18.811822
19.337535
19.559860
18.412471
18.462539
19.553900
18.325448
19.448996
18.686652
18.447638
19.076467
18.534660
19.074678
19.503832
20.315647
21.383762
20.315647
21.215677
22.478700
22.367835
22.613406
21.395683
21.607876
21.086931
19.962788
19.647479
18.871427
18.427968
18.114448
18.334985
17.680526
16.648769
17.298460
16.865730
16.884804
17.064810
15.866756
16.280413
15.582442
15.760660
15.858412
##ZVALUE=275
1.334548
1.263618
1.455545
1.256466
1.318455
1.496673
1.650453
1.592636
1.756549
1.971722
1.667738
1.570582
2.045631
2.140999
1.989603
2.385974
2.389550
2.607703
2.928972
7.392764
29.428601
123.613477
270.587802
597.122908
953.859687
1015.830636
1015.830636
1015.830636
1015.830636
1015.830636
1015.830636
1015.830636
836.817026
452.407002
261.337757
121.906996
72.502494
66.194534
83.685517
112.409592
133.177638
151.254535
158.593655
154.424906
143.566728
115.351677
95.699430
67.036748
51.878691
35.884976
28.408766
21.653771
20.398498
18.544793
19.307733
19.003749
19.259453
19.087791
18.425584
19.038916
18.708706
18.473864
18.482804
19.139647
18.897653
19.206405
18.274784
18.555522
19.766688
19.987822
20.456910
20.857453
21.963716
22.473931
21.791458
21.398664
21.643639
21.746755
20.788908
19.849539
19.943714
19.140840
17.586946
17.396808
17.445683
17.447472
16.812682
17.279983
16.280413
15.952587
16.316772
16.500950
15.265942
15.303493
15.271902
15.396476
##ZVALUE=280
0.995994
0.982881
1.244545
1.109838
1.109838
1.189709
1.108646
1.168847
1.243949
1.224875
1.346469
1.435876
1.558661
1.581907
1.525879
1.803637
1.758933
2.143979
2.135634
2.230406
2.690554
3.617406
21.864772
77.920556
249.691010
457.620025
841.353536
1015.575528
1015.575528
1015.575528
1015.575528
1015.575528
1015.575528
1015.575528
1003.550887
596.543550
358.037949
155.832767
81.456900
50.862432
59.966445
85.628629
107.686520
133.169889
147.879720
155.067444
151.453614
135.250688
117.239952
88.907480
69.522858
49.101710
35.278797
25.143623
20.662546
18.027425
17.364621
18.320680
17.651916
18.317699
17.026663
17.804503
18.272996
18.083453
17.908812
18.649697
17.528534
17.965436
18.983483
18.086433
19.251704
19.328594
20.430684
21.153688
20.515919
20.444989
20.296574
19.696951
20.376444
18.960834
17.996430
17.679930
18.235445
16.517639
16.633868
16.564727
16.222596
15.600920
15.735626
16.185641
15.474558
15.403628
14.942884
14.758706
14.838576
14.957786
##ZVALUE=285
1.152754
1.236796
1.199841
1.257658
1.412630
1.254678
1.389980
1.180768
1.369715
1.464486
1.428723
1.527667
1.405478
1.578927
1.666546
1.748800
1.954436
1.827478
2.135634
2.136827
2.383590
2.549887
2.918839
3.342628
9.318590
56.732893
145.439506
362.717509
618.561506
1014.367938
1015.830636
1015.830636
1015.830636
1015.830636
1015.830636
1015.830636
1015.830636
772.211552
483.274460
228.459835
117.123723
49.067736
41.331649
57.503581
76.585412
105.135441
126.000643
145.756602
149.060488
146.184564
135.600567
111.350417
92.342496
66.954494
49.011707
32.567978
25.246739
19.412637
16.882420
15.850663
15.943646
15.711784
16.187429
15.891790
15.688539
15.676618
16.427636
16.782880
17.236471
17.587543
17.819405
18.978715
18.509626
18.986464
19.378662
18.710494
17.956495
18.294454
17.898679
17.132759
17.617941
16.464591
16.458631
16.668439
16.181469
15.335679
15.313625
15.193820
15.459657
14.817715
15.123487
15.309453
14.677644
14.999509
14.014840
14.428496
##ZVALUE=290
1.112819
1.140833
1.224875
1.027584
1.451969
1.206994
1.316667
1.308918
1.178980
1.086593
1.290441
1.347661
1.408458
1.198649
1.462698
1.625419
1.391768
1.581907
1.608729
1.840591
1.944900
2.090931
2.452731
2.525449
2.669692
3.034472
4.776716
19.918680
101.838708
226.976871
442.041755
838.970542
1015.830636
1015.830636
1015.830636
1015.830636
1015.830636
1015.830636
1015.830636
960.488915
631.603003
316.196680
159.937739
56.990981
33.116937
36.754608
50.333738
73.262453
92.528462
118.680000
135.141611
143.894553
142.606497
128.610730
110.866427
84.137917
65.160990
43.568611
32.388568
21.593571
17.571449
14.613867
13.684630
13.575554
13.512969
14.193654
13.606548
14.629960
14.138818
14.250875
15.151501
15.778542
16.164780
16.149879
16.253591
16.086698
15.554428
15.596747
15.762448
15.268922
15.277863
14.784932
15.094876
14.530420
14.777780
14.481544
14.435649
14.676452
14.403462
14.063716
13.577938
13.848543
13.648868
13.949871
13.469458
13.663769
##ZVALUE=295
1.149774
1.140833
1.181960
1.042485
0.970960
1.178980
1.173615
1.100898
1.166463
1.190901
1.140833
1.196861
1.293421
1.143813
1.273751
1.551509
1.299977
1.444817
1.319647
1.502633
1.671910
1.404881
1.922846
1.988411
2.254844
2.292991
2.478957
2.856851
3.510714
7.589459
51.651597
139.508843
370.364785
652.622581
1015.831828
1015.831828
1015.831828
1015.831828
1015.831828
1015.831828
1015.831828
1015.831828
728.858709
451.093912
205.682516
96.839666
34.980774
24.315715
32.869577
46.093464
68.419576
87.700486
112.099648
125.682950
136.174560
134.210587
119.929910
104.405880
81.556439
62.464476
42.331815
30.812621
20.223856
15.609860
13.136864
11.974573
11.962652
11.824965
12.385845
12.738705
13.108850
13.954639
13.809800
14.486909
14.283657
14.016628
14.111996
13.966560
13.755560
13.785958
13.970733
13.220906
13.976693
14.001727
13.293624
14.085770
13.743639
13.843775
13.671517
13.823509
13.170838
12.674928
13.237596
13.072491
13.279915
13.573766
##ZVALUE=300
0.861883
0.967979
1.014471
1.066923
0.915527
0.918508
0.971556
0.918508
1.149774
1.065731
1.099706
1.257658
1.190901
1.137853
1.323819
1.043677
1.357794
1.478791
1.348853
1.396537
1.411438
1.602769
1.537800
1.712441
1.964569
1.882911
2.182722
2.098680
2.472997
2.864599
3.052950
3.966689
21.157861
76.294541
242.726803
460.336804
886.907578
1015.830636
1015.830636
1015.830636
1015.830636
1015.830636
1015.830636
1015.830636
957.432389
622.964501
308.168530
158.737898
53.763986
24.537444
20.966530
26.967525
43.009520
59.460998
81.972480
99.812746
119.715929
127.319694
127.264857
120.233893
99.326968
81.874728
58.320761
44.015646
28.406978
20.302534
15.454888
12.565851
11.555552
11.422634
11.999607
12.408495
12.610555
13.306737
13.195872
12.999773
13.221502
13.374686
13.250709
12.888908
13.089776
13.231635
13.314486
13.316870
12.720823
12.895465
13.212562
13.616681
13.458729
13.597608
13.346672
13.276935
13.602972
12.736917
12.916923
13.028979
##ZVALUE=305
0.929832
1.009703
0.910759
0.937581
1.030564
0.927448
0.964999
1.073480
0.884533
1.013875
1.125932
1.104474
1.087785
1.065731
1.275539
1.275539
1.243949
1.287460
1.241565
1.386404
1.390576
1.499653
1.334548
1.442432
1.741648
1.620650
1.636744
2.124906
2.024770
1.910925
2.186894
2.468824
2.866983
3.366470
9.136796
41.373968
169.510841
358.428955
747.102499
1015.830636
1015.830636
1015.830636
1015.830636
1015.830636
1015.830636
1015.830636
1015.830636
821.259022
428.209901
226.306915
83.939433
35.700798
16.448498
18.356442
27.412772
39.502978
59.801936
76.522827
98.187923
110.686421
121.160746
122.414827
111.676455
98.264813
76.531768
58.928728
40.358901
29.769540
19.284487
14.719963
13.154745
12.502670
12.534857
12.700558
12.880564
12.820959
12.424588
12.754798
12.580752
12.380481
13.030767
12.592673
13.046861
13.332963
13.191700
13.125539
13.283491
13.457537
13.072491
13.436675
13.206601
13.228655
13.204813
13.145804
12.907982
13.269782
##ZVALUE=310
0.889897
0.730753
1.010895
0.903606
0.901818
0.960827
0.919700
0.920892
0.998974
1.062751
0.986457
0.921488
1.078844
1.037717
0.985861
1.124740
1.051426
1.010895
1.113415
1.125932
1.278520
1.164675
1.240969
1.389980
1.596808
1.497865
1.524687
1.461506
1.712441
2.017617
1.803637
2.150536
2.156496
2.366900
2.531409
2.852678
3.909469
20.422935
70.609450
231.317878
444.636941
865.395665
1015.830636
1015.830636
1015.830636
1015.830636
1015.830636
1015.830636
1015.830636
932.886600
608.474612
295.195580
152.501464
54.209828
22.040606
13.906956
16.555786
25.317669
34.965873
51.818490
67.698956
91.765523
102.809668
113.925934
114.043951
107.886791
94.201565
74.857473
59.121847
40.602684
30.433536
20.985603
16.851425
13.718605
12.578964
12.314916
12.126565
12.436509
11.940598
12.589693
12.307763
12.607574
12.847781
12.696981
12.920499
13.421774
13.327599
13.240576
13.292432
13.146996
13.142824
13.527870
13.101697
12.904406
12.896657
12.591481
##ZVALUE=315
0.789762
0.896454
0.952482
0.873804
0.737906
0.979900
0.841618
0.934601
0.975728
1.006722
0.918508
0.994802
1.021624
1.224875
1.029968
1.027584
1.085997
1.048446
1.062751
1.275539
1.224875
1.032948
1.287460
1.226664
1.229644
1.343489
1.452565
1.381636
1.376867
1.469851
1.598597
1.620650
1.852512
1.818538
1.978874
2.138615
2.454519
2.831817
3.078580
7.820725
32.961965
138.096809
314.098597
690.675974
1007.462740
1015.831828
1015.831828
1015.831828
1015.831828
1015.831828
1015.831828
1015.831828
777.788758
410.472751
220.707655
79.792738
31.785965
13.145804
12.143850
16.000867
21.267533
33.740997
46.057701
64.845681
80.018640
99.020004
107.397437
108.760595
104.930997
88.023543
74.052811
54.022670
40.215850
27.481914
20.952821
16.186833
13.871789
12.425780
12.313724
11.676550
11.522770
12.138486
12.114644
12.522936
12.708902
12.641549
12.464523
12.985468
13.095737
12.888908
13.262630
13.143420
12.988448
12.825727
12.389421
12.745857
##ZVALUE=320
0.867844
0.729561
0.727773
0.609756
0.752807
0.715852
0.936985
1.056790
0.851750
0.986457
0.782609
0.726581
0.750422
0.876784
0.916719
0.961423
0.999570
0.812411
0.941753
1.101494
1.064539
1.057982
1.062751
1.021624
1.058578
1.218915
1.196861
1.369715
1.371503
1.458526
1.458526
1.605749
1.608729
1.475811
1.943707
1.716614
1.932979
2.221465
2.223849
2.361536
2.779961
4.131794
14.024973
77.981949
197.548866
500.864983
808.551908
1015.830636
1015.830636
1015.830636
1015.830636
1015.830636
1015.830636
1015.830636
963.881612
528.420806
296.792984
124.359727
54.190755
16.704798
11.036992
11.984706
14.043450
19.917488
28.459430
43.609738
58.188438
77.160001
90.462565
102.088451
102.709532
98.529458
89.236498
69.741607
55.177808
38.919449
28.665662
19.851923
16.540885
13.231635
12.257695
11.758804
11.766553
12.561679
12.787580
12.135506
12.346506
12.377501
12.468696
12.625456
12.436509
12.582541
12.653470
12.540817
12.293458
12.578964
##ZVALUE=325
0.740886
0.635982
0.870824
0.773668
0.695586
0.757575
0.808835
0.811815
0.892878
0.827909
0.947714
0.852942
1.021624
1.050830
0.860691
1.043677
1.068711
0.871420
0.954866
0.790954
0.991821
1.004934
0.939965
1.085997
1.015663
0.998974
1.110435
1.122952
1.005530
1.319647
1.283884
1.360774
1.373887
1.398921
1.559854
1.731515
1.769662
1.785755
1.659989
1.969934
2.025962
2.458692
2.571940
2.987981
7.064939
47.542453
126.356483
326.060653
583.599806
1001.732945
1015.830636
1015.830636
1015.830636
1015.830636
1015.830636
1015.830636
1015.830636
649.041533
383.126736
162.205696
74.120760
22.423863
11.673570
9.973645
10.328889
13.346672
18.295646
28.772950
40.141940
58.265924
72.674751
88.063478
96.117854
97.423792
92.220902
77.959895
65.888762
48.915744
37.713647
25.582910
19.628406
14.892817
13.269782
12.334585
11.918545
12.059808
11.773705
12.207627
11.865497
12.131929
12.100935
12.458563
11.808872
11.860728
11.986494
12.030602
##ZVALUE=330
0.667572
0.774860
0.756979
0.823736
0.771880
0.771880
0.643730
0.743866
0.687838
0.780821
0.914931
0.870824
0.799894
0.724792
0.722408
0.795722
0.915527
0.715852
0.767708
0.835657
0.877976
0.892878
0.912547
0.818968
1.056790
1.013875
1.026988
0.882745
1.141429
1.096725
1.165867
1.126528
1.213551
1.416802
1.281500
1.475811
1.335740
1.514554
1.665950
1.465678
1.743436
1.837611
2.040863
2.223849
2.528429
3.063679
4.483461
15.502572
80.356002
360.713005
426.644087
817.197561
1015.826464
1015.826464
1015.826464
1015.826464
1015.826464
1015.826464
1015.827060
595.265627
488.256812
113.849640
96.096992
43.163896
9.744763
9.631515
9.425879
11.378527
13.514757
18.236637
28.245449
38.636923
54.931641
68.512559
82.824826
89.643002
92.381835
87.088943
74.497461
62.812567
45.827627
35.737753
25.644898
19.671917
15.383959
13.379455
11.987686
11.966825
11.469722
11.817813
11.467934
11.467934
11.801720
11.564493
11.626482
11.564493
##ZVALUE=335
0.505447
0.523925
0.518560
0.488758
0.569820
0.483990
0.510812
0.444651
0.547767
0.615716
0.504851
0.540614
0.611544
0.565648
0.633597
0.444651
0.630617
0.580549
0.846982
0.825524
0.759959
0.523925
0.616908
0.653863
0.775456
0.924468
0.773668
0.894666
0.785589
0.735521
0.899434
0.992417
0.786781
0.803471
0.966787
0.992417
1.153946
1.066923
1.281500
1.295805
1.461506
1.243949
1.397729
1.616478
1.608729
1.898408
2.098680
2.316833
2.786517
8.483529
32.745600
125.437975
262.162685
587.186813
938.655734
1015.659571
1015.659571
1015.659571
1015.659571
1015.659571
1015.659571
977.891088
671.142936
340.290666
172.948837
55.585504
21.514893
10.327697
9.258986
9.135604
10.389686
13.066530
17.091632
26.657581
36.697984
52.381754
64.256787
77.161789
83.963871
84.797740
81.280470
69.097877
58.929920
46.182871
36.345720
24.923682
19.797683
15.124679
12.912750
11.617541
11.291504
10.775924
10.720491
10.749698
10.351539
10.715723
##ZVALUE=340
0.693798
0.570416
0.675917
0.806451
0.742674
0.630617
0.758767
0.509620
0.817776
0.676513
0.758767
0.698566
0.727773
0.781417
0.732541
0.582933
0.785589
0.633597
0.859499
0.738502
0.912547
0.908971
0.894666
0.776649
0.803471
0.873804
0.729561
0.884533
0.906587
0.995994
1.010895
1.169443
0.946522
1.054406
1.128912
1.098514
1.234412
1.114607
1.093745
1.271963
1.239777
1.327991
1.552701
1.561642
1.454949
1.768470
1.860857
1.949668
2.131462
2.451539
2.747774
4.627705
16.119480
75.485706
179.235935
439.047813
733.065009
1015.830636
1015.830636
1015.830636
1015.830636
1015.830636
1015.830636
1015.830636
849.536657
444.127917
236.239433
83.697438
32.579899
11.938810
9.630919
9.606481
9.567738
10.550618
12.939572
17.900467
24.207830
35.383701
46.931505
62.051415
72.212815
79.118609
79.816580
75.401664
67.708492
54.816604
45.369864
32.817721
25.855899
18.914938
14.705658
12.117624
11.400580
10.565519
10.236502
10.255575
##ZVALUE=345
0.425577
0.463724
0.538826
0.489950
0.677705
0.706911
0.620484
0.469685
0.511408
0.573993
0.565648
0.746846
0.499487
0.515580
0.647902
0.539422
0.622869
0.695586
0.803471
0.567436
0.665784
0.754595
0.670552
0.659823
0.606775
0.831485
0.584722
0.651479
0.760555
0.865459
0.706911
0.807643
0.817776
0.917912
1.133680
0.808835
0.944734
1.080632
0.976920
1.069903
0.989437
1.153946
1.153946
1.213551
1.182556
1.305938
1.411438
1.666546
1.726747
1.712441
1.959801
2.152920
2.211928
2.668500
7.117987
42.912960
112.515688
291.392803
516.470671
932.479501
1015.732884
1015.732884
1015.732884
1015.732884
1015.732884
1015.732884
985.275507
586.688519
325.114727
122.882724
52.128434
16.346574
9.894967
9.100437
8.973479
9.072423
9.756684
11.753440
15.171766
23.442507
32.174587
45.041442
55.249929
65.459609
71.845651
74.046850
71.622729
63.531995
54.987669
43.401718
34.276843
24.263859
18.996596
14.322996
12.211800
10.684729
##ZVALUE=350
0.711679
0.754595
0.733733
0.679493
0.636578
0.630617
0.762939
0.685453
0.573993
0.794530
0.581741
0.814795
0.610948
0.624657
0.622869
0.826716
0.756979
0.820756
0.752807
0.686646
0.894666
0.747442
0.776649
0.817776
0.687838
0.781417
0.817776
0.737906
0.765920
1.039505
0.797510
0.915527
0.857711
0.906587
1.036525
0.945926
0.963807
0.986457
1.018643
1.081824
1.109838
1.133680
1.011491
1.123548
1.077652
1.296997
1.365542
1.334548
1.425743
1.541972
1.596808
1.706481
2.008677
2.017617
2.216697
2.407432
4.781485
17.675757
75.135827
166.441798
385.442972
643.343925
1013.243794
1015.831828
1015.831828
1015.831828
1015.831828
1015.831828
1015.831828
733.813643
363.798738
194.114447
70.505738
26.217699
10.169744
8.391738
7.963777
7.943511
8.099675
8.755922
11.011958
14.569759
20.437837
27.788877
39.231777
47.959685
58.915615
63.751936
66.795945
65.697432
59.328675
51.343441
40.390491
32.367706
23.736954
18.288493
##ZVALUE=355
0.763535
0.726581
0.588894
0.618696
0.646710
0.585914
0.729561
0.603795
0.814795
0.702739
0.667572
0.622869
0.821948
0.725985
0.955462
0.772476
0.651479
0.649691
0.792742
0.540614
0.711679
0.931621
0.698566
0.771880
0.887513
0.768900
0.781417
0.884533
0.898838
0.921488
0.905991
0.948906
0.895858
0.907779
0.818968
0.832677
1.029968
0.961423
0.887513
1.091957
1.064539
1.045465
1.202822
1.145601
1.198649
1.172423
1.119971
1.318455
1.254678
1.416802
1.619458
1.699924
1.626611
1.688600
1.910925
2.052784
2.233982
2.474785
2.876520
10.848641
39.654970
140.902996
272.055864
540.421605
828.684568
1015.846729
1015.846729
1015.846729
1015.846729
1015.846729
1015.846729
861.837864
546.416044
238.900781
110.929608
30.940771
12.312531
8.184910
8.005500
7.617474
7.454753
7.565618
8.392930
10.176897
12.313724
18.110871
24.587512
33.785701
42.271614
51.750541
57.406425
61.313510
59.949756
54.942966
48.291683
39.042830
##ZVALUE=360
0.851750
0.933409
0.847578
1.051426
0.723600
0.829697
0.758767
0.896454
0.766516
0.682473
0.891685
0.861883
0.855923
1.009703
0.866652
0.796914
0.861883
0.678897
0.925660
0.917912
1.067519
1.003742
0.928640
0.953674
0.874996
1.008511
0.939965
1.028776
0.909567
0.911951
1.044869
1.064539
1.104474
1.118779
1.063943
1.162887
1.317859
1.046658
1.192689
1.124740
1.280904
1.164675
1.116991
1.315475
1.302958
1.211762
1.205802
1.199841
1.410842
1.504421
1.493692
1.464486
1.586676
1.744628
1.834631
1.819730
1.849532
2.015829
2.224445
2.699494
2.899766
4.847646
17.198920
73.526502
169.071555
393.949747
630.932450
977.565646
1015.982628
1015.982628
1015.982628
1015.982628
1015.982628
979.188681
672.971010
331.794620
169.467926
58.637857
21.520853
8.735657
7.752776
7.145405
7.097721
6.966591
6.843805
7.672906
8.476973
11.167526
14.376640
20.820498
27.427673
37.308931
44.746995
52.136779
55.225492
54.745674
##ZVALUE=365
0.660419
0.592470
0.630617
0.707507
0.636578
0.700951
0.606775
0.704527
0.619888
0.603795
0.656843
0.689626
0.655651
0.541806
0.767708
0.815988
0.736713
0.677705
0.702739
0.686646
0.699759
0.783801
0.768900
0.709891
0.787973
0.689626
0.796914
0.771880
0.891685
0.914931
0.756979
0.664592
0.707507
0.808835
0.848770
0.955462
0.720620
0.886917
0.989437
0.969768
1.061559
1.023412
0.937581
0.985861
1.111627
1.032948
1.136661
1.241565
1.201630
1.037717
1.112819
1.263618
1.123548
1.285672
1.318455
1.361966
1.538992
1.496673
1.632571
1.851916
2.016425
2.257824
2.555847
3.065467
6.916523
39.463639
105.093718
272.544622
471.203923
808.866620
1015.830636
1015.830636
1015.830636
1015.830636
1015.830636
1015.830636
809.741616
454.488993
251.008868
89.215636
34.064651
9.714961
7.329583
7.071495
6.526709
6.247759
6.412864
6.288886
6.417632
7.406473
8.857846
12.562871
16.675591
23.507476
29.695630
38.951635
##ZVALUE=370
0.625849
0.540614
0.651479
0.505447
0.638962
0.663996
0.579953
0.655651
0.674725
0.629425
0.633597
0.636578
0.684857
0.630617
0.949502
0.738502
0.725985
0.693798
0.838637
0.747442
0.656843
0.683665
0.774860
0.607967
0.815988
0.625849
0.701547
0.744462
0.710487
0.710487
0.889897
0.739694
0.657439
0.827909
0.767708
0.790954
0.823736
0.844598
0.789762
0.936985
0.858903
0.920892
0.944734
0.961423
1.049638
1.075864
0.956655
1.119971
1.056790
0.843406
0.993609
1.154542
0.965595
1.164675
1.184940
1.394749
1.282692
1.316667
1.422763
1.512766
1.546741
1.536608
1.691580
1.823902
2.052784
2.310872
3.877878
21.644831
69.271922
204.110742
364.667773
664.705634
948.507786
1015.830636
1015.830636
1015.830636
1015.830636
1015.830636
973.414779
565.784574
320.160985
125.815868
54.432750
16.356707
8.054972
6.272793
5.990863
6.070733
5.640984
5.771518
5.560517
6.017685
6.513000
8.414984
10.203719
15.113950
##ZVALUE=375
0.415444
0.496507
0.562668
0.653863
0.600815
0.723600
0.512600
0.526905
0.651479
0.433922
0.524521
0.594854
0.612736
0.648499
0.582933
0.602603
0.693798
0.720620
0.684857
0.780821
0.550747
0.611544
0.606775
0.687838
0.568628
0.562668
0.619888
0.598431
0.652671
0.498891
0.730753
0.528693
0.693798
0.875592
0.853539
0.675917
0.706911
0.774860
0.748634
0.748634
0.847578
0.750422
0.805855
0.762939
0.623465
0.698566
0.954866
0.863671
0.849962
0.899434
0.899434
0.946522
0.985861
1.031756
1.137853
1.144409
1.119971
1.100898
1.158714
1.222491
1.303554
1.314878
1.298785
1.480579
1.552701
1.589656
1.929998
2.237558
2.708435
10.709763
39.351583
134.119987
267.681479
553.027987
827.063918
1015.830636
1015.830636
1015.830636
1015.830636
1015.830636
1000.579596
657.207966
427.960753
214.019418
105.529428
31.270981
11.278987
5.890727
5.750656
5.557537
5.262494
5.384684
5.261898
5.130768
5.398989
5.749464
##ZVALUE=380
0.571609
0.546575
0.464916
0.513792
0.576973
0.619888
0.552535
0.542998
0.567436
0.507832
0.519753
0.477433
0.445843
0.503659
0.501871
0.592470
0.617504
0.550747
0.354648
0.539422
0.575781
0.601411
0.573993
0.570416
0.563860
0.636578
0.574589
0.713468
0.662804
0.507832
0.641942
0.711679
0.722408
0.549555
0.767708
0.716448
0.811815
0.732541
0.756979
0.584722
0.698566
0.770688
0.773668
0.773668
0.749826
0.838637
0.746846
0.898838
0.931621
0.939965
0.723600
1.000762
0.743866
0.783801
0.773668
0.814795
0.857711
0.887513
0.834465
1.018643
0.950694
1.202822
1.050830
1.087785
1.357794
1.411438
1.496673
1.888871
1.988411
2.119541
2.597570
5.108714
20.523667
95.694661
209.136605
458.135605
701.483488
1009.995937
1015.830636
1015.830636
1015.830636
1015.830636
1015.830636
803.343654
554.126501
280.730724
143.942833
47.031641
17.205477
6.611943
5.250573
5.090833
4.984736
4.877448
4.680753
4.636645
##ZVALUE=385
0.447631
0.572801
0.293851
0.462532
0.568628
0.480413
0.524521
0.384450
0.483990
0.525713
0.414848
0.527501
0.569820
0.508428
0.460744
0.503659
0.442863
0.505447
0.545979
0.476837
0.592470
0.603795
0.505447
0.715852
0.484586
0.581741
0.693798
0.567436
0.557899
0.482798
0.504851
0.575781
0.586510
0.639558
0.758767
0.767708
0.621676
0.596642
0.649691
0.673532
0.843406
0.593662
0.750422
0.631809
0.699759
0.462532
0.677705
0.867844
0.781417
0.871420
0.827909
0.742674
0.820756
0.816584
0.952482
0.692606
0.800490
0.929832
0.921488
0.855923
1.035929
0.984669
1.018643
0.999570
1.173615
1.126528
1.180768
1.525879
1.676679
1.815557
1.939535
2.195835
2.331734
2.965927
9.400845
54.566860
137.276649
329.684615
549.947619
917.007923
1015.830636
1015.830636
1015.830636
1015.830636
1015.830636
942.261815
689.284801
384.734869
219.281912
87.449551
32.618642
8.202791
5.455613
4.570484
4.667640
4.518628
##ZVALUE=390
0.367761
0.500679
0.413656
0.435710
0.272989
0.549555
0.443459
0.438690
0.609756
0.649691
0.477433
0.612736
0.663996
0.450611
0.470877
0.478625
0.495911
0.546575
0.430942
0.644922
0.602603
0.524521
0.621676
0.455976
0.714660
0.467896
0.553727
0.562668
0.573993
0.684857
0.563860
0.604987
0.736713
0.726581
0.733733
0.631809
0.559688
0.583529
0.669956
0.669956
0.775456
0.751615
0.682473
0.595450
0.689626
0.714660
0.749826
0.645518
0.663996
0.774860
0.718832
0.853539
0.795722
0.765920
0.750422
0.825524
0.819564
0.813603
0.797510
0.950694
0.844598
0.967979
1.124740
0.892878
1.051426
1.115799
1.266599
1.381636
1.573563
1.735687
1.830459
1.973510
1.731515
2.067685
2.168417
2.294779
4.362464
28.667450
85.069537
244.485736
441.734791
785.022974
1008.833647
1015.830636
1015.830636
1015.830636
1015.830636
1015.830636
832.481980
514.790416
301.581621
122.027993
52.539706
13.049841
5.954504
4.707575
##ZVALUE=395
0.495911
0.428557
0.479817
0.332594
0.586510
0.337958
0.416636
0.347495
0.465512
0.471473
0.486970
0.563860
0.609756
0.422597
0.702739
0.609756
0.616908
0.677705
0.546575
0.621676
0.440478
0.588894
0.449419
0.494719
0.601411
0.525713
0.584722
0.433922
0.662804
0.518560
0.593662
0.778437
0.557899
0.787973
0.501871
0.744462
0.546575
0.735521
0.658631
0.692606
0.712872
0.795722
0.706911
0.749826
0.682473
0.689626
0.788569
0.835657
0.713468
0.739694
0.772476
0.687838
0.716448
0.748634
0.789762
0.737906
0.848770
0.612736
0.794530
0.705719
0.881553
0.837445
0.934601
0.997782
1.101494
1.111627
1.061559
1.321435
1.299977
1.535416
1.667738
1.621842
1.592636
1.734495
1.736879
1.779795
1.936555
2.041459
2.802610
15.241504
52.381754
167.843699
308.503509
571.697950
823.016763
1015.830636
1015.830636
1015.830636
1015.830636
1015.830636
960.450768
604.778528
377.104878
166.322589
77.470541
22.957921
##ZVALUE=400
0.379682
0.361800
0.401735
0.300407
0.384450
0.547767
0.516772
0.510812
0.455976
0.552535
0.556707
0.571609
0.484586
0.475645
0.547767
0.436902
0.265837
0.541806
0.526905
0.544786
0.612736
0.481606
0.402927
0.585914
0.558496
0.644922
0.433922
0.480413
0.457764
0.581741
0.521541
0.616908
0.679493
0.531673
0.568628
0.621676
0.633597
0.555515
0.629425
0.592470
0.715852
0.620484
0.665784
0.715852
0.882745
0.790954
0.687838
0.805855
0.823736
0.677705
0.581741
0.883937
0.852942
0.677705
0.810623
0.790954
0.783801
0.747442
0.781417
0.548959
0.758767
0.801682
1.004934
0.958443
1.009703
1.206994
0.967979
1.037717
1.181960
1.430511
1.437664
1.259446
1.409650
1.568794
1.513958
1.468658
1.425743
1.718998
1.813769
1.878738
2.318621
7.514954
28.250813
99.922419
202.838778
429.866910
663.915873
986.524820
1015.830636
1015.830636
1015.830636
1015.830636
989.269614
685.831904
459.735990
231.143832
##END
