##TITLE=FSKZ102
##FORMAT=SPECTACLE-ASCII V-1.2
##DATA TYPE=ULTRAVIOLET SPECTRUM
##SECOND TYPE=ULTRAVIOLET SPECTRUM
##DATE=10/25/17
##TIME=10:53:19
##SPECTROMETER/DATA SYSTEM=SPECTACLE
##XUNITS=NM EM
##YUNITS=ENERGY
##YFACTOR=1
##FIRSTX=220
##LASTX=410
##NPOINTS=96
##3DDATA=Equidistant
##ZUNITS=NM EX
##FIRSTZ=210
##LASTZ=400
##ZPOINTS=39
##XYDATA=(Y..Y)
##ZVALUE=210
7.058978
6.087422
5.899668
5.561709
6.118417
5.170703
6.018877
7.871985
5.154610
6.269813
6.649494
5.072951
5.556941
6.180406
5.191565
6.320477
6.509423
6.370544
7.848740
7.278919
7.299781
7.224679
8.508563
9.425879
9.352565
8.660555
8.551478
9.377599
9.937882
10.331869
11.209846
10.747910
10.790825
11.404753
10.732412
11.595488
11.537671
11.130571
10.559559
10.530949
10.761619
12.779832
12.555718
11.760592
11.139512
11.797547
11.862516
11.628866
13.091564
12.351871
12.261868
12.009740
12.496710
13.189912
11.952519
13.463497
12.236834
11.918545
12.338758
12.871623
13.890862
13.102889
12.500882
12.408495
12.138486
13.485551
13.602972
15.146732
18.006563
20.815730
23.613572
28.235912
32.255650
33.495426
38.388968
39.021969
40.344000
37.669539
36.165714
32.565594
27.041435
25.308728
20.667911
18.572807
16.378760
15.225410
13.283491
12.753606
10.608435
10.692477
11.199713
11.721849
11.462569
12.606978
12.685657
12.973547
##ZVALUE=215
35.374761
33.572912
25.920868
17.298460
12.869835
9.676814
9.451509
9.519458
9.796619
9.567738
10.383725
8.871555
8.635521
8.240938
6.073713
6.528497
6.893873
7.173419
8.115768
7.393956
7.236600
7.992983
8.709431
9.461641
9.646416
9.279847
9.985566
10.255575
12.102723
11.932850
11.546612
12.610555
13.802648
13.623834
11.592507
14.188886
13.031960
13.264418
12.711883
13.185740
13.442636
13.330579
13.796687
12.325644
13.964772
12.109876
13.173819
12.633801
14.364719
13.346672
13.457537
12.761950
12.445450
12.508631
14.006495
12.813807
13.845563
13.833642
14.395714
14.905930
12.535453
14.081597
12.485981
12.806654
13.007522
14.350414
14.091730
16.061664
18.134713
19.855499
23.823977
26.175976
27.914643
33.316612
34.163594
34.138560
35.567880
35.180449
34.296513
28.553605
27.006865
23.328662
20.105839
17.231703
15.493631
14.024973
12.926459
11.744499
11.151433
12.254715
10.917783
10.287762
9.784698
10.435581
11.397600
10.495782
##ZVALUE=220
137.158632
134.240985
134.165883
115.147829
79.903603
55.955648
31.696558
22.236705
19.012690
18.916726
18.690825
19.846559
19.244552
17.514825
14.878511
12.973547
11.294484
9.627938
9.558797
9.203553
9.043813
9.242892
9.906888
9.475946
11.471510
10.762811
12.110472
12.799501
12.325644
13.460517
13.983846
14.891624
14.997721
15.479922
15.729666
15.109777
15.501976
16.248822
16.171932
16.522408
15.044808
14.154911
14.827847
15.983582
15.375614
15.037656
16.596913
15.474558
15.167594
15.950799
16.188622
15.962720
15.901923
15.764832
15.923977
16.158819
15.389919
16.740561
15.891790
15.783906
17.211437
16.540885
15.516877
15.732646
16.601682
16.189814
17.281771
18.837452
21.142960
23.030639
26.685596
29.422641
31.321645
33.661723
36.510825
37.501454
35.925508
36.343932
35.353899
33.745766
30.899644
27.225614
24.429560
20.284653
17.956495
16.588569
14.798641
14.115572
13.963580
13.437867
13.160706
13.753772
12.923479
13.340712
12.974739
12.649894
##ZVALUE=225
237.135887
243.607759
297.504663
349.078774
336.940885
289.792418
226.473808
133.245587
82.727671
55.169463
35.381913
32.661557
33.703446
34.651756
33.744574
30.917525
28.283000
24.729967
18.029809
14.180541
11.853576
11.277795
12.039542
10.210872
11.148453
10.886788
12.409687
12.997985
13.621449
13.802648
13.736486
14.914870
16.076565
15.748739
15.525818
17.360449
17.261505
17.061830
17.526746
17.779469
16.817451
17.252564
17.929673
15.980601
17.609596
17.747879
17.203689
18.350482
17.830729
19.406676
20.233989
19.106865
19.337535
19.480586
20.718575
21.576881
19.526482
20.486712
21.213889
20.679832
19.395947
19.203424
20.457506
20.545721
18.851757
21.715760
21.433830
22.694468
25.447607
24.742484
29.048920
32.736659
33.606887
35.289526
38.002729
37.781596
37.309527
35.372972
34.892559
30.335784
29.820800
27.649999
23.548603
23.383498
21.203756
20.151734
19.970536
17.441511
17.366409
16.569495
18.057823
15.694499
15.527606
15.931726
15.558600
15.822649
##ZVALUE=230
215.201974
236.814618
366.962552
562.085509
686.805844
757.263899
748.482943
623.426437
482.516885
347.463489
177.048445
107.686520
67.266822
53.818822
53.377748
55.365562
58.532953
55.410862
49.753785
42.220950
34.702420
23.407936
19.423962
14.280677
12.648702
12.861490
12.784600
11.856556
14.233589
13.092756
13.510585
14.119744
14.583468
15.134811
15.980601
16.381741
14.989972
15.977621
16.813874
19.525886
17.796755
18.096566
20.000935
19.785762
20.959973
20.578504
20.366907
21.249652
21.706820
22.656918
22.813678
23.909807
24.751425
26.049614
26.076436
25.047660
26.019812
26.093721
26.801825
28.412938
27.035475
26.488900
26.976466
27.915835
27.483702
28.198957
29.682517
29.363632
31.257868
33.108592
35.568476
38.166642
37.419796
42.858720
43.859482
43.354630
42.394996
40.641427
38.055778
38.332939
35.056472
31.525493
31.005740
27.843714
27.281642
26.766658
24.764538
23.566484
24.179816
22.610426
21.267533
21.704435
20.433664
20.962954
20.903945
19.945502
##ZVALUE=235
86.231828
102.003813
208.995938
458.901525
688.887835
988.171697
1015.830636
1015.830636
1015.830636
1015.830636
876.334906
605.126023
319.922566
192.782879
120.223761
89.954734
82.573891
82.993507
92.170835
92.097521
84.350705
71.797967
59.765577
41.491985
32.504797
23.504496
17.504692
13.896823
14.195442
13.749599
13.146996
14.858842
14.717579
14.560819
14.400482
16.503930
15.215874
16.692877
16.926527
17.736554
19.359589
19.650459
21.614432
22.069812
23.670793
25.031567
26.938915
29.180646
28.802752
31.421781
31.774640
32.917857
32.930970
35.361648
33.597946
36.509633
35.246611
32.920837
36.081672
35.838485
37.473440
37.123561
35.760999
38.749576
38.912892
37.712455
38.359761
39.897561
40.230751
41.520000
44.831634
47.594905
50.283670
48.014522
51.569939
52.099824
51.073432
46.596527
45.653582
45.913458
41.699409
39.078593
37.169456
36.344528
35.847425
33.385754
31.827688
30.311942
30.659437
29.478669
28.712749
27.497411
27.586818
26.640892
24.584532
24.288893
##ZVALUE=240
5.020499
6.321669
38.124919
116.378665
334.295630
586.657524
996.912718
1015.830636
1015.830636
1015.830636
1015.830636
1015.830636
1015.830636
873.418450
573.387742
288.281441
180.537701
123.056769
101.451874
105.115771
118.220448
123.638511
116.418004
106.506944
93.468428
72.269440
50.195456
40.877461
27.640462
20.394921
16.968846
15.025735
16.301870
15.041828
14.531612
15.716553
16.500950
17.407537
16.670823
18.402934
19.183755
20.960569
22.651553
26.048422
28.648973
31.703711
32.503605
33.647418
36.406517
38.660765
41.210651
43.735504
42.377710
44.295788
45.583844
45.515895
44.827461
48.870444
44.879913
45.681596
45.813918
45.182705
44.123530
44.067502
47.201514
49.232841
46.511889
47.402978
49.433708
51.351786
54.298639
54.923892
55.911541
55.509806
57.255626
56.852698
56.996942
54.367781
54.075718
49.973726
47.799945
44.311881
44.404864
39.570928
40.348768
38.714409
38.433671
34.254789
35.384893
33.773780
34.277439
34.256577
32.964945
31.866431
30.963421
31.248927
##ZVALUE=245
3.732443
4.255772
4.125834
4.903674
23.375750
87.376833
307.444334
598.901510
1015.836596
1015.836596
1015.836596
1015.836596
1015.836596
1015.836596
1015.836596
1015.836596
841.839910
461.685658
274.658799
152.539611
112.831593
105.036497
118.113756
129.960775
134.700537
129.200816
117.016435
101.696849
77.512860
60.367584
45.417547
30.563474
21.857619
17.713904
16.291738
16.208887
16.555786
15.941858
16.667843
18.806458
22.081733
22.664666
25.804639
28.794408
30.659437
34.679770
35.484433
39.382577
39.165616
43.104887
42.800903
46.491623
47.942996
46.880841
49.035549
50.392747
48.857927
47.518611
51.077604
48.378706
46.919584
46.666861
49.000978
46.932697
47.576427
46.611428
46.260953
48.409700
47.964454
49.198866
47.984719
51.220655
52.446723
51.374435
52.245855
52.544475
50.956607
49.430728
48.118830
45.778751
41.073561
39.872527
38.606524
36.956668
35.897493
35.171509
33.712983
33.660531
34.367442
33.510923
30.935407
31.607747
28.691888
28.159618
28.897524
27.687550
##ZVALUE=250
2.648830
3.088713
3.415942
3.736615
4.120469
5.249977
8.713603
63.164830
212.232471
475.748777
996.672511
1015.830636
1015.830636
1015.830636
1015.830636
1015.830636
1015.830636
1015.830636
1015.929580
670.608878
381.865501
193.702579
128.570795
99.369884
108.050704
126.548409
138.594508
139.804482
137.086511
124.634504
109.624863
81.893802
64.252615
41.137934
31.584501
22.036433
18.376708
16.797781
18.423796
19.788742
20.942688
23.055673
25.415421
28.941631
31.083822
35.663843
36.258698
38.707852
42.278767
44.294596
45.044422
48.021674
46.877861
49.013495
48.899651
49.275756
50.206780
47.614574
46.660900
46.656728
47.380924
46.319962
44.830441
42.658448
42.092800
43.780804
42.576790
42.049885
40.814877
41.770935
42.721629
41.418672
43.988824
43.032765
42.777658
40.572882
40.903687
39.210916
39.270520
37.161708
37.210584
31.997561
31.576753
30.848980
31.575561
29.026866
30.118823
28.387904
27.673841
27.645826
26.988983
25.351644
26.742816
25.645494
25.810599
26.300550
##ZVALUE=255
2.843738
3.138781
2.945662
3.519654
3.633499
4.036427
4.106760
4.582405
6.743670
23.936033
179.653764
447.537899
854.751468
1015.830636
1015.830636
1015.830636
1015.830636
1015.830636
1015.830636
1015.830636
1015.830636
951.135755
479.074717
275.757909
143.077970
102.586746
97.063780
108.781457
127.294660
140.865445
150.985718
147.174597
134.834647
109.700561
88.662505
61.314702
44.511557
30.158758
25.376678
21.536946
22.154450
23.695827
24.414659
28.588772
29.452443
32.311678
33.475757
36.964417
37.875772
40.594935
41.599870
41.408539
42.316914
44.170618
43.620467
43.307543
42.319894
42.105913
41.991472
42.549968
42.931437
41.308999
38.586855
38.149953
36.859512
35.571456
34.779906
34.020543
34.559965
34.794807
34.952760
36.266446
35.940409
35.080910
35.899878
35.890937
35.695434
34.074783
31.014681
30.396581
29.683709
29.970407
27.340651
26.644468
25.370717
25.195479
24.355650
24.590492
24.699569
24.534464
24.137497
22.594929
22.587776
21.922588
22.005439
22.546649
##ZVALUE=260
2.742410
3.133416
2.642870
2.990961
3.108978
3.425479
3.533959
4.004836
3.893971
4.531741
5.953908
9.417534
87.198615
271.051526
712.600946
1015.830636
1015.830636
1015.830636
1015.830636
1015.830636
1015.830636
1015.830636
1015.830636
1015.830636
697.871447
353.533626
217.305422
119.125843
88.775754
87.972879
105.627775
134.253502
149.494410
155.474544
149.027705
134.774446
118.335485
89.553595
69.673657
48.453808
38.109422
29.985905
27.392507
26.076436
27.436614
29.214621
31.489730
32.503605
33.490658
35.391450
35.820603
36.485791
36.474466
38.053989
37.383437
36.423802
35.999417
35.661459
34.587979
34.244657
34.591556
31.701922
30.848980
31.250715
31.448603
31.078458
29.799938
29.682517
29.668808
29.077530
29.496551
31.542778
30.593872
31.040907
31.057000
30.261874
30.255914
27.884841
29.406548
25.934577
26.180744
24.010539
24.764538
23.583770
22.155643
22.176504
21.241903
21.654963
21.515489
20.040870
21.438599
19.992590
21.013618
20.378828
20.204782
20.486712
##ZVALUE=265
2.588630
2.624989
2.294779
2.394915
2.921820
2.951622
3.002882
3.298521
3.986955
4.037619
4.211664
4.839897
5.206466
6.668568
26.670694
203.203559
502.206683
1015.830636
1015.830636
1015.830636
1015.830636
1015.830636
1015.830636
1015.830636
1015.830636
1015.830636
899.761915
543.226600
273.700953
158.320665
103.828907
77.137947
88.357925
116.122961
137.943625
155.520439
158.178806
154.776573
137.839913
114.783645
96.412897
69.897771
54.423809
39.878488
33.045411
28.256774
28.244853
28.576851
30.075908
30.190945
31.014681
31.337738
30.851960
31.092763
31.579733
30.683875
31.065941
29.990673
29.762983
29.087663
28.613806
28.344989
27.033687
26.397705
26.887655
25.893450
25.350451
26.166439
25.885701
26.118755
26.775599
28.068423
28.478503
26.926994
26.298761
26.598573
27.249455
25.949478
24.343729
22.804737
22.078753
23.032427
20.778775
21.297932
20.592809
20.844936
19.907951
20.052791
19.234419
19.368529
18.637776
19.080639
18.865466
18.356442
18.398762
18.592477
##ZVALUE=270
2.370477
2.206564
2.334714
2.712607
2.739429
2.875924
3.181696
3.136992
3.105998
3.275871
3.692508
3.767610
4.240870
4.123449
5.289912
6.312728
10.316968
86.670518
289.639831
868.009925
1015.830636
1015.830636
1015.830636
1015.830636
1015.830636
1015.830636
1015.830636
1015.830636
1015.830636
767.432451
464.819670
230.943561
129.534602
73.781610
69.558620
92.681646
114.030838
141.273737
155.087709
164.146423
162.485838
143.984556
126.785636
98.165870
76.162815
54.271817
43.005943
34.957528
30.816793
29.043555
29.813647
28.532743
28.965473
28.688908
27.764440
28.120875
26.963949
26.884675
26.378632
26.140809
26.069880
25.091767
26.063919
25.201440
24.333000
23.831725
23.798943
24.310946
25.111437
25.366545
25.005937
25.842786
25.887489
26.214719
26.308894
25.585890
25.954843
24.344921
23.762584
22.917986
22.937655
21.377802
21.895766
20.907521
21.259785
19.515753
19.413829
19.550920
18.708706
18.819571
19.086599
18.703938
18.657446
18.586516
17.304420
17.407537
##ZVALUE=275
2.163649
2.137423
2.124906
2.435446
2.342463
2.463460
2.641678
2.555847
2.932549
3.024936
3.172755
3.255606
3.155470
3.845692
4.087687
4.432797
5.382895
5.613565
6.861687
37.782788
175.129771
479.311943
1015.831828
1015.831828
1015.831828
1015.831828
1015.831828
1015.831828
1015.831828
1015.831828
1015.831828
997.760892
572.291613
334.944725
157.988667
88.594556
57.872534
66.059828
91.661811
112.714767
140.997767
157.316923
163.642764
161.928535
143.791437
124.297738
98.360777
79.175830
57.991743
44.382811
34.557581
30.036569
27.219653
26.881695
26.806593
26.676655
25.446415
25.600791
26.088953
25.254488
24.146438
24.239421
23.939610
24.198890
24.380684
23.916960
23.597479
24.475455
24.214983
24.990439
25.900602
26.047826
25.651455
26.063919
26.829839
25.861859
25.185943
25.145411
23.057461
23.280978
21.996498
21.369457
21.095872
21.105409
19.826889
19.695759
19.561648
19.140840
19.529462
18.686652
18.116832
17.796755
17.851591
17.434955
17.773509
16.946793
##ZVALUE=280
2.032518
1.963973
2.106428
1.928806
2.376437
2.238750
2.271533
2.261996
2.377629
2.616644
2.751946
2.861619
2.694726
3.186464
3.292561
3.824830
3.680587
4.467964
5.163550
5.474687
6.756783
12.261868
128.965974
404.984951
855.571628
1015.830636
1015.830636
1015.830636
1015.830636
1015.830636
1015.830636
1015.830636
1015.830636
1015.830636
753.365755
389.117002
225.459933
100.059509
60.442686
51.457882
63.293576
90.355873
112.578869
139.491558
156.314969
161.420703
157.080889
140.822530
121.510625
96.475482
75.450540
55.782795
41.277409
31.778812
27.738810
25.141835
23.764968
23.952723
23.289919
23.779869
23.234487
22.768974
23.179650
22.962689
23.732781
23.492575
23.290515
23.463964
24.007559
23.914576
24.588704
25.168657
25.070906
25.026798
25.191903
24.470687
24.235845
23.895502
22.965670
22.018552
21.576881
20.800829
20.427704
19.851923
19.537807
18.696785
19.411445
18.762946
18.435717
18.739700
18.338561
17.669797
17.773509
17.098784
17.200708
17.419457
##ZVALUE=285
2.051592
2.021790
1.821518
1.951456
2.030730
2.093911
1.973510
2.267957
2.240539
2.216697
2.434850
2.452731
2.379417
2.715588
2.976656
3.267527
3.295541
3.441572
3.970861
4.148483
4.774928
5.423427
5.869865
7.206798
27.395487
208.060741
536.207557
1015.830636
1015.830636
1015.830636
1015.830636
1015.830636
1015.830636
1015.830636
1015.830636
1015.830636
964.812636
526.375771
312.196612
147.359967
77.934861
44.166446
43.014884
60.723424
80.207586
111.653805
129.209757
147.658587
155.676603
152.235627
140.471458
117.167830
97.815990
71.024895
55.240989
37.940741
30.232668
24.216771
22.784472
21.203756
20.775795
20.288825
20.631552
20.114779
20.838976
20.802617
21.031499
20.898581
21.590590
22.122860
23.082495
23.004413
22.708774
23.189783
23.249984
21.446943
22.741556
21.511912
21.346807
20.132661
20.963550
19.503832
19.700527
19.395947
18.795729
18.642545
18.359423
17.670989
17.603636
17.570853
17.499924
17.613769
16.320944
17.131567
16.555786
16.219616
##ZVALUE=290
1.681447
1.842976
1.896620
1.741648
1.798868
1.741648
1.864433
1.934767
2.099872
2.058744
2.097487
2.257824
2.392530
2.488494
2.537966
2.637506
2.784729
3.275871
3.134608
3.235936
3.681779
4.273653
4.597902
4.951954
5.900860
6.457567
13.352633
68.622828
342.521071
749.920011
1015.830636
1015.830636
1015.830636
1015.830636
1015.830636
1015.830636
1015.830636
1015.830636
1015.830636
702.764988
430.452824
207.034945
110.092759
46.958923
33.102632
40.919781
54.974556
77.855587
96.973777
124.494433
139.759779
148.953795
144.765973
133.315921
115.104914
89.193583
68.689585
48.127770
35.664439
25.359988
20.859838
18.295646
17.889738
17.848611
17.903447
18.136501
18.074512
17.757416
18.787980
18.878579
19.821525
20.157695
20.517707
19.866824
19.759536
20.366907
19.183755
19.043684
19.138455
18.174648
18.084645
18.484592
17.673969
18.176436
17.858744
17.715693
17.279983
17.084479
16.844869
16.083717
17.105937
16.862750
16.147494
15.841722
16.264915
16.070604
##ZVALUE=295
1.671910
1.671910
1.675487
1.626611
1.730919
1.810789
1.721978
1.784563
1.689792
1.818538
1.804829
2.089739
2.050996
2.076626
2.232790
2.185702
2.480745
2.388954
2.663732
2.763867
3.122687
3.365874
3.982782
3.733635
4.004836
4.814863
5.166531
6.179810
6.906986
29.367805
136.879683
535.431504
975.188613
1015.830636
1015.830636
1015.830636
1015.830636
1015.830636
1015.830636
1015.830636
1015.830636
874.924660
554.715991
280.960798
151.217580
58.158636
32.543540
26.300550
33.228993
51.747561
68.246722
93.645453
112.870932
133.935809
138.417482
135.409832
126.196742
105.717778
86.864829
61.756968
47.256947
31.997561
23.883581
17.833710
16.374588
15.016794
14.842749
15.367866
15.377998
16.348958
16.258955
17.064810
17.286539
17.283559
17.190576
17.855763
17.355680
16.573668
16.964674
17.266870
16.543865
16.508698
16.301870
16.702414
16.307831
16.616583
16.934872
16.463995
16.388893
16.267896
15.898943
15.652776
15.419722
15.815496
15.544891
15.259981
##ZVALUE=300
1.498461
1.344681
1.612902
1.431704
1.443624
1.561642
1.553893
1.840591
1.746416
1.916885
1.715422
1.964569
2.072453
2.002716
2.038479
2.174973
2.052784
2.218485
2.462864
2.537966
2.932549
2.810955
2.902746
3.078580
3.375411
3.759861
3.822446
4.302859
4.876852
5.481839
6.049871
8.536577
70.431828
256.099701
751.496553
1015.831828
1015.831828
1015.831828
1015.831828
1015.831828
1015.831828
1015.831828
1015.831828
1015.831828
672.175884
415.605903
201.169848
107.889771
43.436885
23.864508
22.602677
29.139519
46.013594
61.061978
84.920526
103.574991
123.142600
130.332708
130.152702
121.405721
102.463961
84.836483
62.012672
47.155619
30.348897
22.874475
17.097592
15.284419
14.224648
14.024973
14.859438
14.977455
15.839934
15.930533
16.402602
16.192794
15.497804
15.504956
15.887618
15.657544
15.391707
16.211867
15.918612
15.675426
16.352534
15.975833
16.276836
15.817881
16.695857
16.022921
16.478896
15.919805
15.958548
15.389919
15.168786
15.607476
##ZVALUE=305
1.439452
1.377463
1.382828
1.487732
1.524687
1.265407
1.286864
1.617670
1.565814
1.580715
1.741648
1.690984
1.948476
1.744628
1.607537
2.018809
2.031922
2.161860
2.075434
2.209544
2.277493
2.254844
2.530813
2.767444
2.775788
2.954602
2.962947
3.394485
3.782511
3.859997
4.287958
4.842877
5.753636
6.601810
20.918846
173.686743
443.056822
992.774963
1015.830636
1015.830636
1015.830636
1015.830636
1015.830636
1015.830636
1015.830636
1015.830636
874.942541
504.336953
300.608873
135.923624
66.908598
25.979877
17.517805
20.576715
27.907491
43.294430
59.035420
81.100464
98.469853
116.695762
123.101473
123.272538
114.488602
97.135901
80.851912
60.080886
44.606924
30.066967
22.673607
17.729998
15.695691
15.481710
15.331507
15.429854
15.391707
16.011000
15.235543
14.812946
15.260577
16.176701
15.421510
15.786886
16.172528
16.310811
16.461611
16.453862
16.030669
16.054511
16.297698
16.040802
16.262531
16.509891
15.801787
15.951991
15.576482
15.836954
##ZVALUE=310
1.409650
1.373887
1.469851
1.238585
1.470447
1.459718
1.491904
1.371503
1.428723
1.507998
1.538992
1.561642
1.819730
1.565814
1.700521
1.764894
1.752973
1.765490
1.940727
1.874566
2.072453
2.044439
2.219677
2.366900
2.468824
2.518892
2.628565
2.816916
2.903938
3.116727
3.505945
3.452897
4.029870
4.219413
4.492998
5.496740
8.068681
69.374442
232.698917
673.971772
1015.837789
1015.837789
1015.837789
1015.837789
1015.837789
1015.837789
1015.837789
1015.837789
1015.837789
687.415600
431.489944
209.028721
109.182000
41.194558
19.989610
15.544891
17.809868
25.960803
35.890937
53.275824
68.743825
91.304779
104.715824
116.315484
117.172599
108.768940
95.975995
76.678991
61.250925
42.532682
32.207966
23.970604
19.643903
16.047955
15.303493
15.247464
15.433431
15.204549
15.412569
15.504956
15.440583
15.368462
15.604496
16.318560
16.588569
16.809702
16.467571
16.835928
16.393661
16.332865
16.654730
16.287565
16.344786
16.741753
16.186833
16.281605
##ZVALUE=315
1.136661
1.306534
1.113415
1.086593
1.245737
1.346469
1.319647
1.291633
1.314878
1.346469
1.468658
1.685619
1.547933
1.472831
1.488924
1.708865
1.645684
1.660585
1.619458
1.711845
1.897812
2.002716
1.980662
2.139807
2.155900
2.278686
2.534986
2.306700
2.623796
2.619624
2.704859
2.964735
3.264546
3.413558
3.557801
4.231930
4.453659
5.035996
6.046891
26.274920
118.266940
432.465672
848.041773
1015.851498
1015.851498
1015.851498
1015.851498
1015.851498
1015.851498
1015.851498
1015.851498
861.743093
570.577979
290.408731
155.962706
58.036447
26.926994
14.249682
13.587475
17.264485
22.893548
34.915805
47.476888
67.088604
82.328916
101.020932
109.023452
110.333562
105.884671
92.040896
77.312589
58.086514
45.182705
31.159520
24.561882
18.660426
16.740561
15.810728
15.328526
15.637875
15.897751
15.352964
16.052723
16.105771
16.516447
16.234517
16.698837
16.434789
16.827583
16.920567
16.051531
16.475916
16.172528
16.257763
15.592575
16.034842
##ZVALUE=320
1.105666
1.029968
1.176000
1.112819
1.143813
1.181960
1.246929
1.353621
1.190901
1.337528
1.179576
1.336932
1.354814
1.525879
1.380444
1.478791
1.596808
1.696944
1.574755
1.574755
1.575947
1.618862
1.677871
1.909733
2.044439
2.138615
1.938939
2.131462
2.030730
2.120733
2.311468
2.464652
2.619624
2.790689
2.810955
2.953410
3.231764
3.549457
3.920794
4.511476
4.988909
9.777546
49.088597
256.032944
577.508807
1015.830636
1015.830636
1015.830636
1015.830636
1015.830636
1015.830636
1015.830636
1015.830636
1010.049582
718.909502
374.230742
209.913850
86.880922
39.825439
15.534759
12.471676
13.177991
15.319586
21.467805
29.536486
44.954419
59.471726
79.925656
92.056990
103.928447
107.336640
100.610852
90.192556
72.765946
57.189465
41.561723
31.446815
23.335814
19.644499
16.330481
16.204715
15.534759
15.840530
16.146898
15.647411
15.812516
16.311407
16.034842
16.374588
16.244650
16.026497
16.062856
16.165972
15.972853
16.174912
15.734434
##ZVALUE=325
1.047850
1.081824
1.186728
1.123548
1.133680
1.019835
1.160502
1.113415
1.249909
1.164675
1.341701
1.286864
1.298785
1.264811
1.156926
1.453757
1.402497
1.396537
1.647472
1.551509
1.547933
1.575947
1.671910
1.699924
1.496673
1.690984
1.755953
1.777411
1.918674
1.946688
2.160668
2.183914
2.100468
2.408624
2.475977
2.627969
2.969503
2.767444
2.931952
3.309846
3.695488
3.970861
4.524589
6.011724
22.259951
164.621472
396.107435
898.201466
1015.831828
1015.831828
1015.831828
1015.831828
1015.831828
1015.831828
1015.831828
1015.831828
837.963820
478.890538
280.163884
122.138858
58.743954
20.700693
12.434721
11.685491
12.007952
15.586615
20.021796
29.829741
42.291880
61.543584
75.514913
90.159774
98.555684
101.127625
95.348954
81.993937
69.988966
53.273439
41.194558
29.112697
22.980571
18.759966
17.313957
16.375780
15.837550
15.996695
15.635490
15.332699
15.685558
15.549660
15.545487
15.613437
15.659928
15.858412
15.504956
15.338659
##ZVALUE=330
1.071692
1.139641
1.077652
1.076460
1.106858
1.198649
1.194477
0.997782
1.179576
1.159906
1.185536
1.130700
1.231432
1.103878
1.043677
1.077652
1.228452
1.321435
1.338720
1.472831
1.411438
1.330972
1.372695
1.462698
1.535416
1.619458
1.641512
1.516938
1.792908
1.721978
1.860857
2.024770
2.016425
1.875758
2.066493
2.237558
2.246499
2.586842
2.521873
2.576709
2.823472
3.009439
3.240705
3.828406
4.083514
5.006790
9.070635
73.797703
226.538777
626.675487
1005.349755
1015.830636
1015.830636
1015.830636
1015.830636
1015.830636
1015.830636
1015.830636
974.431634
583.717823
360.147953
165.004730
82.998872
32.066703
15.824437
11.049509
11.286736
12.252927
14.685988
21.155477
29.157996
42.757988
55.075884
73.467493
84.821582
93.612671
94.935894
88.827610
80.383420
64.256787
52.656531
37.255883
30.117631
22.550821
19.424558
16.758442
15.761852
15.450716
15.329719
14.759898
14.849901
14.967918
14.705658
14.702678
14.995933
14.544725
##ZVALUE=335
0.984669
1.018643
1.016855
0.917912
1.084805
1.054406
1.152754
1.132488
0.979900
1.066923
1.071692
1.126528
1.086593
1.111627
1.099706
1.318455
1.141429
1.276731
1.100898
1.220703
1.172423
1.415610
1.522899
1.580715
1.449585
1.579523
1.566410
1.495481
1.519918
1.641512
1.693964
1.742840
1.823902
1.795888
1.787543
1.998544
1.959801
2.215505
2.225637
2.343655
2.211928
2.466440
2.581477
2.863407
3.315806
3.286600
3.853440
4.398823
5.210638
30.121803
121.343732
409.753919
768.780708
1015.830636
1015.830636
1015.830636
1015.830636
1015.830636
1015.830636
1015.830636
1015.830636
726.026893
472.568870
240.699649
124.993920
44.049621
20.045638
12.021661
10.829568
11.567473
12.560487
15.447736
20.234585
29.814839
38.904548
53.383708
65.297484
79.740882
87.496638
88.363886
83.615780
72.370768
61.600804
49.158931
39.618611
29.618740
23.721457
18.400550
16.402602
15.066862
14.808774
14.305711
14.158487
14.222860
14.250875
14.129877
##ZVALUE=340
0.971556
0.936985
0.851750
0.938773
0.997782
1.080632
0.941753
0.999570
0.995994
1.095533
0.965595
0.989437
1.144409
1.005530
1.389980
1.195669
1.074672
1.081824
1.056790
1.038909
1.273751
1.367927
1.288652
1.275539
1.350641
1.416802
1.348853
1.474619
1.551509
1.576543
1.515746
1.478791
1.619458
1.513958
1.774430
1.841784
1.922846
1.737475
1.682639
1.999736
2.079606
1.886487
1.958609
2.471805
2.499819
2.806783
2.927780
3.237724
3.382564
4.059672
4.352927
12.266636
59.874654
266.119838
564.871430
1015.830636
1015.830636
1015.830636
1015.830636
1015.830636
1015.830636
1015.830636
1015.830636
875.762701
590.462685
305.789709
165.304542
61.086416
27.839541
13.087988
11.200905
11.330843
11.298656
12.580752
13.982654
20.139813
26.389956
37.993789
48.664808
64.031482
73.586702
81.813931
82.354546
78.058839
70.458651
58.669448
48.685670
37.527680
29.641986
21.782517
18.344522
15.257597
14.328957
13.666749
13.599992
13.470650
##ZVALUE=345
1.020432
0.910759
0.983477
1.143813
0.994802
1.066923
1.143813
0.900626
1.011491
1.100898
1.044869
0.950694
1.142621
1.141429
1.103878
1.205802
1.083612
1.283884
1.224875
1.217723
1.201630
1.389980
1.348853
1.266599
1.356602
1.270771
1.334548
1.377463
1.493692
1.472831
1.466870
1.418591
1.447797
1.386404
1.623631
1.640916
1.645684
1.662970
1.663566
1.724958
1.744628
1.766682
2.051592
2.095699
2.197623
2.192855
2.386570
2.457500
2.753735
2.795458
3.237724
3.691912
4.062653
5.377531
22.183657
152.070522
366.542935
834.974647
1015.830636
1015.830636
1015.830636
1015.830636
1015.830636
1015.830636
1015.830636
984.100103
703.129768
395.487547
219.325423
86.276531
40.694475
16.083717
11.771917
10.640621
10.200739
10.137558
10.814667
13.195872
17.071962
25.241971
33.557415
47.470927
57.448745
67.955852
73.447824
76.207519
73.542595
66.724420
58.415532
46.337843
37.186742
26.574731
21.637678
16.579628
14.618635
13.443828
##ZVALUE=350
1.085997
1.028776
1.053810
1.111627
1.117587
1.131892
1.198649
1.145601
1.123548
1.116991
1.084805
1.281500
1.384616
1.375675
1.173615
1.414418
1.482964
1.194477
1.389980
1.341701
1.264811
1.288652
1.424551
1.330972
1.406670
1.408458
1.371503
1.513958
1.605749
1.483560
1.706481
1.580715
1.536608
1.655817
1.657605
1.586676
1.601577
1.807809
1.708865
1.888871
1.800656
1.781583
2.110600
1.964569
1.941919
1.996756
2.099872
2.193451
2.364516
2.515912
2.738833
2.933741
2.966523
3.406405
3.950000
4.487634
9.515882
79.039931
228.051543
599.839687
976.089835
1015.910506
1015.910506
1015.910506
1015.910506
1015.910506
1015.910506
1015.911102
854.177475
479.225516
284.837484
127.667785
59.841871
19.614697
11.543632
9.888411
9.428859
9.514689
9.650588
10.535717
12.522936
17.592907
22.529960
31.361580
39.388537
52.003860
59.485435
67.518950
70.060492
67.873597
63.110590
53.062439
44.346452
34.311414
27.412772
20.520687
##ZVALUE=355
1.030564
1.080632
1.042485
0.900626
1.036525
1.158714
1.155734
1.098514
1.095533
1.079440
1.294613
1.229644
1.087785
1.204610
1.105666
1.149774
1.295805
1.215935
1.076460
1.206994
1.265407
1.430511
1.370907
1.333952
1.300573
1.386404
1.452565
1.461506
1.386404
1.394749
1.552701
1.644492
1.490712
1.552701
1.748800
1.611710
1.643896
1.625419
1.863837
1.791716
1.775622
1.840591
1.858473
1.778603
1.810789
1.914501
2.096891
2.354980
2.368689
2.322793
2.473593
2.709627
2.790689
2.808571
3.149509
3.310442
3.639460
4.299879
5.491972
36.316514
131.567717
417.698622
753.614902
1015.830636
1015.830636
1015.830636
1015.830636
1015.830636
1015.830636
1015.830636
947.991610
581.176877
361.637473
158.683658
77.025890
25.560856
13.073683
9.679794
9.055734
9.003878
8.764863
9.029508
10.107756
11.665821
14.281869
20.070672
26.421547
35.903454
44.275522
53.617954
59.403777
63.560605
62.604547
57.708621
51.330924
41.092634
##ZVALUE=360
1.026988
0.994802
0.860691
0.989437
0.914931
0.923872
0.982881
1.022816
1.151562
1.071692
1.069903
1.104474
1.115799
1.070499
0.845790
1.050830
1.049638
0.952482
1.027584
1.193881
1.221895
1.073480
1.318455
1.223683
1.090765
1.277924
1.214743
1.306534
1.167655
1.301765
1.351833
1.385808
1.382828
1.448989
1.544952
1.488924
1.425743
1.507998
1.420975
1.655817
1.450777
1.568794
1.550913
1.738667
1.744628
1.829863
1.858473
1.919866
1.910925
1.994967
2.126694
2.396703
2.061725
2.405643
2.466440
2.503991
2.883673
3.242493
3.928542
4.716516
5.482435
13.463497
59.301853
236.191750
498.197675
989.691019
1015.699506
1015.699506
1015.699506
1015.699506
1015.699506
1015.699506
1015.699506
689.604878
241.497755
202.428699
109.523535
36.963820
17.096996
8.924603
8.231997
8.126497
8.104444
8.042455
8.102655
8.789897
9.700656
12.240410
15.536547
22.043586
28.649569
38.456917
45.440793
53.443909
56.299567
56.973696
##ZVALUE=365
1.065731
1.053810
0.923872
1.139641
1.053810
0.952482
0.925660
0.988841
0.881553
1.109838
1.097918
0.965595
0.881553
1.000762
1.135468
1.261830
1.074672
1.057982
1.042485
1.131892
1.091957
1.281500
1.141429
1.147985
1.159906
1.240969
1.273751
1.256466
1.379848
1.324415
1.273751
1.321435
1.366735
1.535416
1.255870
1.495481
1.508594
1.368523
1.313686
1.519918
1.519918
1.480579
1.579523
1.455545
1.558661
1.661777
1.615882
1.604557
1.650453
1.774430
1.798868
1.845956
1.966953
1.999736
2.093911
2.099872
2.343655
2.664924
2.945662
3.490448
3.778934
4.314780
4.596710
6.086826
22.495985
139.739513
329.346657
735.938549
1015.825868
1015.825868
1015.825868
1015.825868
1015.825868
1015.825868
1015.825868
801.498890
539.867878
289.179683
152.667761
55.083632
23.080707
9.396672
8.027554
7.575750
7.469654
7.534623
7.320642
7.511973
7.585883
8.515716
9.863973
13.594627
17.616749
25.466681
32.211542
40.385723
##ZVALUE=370
0.787973
0.948906
1.028776
0.776649
1.036525
1.166463
0.875592
0.989437
1.119971
1.007915
1.157522
0.970960
1.052618
1.020432
1.004934
0.925660
0.931621
1.193881
1.120567
1.005530
1.181960
1.009703
1.064539
1.028776
1.027584
1.029968
1.190901
1.205802
1.022816
1.210570
1.184940
1.176000
1.069903
1.088977
1.151562
1.191497
1.286864
1.099706
1.214743
1.356602
1.144409
1.331568
1.091957
1.378655
1.292825
1.311898
1.394749
1.348853
1.391768
1.553893
1.454949
1.659989
1.683831
1.647472
1.720786
1.851916
1.764894
1.820922
2.214909
2.395511
2.183914
2.530813
2.886653
3.226995
3.566742
4.370809
9.633899
73.535442
218.954086
584.785938
956.424475
1015.854478
1015.854478
1015.854478
1015.854478
1015.854478
1015.854478
934.813619
652.614832
352.882743
196.896791
76.109767
33.951998
12.054443
7.834435
6.969571
6.837845
6.740689
6.655455
6.742477
6.791949
7.011890
7.495880
9.244680
11.231899
15.739799
##ZVALUE=375
0.970960
0.837445
0.971556
0.968575
0.809431
0.792742
0.774860
0.861883
0.747442
0.815988
0.877976
0.806451
0.939965
0.970960
0.782609
0.760555
1.066923
0.966787
0.920892
1.021624
0.853539
0.872612
1.124740
1.048446
0.937581
0.962615
1.134872
0.879765
1.057982
1.001954
0.912547
1.054406
1.109838
0.964999
1.048446
1.123548
1.149774
1.031756
1.083612
0.949502
1.083612
1.162887
1.148582
1.074672
1.265407
1.121759
1.120567
1.350641
1.355410
1.364946
1.180768
1.344681
1.274943
1.449585
1.414418
1.457930
1.508594
1.560450
1.600981
1.707673
1.967549
1.930594
2.225637
2.306700
2.470613
3.018975
3.118515
3.698468
5.216599
34.836531
126.909614
387.199521
714.847445
1015.833020
1015.833020
1015.833020
1015.833020
1015.833020
1015.833020
1015.833020
814.952850
469.306707
282.078981
122.898817
60.300827
20.361543
9.841919
6.547570
6.443858
6.400943
6.301999
6.335974
5.898476
5.931854
6.038547
6.636977
##ZVALUE=380
0.727773
0.642538
0.715852
0.780821
0.749826
0.768900
0.880957
0.773668
0.864863
0.751615
0.740886
0.789762
0.879765
0.782609
0.725985
0.925660
0.873804
0.945926
0.944734
0.975728
0.780821
0.638962
0.947714
0.858903
0.923872
1.046658
1.037717
0.862479
1.016855
0.917912
0.851750
0.830889
1.039505
0.976920
1.030564
1.041889
0.962615
1.025796
1.018643
1.060963
1.009703
1.080632
0.949502
1.127720
1.153946
1.131892
1.108646
1.134872
1.135468
1.145601
1.222491
1.267791
1.130700
1.361966
1.502633
1.222491
1.385808
1.328588
1.463890
1.584888
1.569986
1.441836
1.638532
1.650453
1.961589
2.134442
2.374649
2.967715
3.228784
3.797412
4.220605
14.946461
71.773529
283.545852
563.513637
1015.830636
1015.830636
1015.830636
1015.830636
1015.830636
1015.830636
1015.830636
930.157900
603.444576
390.746593
184.807777
92.583895
32.409430
13.902783
7.102489
6.068945
6.085634
5.850792
5.527735
5.725622
5.616546
##ZVALUE=385
0.677705
0.785589
0.712872
0.690818
0.686646
0.661612
0.848770
0.910759
0.788569
0.574589
0.748634
0.766516
0.583529
0.808835
0.680685
0.859499
0.762939
0.886917
0.792742
1.000762
0.851750
0.750422
0.891685
0.905991
0.775456
0.890493
0.888705
0.825524
0.933409
0.880957
0.986457
0.950694
0.935793
1.104474
1.016855
0.800490
0.991821
0.950694
0.931621
0.917912
1.139641
0.918508
0.924468
1.058578
1.056790
1.004934
1.092553
1.139641
1.192689
0.974536
0.954866
1.102686
1.249909
1.109838
1.297593
1.208782
1.385808
1.253486
1.302958
1.426935
1.387596
1.397729
1.544952
1.687407
1.635551
1.894832
2.062917
2.220869
2.670884
2.852678
2.791882
3.293753
3.388524
6.274581
33.879876
178.628564
389.569998
815.683603
1015.836000
1015.836000
1015.836000
1015.836000
1015.836000
1015.836000
1015.836000
760.499835
514.879823
267.228484
147.361755
59.390664
24.188757
7.900000
5.655885
5.449653
5.375743
5.367994
##ZVALUE=390
0.675917
0.672936
0.755787
0.614524
0.624657
0.647902
0.725985
0.781417
0.651479
0.684857
0.685453
0.687838
0.581741
0.737906
0.757575
0.778437
0.835657
0.848770
0.837445
0.765920
0.863671
0.859499
0.617504
0.760555
0.717640
0.708699
0.804663
0.908971
0.884533
1.034737
0.958443
1.108646
0.965595
0.950694
0.860691
0.864863
1.046658
0.893474
0.931621
0.977516
1.011491
1.177788
0.970960
1.119971
1.044869
1.012683
0.976920
1.090765
1.085997
1.134872
1.150966
1.257658
1.169443
1.178980
1.212955
1.273751
1.273751
1.337528
1.369715
1.333952
1.174808
1.474619
1.420975
1.424551
1.496673
1.719594
1.848936
2.142787
2.278686
2.505779
2.640486
2.829432
2.757907
3.037453
3.375411
3.947616
14.144778
102.523565
269.119740
655.223727
1004.419923
1015.826464
1015.826464
1015.826464
1015.826464
1015.826464
1015.826464
946.159959
680.381656
391.309857
220.530629
86.669922
38.466454
11.456609
6.117821
5.409718
##ZVALUE=395
0.725985
0.790954
0.622869
0.712872
0.683665
0.671744
0.620484
0.668764
0.665784
0.679493
0.731945
0.705719
0.704527
0.756979
0.611544
0.736713
0.674725
0.886917
0.625849
0.724792
0.710487
0.754595
0.753999
0.820756
0.748634
0.834465
0.949502
0.894666
0.770688
0.798702
0.886917
0.976920
0.983477
0.973940
0.886917
1.112819
1.082420
0.861883
0.922680
1.056790
0.970960
1.052618
1.108646
1.041889
0.941753
0.963807
1.020432
1.024604
1.081824
1.129508
1.063943
1.089573
1.092553
1.072884
1.129508
0.997782
1.326799
1.385808
1.270771
1.312494
1.450777
1.476407
1.482964
1.412630
1.558661
1.650453
1.836419
1.991987
2.148747
2.282858
2.183914
2.485514
2.435446
2.640486
2.473593
2.672672
3.148913
3.352761
6.474853
61.441660
194.813609
517.791510
849.478841
1015.812755
1015.812755
1015.812755
1015.812755
1015.812755
1015.812755
1015.812755
812.974572
471.737981
289.124846
131.301880
61.167479
20.151734
##ZVALUE=400
0.668764
0.784993
0.696778
0.723600
0.714660
0.684857
0.683665
0.418425
0.791550
0.699759
0.692606
0.609756
0.737906
0.851750
0.715852
0.723600
0.614524
0.751615
0.539422
0.925660
0.884533
0.808835
0.836849
0.847578
0.776649
0.904799
0.775456
0.917912
0.850558
0.850558
1.031756
0.988841
0.920892
1.016855
1.044869
1.011491
0.952482
1.131892
1.028776
0.885725
1.113415
1.051426
1.064539
1.037717
0.982881
0.888705
1.070499
1.038909
1.089573
1.032948
0.990629
0.936985
1.045465
1.129508
1.073480
1.167655
1.130700
1.240969
1.250505
1.267791
1.453757
1.311898
1.415610
1.434684
1.599789
1.591444
1.716614
2.002716
2.141595
2.268553
2.163649
2.174973
2.264977
2.018809
2.126694
2.181530
2.172589
2.351999
2.756715
3.089905
3.927946
28.966665
112.013817
341.472626
618.413687
1015.830636
1015.830636
1015.830636
1015.830636
1015.830636
1015.830636
1015.830636
924.945474
597.022772
381.481647
183.126926
##END
