##TITLE=QP00651
##FORMAT=SPECTACLE-ASCII V-1.2
##DATA TYPE=ULTRAVIOLET SPECTRUM
##SECOND TYPE=ULTRAVIOLET SPECTRUM
##DATE=10/24/17
##TIME=17:17:34
##SPECTROMETER/DATA SYSTEM=SPECTACLE
##XUNITS=NM EM
##YUNITS=ENERGY
##YFACTOR=1
##FIRSTX=220
##LASTX=410
##NPOINTS=96
##3DDATA=Equidistant
##ZUNITS=NM EX
##FIRSTZ=210
##LASTZ=400
##ZPOINTS=39
##XYDATA=(Y..Y)
##ZVALUE=210
2.192855
2.208948
2.029538
2.721548
2.321601
2.509952
2.971888
3.193617
2.202988
2.453923
2.440810
3.075600
3.124475
3.082752
3.155470
2.777576
3.214478
3.514886
3.962517
3.654957
3.409982
4.049540
4.555583
4.466772
5.143881
5.019903
4.959702
5.719662
5.630851
5.415678
4.853606
5.403757
6.258488
5.727410
6.015897
5.594492
6.450415
6.525517
6.376505
5.935431
6.227493
6.513596
6.045699
5.878806
5.859733
6.843805
6.758571
6.938577
6.337762
6.860495
7.208586
7.126927
7.332563
7.155538
6.940961
7.574558
8.160472
7.129908
7.857680
7.531643
7.320642
8.002520
6.967783
8.525848
7.582903
8.039474
8.119941
8.408427
10.227561
12.314916
11.624694
15.004873
17.673969
19.455552
21.570921
21.723509
24.141669
22.430420
22.265911
21.048784
18.009543
18.689632
14.574528
13.272762
10.717511
9.858608
8.668900
6.542802
7.121563
6.458759
7.274747
6.848574
7.142425
6.746650
7.175803
7.076859
##ZVALUE=215
5.720854
6.504655
6.311536
5.082488
4.805923
4.827976
4.269481
4.452467
5.312562
5.373955
4.645586
4.577637
4.486442
5.003810
3.239512
4.048944
3.403425
3.921986
3.921986
3.402829
4.146695
4.567504
5.008578
4.317760
4.460812
4.599690
4.983544
5.284548
5.309582
5.448461
5.893707
6.296635
5.677938
6.005764
6.335974
6.396770
6.003976
5.831718
6.422997
5.787611
6.711483
6.325841
6.816983
7.270575
6.141663
6.720424
6.881952
7.557869
6.990433
7.640719
7.970929
7.608533
7.112622
7.185936
7.969737
7.544756
7.298589
7.571578
8.324981
8.805990
8.004904
7.386804
8.310676
8.253455
8.144975
8.029938
7.590652
9.469986
10.908842
11.669993
12.868643
15.534759
16.420484
17.536879
21.124482
22.813678
20.510554
20.243526
20.808578
18.057823
18.049479
16.138554
14.470816
13.197660
10.831952
10.327697
8.909702
8.116961
7.683635
7.611513
6.663799
7.019639
6.461740
7.007718
6.612539
6.932616
##ZVALUE=220
19.409657
20.034909
20.950437
24.676919
22.903681
21.615624
16.090870
13.456941
10.518432
10.336637
10.278821
10.651946
10.841489
9.615421
8.269548
7.829666
6.260872
5.190969
5.302429
4.356503
4.266500
4.525781
5.683899
5.568862
4.948974
5.871654
5.260706
6.332994
5.891919
6.966591
6.087422
6.056428
6.090999
6.894469
7.441640
7.388592
6.248951
6.555915
6.774664
7.276535
8.149743
6.358624
6.871819
7.589459
7.303953
7.285476
7.647872
7.788539
7.526875
7.099509
8.301735
9.398460
7.606745
8.239746
9.044409
8.748770
9.368658
8.302927
8.447766
7.455945
8.318424
8.374453
8.620620
8.868575
8.713603
9.342432
9.508729
10.009408
11.622906
12.355447
13.356805
15.534759
17.879605
20.361543
21.813512
21.700859
21.830797
21.926761
20.853877
20.968914
18.891692
18.089414
15.193820
13.737679
12.516975
11.035800
10.304451
9.555817
8.123517
8.676648
8.106828
7.680655
8.717775
7.199645
7.299781
8.203983
##ZVALUE=225
33.358932
35.614967
49.191713
65.440536
77.831745
80.889463
76.868534
67.281723
52.128434
39.135814
28.175712
22.711754
22.416711
24.304986
23.664832
22.976995
20.240545
18.327832
15.434623
10.821819
8.413792
6.246567
5.577803
6.224513
5.820990
5.272627
6.660819
6.668568
7.292628
6.480813
7.041693
7.165670
7.443428
6.854534
7.949471
7.990599
7.673502
8.691549
8.567572
8.148551
7.697940
7.721782
8.128881
7.979870
7.471442
8.367896
7.941723
8.659959
9.356737
9.747744
8.338690
7.924438
8.457899
8.909702
9.879470
10.117888
10.677576
10.156631
9.643435
10.085702
10.216832
10.153651
9.418726
10.934472
11.246800
10.000467
9.878874
11.619925
11.973977
14.179945
15.253425
17.451644
18.905997
21.244884
21.521449
21.193624
23.395419
25.066733
21.801591
20.683408
19.152761
16.244650
16.962886
14.775991
13.005733
13.981462
11.812449
10.391474
10.979772
10.803938
9.736419
8.833408
9.797812
8.557439
9.791851
9.261966
##ZVALUE=230
30.516982
33.332705
55.171847
96.975565
131.449699
184.315443
213.282704
230.637789
213.522911
187.397003
134.253502
96.691847
61.891675
48.865676
44.837594
46.011806
47.729611
50.252676
42.370558
35.136938
28.720498
18.451810
14.415979
9.685755
7.114410
6.222725
7.057786
7.201433
7.174611
8.567572
7.903576
8.500814
7.778406
8.257627
8.072853
8.883476
8.390546
8.012652
8.532405
8.670688
9.529591
8.514524
10.018945
9.111762
9.721518
9.403825
8.740425
9.700656
9.329915
10.757446
10.521412
10.291934
10.747910
10.709763
10.129809
10.567904
10.953546
11.618733
11.727810
11.142492
12.885928
11.494756
13.434887
12.304783
12.550950
13.819933
14.291406
14.578700
15.353560
16.229749
18.180609
19.939542
21.635890
24.124980
24.985671
24.984479
24.365783
23.409724
23.949742
24.013519
20.836592
20.013452
21.346807
18.930435
16.881824
14.684796
13.832450
14.712811
14.156699
13.576746
13.164878
12.367964
12.979507
13.405681
12.562871
11.830926
##ZVALUE=235
10.724664
11.300445
30.169487
61.626434
123.813748
188.166499
302.997828
374.603868
456.558466
476.672649
446.228981
377.490520
295.566916
190.430880
132.612586
88.896751
75.366497
76.604486
83.310604
80.166459
76.659918
71.086884
53.061843
38.818717
26.295781
20.052791
14.397502
10.765791
9.280443
8.418560
9.002686
9.091496
8.525848
10.001659
8.570552
9.876490
9.570718
10.046959
9.829998
9.747744
8.982420
9.133816
9.527802
9.457469
10.309815
11.002421
9.700656
10.101795
10.796785
12.183785
12.906790
10.050535
11.810660
12.241602
11.469722
12.855530
13.592839
12.441874
12.784600
14.115572
15.036464
15.177727
15.814900
14.720559
17.016530
16.466975
17.875433
18.162727
20.288825
21.784902
22.980571
24.290681
25.285482
26.745796
29.135942
27.697682
29.444695
29.336810
26.583672
27.738810
25.560856
24.777651
24.397969
22.392869
22.374988
20.910501
20.548701
18.666983
17.751455
17.067790
18.751621
17.862916
16.660690
17.413497
18.772483
17.229915
##ZVALUE=240
2.403855
2.989769
5.505681
18.126965
39.037466
100.578666
172.835588
314.686894
454.027653
621.830821
740.993023
776.056647
732.100010
649.295449
482.015014
344.663858
203.083754
141.550899
105.581880
98.147988
107.694864
108.979940
108.371973
102.567673
79.070926
61.826706
50.323606
31.535625
24.015903
15.012622
13.081431
10.879636
10.770559
9.826422
8.789897
10.562539
10.229945
9.695888
10.992885
10.452867
10.893941
10.709763
11.256933
11.057854
11.440516
11.405945
10.342598
11.552572
11.331439
11.385679
11.350513
11.413693
11.344552
12.711883
12.882948
13.079643
14.251471
15.443563
14.677644
14.528632
15.645623
16.030669
16.066432
17.874837
17.113686
17.240644
19.630790
20.034909
20.395517
23.862720
24.421811
26.110411
26.764870
30.307770
32.850504
31.804442
32.266974
32.155514
30.821562
31.935573
30.807853
27.366877
27.516484
25.790930
24.872422
24.740696
22.122860
21.608472
21.807551
22.079945
22.676587
21.619797
20.627975
19.492507
18.575788
19.584894
##ZVALUE=245
2.112985
2.610683
2.081990
2.474785
4.052520
10.927916
39.887428
85.051656
205.217600
336.278677
556.536913
736.539960
877.647996
983.077884
979.046822
864.295959
718.280673
490.853786
336.606503
192.143917
129.221678
103.508830
108.189583
121.596456
128.600597
122.381449
110.506415
98.256469
71.951747
54.817796
41.077733
25.344491
17.995834
11.469722
10.178685
9.860992
10.211468
10.071993
9.501576
9.348989
8.109808
8.993745
9.264946
8.743405
9.647608
9.453893
10.086894
9.921789
11.290908
10.481477
10.494590
11.115670
12.025833
12.187958
10.902882
11.736751
12.909770
12.837648
13.816953
13.541579
13.813972
14.430881
14.365911
15.704632
15.948415
15.787482
16.581416
18.061996
19.829869
20.592809
21.488667
23.736954
24.452806
25.215745
27.694702
29.154420
30.123591
28.612614
28.411746
26.849508
24.347901
25.718808
24.972558
23.311973
22.520423
22.134781
21.537542
21.273494
22.331476
21.281838
20.782948
21.461844
21.000504
20.066500
19.323826
19.662976
##ZVALUE=250
1.885891
1.973510
1.707673
2.186894
2.160668
2.248883
2.534986
9.216666
25.356412
74.595809
161.348581
339.874625
520.568490
789.467692
971.809030
1015.793681
1015.793681
1015.793681
927.418470
730.696917
457.117558
284.831524
151.784420
111.287832
105.396509
117.952824
131.977797
139.509439
135.954618
121.138692
104.786754
80.786943
58.389902
37.261844
25.906563
14.633536
12.270808
9.464622
9.227991
8.400679
8.386970
9.602904
8.568764
8.405447
8.996725
8.402467
8.963943
7.905960
8.615851
9.372830
9.964705
9.353757
9.552836
10.384917
9.491444
10.212660
11.362433
10.768771
11.432767
11.496544
11.775494
12.358427
12.316704
12.444854
12.824535
12.848973
13.765693
15.748739
16.441941
16.756654
18.575788
20.442605
21.689534
23.573637
25.133491
24.153590
24.228692
25.708675
22.809505
22.315979
22.018552
22.211671
21.277666
20.714998
20.072460
20.891428
20.022988
19.962788
18.876791
19.784570
18.935800
19.126534
18.054843
18.417835
17.547607
18.570423
##ZVALUE=255
1.797676
1.671910
1.692772
1.534820
1.773834
1.678467
1.889467
2.126694
2.349615
5.049706
16.300678
58.082938
119.019747
280.851722
441.401601
734.285712
955.359936
1015.793681
1015.793681
1015.793681
1015.793681
977.689624
635.609627
407.709479
203.490853
129.279494
95.979571
101.434588
122.903585
134.251714
141.707659
141.601562
127.746463
106.241703
84.380507
56.008697
39.437413
23.098588
15.477538
10.716915
7.855892
8.488894
7.797480
7.909536
8.127689
8.199811
7.982850
8.140802
7.103682
8.044839
8.633733
8.509755
8.168817
8.522868
9.146929
8.965731
8.908510
9.166598
9.057522
9.779930
9.840727
9.546876
10.167956
10.684729
11.665821
12.634993
12.270808
12.530684
12.979507
15.054941
15.616417
15.484691
17.020702
18.390417
18.900633
18.990636
21.307468
20.069480
19.917488
18.173456
18.234849
17.701983
18.502474
18.268824
18.604994
16.448498
16.942620
17.617941
15.820861
16.974807
16.652942
17.151833
17.138720
17.156601
16.751885
16.412735
##ZVALUE=260
1.583695
1.651645
1.612902
1.314878
1.619458
1.622438
1.621842
1.722574
2.034903
1.868606
1.754761
2.888441
8.677840
36.226511
81.082582
207.324624
360.924602
657.551885
913.620591
1015.793681
1015.793681
1015.793681
1015.793681
1015.793681
832.214952
574.070811
320.672989
188.320875
100.458860
86.300969
104.294419
121.480823
140.055418
146.379471
143.168569
132.670999
106.254816
84.241629
57.976842
40.738583
23.981929
15.824437
9.907484
8.176565
7.554889
7.274747
7.691979
6.989837
7.631779
8.334517
7.388592
8.222461
7.943511
8.050799
8.675456
7.989407
8.519888
8.730888
9.386539
9.480715
8.619428
9.632707
9.918809
10.085702
10.116696
10.070801
10.464787
10.925531
12.254715
12.909770
13.773441
14.246702
16.206503
16.729832
16.955733
17.406940
17.364621
16.768575
16.779900
17.226934
17.057657
16.312599
16.213655
15.948415
15.146732
15.253425
15.115738
15.314817
15.240908
15.436411
14.975667
15.076995
14.845729
14.935732
14.750957
15.186667
##ZVALUE=265
1.332760
1.462698
1.266599
1.546741
1.402497
1.677871
1.364946
1.561642
1.705885
1.738667
1.806617
1.930594
2.372861
2.588630
4.933476
23.274422
59.804916
162.732005
302.857757
611.119866
918.192863
1015.794873
1015.794873
1015.794873
1015.794873
1015.794873
1015.794873
787.951946
442.037582
264.722705
149.999857
82.892776
79.323649
107.333660
126.253963
146.180987
152.580738
148.468614
131.768584
105.350614
85.891485
56.887865
40.395856
22.513866
15.048981
9.833574
8.345842
7.346869
7.637739
7.225871
8.082986
7.892847
8.006692
7.906556
8.579493
8.065701
8.894801
8.156896
8.517504
8.874536
9.467602
9.151697
9.658933
9.305477
9.560585
9.749532
10.219812
10.461807
10.890961
12.734532
12.942553
13.865829
14.591813
15.340447
16.639829
16.526580
16.187429
16.565919
15.764832
15.193820
14.953613
15.477538
14.581680
14.355779
14.058948
14.181733
14.354587
14.307499
13.951659
14.181733
13.472438
13.526678
14.203787
14.318824
14.009476
14.065504
##ZVALUE=270
1.205802
1.111627
1.314878
1.178980
1.324415
1.263618
1.395941
1.507998
1.389980
1.388788
1.612902
1.625419
1.903772
2.270937
2.275705
2.625585
3.076792
11.831522
36.521554
118.968487
249.399543
463.040471
884.746909
1015.837789
1015.837789
1015.837789
1015.837789
1015.837789
1015.837789
1015.837789
749.953985
393.387675
215.960741
92.085600
70.014000
82.369447
103.852749
132.914782
146.267414
153.363943
151.162744
131.993890
112.872720
83.419681
62.574744
36.831498
25.385618
15.765429
11.281967
8.229613
8.014441
7.938743
8.299947
7.886887
8.722544
8.530617
8.466840
9.134412
8.862615
9.401441
8.946657
8.757710
9.261966
9.260774
9.432435
10.484457
10.723472
9.964705
10.691881
12.327433
12.352467
12.978911
14.047623
14.653802
15.725493
15.205741
15.985966
15.060902
14.773607
14.310479
13.931990
13.692975
13.029575
13.284683
12.987852
12.799501
13.075471
12.587905
12.731552
12.877584
13.404489
13.007522
12.880564
12.895465
13.796687
13.718605
##ZVALUE=275
1.185536
1.356602
1.190901
1.191497
1.343489
1.318455
1.169443
1.343489
1.111627
1.436472
1.480579
1.429915
1.546741
1.804829
1.762509
1.953840
1.994967
2.195835
2.803802
5.199909
20.992756
65.569878
199.756026
390.467644
777.620673
1015.794873
1015.794873
1015.794873
1015.794873
1015.794873
1015.794873
1015.794873
955.170989
507.509708
289.384723
119.881630
70.056915
59.954524
77.063441
104.970932
125.026703
145.758986
152.604580
148.101449
131.108761
104.454756
84.356666
59.387684
41.812658
25.128722
18.113852
11.523962
9.728670
8.883476
8.215904
8.280873
9.238720
9.217858
9.217858
9.123683
9.509921
9.885430
9.883642
9.619594
9.779930
9.776950
9.785891
9.964705
11.027455
11.730790
11.933446
13.176799
13.770461
14.001727
14.866590
14.379621
14.327765
14.819503
14.436841
13.849735
13.972521
12.967587
12.528896
12.751818
12.234449
12.871623
11.992455
11.327863
11.862516
11.435747
12.336969
11.303425
12.144446
11.920929
11.967421
11.666417
##ZVALUE=280
1.087785
1.078844
0.974536
0.958443
0.991821
0.990629
1.161695
1.086593
1.140833
1.315475
1.252890
1.169443
1.333952
1.641512
1.693964
1.817942
1.792908
1.855493
1.967549
2.227426
2.516508
2.736449
11.996627
43.452978
145.072937
283.152461
574.825406
902.760029
1015.793681
1015.793681
1015.793681
1015.793681
1015.793681
1015.793681
1015.793681
660.407543
386.611819
166.924596
82.476735
46.816468
53.565502
79.491735
101.214647
126.059651
141.261816
149.118900
146.090984
128.967762
109.852552
82.201958
62.431693
40.207505
27.646422
17.294884
12.413859
9.656549
8.965731
8.928776
9.080768
9.502769
9.526610
9.623766
9.540915
9.314418
10.443926
10.171533
10.681748
11.305809
11.149645
11.730790
12.045503
12.526512
12.270808
14.062524
14.439821
13.758540
14.110804
14.014840
13.151765
13.276935
12.269616
12.683868
11.703968
12.087822
12.292862
11.218786
11.627674
11.607409
11.107922
10.695457
11.414886
10.808706
10.963678
11.212826
10.992885
11.455417
##ZVALUE=285
0.984669
1.073480
1.007915
0.995994
1.131892
0.865459
0.998974
1.034737
1.068711
0.934601
1.073480
1.252890
1.297593
1.220703
1.488924
1.379848
1.466870
1.479983
1.712441
1.980662
1.945496
2.196431
2.386570
2.854466
5.174875
26.635528
71.775913
199.614763
369.430780
719.750524
1006.636024
1015.793681
1015.793681
1015.793681
1015.793681
1015.793681
1015.793681
900.586843
561.446548
262.179971
128.562450
51.743984
38.391948
51.860809
70.206523
99.600554
118.845701
137.743950
143.913627
140.726566
129.556656
107.828975
88.187456
61.356425
44.433475
27.561784
18.852949
13.067722
10.637641
9.909868
9.637475
9.844899
10.041595
10.289550
9.979606
10.717511
10.517836
10.876656
11.229515
11.739731
11.808872
12.672544
12.939572
13.467669
13.410449
13.205409
13.543963
12.566447
12.945533
12.777448
12.211800
11.944771
11.692643
11.554956
11.631846
11.171699
11.641979
10.769963
10.537505
10.634661
10.747910
10.344982
10.292530
10.087490
10.758638
10.115504
##ZVALUE=290
0.809431
0.827909
0.780821
0.920892
0.767708
0.979900
0.860691
0.924468
1.018643
0.956655
0.943542
1.208782
1.258850
1.193881
1.102686
1.451969
1.220703
1.492500
1.421571
1.696944
1.517534
1.566410
1.904964
2.107620
2.454519
2.625585
3.206730
7.946491
39.244890
101.511478
217.197537
496.041775
818.586946
1015.793681
1015.793681
1015.793681
1015.793681
1015.793681
1015.793681
1015.793681
791.913867
398.490429
205.379725
73.547959
35.393834
34.904480
47.805905
69.457889
89.876652
116.803646
131.980777
140.983462
140.822530
126.540661
110.516548
82.755685
61.814785
41.465759
29.443502
18.902421
14.525652
11.619925
11.068583
10.493994
10.733604
10.645986
10.635853
10.982752
11.154413
11.891723
12.309551
12.781620
13.304949
12.933612
13.139844
13.327599
13.149977
12.745857
11.991858
12.039542
11.296868
11.672974
11.727810
10.988712
10.947585
11.046529
11.177659
11.144876
10.992885
10.652542
10.845661
10.570884
10.618567
10.579824
10.212660
10.335445
##ZVALUE=295
0.943542
0.907779
0.753999
0.860691
0.857711
0.887513
0.833869
0.764728
0.825524
0.965595
0.855923
1.084805
1.015663
0.989437
1.077652
0.965595
1.124740
1.264811
1.300573
1.294613
1.504421
1.425743
1.664758
1.746416
1.985431
1.995564
2.323985
2.524853
2.756715
4.390478
20.727515
61.943531
151.596665
391.917825
675.000548
1015.793681
1015.793681
1015.793681
1015.793681
1015.793681
1015.793681
1015.793681
980.263948
536.837578
298.413634
111.908913
49.514771
25.064945
29.741526
45.977831
63.981414
89.886785
107.560754
126.718879
136.887431
135.766864
123.101473
102.842450
84.804893
60.560703
44.600964
29.069781
20.977855
15.231967
12.293458
11.271834
11.085868
11.028647
11.352897
11.568666
12.278557
12.140870
12.838840
13.105869
12.703538
12.962818
12.939572
12.247562
12.463927
12.173653
11.607409
11.631846
11.610985
11.422634
10.823607
11.047721
10.869503
10.864735
10.930896
10.756850
10.037422
10.598898
10.153651
9.722710
9.938478
10.095835
##ZVALUE=300
0.683665
0.628829
0.784993
0.662804
0.595450
0.856519
0.741482
0.860691
0.913739
0.814795
0.934601
0.993609
0.956655
0.949502
0.996590
1.018643
1.072884
0.995994
1.073480
1.195669
1.070499
1.226664
1.406670
1.508594
1.424551
1.538992
1.898408
1.835823
2.135634
2.060533
2.510548
3.062487
9.518862
31.248927
112.792850
238.233805
537.549853
870.915651
1015.793681
1015.793681
1015.793681
1015.793681
1015.793681
1015.793681
1015.793681
785.771608
404.993892
211.443901
71.803927
30.546784
21.110773
27.582645
42.816997
58.321953
81.997514
101.526976
121.681690
128.706694
129.651427
121.354461
101.915598
83.837509
61.202645
46.358705
29.542446
22.159815
15.954971
13.241768
11.962652
11.460781
12.044907
12.200475
12.373924
12.916923
12.864470
12.743473
12.553930
12.425780
11.716485
11.555552
11.253953
11.532903
11.355877
11.182427
11.553764
10.820627
10.663867
10.479689
10.289550
10.656714
9.875894
10.193586
10.053515
9.859800
9.604692
9.566545
##ZVALUE=305
0.775456
0.620484
0.497699
0.654459
0.618696
0.625849
0.698566
0.871420
0.682473
0.832677
0.686646
0.840425
0.862479
0.823736
0.862479
1.032948
0.918508
0.923872
0.968575
1.159906
1.351833
1.247525
1.182556
1.108646
1.273751
1.247525
1.454949
1.533628
1.901984
1.909733
1.907945
2.090931
2.225637
2.640486
5.011559
17.121434
74.240565
170.714855
410.718918
690.827966
1015.793681
1015.793681
1015.793681
1015.793681
1015.793681
1015.793681
1015.793681
971.039534
528.986454
294.127464
112.621784
47.072768
19.000769
19.177794
28.174520
39.577484
61.089993
78.104734
99.209547
113.418698
123.858452
123.191476
114.123821
102.153420
78.666806
61.371922
42.949915
30.935407
19.751787
15.799999
12.841821
12.212992
12.153983
12.255907
12.328625
11.908412
11.771917
11.988878
11.580586
11.263490
11.173487
11.638999
10.917783
11.249781
11.230707
10.901690
10.250807
10.410547
10.736585
10.629892
10.295510
9.888411
9.714961
9.944439
9.650588
9.726882
##ZVALUE=310
0.629425
0.601411
0.631809
0.703931
0.777841
0.687838
0.614524
0.768900
0.782609
0.669956
0.678897
0.741482
0.610948
0.772476
0.767708
0.672936
0.627637
0.680685
0.865459
0.912547
0.875592
0.815988
1.096725
0.999570
1.065731
0.975728
1.400709
1.458526
1.285672
1.475811
1.629591
1.731515
1.748800
2.083778
2.143979
2.718568
3.007650
9.528995
32.182932
112.514496
234.061480
516.150594
838.245749
1015.787721
1015.787721
1015.787721
1015.787721
1015.787721
1015.787721
1015.787721
816.306472
411.373973
217.223763
73.047876
28.796792
15.310645
17.538667
25.766492
35.123825
52.998662
70.157647
90.550780
105.560422
115.718842
116.431713
107.705593
96.217990
76.837540
60.475469
41.861534
30.814409
21.515489
17.007589
13.878942
12.583733
11.898875
11.629462
11.180639
10.767579
10.465980
10.815859
10.859966
10.410547
10.984540
10.541677
10.722876
10.643601
10.324717
10.126829
10.378957
10.040998
9.553432
9.738803
10.068417
9.580851
9.448528
##ZVALUE=315
0.616908
0.616908
0.789762
0.639558
0.504851
0.592470
0.638962
0.566840
0.744462
0.644922
0.770688
0.663996
0.696778
0.685453
0.542998
0.709891
0.575781
0.770688
0.908971
0.802875
0.847578
1.068711
1.048446
1.025796
1.065731
1.110435
1.126528
1.016855
1.157522
1.229644
1.212955
1.554489
1.422763
1.658797
1.811981
1.990795
2.014637
2.369881
2.605915
5.007982
16.598701
70.893764
166.366696
401.014686
676.503778
1015.794873
1015.794873
1015.794873
1015.794873
1015.794873
1015.794873
1015.794873
1002.336740
569.682717
312.412977
113.205910
43.132901
15.410781
13.287663
16.892552
21.912456
34.889579
46.801567
66.711903
82.376003
100.448728
109.068751
110.155940
104.474425
88.770986
75.632930
56.389570
42.878985
28.702617
20.812750
14.843941
12.755990
11.401772
10.657907
10.356903
10.765791
10.331869
10.588765
10.620952
10.299683
10.283589
10.249615
10.133982
10.410547
10.109544
9.867549
9.825826
9.658933
9.279847
9.566545
9.169579
##ZVALUE=320
0.650883
0.527501
0.680685
0.494719
0.623465
0.684857
0.471473
0.517964
0.643730
0.650883
0.551939
0.574589
0.494719
0.745654
0.742674
0.761747
0.690818
0.815988
0.802875
0.691414
0.597835
0.568628
0.883937
0.755787
0.956655
0.930429
1.092553
1.096725
1.161695
1.154542
1.287460
1.296997
1.427531
1.383424
1.701713
1.673698
1.734495
1.737475
1.919866
2.216697
2.517700
3.186464
8.836985
47.470927
116.938949
304.854512
530.234575
944.224596
1015.793681
1015.793681
1015.793681
1015.793681
1015.793681
1015.793681
1015.793681
736.985803
426.283479
177.481771
76.025724
22.455454
12.345910
12.319684
14.281869
20.471811
28.487444
43.987632
58.123469
76.883435
90.243816
102.762580
105.305910
100.070834
88.539720
70.883632
55.881739
38.853884
28.488636
19.311905
15.015602
11.893511
10.702610
10.501742
10.092854
10.262728
10.247827
10.188818
10.290742
9.935498
9.701848
9.763837
9.397864
9.656549
9.448528
9.190440
9.389520
9.140968
##ZVALUE=325
0.630617
0.634789
0.592470
0.644922
0.614524
0.696778
0.492930
0.633597
0.501871
0.543594
0.710487
0.681877
0.812411
0.752807
0.454783
0.799894
0.676513
0.587702
0.839829
0.857711
0.711679
0.862479
0.902414
0.888705
1.026988
0.999570
0.998974
0.909567
0.916719
1.179576
0.984669
1.238585
1.206994
1.231432
1.345873
1.432896
1.453757
1.632571
1.741648
1.677871
1.778603
2.158880
2.532601
2.862811
4.931688
30.995607
82.483888
223.196745
410.177708
800.740719
1015.852690
1015.852690
1015.852690
1015.852690
1015.852690
1015.852690
1015.852690
895.809531
547.019839
239.472985
112.238526
31.387806
13.764501
10.178685
10.727644
13.549924
18.760562
28.094649
39.920807
58.442950
72.627664
88.925958
96.213818
98.186731
93.628764
79.303980
66.990852
49.731731
37.158728
24.956465
18.521547
13.617873
12.064576
10.810494
10.336637
9.969473
9.841919
9.933710
9.651780
9.614825
9.632707
9.404421
8.972883
9.030700
8.739829
9.244680
##ZVALUE=330
0.664592
0.686646
0.800490
0.645518
0.753999
0.612736
0.870824
0.714660
0.518560
0.638962
0.645518
0.739694
0.693798
0.719428
0.886917
0.858903
0.702739
0.719428
0.807643
0.627637
0.844598
1.014471
0.923872
0.838637
0.934601
0.928640
1.079440
0.969768
1.179576
1.187921
1.089573
1.277924
1.156926
1.260638
1.334548
1.372695
1.588464
1.656413
1.574755
1.605749
1.699924
1.837611
2.127886
2.257824
2.608895
2.714992
3.505945
13.298988
46.614408
160.927773
315.238833
650.241971
973.391533
1015.990973
1015.990973
1015.990973
1015.990973
1015.990973
1015.990973
1014.001966
711.688995
334.160924
167.452693
56.852698
21.110773
10.452867
9.751916
10.539889
12.699962
19.040704
26.392937
39.495826
52.817464
71.026683
82.649589
90.393424
91.540813
86.423755
77.316761
60.829520
47.045946
32.952428
25.244951
17.931461
14.541745
11.444688
10.708570
9.786487
9.401441
9.493828
9.237528
9.238720
9.245872
9.120703
9.162426
9.048581
##ZVALUE=335
0.399947
0.453591
0.498891
0.560880
0.557899
0.522733
0.406504
0.617504
0.520945
0.519753
0.538826
0.573993
0.657439
0.705719
0.753999
0.475645
0.614524
0.655651
0.742674
0.514984
0.643730
0.640750
0.671744
0.698566
0.740886
0.684857
0.666976
0.853539
0.892878
0.975728
0.973940
1.083612
1.014471
0.976920
1.049638
0.996590
0.957847
1.241565
1.193881
1.329780
1.284480
1.381636
1.529455
1.519918
1.743436
1.813769
2.031922
2.502799
2.871752
7.162690
25.270581
103.952885
221.464634
501.107574
821.596980
1015.846729
1015.846729
1015.846729
1015.846729
1015.846729
1015.846729
1015.846729
866.243839
457.096696
243.407488
87.427497
32.423735
11.225939
9.549856
9.909868
10.324717
13.226867
17.158985
26.344657
36.071539
52.169561
64.950585
77.562928
83.774924
85.789561
81.065893
69.492459
58.596730
44.853687
35.312772
24.452806
18.576980
13.671517
11.491776
10.073781
9.390712
9.052753
8.615851
9.112954
8.697510
8.671880
##ZVALUE=340
0.429749
0.268817
0.345707
0.515580
0.523925
0.377893
0.394583
0.402927
0.420809
0.356436
0.454783
0.620484
0.610948
0.574589
0.528693
0.607967
0.561476
0.618696
0.505447
0.418425
0.486970
0.398755
0.514984
0.580549
0.607967
0.780821
0.710487
0.513792
0.817776
0.737906
0.851750
0.758767
0.860691
0.850558
0.844598
0.921488
0.915527
0.987649
1.052618
1.120567
1.327991
1.182556
1.119971
1.410842
1.290441
1.428723
1.662970
2.045631
1.947880
1.996756
2.647638
3.714561
12.944937
71.179867
175.790787
439.198017
735.059977
1015.792489
1015.792489
1015.792489
1015.792489
1015.792489
1015.792489
1015.792489
993.698835
554.386973
307.661891
123.324990
48.218966
13.554692
9.980798
9.781718
9.787679
10.667443
12.587905
17.761588
24.276972
35.494566
46.940446
62.670708
71.990490
79.918504
81.641674
75.556636
69.487691
56.246519
46.125650
32.773614
25.961995
18.425584
13.761520
10.856986
9.510517
9.188652
8.661747
8.565784
##ZVALUE=345
0.353456
0.370741
0.441670
0.624657
0.489950
0.550747
0.610948
0.522733
0.607967
0.643730
0.689626
0.497699
0.610948
0.590682
0.691414
0.483990
0.466704
0.561476
0.468493
0.582933
0.612736
0.575781
0.650883
0.612736
0.718832
0.661612
0.894666
0.915527
0.840425
0.790954
0.711679
0.754595
0.622869
0.812411
0.779629
0.945926
0.989437
1.003742
1.119971
1.033545
1.207590
1.215935
1.173615
1.429915
1.370907
1.261830
1.510978
1.763701
1.593828
1.897812
1.774430
2.050996
2.377629
2.794862
6.161928
25.667548
123.611689
267.547965
589.048862
927.457809
1015.870571
1015.870571
1015.870571
1015.870571
1015.870571
1015.870571
1015.870571
826.726556
380.590558
184.832811
58.182478
22.993684
11.237860
10.335445
9.553432
9.296536
10.081530
11.663437
15.870929
21.953583
33.821464
43.551922
56.225657
65.420866
72.777867
74.805617
72.263479
65.421462
54.309964
44.078827
32.983422
24.933815
17.601848
13.782978
10.589957
9.396672
##ZVALUE=350
0.403523
0.382662
0.327826
0.281930
0.306964
0.357628
0.436902
0.506639
0.443459
0.407696
0.601411
0.423789
0.463724
0.460744
0.408888
0.557899
0.478625
0.575781
0.676513
0.519753
0.562668
0.548959
0.650883
0.654459
0.539422
0.513792
0.612736
0.668764
0.639558
0.549555
0.695586
0.572801
0.814795
0.780821
0.683665
0.836849
0.648499
0.832677
0.910759
0.827909
0.837445
0.953674
0.893474
1.111627
0.918508
1.256466
1.304746
1.264811
1.372695
1.456738
1.529455
1.752973
1.947880
2.001524
2.306700
2.608895
3.647804
11.460781
58.903694
151.394010
404.445529
710.319877
1015.793681
1015.793681
1015.793681
1015.793681
1015.793681
1015.793681
1015.793681
988.321900
526.054502
285.813808
107.627511
39.595962
12.725592
9.927750
9.231567
8.811951
8.626580
8.867979
10.954738
14.443994
20.795465
27.104616
39.523840
48.078895
59.186816
65.712929
68.269968
67.097545
60.739517
51.906705
40.835738
32.515526
23.298860
17.888546
##ZVALUE=355
0.311732
0.392795
0.510812
0.365973
0.534654
0.502467
0.440478
0.514984
0.684857
0.454783
0.476837
0.541806
0.436902
0.425577
0.387430
0.542998
0.556707
0.510812
0.543594
0.425577
0.536442
0.495911
0.562668
0.521541
0.516772
0.477433
0.644922
0.691414
0.676513
0.723600
0.943542
0.602603
0.796914
0.668764
0.945926
0.689626
0.856519
0.884533
0.886917
0.913739
0.785589
0.970960
0.954866
0.865459
1.007915
1.096725
1.110435
1.107454
1.183748
1.270771
1.406670
1.570582
1.558661
1.707673
1.845956
2.007484
2.166629
2.315640
2.863407
7.219911
28.274655
115.333796
247.469544
545.340776
886.932015
1015.793681
1015.793681
1015.793681
1015.793681
1015.793681
1015.793681
1015.793681
750.789642
338.830948
162.804723
47.987700
17.182827
9.539723
8.694530
7.977486
7.918477
8.114576
8.550882
10.369420
12.544990
18.271804
24.010539
33.362508
41.729808
52.285790
59.214830
62.150955
61.437488
56.428909
49.409866
39.820671
##ZVALUE=360
0.470877
0.544786
0.462532
0.519753
0.409484
0.496507
0.333786
0.513792
0.374913
0.546575
0.407696
0.396967
0.441670
0.574589
0.531673
0.532866
0.465512
0.449419
0.587702
0.483990
0.431538
0.665784
0.566840
0.719428
0.558496
0.662804
0.673532
0.753999
0.701547
0.786781
0.684857
0.699759
0.834465
0.801682
0.874996
0.765920
0.721812
0.756979
0.716448
0.832677
0.741482
0.885725
0.935793
0.864863
1.214743
1.004934
1.011491
1.114607
1.004934
1.218915
1.382828
1.450777
1.327991
1.503825
1.791716
1.713634
1.856685
2.059937
2.055764
2.478957
2.931952
3.959537
12.148619
59.540868
149.040818
392.546654
674.111843
1015.794873
1015.794873
1015.794873
1015.794873
1015.794873
1015.794873
1015.794873
867.891908
453.124642
236.238837
79.244971
29.943585
10.207891
8.664727
8.232594
7.862449
7.715821
7.509589
7.826686
8.590817
11.271834
14.345646
20.590425
26.939511
37.724972
44.776797
52.945614
56.026578
56.381822
##ZVALUE=365
0.449419
0.435710
0.404716
0.546575
0.562668
0.516772
0.407696
0.425577
0.352859
0.527501
0.462532
0.407696
0.471473
0.515580
0.530481
0.580549
0.671744
0.633597
0.576973
0.538826
0.689626
0.625849
0.408888
0.543594
0.596642
0.604987
0.624657
0.613928
0.715852
0.567436
0.675917
0.604987
0.685453
0.573993
0.804663
0.702739
0.876784
0.964999
0.861883
0.768900
0.958443
1.003742
0.644922
1.054406
0.994802
1.059771
0.917912
0.997782
1.071692
1.133680
1.169443
1.183748
1.246929
1.271963
1.372695
1.496673
1.472831
1.868606
1.961589
1.992583
2.229810
2.450943
2.626777
3.226995
5.555749
30.621886
88.455677
245.278478
470.297933
927.997828
1015.793681
1015.793681
1015.793681
1015.793681
1015.793681
1015.793681
1015.793681
601.680875
324.464440
116.259456
44.505000
13.065934
9.006858
8.275509
7.980466
7.616878
6.982684
6.728768
6.913543
7.621646
9.189844
12.835860
16.744733
23.986697
30.626655
39.443970
##ZVALUE=370
0.530481
0.483990
0.379682
0.493526
0.404716
0.514984
0.280738
0.498891
0.483990
0.585914
0.414848
0.528693
0.439882
0.494719
0.434518
0.490546
0.413656
0.547767
0.608563
0.542998
0.610948
0.459552
0.591874
0.648499
0.607967
0.528693
0.531673
0.625849
0.628829
0.619888
0.583529
0.673532
0.891685
0.709891
0.650883
0.759959
0.803471
0.657439
0.811815
0.940561
0.762939
0.853539
0.935793
0.815988
0.905991
0.819564
0.825524
0.899434
1.025796
1.006722
1.274943
1.013875
1.271963
1.253486
1.256466
1.406670
1.520514
1.364946
1.559854
1.475811
1.730919
1.909733
2.067685
2.305508
2.514720
2.750754
3.717542
16.147494
56.473613
182.864666
364.135504
736.573935
1015.790701
1015.790701
1015.790701
1015.790701
1015.790701
1015.790701
1015.790701
747.303963
429.684520
169.255733
74.161887
20.705462
9.573698
7.549524
6.865859
6.727576
6.197691
6.161928
6.090999
6.228685
6.726980
7.990599
10.251999
14.559627
##ZVALUE=375
0.481606
0.514984
0.446439
0.501871
0.416636
0.582933
0.364780
0.385642
0.488758
0.518560
0.617504
0.437498
0.755787
0.547767
0.545979
0.537634
0.533462
0.509620
0.503659
0.573993
0.771880
0.520945
0.641942
0.558496
0.526905
0.591874
0.579953
0.533462
0.672936
0.696778
0.630617
0.716448
0.659823
0.700951
0.541806
0.743866
0.700951
0.732541
0.706911
0.822544
0.812411
0.809431
0.711679
0.831485
0.979900
1.024604
0.825524
1.063943
0.974536
1.015663
1.073480
0.839829
0.949502
1.048446
0.928640
1.064539
1.034737
1.204610
1.188517
1.335740
1.286864
1.440644
1.502633
1.719594
1.758933
1.915693
2.083778
2.426505
2.895594
7.258654
26.438832
101.448894
229.588151
547.168851
892.902613
1015.791893
1015.791893
1015.791893
1015.791893
1015.791893
1015.791893
906.372666
578.149557
283.257961
140.504837
42.373538
15.179515
6.900430
6.343722
6.018877
5.922914
5.453825
5.633831
5.118847
5.306602
5.722642
##ZVALUE=380
0.437498
0.389814
0.417829
0.373721
0.448823
0.592470
0.526905
0.558496
0.590682
0.533462
0.482798
0.473857
0.570416
0.461936
0.534654
0.507832
0.588894
0.476837
0.385642
0.277758
0.455976
0.577569
0.530481
0.470877
0.523925
0.518560
0.673532
0.722408
0.697970
0.701547
0.647902
0.658631
0.730753
0.744462
0.694990
0.653863
0.645518
0.624657
0.487566
0.733733
0.677705
0.728965
0.695586
0.741482
0.765920
0.788569
0.808835
0.842810
0.791550
0.836849
0.771880
0.907779
1.062751
0.941753
0.905991
1.015663
1.139641
1.011491
1.108646
1.134872
1.253486
1.311898
1.269579
1.288652
1.403689
1.514554
1.650453
1.913905
1.954436
2.462864
2.658963
4.211664
13.043880
68.065524
168.102384
422.580838
721.313953
1015.844941
1015.844941
1015.844941
1015.844941
1015.844941
1015.844941
1015.844941
768.653750
383.423567
197.667480
67.028999
25.259852
8.114576
6.004572
5.510449
5.565882
4.978776
5.052686
4.929900
##ZVALUE=385
0.483990
0.404716
0.407696
0.502467
0.486970
0.561476
0.554919
0.376701
0.488758
0.423789
0.559688
0.542998
0.460744
0.516772
0.436902
0.525713
0.317693
0.570416
0.417829
0.597835
0.584722
0.310540
0.577569
0.518560
0.568628
0.526905
0.636578
0.479817
0.573993
0.586510
0.607967
0.596642
0.656843
0.583529
0.682473
0.589490
0.651479
0.749826
0.620484
0.695586
0.644922
0.596642
0.592470
0.570416
0.600815
0.606775
0.575781
0.699759
0.626445
0.596642
0.710487
0.764728
0.703931
0.872612
0.827909
0.857711
0.844598
1.021624
0.913739
0.866652
1.027584
1.003742
1.162887
1.105666
1.226664
1.271963
1.315475
1.508594
1.560450
1.941919
2.136827
2.242923
2.455711
2.828836
5.645752
32.190681
90.285540
246.195793
471.392870
927.292705
1015.855670
1015.855670
1015.855670
1015.855670
1015.855670
1015.855670
975.821614
549.851656
310.180783
126.263499
49.810410
11.913776
6.239414
5.100965
5.179644
4.713535
##ZVALUE=390
0.597835
0.512600
0.514984
0.620484
0.628829
0.617504
0.472665
0.737906
0.512600
0.581741
0.677705
0.573993
0.604987
0.592470
0.688434
0.561476
0.685453
0.540614
0.511408
0.626445
0.641942
0.600815
0.658631
0.680685
0.749826
0.790954
0.565648
0.612736
0.683665
0.450611
0.733733
0.633597
0.827909
0.673532
0.819564
0.736713
0.807643
0.888705
0.788569
0.665784
0.769496
0.707507
0.715852
0.788569
0.894666
0.772476
0.848770
0.793934
0.745654
0.799894
0.823736
0.777841
0.855923
0.795722
0.893474
0.797510
0.999570
1.097918
0.983477
1.056790
1.065731
1.160502
1.009703
0.849962
1.197457
1.056790
1.311898
1.468658
1.757741
1.871586
1.984835
2.029538
1.967549
2.188683
2.593994
2.472997
3.875494
12.841821
63.083768
157.174468
399.767756
667.693615
1016.030908
1016.030908
1016.030908
1016.030908
1016.030908
1016.030908
1016.030908
786.214471
407.132506
210.173726
71.516633
25.578737
7.166862
5.329847
##ZVALUE=395
0.324845
0.438690
0.231862
0.311732
0.233650
0.368953
0.127554
0.292659
0.259876
0.531673
0.329614
0.335574
0.323653
0.219941
0.209808
0.274777
0.415444
0.482798
0.397563
0.459552
0.520945
0.385642
0.432730
0.454783
0.347495
0.465512
0.409484
0.382662
0.260472
0.425577
0.405908
0.451803
0.687838
0.423789
0.320673
0.425577
0.440478
0.315905
0.391603
0.493526
0.378489
0.379682
0.383854
0.504851
0.458956
0.447631
0.514984
0.525713
0.563860
0.542998
0.424981
0.564456
0.607967
0.621676
0.628829
0.614524
0.663996
0.794530
0.638962
0.656843
0.692606
0.727773
0.773668
0.917912
0.863671
1.110435
1.064539
1.201630
1.342893
1.411438
1.580715
1.706481
1.669526
1.685619
1.768470
1.796484
1.877546
2.183914
2.460480
8.507967
32.006502
123.135448
256.126523
547.727942
854.581594
1015.805006
1015.805006
1015.805006
1015.805006
1015.805006
1015.805006
911.678076
583.300591
274.382830
131.142735
40.134788
##ZVALUE=400
0.252724
0.332594
0.360608
0.186563
0.260472
0.328422
0.361800
0.247955
0.273585
0.237823
0.296831
0.190735
0.325441
0.362992
0.348687
0.471473
0.366569
0.401735
0.264645
0.054836
0.355840
0.419617
0.113845
0.233650
0.348687
0.272989
0.330806
0.421405
0.429749
0.615716
0.288486
0.379682
0.311732
0.310540
0.459552
0.250936
0.421405
0.423789
0.480413
0.345707
0.571609
0.463724
0.477433
0.451803
0.380874
0.398755
0.476837
0.409484
0.603795
0.558496
0.551939
0.533462
0.558496
0.526905
0.500679
0.433922
0.387430
0.589490
0.580549
0.720620
0.592470
0.692606
0.816584
0.857711
0.890493
0.822544
0.816584
1.160502
1.200438
1.314878
1.342893
1.345873
1.602769
1.393557
1.445413
1.368523
1.535416
1.623631
1.741648
1.981854
2.331734
5.139709
17.546415
69.351792
159.723759
387.607813
657.071471
1015.793681
1015.793681
1015.793681
1015.793681
1015.793681
1015.793681
985.764861
678.100586
343.083739
##END
