##TITLE=QP00652
##FORMAT=SPECTACLE-ASCII V-1.2
##DATA TYPE=ULTRAVIOLET SPECTRUM
##SECOND TYPE=ULTRAVIOLET SPECTRUM
##DATE=10/24/17
##TIME=17:21:15
##SPECTROMETER/DATA SYSTEM=SPECTACLE
##XUNITS=NM EM
##YUNITS=ENERGY
##YFACTOR=1
##FIRSTX=220
##LASTX=410
##NPOINTS=96
##3DDATA=Equidistant
##ZUNITS=NM EX
##FIRSTZ=210
##LASTZ=400
##ZPOINTS=39
##XYDATA=(Y..Y)
##ZVALUE=210
3.483891
3.607869
3.246665
2.669692
3.049970
3.018975
4.235506
3.612638
4.275441
4.043579
4.183650
5.077720
4.952550
5.923510
6.262660
6.633997
7.292628
7.299781
7.187724
8.432865
8.749962
9.887815
10.417700
10.433793
11.607409
11.146665
12.218952
13.243556
12.042522
13.940930
14.463663
15.009642
15.876889
17.184615
16.196966
16.565919
15.995502
17.611980
17.725825
18.008947
17.341971
18.326640
18.070936
17.902851
18.548965
19.099712
19.077659
19.517541
20.193458
19.972920
21.146536
20.008683
21.457672
22.159815
22.680759
19.808412
21.414757
22.862554
22.287965
22.360682
22.774935
23.698807
22.782683
24.106503
24.187565
25.164485
28.070807
28.379560
34.326911
38.926601
48.044920
54.266453
65.959692
69.896579
83.109736
93.235970
96.567869
102.095604
101.482868
96.814632
92.171431
85.678697
74.811578
68.669915
54.744482
43.216944
32.749772
27.300715
24.559498
22.611618
20.599961
20.961761
21.812916
21.591783
20.951629
19.178987
##ZVALUE=215
12.185574
13.463497
11.485815
10.304451
7.012486
6.224513
5.375743
5.436540
5.857944
6.841421
5.966425
6.008744
6.022453
5.675554
6.621480
6.556511
5.627871
6.533861
7.186532
7.281899
6.916523
7.662773
9.062886
8.228421
10.438561
11.556745
10.554790
10.812879
11.127591
12.842417
11.283755
11.475682
12.495518
12.054443
12.665987
13.318658
13.063550
13.137460
12.486577
12.932420
13.709664
13.355613
13.758540
14.114976
15.358925
14.741421
15.272498
14.823675
15.083551
15.011430
15.965700
15.662909
16.452670
14.625788
15.116930
17.492771
17.381907
17.506480
16.861558
17.702579
17.357469
17.262697
18.250942
17.305613
18.818974
17.937422
20.585656
22.908449
26.593804
29.141903
31.528473
39.566755
44.980645
56.268573
60.841441
67.024827
75.604916
72.836876
77.150464
75.719953
71.664453
62.389970
54.815412
44.615865
36.141872
28.041601
22.870898
20.990968
17.308593
15.585423
13.753772
15.836954
15.343428
13.958812
15.011430
15.330911
##ZVALUE=220
44.190884
44.501424
50.273538
52.576661
45.989752
33.226609
26.390553
17.284751
12.613535
11.639595
12.017488
12.202859
12.766719
12.574792
11.168718
9.764433
8.640885
7.507801
7.514954
6.670952
6.446838
8.407831
8.173585
9.056926
8.985996
9.979606
10.629892
8.690953
9.586811
10.259748
9.521842
10.353923
10.665655
10.803938
10.782480
11.270642
11.616945
11.870861
11.548996
12.260675
11.869669
10.906458
13.126731
11.499524
12.911558
14.299750
12.786984
14.009476
13.403893
12.994409
13.535619
12.802482
14.608502
14.556646
14.980435
14.055967
14.149547
14.403462
14.336705
13.778806
15.393496
15.381575
14.821887
15.113950
15.426874
16.656518
17.421842
17.613769
20.481944
23.548603
26.926994
30.962825
35.834908
42.409897
47.812462
52.129626
56.497455
56.513548
59.053898
56.573749
53.971410
44.668913
41.227937
35.400987
27.077794
22.790432
18.578768
16.735792
15.067458
13.949871
13.126731
14.055967
13.656616
13.364553
13.627410
11.806488
##ZVALUE=225
68.212748
70.908666
100.106001
119.737983
131.966472
129.493475
110.810995
91.022849
57.463646
42.900443
28.329492
23.152828
21.656752
26.116967
24.211407
24.850965
20.282865
18.244982
16.296506
10.656714
9.673834
8.181930
8.210540
7.469654
7.475615
8.217692
8.972883
8.426905
7.842779
8.879900
9.005666
9.117723
9.526610
9.643435
10.116696
9.934902
9.625554
11.124611
10.881424
10.556579
11.607409
10.099411
10.922551
10.653734
12.365580
11.500716
10.876656
12.859702
11.845827
11.436939
12.440681
11.798739
11.503696
13.253689
12.550950
13.490915
13.678670
14.386773
14.475584
14.178753
14.059544
14.699697
14.064908
13.811588
14.166832
14.554858
14.482737
16.078949
18.164515
20.147562
22.020936
26.388764
29.638410
33.207536
33.412576
37.613511
36.695600
35.281777
33.013821
31.512976
28.489828
26.117563
24.387836
21.431446
19.777417
17.858744
15.896559
15.434623
14.221668
14.330745
13.013482
13.933778
13.281703
13.773441
12.303591
11.844635
##ZVALUE=230
66.210628
74.938536
121.619701
213.380456
272.708535
340.483785
365.826488
356.108546
326.576829
268.660784
179.478526
123.503804
70.846677
51.354766
45.523643
48.596859
50.010681
48.020482
45.470595
37.353635
28.132796
22.098422
17.657876
10.897517
9.380579
7.742643
8.521676
9.006858
9.255409
9.519458
9.625554
8.890629
9.680986
9.703636
10.614991
11.675954
9.939671
10.735989
9.892583
11.396408
10.662675
9.594560
11.210442
10.400414
10.707974
11.099577
11.691451
11.946559
11.847615
11.519790
12.033582
11.958480
12.583733
12.812614
12.812614
13.433695
14.448762
13.588667
13.318658
14.511943
14.450550
14.415979
15.490651
14.704466
15.183687
16.065836
15.744567
17.049909
18.983483
21.900535
24.439692
26.949644
28.873682
33.567548
33.516884
34.561753
35.230517
33.686757
31.531453
30.146837
27.308464
25.726557
24.864674
21.210909
19.202828
19.465685
17.985702
17.234683
15.556812
15.611649
16.131997
15.166998
15.104413
15.237927
15.358925
14.556646
##ZVALUE=235
16.714931
19.404888
44.368505
99.252462
158.748627
255.474448
331.825614
422.598720
459.076762
468.096733
417.664647
348.174572
240.751505
177.477002
114.314556
85.244775
72.343946
73.873997
81.547499
81.644654
78.782439
63.293576
55.311918
36.379695
26.931763
18.331409
13.139844
10.160804
10.212660
10.128617
9.654760
10.274649
9.752512
8.968711
9.826422
10.619760
10.516644
10.952950
9.882450
10.696650
11.017919
10.739565
10.575652
12.465715
12.168884
11.361837
11.150837
12.128949
12.971759
10.812879
12.667775
11.599660
13.366938
12.102723
13.848543
13.738871
14.416575
13.605952
15.011430
16.085505
15.811920
15.758872
17.692447
18.128753
17.218590
17.076731
19.283891
21.025538
20.636916
22.253990
26.920438
27.056932
29.469728
33.633709
32.944679
34.967661
34.949780
33.939481
31.517744
31.517744
28.583407
27.245879
25.140643
23.400784
21.701455
19.798875
21.373630
19.768476
20.060539
18.941760
19.441843
19.177794
17.163754
18.447638
18.310547
18.334985
##ZVALUE=240
3.136992
2.958775
11.046529
32.468438
90.941787
164.892673
327.373743
479.329824
693.747997
822.760463
926.479697
910.731554
854.758024
673.305988
512.089729
306.565762
211.047530
130.099654
101.589561
101.813674
109.211802
113.784671
108.104944
101.933479
84.037781
67.163706
50.096512
34.777522
22.891760
17.276406
12.497902
11.286736
11.658669
11.423826
10.599494
11.242628
10.169744
11.011958
11.260509
11.893511
11.745691
11.445880
11.729598
12.172461
11.614561
12.368560
13.029575
12.935996
12.590885
13.714433
14.427900
12.902617
13.632774
15.110970
15.643835
13.436675
15.073419
16.463995
16.237497
17.871857
17.398000
19.510984
19.177794
17.625690
19.637942
20.492673
19.789934
22.036433
24.031997
25.913715
29.205680
32.167435
34.791827
37.954450
37.677884
40.029883
41.364431
37.686825
41.020513
38.962960
35.845637
33.932924
30.817986
30.354857
28.534532
25.736690
25.927424
24.621487
26.078820
23.062825
23.473501
22.080541
22.689700
23.288727
20.427704
22.962689
##ZVALUE=245
1.826882
2.118945
2.517700
2.801418
6.640553
28.025508
67.154765
161.892772
275.009871
423.948765
645.800829
815.916657
955.625772
977.236032
907.561779
799.655914
588.434935
433.396697
301.090479
169.601440
118.500590
105.818510
107.009411
125.617981
126.475692
121.103525
112.640858
91.744661
75.949430
53.431988
37.940741
24.477839
17.467737
12.371540
10.554790
9.590983
9.192824
9.526610
9.688735
9.928942
8.515716
10.157824
9.689927
9.200573
9.541512
10.337830
9.419918
10.491610
10.511875
11.082888
11.018515
11.847615
11.111498
11.761785
12.894869
12.184978
12.527704
13.964772
14.502406
14.034510
13.976693
14.882684
14.159679
15.686750
17.120838
17.419457
17.391443
18.901825
19.388795
22.881627
21.828413
26.210546
27.294755
29.698610
31.946898
31.273961
31.934977
30.921698
31.421781
29.247999
29.670596
26.839972
25.434494
25.126934
24.521947
22.987723
22.450686
22.332668
21.960735
21.804571
20.572543
21.790862
20.603538
20.928979
21.473765
21.048784
##ZVALUE=250
1.630783
1.866817
1.621842
2.024770
2.064705
2.388954
3.418922
7.247925
37.015676
85.280538
226.250887
383.196473
576.180816
836.270452
989.164710
1015.778780
1015.778780
987.778902
835.451484
573.799610
388.152599
248.194933
138.410926
102.005601
103.336573
116.930604
132.147670
134.801865
131.112933
118.826628
98.673701
78.840852
58.973432
36.754608
24.846792
15.015602
11.878610
9.441972
10.141730
7.670522
8.518696
8.759499
8.728504
7.805824
7.908940
7.806420
8.736849
9.423494
8.202791
9.619594
9.769797
8.925796
10.169744
9.110570
10.836720
10.528564
9.854436
10.523796
11.465549
12.328625
11.950731
11.738539
12.065768
13.980865
13.027787
14.652610
15.257597
15.768409
15.206933
17.096996
18.808842
20.546913
22.787452
24.497509
25.030971
26.428699
26.763678
25.511980
24.968982
24.559498
24.424791
24.028420
22.005439
22.127628
20.594001
20.950437
21.237731
19.928813
20.182729
19.820929
19.194484
19.099712
19.200444
18.073916
20.133853
17.942786
##ZVALUE=255
1.740456
1.577735
1.797676
1.710653
1.731515
2.115965
1.805425
1.981854
2.128482
4.046559
18.587708
54.361820
167.287588
294.886827
530.886054
760.197639
1015.339494
1015.793681
1015.793681
1015.793681
1015.793681
761.486888
540.316701
308.594704
189.560652
109.759569
92.015862
104.442835
119.098425
138.886571
144.216418
138.744712
126.423836
102.881789
80.982447
55.869818
39.166808
23.013949
14.707446
10.192990
8.353591
8.001924
7.368922
7.850528
7.305741
8.128881
7.701516
7.572770
8.113980
8.077621
8.206964
7.459521
7.268786
8.006692
9.264946
8.824468
9.499788
9.520650
9.196997
10.152459
9.911656
10.512471
10.704994
11.105537
11.023879
12.487769
12.931824
13.507605
14.285445
14.974475
16.255975
17.661452
18.366575
19.446611
20.804405
20.288825
21.440983
20.631552
20.941496
19.680858
19.698739
18.718839
18.338561
18.338561
17.671585
17.178655
17.063618
17.094612
16.497970
18.189549
16.628504
17.818809
16.491413
16.354918
16.707778
16.773939
##ZVALUE=260
1.140833
1.495481
1.435876
1.435876
1.626611
1.511574
1.769662
1.541972
1.738667
1.940727
2.221465
3.020763
9.516478
40.142536
92.810988
232.423544
391.344428
668.372512
899.955034
1015.794873
1015.794873
1015.794873
1015.794873
1003.282666
697.583556
481.325984
270.103812
160.454512
93.978643
84.734559
103.596449
122.254491
138.554573
149.918795
145.998597
129.324794
110.017657
82.507730
60.052872
37.802458
25.330782
14.234781
10.413527
7.676482
7.327795
7.320642
6.757975
7.300973
7.332563
7.291436
7.714629
7.694960
8.419752
8.055568
8.701682
8.758903
8.211732
9.023547
9.331703
9.380579
9.420514
8.859634
9.637475
9.769797
10.718703
10.684729
11.366606
10.897517
12.335777
12.734532
12.860894
15.380979
15.345812
17.179847
16.947985
17.132759
17.034411
17.123818
17.433763
16.611814
16.809702
16.310811
16.678572
15.692711
15.612841
15.158653
15.842915
14.757514
14.991760
15.075803
15.820861
15.105605
15.468597
15.829802
15.556812
15.517473
##ZVALUE=265
1.446605
1.088977
1.249909
1.224875
1.382828
1.159906
1.376867
1.457930
1.750588
1.743436
1.566410
1.928806
2.099872
2.409816
4.671812
24.173856
62.956810
172.418952
316.255689
614.022017
885.401964
1015.793681
1015.793681
1015.793681
1015.793681
1015.793681
929.221511
667.303801
364.627838
221.925974
178.412795
78.770518
79.737902
107.487440
129.028559
145.376921
151.417851
145.408511
129.495859
105.986595
83.159804
56.402683
37.602782
23.168921
15.222430
9.403825
8.219481
6.789565
7.176995
7.298589
7.038713
7.965565
7.804632
8.050799
7.816553
7.676482
8.791685
8.170605
8.655787
9.080768
8.797646
9.668469
9.928942
9.119511
9.930730
9.570718
10.072589
11.084676
11.114478
12.149811
12.515783
13.279915
14.247894
15.356541
15.905499
15.681982
16.161799
15.766621
16.420484
14.295578
14.825463
14.435649
14.535785
14.756918
14.225841
13.918877
14.301538
14.541745
14.507771
14.349818
13.782978
13.982654
14.042854
13.503432
14.010668
14.026761
##ZVALUE=270
1.023412
1.334548
1.132488
1.167655
1.228452
1.045465
1.232624
1.288652
1.258850
1.242757
1.516938
1.720786
1.684427
1.551509
2.278686
1.950860
2.573729
11.004806
34.585595
122.434497
250.467658
451.435447
814.302564
1015.790701
1015.790701
1015.790701
1015.790701
1015.790701
1015.790701
894.972682
637.128949
334.276557
187.579989
85.394979
65.118670
80.505610
102.273822
131.933689
145.942569
154.049993
150.089860
131.362677
113.550425
81.721544
61.397552
36.481619
24.392605
15.894771
11.557937
8.476973
8.930564
8.185506
8.275509
9.095669
8.923411
8.765459
9.388924
8.956790
9.238720
9.488463
8.939505
9.319782
9.769797
10.186434
9.527802
10.158420
10.146499
10.536909
11.367798
12.355447
12.741685
13.527870
13.301969
14.208555
15.104413
14.928579
15.009642
14.298558
14.160872
13.237000
13.529658
13.301969
12.982488
12.989640
11.969805
12.901425
12.587905
13.050437
12.475848
12.038946
12.708902
12.098551
13.041496
13.353825
12.686849
12.901425
##ZVALUE=275
0.982881
0.993609
1.092553
0.949502
0.866652
0.957847
1.159906
0.989437
1.259446
1.334548
1.057982
1.474619
1.601577
1.532435
1.553893
1.661777
1.959801
2.037883
2.361536
5.636811
21.488667
62.704682
195.662975
378.382802
734.770894
1000.073552
1015.708447
1015.708447
1015.708447
1015.708447
1015.708447
1015.708447
838.034749
458.354950
266.793966
114.268661
65.919757
60.053468
76.189637
106.110573
125.131607
144.447684
150.973797
146.220922
133.975744
104.968548
86.449981
58.720708
42.921901
26.215911
17.972589
12.278557
10.263920
9.389520
9.013414
9.039640
9.701848
9.477735
9.404421
9.821653
10.455847
9.946823
9.430647
10.456443
9.981990
10.132790
10.224581
10.361671
10.647774
12.095571
11.759996
12.578964
13.332963
13.474822
14.666915
14.938712
13.893843
13.817549
13.940930
13.049841
13.097525
12.564659
12.656450
12.078881
11.715889
11.332631
11.803508
11.912584
12.253523
11.876822
11.689663
12.055635
11.349916
11.612773
11.493564
11.353493
##ZVALUE=280
0.991821
0.954866
0.910759
0.914931
1.058578
1.143813
0.887513
1.038909
1.025796
1.166463
1.209974
1.361966
1.137853
1.313686
1.552701
1.487732
1.528859
1.670718
1.897812
2.119541
2.414584
3.539920
11.743903
56.620836
137.401819
334.327817
549.253821
929.265022
1015.793681
1015.793681
1015.793681
1015.793681
1015.793681
1015.793681
984.870791
607.689619
362.994671
159.222484
80.772638
47.002435
54.677725
80.191493
102.061629
126.756430
141.545534
149.325728
143.430829
128.004551
109.584928
82.419515
62.070489
41.682720
27.233958
18.048882
13.238788
10.186434
9.600520
9.774566
9.764433
9.413958
10.214448
9.997487
10.389686
10.121465
10.481477
10.789633
11.027455
11.206865
11.358857
11.526942
12.418628
13.184547
13.336539
13.077855
13.155937
13.663769
13.416409
13.397932
12.760758
12.445450
12.539625
12.786984
11.992455
11.787415
11.328459
11.526942
11.217594
11.471510
10.923743
11.495948
11.382699
10.873675
11.450648
10.974407
10.863543
10.949969
##ZVALUE=285
0.742674
0.641942
0.780821
0.896454
0.575781
0.975728
0.998974
0.975728
0.949502
1.119971
1.083612
1.133680
1.067519
1.159906
1.070499
1.371503
1.330972
1.307726
1.564622
1.423955
1.643896
1.801848
2.188683
2.602935
19.741654
25.402904
91.169477
283.449888
426.562428
873.466730
1011.942029
1015.743017
1015.743017
1015.743017
1015.743017
1015.743017
957.460999
802.896619
323.689580
245.800614
67.627430
49.777627
48.712492
55.745840
85.768700
97.528696
120.990872
135.414004
146.505833
142.790675
128.097534
109.304786
85.482597
65.260530
42.454600
29.676557
18.000603
14.242530
11.305809
10.652542
10.878444
10.445714
10.443926
10.555983
10.515451
10.950565
10.903478
11.159778
11.085868
11.929870
12.623668
12.303591
12.756586
12.764931
12.947917
12.780428
13.135672
12.379885
12.012720
12.324452
12.026429
11.476874
11.526942
11.775494
11.337996
11.812449
10.789633
10.734797
10.655522
10.725856
10.516644
10.278821
10.098815
10.435581
10.323524
10.060668
##ZVALUE=290
0.743866
0.870824
0.860691
0.779629
0.843406
0.993609
0.938773
0.989437
0.967979
1.007915
0.960827
0.828505
1.035929
0.954866
0.970960
1.061559
1.095533
1.262426
1.268983
1.383424
1.590848
1.619458
1.542568
1.801848
2.183914
2.475977
3.342628
10.201931
50.273538
118.239522
227.687359
521.300435
834.986567
1015.793681
1015.793681
1015.793681
1015.793681
1015.793681
1015.793681
968.599916
653.131008
335.914493
168.830752
58.967471
32.199621
34.874678
46.616793
69.031715
91.146827
116.497874
131.756663
140.540600
139.558911
125.100613
110.173821
82.732439
63.026547
41.905642
30.666590
19.669533
14.977455
11.939406
11.187792
11.057854
11.017919
10.432601
10.657907
11.432767
11.374950
12.054443
12.120605
12.602806
12.725592
12.656450
13.387799
12.543797
12.679696
12.191534
12.106895
11.846423
11.540651
11.563897
11.756420
10.672808
11.364818
10.972619
11.305809
10.864735
10.914803
10.667443
10.739565
10.239482
9.980798
10.620952
9.953976
10.709763
##ZVALUE=295
0.677705
0.760555
0.681877
0.867844
0.816584
0.840425
0.687838
0.767708
0.710487
0.839829
0.901818
0.939965
0.862479
0.911951
0.973940
1.005530
1.131892
1.058578
1.139641
1.262426
1.353621
1.404881
1.532435
1.461506
1.830459
2.022982
1.988411
2.313852
2.513528
4.543662
16.009808
75.419545
174.824595
423.513651
706.403852
1015.786529
1015.786529
1015.786529
1015.786529
1015.786529
1015.786529
1015.786529
830.430984
449.271798
244.250894
89.003444
40.015578
24.170876
29.981732
46.466589
63.876510
89.914799
109.103918
127.253532
134.694576
133.790970
122.064948
102.414489
83.452463
61.390996
44.303536
28.321743
20.735860
14.686584
12.206435
11.119843
11.044741
10.780692
11.066794
11.749864
12.280941
11.791587
12.555718
12.844801
12.742877
13.046861
12.897849
11.954904
12.034774
11.569858
11.595488
11.609793
10.934472
11.297464
11.014938
11.376739
10.718703
10.477901
10.329485
10.645986
10.054708
9.789467
9.975433
10.078549
9.743571
9.808540
##ZVALUE=300
0.600815
0.613928
0.690818
0.754595
0.834465
0.724792
0.743866
0.875592
0.753999
0.912547
0.847578
0.952482
1.012683
1.025796
0.916719
1.245737
1.164675
0.971556
1.125932
1.076460
0.939965
1.121759
1.280904
1.116991
1.523495
1.565814
1.794696
1.822710
2.019405
1.987815
2.550483
3.055930
10.931492
39.330721
138.154626
277.837515
588.070750
919.044614
1015.794873
1015.794873
1015.794873
1015.794873
1015.794873
1015.794873
978.599787
662.591457
337.083936
180.523992
65.074563
27.417541
20.676851
27.544498
42.907596
58.819652
81.579685
101.286769
120.256543
127.195716
128.020644
120.731592
101.688504
84.638000
60.410500
46.032667
29.202700
21.399856
15.528798
12.871623
11.910796
11.610985
11.664629
11.909604
12.015700
12.294650
12.494922
12.096763
11.901855
11.835694
11.291504
11.553764
11.579990
11.272430
11.063814
11.441708
10.789633
10.577440
10.315776
10.487437
10.393858
10.574460
9.792447
9.954572
9.887815
9.815693
9.775758
9.947419
##ZVALUE=305
0.885725
0.818968
0.862479
0.714660
0.904799
0.795722
0.750422
0.859499
0.851750
0.955462
0.997782
1.082420
1.101494
1.071692
1.096725
0.899434
1.109838
1.065731
1.005530
1.107454
1.173615
1.181960
1.397729
1.520514
1.482964
1.532435
1.657605
1.744628
1.890659
1.885891
2.234578
2.402663
2.648830
2.925992
5.883574
22.170544
93.608499
209.232569
475.642681
767.369866
1015.993953
1015.993953
1015.993953
1015.993953
1015.993953
1015.993953
1015.993953
874.150395
478.943586
262.789726
98.513961
41.837692
18.032789
19.186735
28.035641
39.127469
60.439706
77.898502
99.072456
111.715794
122.901797
123.261809
112.083554
99.529624
77.896714
60.737729
41.521788
30.997992
19.212961
15.686750
12.708902
12.176633
12.278557
12.110472
11.652708
11.856556
11.710525
11.454821
11.375546
11.633635
11.152625
10.998845
10.901690
10.998845
10.986924
11.193752
10.621548
10.543466
10.440946
10.105968
10.375977
10.291934
9.904504
10.022521
10.047555
9.740591
##ZVALUE=310
0.655651
0.480413
0.731945
0.649691
0.540614
0.641942
0.549555
0.605583
0.697970
0.728965
0.655651
0.796914
0.834465
0.690818
0.824928
0.858903
0.923872
0.764728
0.952482
0.964999
0.811815
1.028776
1.133680
1.114607
1.180768
1.470447
1.194477
1.525879
1.335740
1.480579
1.672506
1.725554
1.737475
1.908541
2.287626
2.606511
2.887845
11.948943
41.594505
145.086646
293.288827
615.881681
952.013731
1015.793681
1015.793681
1015.793681
1015.793681
1015.793681
1015.793681
1009.478569
722.065568
360.025764
191.339850
65.589547
25.440454
14.592409
17.269850
25.229454
34.684539
52.783489
69.100857
91.714859
104.690790
115.526915
117.754936
109.379888
96.528530
75.460672
59.124827
41.480660
29.838681
20.845532
16.310811
12.974739
12.110472
11.716485
11.274815
10.840893
11.084676
10.610819
10.233521
10.018945
10.209680
10.188818
10.338426
10.538697
10.712743
9.989738
10.166764
10.085702
9.912848
9.723902
9.675622
9.439588
9.650588
9.294748
##ZVALUE=315
0.666976
0.496507
0.493526
0.586510
0.448823
0.509620
0.596642
0.519753
0.536442
0.541806
0.619888
0.723600
0.741482
0.705719
0.778437
0.743866
0.584722
0.757575
0.660419
0.848770
0.827909
0.780821
0.968575
0.820756
0.944734
1.069903
1.131892
1.207590
1.132488
1.254678
1.349449
1.430511
1.595616
1.689792
1.787543
1.928806
2.110600
2.352595
2.601743
5.655885
21.842718
92.965961
210.965872
495.398641
805.869699
1015.793681
1015.793681
1015.793681
1015.793681
1015.793681
1015.793681
1015.793681
923.265815
499.012470
274.306536
100.544691
39.551854
14.664531
13.435483
16.593933
21.842718
34.673810
45.849681
65.548420
81.579685
99.764466
107.879639
109.445453
104.866624
89.709759
75.072646
56.334734
42.508841
28.004646
20.716786
14.683604
13.000965
11.012554
10.549426
10.450482
10.259748
10.126829
10.208488
9.969473
10.329485
9.934902
9.852648
10.198951
10.218620
9.661913
9.896755
9.559989
9.756684
9.587407
9.615421
9.028912
##ZVALUE=320
0.567436
0.436902
0.551939
0.628829
0.565648
0.576973
0.580549
0.624657
0.720620
0.589490
0.584722
0.545979
0.590682
0.685453
0.714660
0.441670
0.685453
0.479817
0.910759
0.798702
0.793934
0.793934
0.896454
0.712872
0.966787
1.160502
0.869632
1.014471
1.013875
0.981688
1.106858
1.252890
1.392961
1.402497
1.446605
1.539588
1.711845
1.886487
2.180934
2.026558
2.408624
3.237724
9.453893
51.967502
133.849978
352.368951
592.877865
983.128548
1015.793681
1015.793681
1015.793681
1015.793681
1015.793681
1015.793681
1015.793681
647.201538
375.008583
157.492757
68.524480
19.394755
11.588931
11.929870
13.830662
19.966960
27.941465
43.227673
57.450533
76.501966
90.594888
101.561546
104.485750
98.248720
88.575482
69.598556
54.544806
37.434697
27.952790
18.889904
14.370680
11.545420
10.591745
10.317564
9.752512
10.014772
9.633899
9.850860
9.542704
9.159446
9.682775
9.409785
9.476542
9.501576
9.786487
9.288788
9.317994
9.180903
##ZVALUE=325
0.412464
0.530481
0.596642
0.438690
0.599623
0.561476
0.686646
0.584722
0.598431
0.432730
0.591874
0.506639
0.586510
0.540614
0.486970
0.738502
0.689626
0.753999
0.604987
0.794530
0.857711
0.918508
0.741482
0.790954
0.861883
0.778437
0.780821
0.935793
0.892878
0.951886
1.114607
1.019835
0.910759
1.127720
1.325607
1.237988
1.371503
1.523495
1.611710
1.846552
2.000928
2.044439
2.523661
2.735853
5.513430
35.925508
94.680786
253.262520
459.294915
871.915817
1015.792489
1015.792489
1015.792489
1015.792489
1015.792489
1015.792489
1015.792489
802.944899
490.598679
218.450427
101.944804
29.203892
12.376904
9.927750
10.514855
13.376474
18.399954
28.152466
39.446950
58.054924
72.600842
88.097453
96.718669
99.221468
92.751980
79.660416
66.972971
49.282908
37.000775
24.320483
18.003583
13.173819
10.923743
10.357499
9.773970
9.789467
9.580851
9.562969
9.476542
9.226799
8.918643
9.013414
9.155869
9.122491
9.098649
8.883476
##ZVALUE=330
0.502467
0.380874
0.426769
0.471473
0.379682
0.475645
0.485778
0.516772
0.418425
0.429749
0.353456
0.404716
0.452995
0.517964
0.724792
0.482798
0.587702
0.596642
0.482798
0.514984
0.616908
0.609756
0.527501
0.591874
0.750422
0.865459
0.750422
0.753999
0.885725
0.819564
0.817776
0.977516
0.885725
0.964999
1.111627
1.150966
1.149774
1.372695
1.483560
1.399517
1.438856
1.547933
1.701713
2.049804
2.109408
2.401471
3.097653
14.061928
48.248768
163.129568
317.787528
651.551485
970.696807
1015.754938
1015.754938
1015.754938
1015.754938
1015.754938
1015.754938
970.031619
643.675923
301.969647
152.618885
51.328540
18.911958
9.725690
9.308457
10.157824
12.120605
18.619895
25.338531
39.708614
51.806569
69.931746
81.551671
90.820789
91.011524
85.448623
75.443983
59.231520
46.067834
32.614470
24.377704
17.777681
14.150739
11.624694
10.086894
9.330511
9.218454
9.085536
8.726716
8.882880
8.802414
8.578897
8.753538
8.659959
##ZVALUE=335
0.338554
0.528693
0.292659
0.459552
0.612736
0.460744
0.521541
0.412464
0.721812
0.587702
0.528693
0.487566
0.431538
0.577569
0.476837
0.459552
0.485778
0.371933
0.600815
0.638962
0.803471
0.706911
0.694990
0.633597
0.539422
0.570416
0.598431
0.686646
0.632405
0.812411
0.746846
0.928640
0.987649
0.968575
1.048446
1.012683
1.002550
1.105666
1.121759
1.064539
1.219511
1.429915
1.380444
1.559854
1.676679
1.871586
2.041459
2.322793
2.565980
6.656647
24.971962
101.271868
216.457844
486.747622
794.758797
1015.793681
1015.793681
1015.793681
1015.793681
1015.793681
1015.793681
1015.793681
791.773796
421.449542
224.684477
79.026818
29.626489
10.531545
9.442568
9.386539
10.416508
12.897849
17.163754
26.844740
36.592484
52.480698
64.489841
77.950954
83.724856
85.438490
81.327558
69.521666
58.360696
44.894814
34.387708
24.213791
18.553734
14.048815
11.252761
9.397864
8.781552
9.075999
8.690953
8.746982
8.445978
8.757710
##ZVALUE=340
0.490546
0.485778
0.421405
0.419617
0.469685
0.628829
0.418425
0.449419
0.420809
0.411868
0.366569
0.509620
0.352859
0.636578
0.495911
0.521541
0.485778
0.420809
0.555515
0.514984
0.407696
0.525713
0.522733
0.481606
0.679493
0.683665
0.573993
0.873804
0.763535
0.709891
0.710487
0.698566
0.687838
0.782609
0.825524
0.696778
0.960827
0.941753
1.078844
1.016855
1.107454
1.136661
1.231432
1.247525
1.481771
1.509786
1.576543
1.723766
1.843572
2.172589
2.324581
3.258586
16.453862
53.266883
171.962976
344.304442
709.871650
1003.564000
1015.794873
1015.794873
1015.794873
1015.794873
1015.794873
1015.794873
912.551880
582.041740
275.237560
130.155683
36.028624
13.907552
9.526610
9.287596
9.764433
10.092854
12.583733
16.189814
24.688840
33.809543
49.271584
60.367584
73.095560
78.693628
79.673529
76.284409
67.320466
57.813525
44.157505
33.854842
23.285747
17.826557
12.848973
10.757446
9.276867
8.525848
8.263588
8.407831
##ZVALUE=345
0.349879
0.476837
0.311732
0.398755
0.262856
0.392795
0.548959
0.515580
0.412464
0.525713
0.608563
0.541806
0.443459
0.489950
0.419617
0.418425
0.424981
0.489950
0.500679
0.702739
0.521541
0.559688
0.558496
0.605583
0.701547
0.494719
0.701547
0.555515
0.616908
0.700951
0.670552
0.730753
0.765920
0.824928
0.789762
0.795722
0.664592
1.025796
0.980496
0.864863
1.009703
0.953674
1.053810
1.087785
1.124740
1.309514
1.299977
1.443624
1.596808
1.638532
1.787543
1.862645
2.119541
2.687573
5.351901
35.299659
99.800825
263.870955
476.258397
876.062512
1015.793681
1015.793681
1015.793681
1015.793681
1015.793681
1015.793681
1015.793681
700.436831
404.833555
160.079598
70.052743
20.692945
10.763407
9.106994
9.010434
9.091496
9.192824
11.279583
14.733672
22.874475
31.396747
45.215487
54.448843
65.848827
72.201490
74.491501
71.030855
64.411759
55.900812
42.985678
32.865405
22.827983
17.763972
12.829900
10.687709
9.140968
##ZVALUE=350
0.410676
0.322461
0.354648
0.402927
0.412464
0.727773
0.547767
0.422597
0.402927
0.346899
0.569820
0.423789
0.549555
0.373721
0.493526
0.553727
0.672936
0.444651
0.410676
0.537634
0.460744
0.559688
0.378489
0.582933
0.638962
0.562668
0.594854
0.764728
0.719428
0.629425
0.669956
0.663996
0.671744
0.657439
0.564456
0.675917
0.966787
0.920892
0.835657
0.905991
1.011491
0.831485
0.885725
1.051426
0.925660
1.174808
1.277924
1.306534
1.365542
1.368523
1.594424
1.628995
1.641512
1.970530
2.115965
2.583861
3.208518
18.039942
59.801936
187.713504
352.436900
702.944994
998.106599
1015.793681
1015.793681
1015.793681
1015.793681
1015.793681
1015.793681
830.634832
515.858531
234.395862
107.003450
28.806925
12.238622
8.878708
8.411407
8.078814
8.099675
8.674860
10.663867
14.716983
19.897819
28.584599
36.511421
49.482584
58.296919
65.701604
67.845583
65.608621
60.171485
50.014853
41.423440
30.630827
23.110509
16.923547
##ZVALUE=355
0.458956
0.336766
0.412464
0.496507
0.376701
0.502467
0.411868
0.325441
0.565648
0.606775
0.475645
0.649691
0.626445
0.457764
0.427961
0.495911
0.473857
0.574589
0.446439
0.562668
0.585914
0.520945
0.570416
0.714660
0.609756
0.609756
0.573993
0.559688
0.734925
0.698566
0.691414
0.641942
0.736713
0.739694
0.644922
0.789762
0.902414
0.883937
0.806451
1.030564
0.921488
0.846982
0.882745
0.961423
0.994802
0.894666
0.929832
1.086593
1.133680
1.322627
1.241565
1.204610
1.545548
1.641512
1.804829
1.843572
2.015829
2.312660
2.687573
8.407831
31.117797
122.238994
247.092843
518.738627
830.940008
1015.793681
1015.793681
1015.793681
1015.793681
1015.793681
1015.793681
993.850827
673.126578
302.508473
143.310428
40.691495
15.336871
8.865595
8.114576
7.338524
7.914901
7.646680
8.177757
9.809732
12.111664
17.808676
23.869872
33.944845
41.969419
51.848888
58.146715
62.006712
60.126781
55.754781
48.823953
39.616823
##ZVALUE=360
0.412464
0.340939
0.482798
0.426769
0.580549
0.565648
0.444651
0.554919
0.461936
0.417829
0.591874
0.600815
0.581741
0.489950
0.414848
0.436902
0.465512
0.683665
0.513792
0.597835
0.600815
0.576973
0.574589
0.749826
0.541806
0.689626
0.833869
0.663996
0.543594
0.662804
0.703931
0.721812
0.747442
0.721812
0.781417
0.871420
0.844598
0.897646
0.860691
1.039505
0.919700
0.953674
0.971556
0.877976
0.939965
1.116991
1.067519
1.007915
1.150966
1.078844
1.193881
1.488924
1.430511
1.446605
1.465678
1.834631
1.885891
2.192855
2.190471
2.502799
2.859831
4.229546
13.327003
63.445568
155.271888
384.858847
635.774732
1006.639600
1015.793681
1015.793681
1015.793681
1015.793681
1015.793681
1015.793681
907.244086
448.348522
230.617523
78.152418
27.409792
9.720922
8.290410
7.944703
7.597804
7.338524
7.203817
7.492900
8.306503
10.904670
14.085770
20.537972
27.057528
37.147999
44.196844
52.025914
55.655837
56.406856
##ZVALUE=365
0.408888
0.407696
0.561476
0.462532
0.523925
0.411868
0.616908
0.445843
0.566840
0.559688
0.469685
0.529885
0.399947
0.544786
0.458956
0.297427
0.656843
0.606775
0.709891
0.447631
0.527501
0.584722
0.615716
0.632405
0.664592
0.597835
0.649691
0.777841
0.650883
0.562668
0.634789
0.707507
0.732541
0.813603
0.779629
0.933409
0.768900
0.710487
0.687838
0.709891
0.960827
0.726581
0.950694
0.984669
1.054406
1.237988
1.065731
1.182556
1.018643
1.001954
1.099706
1.080632
1.199841
1.503825
1.349449
1.642704
1.449585
1.643896
1.873970
2.109408
2.392530
2.482533
2.582669
3.219843
6.337762
34.988523
96.201897
254.608393
472.244620
890.192986
1015.822887
1015.822887
1015.822887
1015.822887
1015.822887
1015.822887
1015.822887
617.983937
336.523652
115.723610
42.006969
11.402965
8.158684
7.251501
7.029772
6.837845
6.646514
6.408691
6.563663
7.236600
8.669496
12.676716
16.497970
24.193525
30.793548
39.231777
##ZVALUE=370
0.539422
0.444651
0.514984
0.356436
0.370741
0.340939
0.381470
0.449419
0.510812
0.508428
0.546575
0.609756
0.479817
0.495911
0.583529
0.485778
0.372529
0.495911
0.504851
0.434518
0.507832
0.490546
0.514984
0.514984
0.658631
0.589490
0.471473
0.575781
0.634789
0.554919
0.696778
0.628829
0.723600
0.647902
0.703931
0.681877
0.586510
0.819564
0.610948
0.618696
0.768900
0.847578
0.672936
0.840425
0.948906
1.030564
0.924468
0.787973
0.821948
1.033545
0.968575
0.900626
0.872612
1.270771
1.067519
1.121759
1.233816
1.265407
1.430511
1.632571
1.656413
1.612902
1.918674
2.224445
2.362728
2.611876
3.682971
18.724799
61.808825
189.879537
361.164808
707.565546
1003.522873
1015.793681
1015.793681
1015.793681
1015.793681
1015.793681
1015.793681
723.514557
416.413546
160.819888
66.793561
18.124580
8.637905
6.764531
6.331801
6.140471
5.935431
5.940795
5.676746
5.985498
6.464720
7.952452
10.177493
14.515519
##ZVALUE=375
0.400543
0.425577
0.335574
0.373721
0.381470
0.363588
0.423789
0.421405
0.377893
0.636578
0.476837
0.501871
0.554919
0.511408
0.303984
0.472665
0.433922
0.180602
0.402927
0.524521
0.535846
0.603795
0.517964
0.601411
0.508428
0.631809
0.430942
0.471473
0.573993
0.571609
0.398755
0.458956
0.512600
0.636578
0.579953
0.623465
0.649691
0.568628
0.838637
0.590682
0.656843
0.744462
0.620484
0.765920
0.773668
0.687838
0.835657
0.866652
0.783801
0.744462
0.837445
0.608563
0.955462
0.932813
0.874996
1.015663
0.995994
1.056790
1.084805
1.310706
1.148582
1.309514
1.356602
1.651645
1.593828
1.777411
1.928806
2.204776
2.878904
8.920431
31.692982
118.397474
250.917673
556.812882
875.875950
1015.793681
1015.793681
1015.793681
1015.793681
1015.793681
1015.793681
845.381021
540.908575
265.051723
130.405426
38.455725
13.971925
6.669760
6.108880
5.663633
5.513430
5.465746
5.295873
4.806519
5.078912
5.744696
##ZVALUE=380
0.408888
0.294447
0.439882
0.402927
0.316501
0.321865
0.418425
0.365973
0.463724
0.484586
0.365973
0.290871
0.386834
0.465512
0.433922
0.454783
0.490546
0.543594
0.522733
0.385642
0.440478
0.508428
0.386834
0.515580
0.378489
0.573993
0.523925
0.362992
0.398755
0.557899
0.303984
0.466704
0.599623
0.542998
0.707507
0.522733
0.540614
0.508428
0.649691
0.717640
0.827909
0.613928
0.742674
0.596642
0.791550
0.671744
0.713468
0.585914
0.661612
0.626445
0.631809
0.765920
0.794530
0.648499
0.635982
0.713468
0.787973
0.932813
0.908971
0.947714
0.964999
1.090765
1.190901
1.330972
1.302958
1.555681
1.411438
1.798868
1.994967
2.364516
2.838969
4.562736
17.455816
85.030794
199.404359
458.477736
746.672750
1015.793681
1015.793681
1015.793681
1015.793681
1015.793681
1015.793681
1010.952592
732.795596
366.723537
187.924504
62.940717
23.209453
7.452965
5.727410
5.551577
5.316734
4.935861
4.809499
4.560947
##ZVALUE=385
0.336766
0.371933
0.181794
0.266433
0.368953
0.470877
0.507832
0.492930
0.301600
0.400543
0.337958
0.255704
0.337958
0.336766
0.632405
0.378489
0.317693
0.493526
0.376701
0.309944
0.512600
0.415444
0.436902
0.443459
0.424981
0.509620
0.471473
0.552535
0.367761
0.446439
0.437498
0.465512
0.370741
0.568628
0.515580
0.483990
0.415444
0.485778
0.498891
0.529885
0.618696
0.405908
0.540614
0.596642
0.627637
0.597835
0.634789
0.681877
0.669956
0.641942
0.640750
0.781417
0.751615
0.698566
0.737906
0.754595
0.797510
0.843406
0.840425
0.676513
0.748634
1.000762
0.799894
1.087785
0.899434
1.209974
1.331568
1.466870
1.718998
1.747608
2.090931
2.157688
2.459884
3.252625
7.998943
47.814846
124.838948
313.680768
559.917688
982.657671
1015.794873
1015.794873
1015.794873
1015.794873
1015.794873
1015.794873
953.468680
532.366633
304.302573
122.052431
47.697425
11.123419
6.023645
5.078912
5.019903
4.556775
##ZVALUE=390
0.361800
0.324845
0.336766
0.322461
0.315905
0.465512
0.329614
0.364780
0.341535
0.300407
0.365973
0.328422
0.474453
0.364780
0.437498
0.527501
0.302792
0.256896
0.381470
0.375509
0.431538
0.466704
0.432730
0.353456
0.456572
0.331998
0.276566
0.488758
0.523925
0.347495
0.316501
0.430942
0.311732
0.496507
0.337958
0.403523
0.479817
0.508428
0.603795
0.440478
0.488758
0.426769
0.684857
0.499487
0.463724
0.584722
0.611544
0.613928
0.604987
0.663996
0.516772
0.808835
0.805855
0.642538
0.728965
0.781417
0.706911
0.716448
0.780821
0.715852
0.686646
0.910759
0.810623
0.946522
0.922680
1.138449
1.160502
1.257658
1.485944
1.487732
1.823902
1.966953
2.090931
2.157688
2.192855
2.667904
3.997684
24.951696
80.358982
247.933865
471.243858
890.054703
1015.793681
1015.793681
1015.793681
1015.793681
1015.793681
1015.793681
1015.793681
730.850697
428.390503
176.603794
80.949664
21.880865
8.155704
4.901886
##ZVALUE=395
0.350475
0.225902
0.314713
0.345707
0.372529
0.361800
0.343919
0.187755
0.362992
0.359416
0.425577
0.417829
0.478625
0.379682
0.374913
0.442863
0.341535
0.328422
0.469685
0.288486
0.314713
0.418425
0.330806
0.315905
0.344515
0.335574
0.398755
0.355840
0.405908
0.442863
0.312924
0.432730
0.503659
0.378489
0.446439
0.393987
0.343919
0.535846
0.463724
0.595450
0.472665
0.476837
0.575781
0.420809
0.583529
0.523925
0.570416
0.516772
0.601411
0.643730
0.730753
0.542998
0.678897
0.773668
0.449419
0.732541
0.731945
0.737906
0.709891
0.735521
0.769496
0.873804
0.818968
0.761747
0.852942
1.023412
1.272559
1.231432
1.468658
1.625419
1.565814
1.677871
1.832843
1.893640
1.840591
1.833439
2.175570
2.410412
2.955794
14.239550
55.197477
189.067721
354.054570
677.539706
981.307030
1015.805006
1015.805006
1015.805006
1015.805006
1015.805006
1015.805006
890.978575
562.897921
245.447755
116.533637
35.655499
##ZVALUE=400
0.301600
0.261664
0.375509
0.405908
0.204444
0.263453
0.225902
0.253916
0.180602
0.223517
0.224710
0.217557
0.431538
0.254512
0.426769
0.202656
0.403523
0.332594
0.365973
0.377893
0.261664
0.282526
0.268817
0.353456
0.168681
0.346899
0.195503
0.414848
0.384450
0.519753
0.413656
0.378489
0.378489
0.414848
0.512600
0.579953
0.420809
0.563860
0.507832
0.361800
0.597835
0.422597
0.480413
0.451803
0.408888
0.516772
0.397563
0.505447
0.617504
0.744462
0.593662
0.494719
0.626445
0.703931
0.686646
0.730753
0.742674
0.675917
0.793934
0.692606
0.771880
0.557899
0.813603
0.880957
0.803471
0.908971
1.267791
1.036525
1.332760
1.537800
1.478791
1.643896
1.693964
1.630783
1.554489
1.622438
1.545548
1.699924
2.065897
2.293587
2.622604
7.547736
28.122663
105.721951
227.725506
510.461926
812.463760
1015.792489
1015.792489
1015.792489
1015.792489
1015.792489
1015.792489
988.274813
682.517886
347.606540
##END
