##TITLE=QP00601
##FORMAT=SPECTACLE-ASCII V-1.2
##DATA TYPE=ULTRAVIOLET SPECTRUM
##SECOND TYPE=ULTRAVIOLET SPECTRUM
##DATE=10/24/17
##TIME=17:35:20
##SPECTROMETER/DATA SYSTEM=SPECTACLE
##XUNITS=NM EM
##YUNITS=ENERGY
##YFACTOR=1
##FIRSTX=220
##LASTX=410
##NPOINTS=96
##3DDATA=Equidistant
##ZUNITS=NM EX
##FIRSTZ=210
##LASTZ=400
##ZPOINTS=39
##XYDATA=(Y..Y)
##ZVALUE=210
2.486706
1.777411
2.436638
2.249479
2.177954
2.938509
2.473593
2.742410
2.434850
2.716780
2.697706
2.707839
2.879500
2.631545
2.369881
2.161860
2.658963
2.868772
3.419518
3.465414
3.312826
3.503561
3.157854
3.841519
2.839565
3.746748
4.274845
4.025698
4.934669
5.026460
4.911423
4.860759
4.334450
4.902482
3.931522
4.669428
4.988909
5.633831
4.963875
5.232692
4.692674
5.278587
5.045533
5.076528
5.526543
5.037785
5.479455
4.769564
5.719662
4.871488
5.570650
5.748868
5.707741
5.245805
6.175637
4.677773
5.364418
5.123615
6.086826
6.195903
6.313920
5.432963
5.168915
6.124973
5.873442
5.693436
6.329417
6.876588
7.955432
8.218884
8.913875
10.170937
11.560917
13.815761
14.840961
16.011596
16.281605
15.005469
13.508797
13.387799
12.624860
11.256933
9.975433
8.521676
7.935762
7.232428
6.645918
6.601810
6.055832
6.326437
5.712509
5.799532
5.446672
5.858541
5.667806
6.379485
##ZVALUE=215
7.050633
5.941987
6.657839
6.436706
4.833937
5.195737
5.480647
5.538464
5.249977
5.231500
4.741549
5.250573
5.360842
4.577637
4.873872
4.806519
4.430413
4.076958
3.948808
4.159808
4.741549
4.679561
4.832745
4.979968
5.241632
5.221963
5.310774
5.859733
5.823970
5.642772
6.118417
5.859733
6.198883
5.391836
6.155968
5.809665
6.294847
5.711913
6.232858
6.419420
6.186962
5.392432
5.591512
6.615520
6.113648
6.823540
7.486939
6.996989
6.757975
6.283522
6.323457
7.496476
8.382797
6.986856
6.251931
5.888939
7.124543
6.889701
7.438660
7.031560
7.326603
7.025599
6.519556
7.123947
6.891489
7.383823
8.254647
8.367896
9.479523
11.046529
11.277795
11.188984
13.665557
14.198422
15.535951
16.283989
16.892552
15.817881
15.130639
14.009476
13.650656
11.935830
10.447502
10.541677
9.715557
9.320974
7.901788
7.177591
7.651448
6.959438
6.780624
7.341504
7.122755
7.245541
6.564856
6.588697
##ZVALUE=220
17.371774
16.156435
19.420981
20.129681
19.507408
16.673803
13.288856
10.329485
10.327697
9.749532
11.194944
11.610985
11.636615
10.899901
9.070635
7.577538
6.657839
4.024506
3.537536
3.561974
3.877878
3.657937
4.271865
3.882647
3.929734
3.545880
4.561543
5.302429
4.563928
4.580617
4.362464
4.988909
4.286766
5.454421
5.495548
5.447865
5.042553
5.729795
6.178617
6.781816
5.322695
5.595684
6.011724
5.978942
5.880594
6.354451
5.578995
6.389618
6.419420
5.959868
5.242825
6.956458
6.350875
6.721616
6.802678
5.743504
6.679893
7.194877
6.612539
7.616878
6.850958
6.539822
6.756783
6.678700
6.517768
7.556677
7.690787
7.357597
9.245872
9.127855
10.009408
12.368560
13.109446
13.984442
15.138984
16.245842
14.891624
15.250444
14.859438
14.551878
14.154911
11.679530
13.524890
10.746717
9.779930
9.377599
8.338690
7.774830
7.677674
7.030964
7.801652
7.319450
7.977486
6.098747
7.448792
7.123947
##ZVALUE=225
26.593804
29.787421
43.168664
54.239631
64.031482
66.689849
65.196753
50.657988
39.852858
30.808449
23.847818
19.975901
21.809936
24.032593
21.931529
22.449493
21.372437
17.546415
13.565421
9.963512
7.004738
5.200505
4.579425
4.278421
4.685521
5.314946
4.088879
4.834533
4.991889
4.689693
5.708933
5.061626
4.959702
6.122589
6.228685
5.798936
5.513430
6.513000
6.330609
6.271601
6.104708
6.804466
6.695986
6.049871
6.693602
6.776452
5.805492
6.390810
7.506609
6.949902
6.915927
7.300973
7.625818
7.703900
8.050799
8.534789
8.282661
8.023977
8.208752
8.807778
8.874536
9.759665
8.849502
9.363890
9.989738
9.349585
10.037422
10.904670
11.798739
11.595488
12.830496
14.985800
15.784502
15.990734
18.071532
18.841624
18.976927
18.746853
17.311573
16.648769
16.433001
14.963746
14.822483
13.751984
13.382435
12.143850
12.353659
11.935830
11.557937
11.977553
10.778904
10.904670
11.718869
10.072589
10.914803
11.819601
##ZVALUE=230
24.880767
25.829673
45.715570
77.774525
108.699799
141.366720
162.116885
170.762539
158.069730
129.373670
100.985765
68.102479
51.611662
43.510795
44.872761
46.501756
48.623681
51.195621
44.974685
38.781762
27.174950
21.654963
12.212992
9.706616
5.768538
4.884601
5.454421
6.303787
6.380677
5.783439
5.452633
5.824566
6.851554
6.466508
6.223917
6.994605
6.478429
7.096529
6.649494
7.322431
7.048845
7.804632
6.928444
6.580949
7.011890
6.527901
8.138418
6.836653
8.039474
8.650422
8.494854
8.929968
9.329915
10.518432
10.127425
9.790659
10.582805
10.753870
10.844469
10.866523
11.216998
11.936426
12.180805
13.096929
12.166500
14.407635
14.313459
14.301538
15.480518
15.262961
18.792748
18.406510
20.699501
20.702481
20.882487
23.903847
23.893714
22.789836
22.942424
20.627975
21.911860
19.116998
19.884706
20.815730
18.559694
19.356608
18.408895
17.972589
18.605590
16.265512
18.958449
17.347932
16.813874
17.912984
17.434955
16.974807
##ZVALUE=235
8.103848
9.807944
25.527477
49.768686
96.805692
150.479674
231.193900
292.450786
345.059633
349.107981
312.058926
267.161727
211.830735
135.806799
100.904703
76.274872
71.809888
74.899793
81.315637
83.903670
77.430606
70.030689
52.873492
39.920807
26.222467
17.455816
11.898875
7.973909
6.809831
7.157922
7.521510
7.405877
7.787943
7.732511
7.394552
7.056594
7.644892
8.075833
7.869601
7.917881
7.747412
7.609725
7.745624
8.448958
8.156896
8.813739
9.160638
7.855892
9.416938
9.855628
10.201931
10.295510
10.957718
11.667609
10.749698
11.875629
12.755990
12.491941
13.153553
13.666749
14.457703
16.984940
15.068650
15.694499
17.355680
16.703606
16.830564
18.932819
20.428896
22.994876
24.171472
24.828911
23.827553
27.293563
29.142499
28.483868
27.565956
28.918982
30.896664
29.503703
28.272867
27.696490
27.835965
28.038621
28.573871
26.622415
27.363896
25.988817
25.065541
24.654865
24.612546
24.568439
23.480654
23.894906
24.235845
24.740696
##ZVALUE=240
1.819730
2.028942
5.209446
11.604428
33.930540
64.933896
144.464970
225.421786
360.003710
446.431637
540.529490
551.168919
525.148511
432.533622
342.050791
223.454833
156.457424
109.456778
93.829632
95.763803
107.198954
112.414956
114.623904
102.291703
80.340505
69.872737
47.632456
35.511851
22.861958
16.575456
12.290478
8.245707
9.721518
8.351803
8.856654
9.182692
8.333921
8.381605
8.570552
8.391738
8.746982
8.188486
7.902980
7.734895
7.880926
7.733703
7.734895
9.365678
9.645820
8.815527
9.888411
11.578798
10.727644
12.059808
11.622906
12.480617
12.992620
13.724566
15.419722
16.398430
14.148951
17.147660
18.145442
20.462871
17.545819
19.839406
21.151900
20.541549
20.388961
24.274588
27.198792
27.056932
30.077696
28.846860
33.646822
33.570528
34.008622
33.645630
32.173991
34.238696
35.051703
36.446452
34.242868
34.236908
33.586621
32.274723
32.577515
33.449531
32.229424
32.058954
31.158924
32.274723
30.296445
29.156804
28.907657
29.294491
##ZVALUE=245
2.071857
1.866817
2.203584
2.018809
2.915859
9.326935
24.838448
68.563819
128.592849
217.150450
376.421809
503.546596
639.204979
669.716001
654.066801
586.795807
446.628928
333.230495
217.280984
145.039558
108.959675
100.912452
108.700991
125.826001
128.303766
125.245452
114.327669
94.793439
77.318549
54.468513
39.274693
24.546981
16.840696
11.174679
10.822415
9.386539
8.698702
7.822514
7.206798
7.311702
7.642508
7.843971
7.375479
7.993579
7.347465
6.657839
7.860661
8.218884
8.493662
8.318424
8.409619
9.408593
9.988546
9.790659
10.821819
11.112690
12.603998
12.522936
13.118982
14.592409
14.443994
15.721917
16.346574
16.464591
16.253591
18.342733
19.571781
19.369721
22.076964
22.566915
24.548769
25.179982
27.972460
28.848648
30.819774
30.127764
31.683445
32.173991
30.973554
32.496452
31.496882
31.038523
32.725930
33.518672
32.142997
30.712485
31.669736
29.409528
31.091571
32.072663
30.229688
29.725432
31.301975
30.923486
30.866861
31.335950
##ZVALUE=250
1.512766
1.600981
1.680851
1.591444
1.631975
2.338886
2.433658
6.968975
19.725561
58.341622
120.231509
212.900639
387.792587
520.595908
681.781769
767.554641
791.132450
730.244517
598.956943
463.726521
290.235877
190.538764
113.184452
98.086596
107.009411
120.394826
129.549503
139.994621
140.566826
123.162866
105.393529
79.214573
58.995485
39.536953
26.959777
16.025901
11.407733
8.779764
8.441806
7.497668
7.138848
7.234812
6.747842
7.372499
7.507801
7.416606
7.315874
7.942915
7.539988
8.549690
8.462667
8.380413
9.058714
8.691549
9.620786
10.702610
11.054873
10.978580
11.086464
13.416409
12.523532
13.380647
14.215708
15.696883
14.870763
16.517639
16.848445
18.287897
19.709468
20.823479
21.288991
21.984577
23.452640
25.179982
26.082993
27.205944
26.975870
27.840734
28.629899
29.058456
28.701425
29.163957
29.789805
28.773546
28.523803
27.975440
29.803514
29.926896
29.534698
30.214787
30.376911
31.553507
29.950738
29.317737
29.219985
29.603839
##ZVALUE=255
1.465678
1.412630
1.267791
1.630783
1.303554
1.350641
1.569986
1.713634
1.563430
3.544688
16.611814
40.277839
81.423521
190.958977
311.375856
503.826737
657.418966
823.765993
889.524817
861.155987
767.614841
619.890690
394.486785
252.067447
138.094425
99.206567
90.446472
97.888708
121.548772
135.898590
142.844915
140.035748
130.608678
102.368593
84.976554
56.964755
38.976669
22.137761
15.253425
9.764433
8.092523
7.084608
6.875992
6.473660
6.867647
6.683469
6.810427
7.327795
7.050633
7.163882
8.035898
7.933974
7.951856
8.155704
8.345842
8.966923
9.815693
9.763837
9.356737
9.980798
10.127425
11.539459
12.167692
11.301637
13.917685
12.965798
13.864636
14.618635
15.932918
17.829537
18.161535
20.333529
19.524693
21.580458
23.031831
22.494793
24.308562
25.776625
25.143623
25.838614
24.752617
26.566982
27.427673
25.777817
25.641918
25.963783
27.645826
27.172565
27.980804
26.239753
26.694536
27.696490
27.563572
27.771592
27.233958
28.223991
##ZVALUE=260
1.122952
1.224875
1.439452
1.386404
1.345873
1.351833
1.569986
1.412630
1.583695
1.633763
1.717806
2.115965
6.279945
25.300980
60.271621
148.981810
257.386565
445.129871
610.422492
827.195644
948.469639
982.942581
893.618464
747.911930
513.097048
355.209708
204.239488
128.939748
84.475875
80.829859
95.553994
122.257471
139.549971
149.526000
144.731998
128.126740
110.666752
80.382824
60.014725
36.870837
25.758743
15.119910
9.496808
6.989837
6.477833
6.642938
7.092953
6.371737
6.897449
6.751418
7.367730
7.426739
8.379817
8.259416
8.462667
8.755922
8.838773
8.988976
9.842515
9.547472
10.074973
10.207891
11.017919
11.541843
12.028813
12.568831
12.621880
14.236569
14.542937
16.126633
17.140508
18.417835
18.378496
19.265413
20.732880
21.225810
21.484494
22.543669
23.697615
24.337769
23.344755
22.709966
23.438931
24.849772
24.610758
23.526549
24.084449
26.211739
25.359988
24.554729
24.707913
24.958849
24.182796
26.090741
25.415421
24.940968
##ZVALUE=265
1.258850
1.056790
1.159906
1.132488
0.971556
1.250505
1.320839
1.240969
1.235604
1.376867
1.500845
1.668930
1.337528
1.800656
3.490448
17.464757
44.769645
116.139650
213.389993
418.266654
613.133907
804.044008
1006.701589
1015.802026
1015.802026
905.102491
685.783029
494.446754
281.577706
170.407891
103.014708
72.491765
77.891946
104.501843
124.967694
144.902468
151.516795
148.311853
133.391619
108.316541
85.533857
56.848526
39.917827
22.982955
14.724731
9.821653
7.782578
6.953478
7.075667
7.396936
7.219911
7.819533
8.182526
8.972883
8.207560
8.593798
9.227991
9.651780
10.019541
9.601712
9.880662
10.717511
10.922551
10.985732
12.266636
12.504458
12.735724
13.674498
14.097691
16.030669
16.007423
16.575456
17.314553
19.335747
19.222498
20.217896
21.353960
20.914674
21.903515
20.073652
21.013618
21.781921
21.855831
21.972656
22.346973
22.774935
23.630857
24.110675
22.760630
24.425983
24.019480
23.897886
23.585558
24.054646
24.157763
24.996996
##ZVALUE=270
0.878572
1.121759
1.092553
1.103878
1.192689
1.330972
1.170635
1.326799
1.277924
1.287460
1.394749
1.543760
1.501441
1.393557
1.591444
1.835823
2.523661
8.457899
25.314689
85.145831
172.712803
310.754776
571.722984
781.005621
1011.011004
1015.879512
1015.879512
1015.879512
845.167637
650.243759
454.494953
237.161517
136.041641
70.302486
60.974956
82.471967
102.008581
129.137635
145.218968
153.862834
151.124001
133.159757
114.605427
84.387660
62.972903
37.392974
25.820732
16.096830
11.219978
8.062720
8.023977
8.496642
8.226633
8.725524
8.691549
9.400845
9.542704
9.706616
10.164976
10.248423
10.912418
11.473894
11.259913
12.102723
12.023449
12.843609
13.239980
14.015436
15.003681
15.549660
15.914440
16.501546
17.398596
18.443465
18.897653
19.530654
19.184947
19.790530
19.890666
20.273924
20.563602
20.851493
20.650625
21.773577
21.398664
21.438599
22.398829
22.280812
21.963716
22.019744
22.172928
22.404790
22.215843
22.575855
22.285581
23.462772
##ZVALUE=275
0.868440
0.821948
0.812411
0.888705
1.057982
0.843406
1.001954
1.023412
1.062751
1.317859
1.152754
1.144409
1.261830
1.317859
1.261830
1.493692
1.842976
1.749992
1.641512
3.586411
14.066696
60.976744
134.469867
303.503871
494.341850
766.896009
954.885483
1015.793681
1015.793681
1015.793681
1004.568934
778.654814
566.805601
316.044688
186.149478
85.943937
55.852532
56.375861
74.934959
104.394555
123.359561
145.111680
151.567459
146.794915
133.800507
108.939409
85.797906
59.537888
44.023991
26.184916
18.152595
11.995435
10.770559
8.816719
9.194613
9.705424
9.789467
10.322928
10.680556
11.529922
11.404753
11.913776
11.933446
12.138486
12.263656
12.756586
13.595819
13.957620
14.456511
15.557408
16.048551
17.058849
17.189980
18.190742
18.989444
18.744469
19.753575
20.142794
19.894838
20.097494
19.194484
20.614862
20.702481
20.337701
20.240545
20.548701
20.686984
21.002889
21.229982
21.641850
20.794868
22.354722
21.850467
21.365881
21.457672
22.131801
##ZVALUE=280
0.823736
0.669956
0.911951
0.833869
0.818968
0.800490
0.943542
0.949502
0.943542
0.997782
1.168847
1.046658
1.212955
1.100898
1.235604
1.224875
1.238585
1.471639
1.342893
1.602769
1.602769
1.999736
8.921623
32.848716
117.534995
220.332742
428.678393
632.555485
915.122628
1015.788913
1015.788913
1015.788913
1015.788913
905.596614
680.221915
394.155979
239.108801
109.261870
59.052706
42.283535
53.342581
78.121424
99.481940
125.249624
140.525699
146.746635
145.292878
129.873753
111.648440
83.624721
62.622428
40.516853
29.728413
17.951727
13.984442
11.162758
10.649562
10.503531
11.173487
11.867881
11.818409
12.263656
12.800694
12.704730
13.622642
14.094710
13.783574
14.689565
15.293956
15.686750
16.274452
16.970634
17.272830
18.702745
18.837452
18.959641
19.332767
19.381642
19.747615
19.478798
19.946694
20.325780
20.968914
20.434856
19.989610
21.201968
20.872951
20.198822
20.634532
20.620823
20.699501
20.338893
20.025969
20.454526
20.852685
21.030903
##ZVALUE=285
0.875592
0.768900
0.813603
0.738502
0.777841
0.884533
1.122952
0.994802
0.894666
1.058578
1.002550
1.116991
1.180768
1.238585
0.991821
1.023412
1.161695
1.177788
1.348853
1.469851
1.323819
1.447797
1.871586
2.100468
4.712939
17.165542
61.002970
134.952664
311.341882
499.049425
713.847876
1003.558636
1015.869975
1015.869975
1015.869975
1015.869975
836.399794
529.928803
338.096619
164.127946
85.020661
39.446950
33.897758
50.590634
68.851709
99.414587
118.386745
136.688948
146.479607
144.444704
131.012797
110.927820
88.664889
63.529611
47.258735
28.368831
21.186471
15.182495
13.951659
12.441874
12.969971
13.483763
13.264418
13.339520
14.256835
14.114976
15.080571
15.841722
15.839934
17.656684
16.834736
18.247962
17.795563
18.377900
19.032955
18.936992
19.035935
19.931793
20.091534
20.422935
20.497441
20.785928
20.415783
20.913482
20.329952
20.765662
20.482540
20.073652
20.860434
20.058751
20.716786
19.289851
19.732714
20.051599
20.420551
20.272732
##ZVALUE=290
0.841618
0.641942
0.734925
0.657439
0.829697
0.702739
0.730753
0.710487
0.799894
0.807643
0.933409
0.935793
0.957847
0.759959
1.012683
1.063943
1.126528
0.972748
1.288652
1.314878
1.183748
1.526475
1.342893
1.496673
1.836419
1.962781
2.522469
6.872416
33.802986
83.988905
170.021653
380.361676
606.084466
949.787498
1015.794873
1015.794873
1015.794873
1015.794873
998.760462
699.129105
467.257500
236.921906
124.299526
49.625635
28.244853
32.948852
45.297742
68.534613
88.963509
116.135478
131.745934
141.021609
143.251419
129.339695
112.174749
86.208582
66.284537
45.679808
33.165812
23.633838
18.283725
15.030503
14.887452
15.027523
15.244484
15.262961
15.752912
16.698837
16.841888
17.524958
18.045902
18.698573
18.358827
19.550920
19.763708
20.542741
20.531416
20.108819
19.953847
20.009875
20.565987
20.639896
20.136833
20.051599
20.509958
20.779967
20.412803
20.323992
20.820498
20.274520
20.117760
19.760728
20.649433
20.017624
19.812584
19.133687
##ZVALUE=295
0.626445
0.495911
0.732541
0.687838
0.842810
0.706911
0.749826
0.709891
0.633597
0.804663
0.676513
0.648499
0.716448
0.947714
0.749826
0.754595
0.813603
0.863671
0.973940
1.000762
0.947714
1.063943
1.156926
1.102686
1.324415
1.252890
1.460910
1.454949
1.950860
2.851486
15.607476
46.152472
140.328407
271.693468
541.729927
777.469873
1015.753746
1015.753746
1015.753746
1015.753746
1015.753746
879.992843
553.277731
348.036885
160.365701
79.739690
31.120777
22.281408
28.885603
42.770505
66.320896
86.203814
110.132694
126.056671
137.117505
137.135983
125.933886
108.940601
86.857677
68.787932
47.434568
34.117699
24.999976
20.309687
17.630458
16.247630
16.144514
16.460419
17.312765
17.417669
18.685460
19.224882
19.761920
19.805431
19.924641
20.211935
20.676851
20.194650
20.586848
20.757914
20.559430
21.272898
20.917654
20.531416
20.690560
20.770431
21.113753
20.366907
20.077825
21.178722
20.240545
20.796657
19.846559
19.214749
19.985437
19.685626
##ZVALUE=300
0.714660
0.501871
0.565648
0.631809
0.568628
0.607967
0.638962
0.660419
0.574589
0.666976
0.582933
0.773668
0.897646
0.762939
0.769496
0.866652
0.816584
0.972748
0.707507
0.978708
0.961423
0.990629
0.990629
0.892878
1.227856
1.235604
1.304746
1.316667
1.703501
1.662970
1.654625
2.070665
6.785393
24.511814
88.665485
179.345608
396.341681
632.027984
974.846482
1015.793681
1015.793681
1015.793681
1015.793681
1015.793681
709.871650
466.665626
238.447785
128.460526
47.382712
23.690462
20.349622
26.544929
42.078495
57.943463
81.938505
102.266669
122.775435
131.253004
131.354928
123.925805
106.745958
89.425445
67.639947
51.653981
34.886599
27.130842
21.497607
19.025803
18.271804
18.294454
18.900633
18.989444
20.073652
19.790530
20.533800
20.348430
21.270514
20.686984
21.028519
21.336675
21.946430
21.053553
21.743774
21.561980
21.258593
20.950437
21.765828
21.027923
21.043420
20.976663
20.790696
19.858479
20.371675
19.685626
20.446777
20.778775
##ZVALUE=305
0.495911
0.423789
0.451803
0.529885
0.547767
0.540614
0.530481
0.329614
0.705719
0.739694
0.764728
0.647902
0.622869
0.636578
0.778437
0.733733
0.744462
0.872612
0.845790
0.883937
0.879765
0.888705
0.975728
0.911951
0.831485
1.014471
1.171827
1.042485
1.311898
1.285672
1.428723
1.505613
1.975894
1.924634
3.558993
13.818741
59.362650
135.806799
314.645767
513.134003
837.864876
1015.793681
1015.793681
1015.793681
1015.793681
1015.793681
856.997967
607.685447
324.767828
184.323788
73.982477
33.856630
17.503500
19.129515
28.482676
39.893985
61.907768
78.377724
102.093816
114.813447
125.368834
126.883984
117.732882
104.931593
83.879828
66.742897
48.559904
37.113428
26.508570
22.298694
19.743443
19.302964
19.900799
19.681454
20.544529
20.535588
20.032525
20.905733
20.630956
21.364689
21.305680
21.544695
21.378994
21.611452
21.682978
21.847486
21.990538
21.241903
21.421909
21.625757
21.624565
20.839572
20.863414
20.789504
20.526648
20.190477
##ZVALUE=310
0.467896
0.591874
0.694990
0.545979
0.522733
0.557899
0.548959
0.606775
0.603795
0.608563
0.499487
0.513792
0.687838
0.555515
0.631809
0.576973
0.477433
0.717640
0.702739
0.579953
0.769496
0.782609
1.058578
0.897646
1.042485
0.923872
0.987649
1.077652
0.760555
0.981688
1.110435
1.118779
1.220703
1.269579
1.604557
1.861453
2.081990
6.971955
25.728941
92.046857
186.797976
397.234559
627.360940
962.031484
1015.793681
1015.793681
1015.793681
1015.793681
1014.443636
718.719959
486.681461
247.807503
135.125518
52.222610
23.646951
14.873743
17.877817
26.581883
35.723448
53.937435
71.452856
93.664527
107.665658
119.387507
122.273564
113.173723
103.626847
85.266829
67.341924
49.104691
37.754774
28.272867
23.814440
20.631552
20.308495
19.891858
19.893646
20.344853
20.242929
21.152496
21.883845
21.240711
21.586418
21.896958
21.824837
22.163987
22.077560
22.268891
21.527410
21.736622
21.899939
21.228790
21.224618
20.728707
20.657778
20.611882
##ZVALUE=315
0.505447
0.385642
0.558496
0.614524
0.550747
0.439882
0.546575
0.530481
0.696778
0.533462
0.674725
0.537634
0.557899
0.440478
0.477433
0.464916
0.515580
0.567436
0.580549
0.610948
0.751615
0.653863
0.567436
0.761747
0.790954
0.645518
0.961423
0.867844
0.961423
1.028776
1.038909
1.046658
1.186728
1.200438
1.196861
1.496673
1.599789
1.934767
2.023578
3.107786
12.055635
55.179596
132.538676
310.689807
509.012938
839.976668
1015.793681
1015.793681
1015.793681
1015.793681
1015.793681
865.435004
622.961521
337.618589
187.824965
72.013736
31.665564
14.530420
14.002919
18.109679
23.107529
35.727620
47.925711
67.367554
84.601641
102.466941
111.741424
115.464926
110.928416
96.916556
83.136559
63.971877
50.220490
35.270452
29.390454
23.130774
21.475554
20.589828
20.219684
20.899773
20.305514
20.991564
21.317601
21.574497
21.747947
21.959543
22.077560
21.747947
21.344423
21.629930
21.314621
21.393895
20.888448
20.452738
20.335913
20.192862
##ZVALUE=320
0.466704
0.403523
0.467896
0.574589
0.419617
0.523925
0.479817
0.524521
0.302792
0.474453
0.573993
0.397563
0.568628
0.439882
0.458956
0.636578
0.844598
0.572801
0.570416
0.589490
0.617504
0.600815
0.633597
0.661612
0.608563
0.730753
0.460744
0.710487
0.813603
0.793934
0.970960
0.882745
1.029968
1.105666
0.913739
1.053810
1.143813
1.431704
1.472831
1.574755
1.837611
1.967549
6.666780
23.968816
89.977980
186.928511
393.933654
604.386926
930.776596
1015.793681
1015.793681
1015.793681
1015.793681
1003.699899
703.478456
464.243889
220.129490
117.337704
44.400692
20.366907
12.497902
12.409687
15.596747
20.603538
31.909943
43.183565
62.425733
77.746511
97.743869
106.992722
109.919906
105.914474
94.144940
80.337524
62.049627
48.915744
36.472678
29.382706
23.629665
22.264719
21.019578
20.432472
21.310449
21.363497
21.002889
21.140575
21.798611
21.824837
21.319985
21.734834
21.443963
21.600723
21.047592
20.732880
20.752549
20.495653
##ZVALUE=325
0.396967
0.415444
0.434518
0.326633
0.469685
0.333786
0.488758
0.517964
0.522733
0.515580
0.530481
0.573993
0.473857
0.494719
0.489950
0.580549
0.612736
0.450611
0.621676
0.475645
0.412464
0.587702
0.618696
0.668764
0.711679
0.899434
0.729561
0.605583
0.843406
0.933409
0.747442
0.782609
0.849962
0.961423
0.726581
1.033545
0.905991
0.981688
1.061559
1.200438
1.109838
1.356602
1.413822
1.824498
2.989769
18.345714
50.352812
142.923594
270.393491
535.019636
782.232881
1015.793681
1015.793681
1015.793681
1015.793681
1015.793681
822.239518
512.065887
314.466953
142.117739
70.483685
23.206472
12.880564
11.239648
11.380911
14.810562
19.899607
30.625463
42.451620
60.784817
76.395869
92.005730
100.062490
103.251934
98.946691
86.748600
74.966550
58.577657
46.869516
34.320951
28.257966
23.867488
22.251606
20.836592
20.749569
21.271706
20.834804
21.286607
20.825863
21.057725
20.968914
20.940900
21.007657
20.649433
20.415783
20.356774
##ZVALUE=330
0.213981
0.370741
0.420809
0.335574
0.292659
0.385642
0.497699
0.549555
0.350475
0.395775
0.597835
0.432730
0.538826
0.567436
0.518560
0.588894
0.555515
0.504851
0.566840
0.544786
0.525713
0.484586
0.484586
0.437498
0.427961
0.583529
0.652671
0.645518
0.717640
0.804663
0.756979
0.668764
0.750422
0.813603
0.850558
0.816584
0.745654
0.971556
0.899434
0.963807
1.161695
1.273751
1.424551
1.391768
1.522899
1.746416
2.081990
7.675886
26.493669
92.248917
190.272927
407.267809
634.480715
975.843668
1015.793681
1015.793681
1015.793681
1015.793681
966.144800
638.175011
420.611501
200.373530
103.047490
38.383603
16.848445
10.532737
11.075735
11.869669
14.666915
21.046996
28.983951
42.382479
55.497885
74.277520
86.255670
96.221566
98.193884
94.205737
85.483789
69.294572
57.499409
43.089986
35.375953
28.661489
25.052428
22.301674
20.909905
20.619631
20.345449
20.612478
20.284653
20.178556
20.019412
20.154715
19.737482
19.944906
##ZVALUE=335
0.322461
0.452995
0.377893
0.448823
0.313520
0.436902
0.350475
0.356436
0.481606
0.365973
0.371933
0.302792
0.322461
0.429749
0.505447
0.519753
0.590682
0.429749
0.274777
0.295639
0.482798
0.504851
0.501871
0.395775
0.397563
0.513792
0.436902
0.432730
0.711679
0.602603
0.566840
0.638962
0.605583
0.761747
0.763535
0.768900
0.770688
0.917912
0.808835
0.965595
0.926852
0.876784
0.809431
1.021624
1.142621
1.240969
1.391768
1.603961
1.796484
4.106760
14.419556
57.657957
124.120712
293.217897
493.361950
846.476555
1015.793681
1015.793681
1015.793681
1015.793681
1015.793681
800.867677
545.528531
286.981463
151.748657
56.373477
24.115443
11.662841
10.707974
11.421442
12.256503
15.759468
19.778609
29.860735
40.026903
57.019591
69.443583
84.009767
90.326667
94.136596
89.324713
79.113841
69.193840
55.291653
45.102835
34.728646
29.258728
24.212599
21.869540
20.221472
19.960999
19.132495
19.435883
19.266605
19.773841
19.430518
##ZVALUE=340
0.298619
0.384450
0.365973
0.368953
0.317693
0.377893
0.437498
0.239611
0.324845
0.249743
0.382662
0.370741
0.426769
0.430942
0.320673
0.415444
0.417829
0.405908
0.452995
0.487566
0.485778
0.489950
0.452995
0.559688
0.442863
0.583529
0.605583
0.479817
0.580549
0.651479
0.605583
0.607967
0.596642
0.744462
0.685453
0.616908
0.669956
0.744462
0.577569
0.695586
0.826716
0.882745
0.857711
0.950694
1.067519
1.139641
1.024604
1.094937
1.231432
1.709461
1.782775
2.393723
7.912517
42.856932
105.013847
258.700848
445.785522
758.586526
986.557007
1015.793681
1015.793681
1015.793681
1015.793681
899.058580
643.472672
340.789557
190.970898
79.158545
33.564568
13.289452
11.122823
11.116862
12.062788
13.353825
15.744567
21.483898
28.379560
40.064454
52.245855
68.366528
78.938603
87.064505
88.377595
84.631443
77.900887
65.741539
55.917501
42.757988
35.469532
28.074980
23.823977
20.690560
19.410849
19.207597
18.455982
18.672943
##ZVALUE=345
0.372529
0.304580
0.320673
0.291467
0.224710
0.292659
0.160933
0.286698
0.262856
0.505447
0.404716
0.382662
0.430942
0.392795
0.479817
0.377893
0.306964
0.400543
0.568628
0.407696
0.519753
0.346899
0.421405
0.360608
0.415444
0.501871
0.534654
0.502467
0.557899
0.380874
0.367761
0.611544
0.505447
0.671744
0.589490
0.716448
0.683665
0.594854
0.775456
0.736713
0.677705
0.749826
0.651479
0.843406
0.802875
0.760555
0.888705
1.011491
0.990629
1.317859
1.265407
1.334548
1.696944
1.974702
3.066659
18.570423
56.563616
163.671374
305.673480
578.812957
816.860795
1015.793681
1015.793681
1015.793681
1015.793681
987.856984
760.541558
472.863913
273.644924
110.962987
52.066445
19.386411
12.423992
11.490583
11.478662
12.074709
12.874603
15.445948
19.202828
27.176738
36.516786
50.656796
61.019659
73.453784
79.446435
82.832575
80.363750
72.534680
64.429641
52.458644
43.807626
32.726526
27.757883
22.613406
20.529628
18.891692
##ZVALUE=350
0.406504
0.385642
0.336766
0.391603
0.463724
0.449419
0.279546
0.328422
0.343919
0.200868
0.381470
0.329614
0.272989
0.363588
0.429749
0.399947
0.476837
0.282526
0.370741
0.405908
0.380874
0.468493
0.439882
0.313520
0.533462
0.379682
0.348687
0.437498
0.561476
0.510812
0.517964
0.601411
0.606775
0.619888
0.622869
0.632405
0.622869
0.726581
0.679493
0.541806
0.502467
0.721812
0.719428
0.644922
0.607967
0.962615
0.679493
0.864863
1.073480
0.994802
1.123548
1.032948
1.228452
1.275539
1.416802
1.609921
2.248883
8.583665
28.378963
97.971559
196.380615
421.589613
639.303923
941.853523
1015.798450
1015.798450
1015.798450
1015.798450
833.857656
513.625741
319.909453
149.254799
71.830750
22.994876
12.594461
10.617971
10.774732
11.277795
11.330843
12.465715
14.697909
19.559860
24.895668
33.868551
42.628646
55.102706
64.398646
71.548820
75.722933
74.374676
69.790483
59.207678
50.683618
39.893985
32.767653
25.838614
##ZVALUE=355
0.296831
0.350475
0.286698
0.335574
0.397563
0.424981
0.346899
0.336766
0.397563
0.246763
0.481606
0.289679
0.363588
0.444651
0.466704
0.397563
0.382662
0.343919
0.458956
0.297427
0.515580
0.435710
0.509620
0.464916
0.500679
0.257492
0.459552
0.451803
0.505447
0.538826
0.474453
0.572801
0.326633
0.478625
0.486970
0.481606
0.438690
0.742674
0.631809
0.673532
0.642538
0.615716
0.617504
0.730753
0.863671
0.630617
0.867844
0.739694
0.757575
0.870824
0.849962
0.909567
0.993609
1.133680
1.221895
1.279712
1.268983
1.490712
1.684427
4.045963
14.829636
61.258674
130.046606
290.177464
482.092500
785.113573
991.062522
1015.795469
1015.795469
1015.795469
911.296010
627.126694
409.545898
189.727545
95.115900
31.858683
14.340878
10.224581
10.079741
10.080934
10.476708
11.169910
11.990666
14.036894
16.715527
22.694468
28.745532
39.727688
47.281981
57.297945
64.123869
68.648458
67.360997
62.544942
55.822730
46.695471
##ZVALUE=360
0.404716
0.408888
0.481606
0.378489
0.376701
0.517964
0.492930
0.350475
0.352859
0.395775
0.432730
0.380874
0.320673
0.276566
0.358820
0.441670
0.493526
0.461936
0.383854
0.420809
0.593662
0.539422
0.519753
0.519753
0.499487
0.740886
0.376701
0.505447
0.599623
0.508428
0.310540
0.533462
0.520945
0.465512
0.487566
0.582933
0.544786
0.597835
0.533462
0.571609
0.597835
0.697970
0.731945
0.640750
0.524521
0.750422
0.701547
0.766516
0.692606
0.816584
0.911951
1.016855
0.917912
0.969768
0.992417
1.211762
1.319647
1.250505
1.398921
1.506805
1.654625
2.455711
7.201433
34.427643
86.602569
219.980478
374.735594
637.277961
862.442851
1015.829444
1015.829444
1015.829444
1000.327468
728.677511
503.166914
254.972577
136.765838
52.299500
21.782517
10.336637
9.506941
9.800792
9.896755
10.356903
10.535717
11.398792
12.270808
15.083551
18.137693
25.248528
32.126904
42.498708
50.184727
57.700872
61.858892
63.038468
##ZVALUE=365
0.332594
0.287890
0.310540
0.237823
0.282526
0.314713
0.343919
0.355840
0.406504
0.331998
0.477433
0.308752
0.297427
0.508428
0.392795
0.413656
0.435710
0.451803
0.529885
0.288486
0.302792
0.490546
0.329614
0.390410
0.465512
0.374913
0.507832
0.483990
0.721812
0.558496
0.523925
0.490546
0.590682
0.604987
0.496507
0.467896
0.549555
0.534654
0.729561
0.445843
0.567436
0.546575
0.579953
0.721812
0.578761
0.688434
0.681877
0.758767
0.810623
0.775456
0.870824
0.844598
1.014471
1.018643
0.969768
0.952482
0.951886
0.924468
1.221895
1.218915
1.197457
1.440644
1.558661
2.042651
3.315806
19.656420
53.912997
147.312880
277.355909
530.157685
736.251473
983.707905
1015.818715
1015.818715
1015.818715
797.618032
586.982965
337.484479
191.126466
72.094798
30.452609
11.427999
9.425879
9.321570
9.218454
9.299517
9.468794
9.512901
9.960532
11.450648
12.796521
16.301870
21.156669
28.623939
35.082698
44.471622
##ZVALUE=370
0.235438
0.213981
0.166893
0.227690
0.066757
0.350475
-0.010729
0.181794
0.139475
0.233650
0.205636
0.195503
0.173450
0.097752
0.074506
0.204444
0.403523
0.144839
0.071526
0.121593
0.335574
0.109673
0.075698
0.267625
0.236630
0.070930
0.305772
0.221729
0.248551
0.315905
0.267625
0.229478
0.284910
0.212789
0.296831
0.407696
0.311732
0.510812
0.299811
0.279546
0.466704
0.394583
0.313520
0.266433
0.365973
0.337958
0.513792
0.571609
0.508428
0.376701
0.561476
0.671744
0.468493
0.471473
0.674725
0.558496
0.592470
0.694990
0.707507
1.032948
0.817776
1.108646
1.080632
1.064539
1.137853
1.462698
2.037883
8.674860
31.900406
110.498667
212.543011
419.684052
631.623864
915.077925
1015.619636
1015.619636
1015.619636
884.715915
671.081543
388.269424
224.837661
92.230439
44.002533
16.265512
9.100437
7.983446
8.197427
7.848740
8.133650
8.134842
8.459687
9.025931
9.779930
11.621714
13.991594
18.536448
##ZVALUE=375
0.199676
0.315905
0.052452
0.363588
0.188947
0.185966
0.171661
0.119805
0.314713
0.177622
0.104904
0.070930
0.224710
0.185966
0.226498
0.081658
0.173450
0.357628
0.295639
0.268817
0.234842
0.188947
0.177622
0.232458
0.184774
0.274777
0.369549
0.270605
0.405908
0.297427
0.220537
0.315905
0.339746
0.173450
0.451803
0.288486
0.356436
0.313520
0.435710
0.406504
0.409484
0.425577
0.388622
0.330806
0.495911
0.363588
0.488758
0.316501
0.412464
0.370741
0.421405
0.571609
0.493526
0.559688
0.596642
0.533462
0.541806
0.510812
0.709891
0.653863
0.455976
0.699759
0.903606
0.907779
0.978708
0.861883
1.095533
1.401901
1.646876
4.302859
15.750527
64.174533
143.613815
328.136683
511.421561
776.124001
969.944596
1015.715003
1015.715003
968.171954
775.519013
488.619804
316.015482
161.866546
84.274411
28.936863
12.489557
7.466674
7.377863
7.374883
7.488728
7.555485
7.600784
7.961988
8.242726
8.963943
##ZVALUE=380
0.143647
0.081658
0.200868
0.295639
0.214577
0.230670
0.282526
0.176430
0.225902
0.345707
0.215769
0.224710
0.377893
0.134706
0.287890
0.219941
0.258684
0.330806
0.316501
0.257492
0.189543
0.252724
0.333786
0.239611
0.252724
0.212789
0.393987
0.460744
0.261664
0.339746
0.378489
0.316501
0.184774
0.213981
0.339746
0.323653
0.240803
0.433922
0.397563
0.368953
0.432730
0.268817
0.301600
0.424981
0.429749
0.330806
0.342727
0.353456
0.366569
0.558496
0.510812
0.367761
0.424981
0.441670
0.454783
0.580549
0.632405
0.632405
0.680685
0.652671
0.572801
0.767708
0.731945
0.629425
0.724792
0.784993
0.856519
0.991821
1.106858
1.446605
1.789927
2.563596
8.354783
42.138696
102.140903
247.254968
413.901806
677.107573
886.625648
1015.733480
1015.733480
1015.733480
889.392495
642.696023
443.594456
221.932530
116.486549
41.545630
17.846823
8.044839
7.023811
6.691813
6.810427
6.984472
7.103682
6.989837
##ZVALUE=385
0.235438
0.196695
0.362992
0.343919
0.289679
0.277758
0.319481
0.335574
0.298619
0.237823
0.331998
0.340939
0.284910
0.263453
0.233650
0.323653
0.312924
0.244975
0.365973
0.218749
0.260472
0.271797
0.213981
0.340939
0.262856
0.373721
0.263453
0.238419
0.337958
0.341535
0.290871
0.322461
0.434518
0.470877
0.306964
0.362992
0.319481
0.262856
0.417829
0.412464
0.469685
0.239611
0.292659
0.304580
0.467896
0.406504
0.443459
0.437498
0.592470
0.421405
0.429749
0.497699
0.374913
0.528693
0.514984
0.409484
0.321865
0.743866
0.585914
0.618696
0.574589
0.575781
0.538826
0.647902
0.680685
0.763535
0.739694
0.832677
1.071692
1.019835
1.218915
1.465678
1.588464
1.816750
4.065633
22.966862
63.194633
175.838470
313.223600
562.241673
769.437551
985.943675
1015.794873
1015.794873
957.801938
733.888745
540.452003
310.219526
180.537701
75.801611
31.720996
9.474754
6.612539
6.014705
6.288886
6.181598
##ZVALUE=390
0.303984
0.344515
0.259876
0.422597
0.321865
0.425577
0.388622
0.456572
0.454783
0.362992
0.325441
0.475645
0.539422
0.384450
0.396967
0.419617
0.431538
0.275970
0.309944
0.391603
0.384450
0.259876
0.425577
0.377893
0.483990
0.472665
0.453591
0.439882
0.463724
0.386834
0.352859
0.538826
0.390410
0.453591
0.355840
0.408888
0.462532
0.512600
0.467896
0.395775
0.453591
0.498891
0.367761
0.485778
0.502467
0.590682
0.546575
0.411868
0.672936
0.508428
0.504851
0.404716
0.500679
0.568628
0.406504
0.562668
0.579953
0.564456
0.639558
0.683665
0.563860
0.599623
0.727773
0.779629
0.591874
0.791550
0.832677
0.930429
0.971556
1.269579
1.176596
1.479983
1.303554
1.427531
1.594424
1.623631
2.228618
12.418628
42.596459
138.975978
267.439485
509.884953
699.192882
923.155546
1015.911698
1015.911698
1015.911698
851.185918
669.145584
423.815846
258.047581
110.607743
51.341653
15.234947
7.282495
5.786419
##ZVALUE=395
0.505447
0.398755
0.535846
0.458956
0.503659
0.540614
0.484586
0.360608
0.500679
0.522733
0.458956
0.478625
0.608563
0.612736
0.582933
0.489950
0.523925
0.565648
0.447631
0.427961
0.459552
0.713468
0.400543
0.404716
0.430942
0.615716
0.452995
0.476837
0.356436
0.454783
0.613928
0.658631
0.534654
0.528693
0.716448
0.672936
0.602603
0.663996
0.504851
0.611544
0.555515
0.529885
0.527501
0.644922
0.760555
0.622869
0.681877
0.665784
0.625849
0.751615
0.721812
0.748634
0.611544
0.549555
0.676513
0.610948
0.563860
0.733733
0.820756
0.734925
0.864863
0.764728
0.750422
0.772476
0.738502
0.937581
0.895858
1.166463
1.145601
1.209974
1.279712
1.264811
1.300573
1.396537
1.490712
1.452565
1.500845
1.628995
2.029538
5.653501
33.553839
85.103512
205.436945
349.739790
607.990026
812.763572
1016.051769
1016.051769
1016.051769
999.015570
764.328837
551.768541
303.328633
166.448951
64.616799
29.716492
##ZVALUE=400
0.393987
0.447631
0.519753
0.382662
0.603795
0.470877
0.458956
0.526905
0.446439
0.466704
0.316501
0.586510
0.514984
0.556707
0.522733
0.496507
0.426769
0.474453
0.447631
0.489950
0.444651
0.376701
0.571609
0.470877
0.502467
0.507832
0.669956
0.544786
0.328422
0.412464
0.465512
0.664592
0.516772
0.540614
0.745654
0.446439
0.478625
0.579953
0.623465
0.465512
0.635982
0.494719
0.375509
0.668764
0.638962
0.542998
0.760555
0.582933
0.539422
0.601411
0.720620
0.609756
0.592470
0.558496
0.669956
0.623465
0.603795
0.651479
0.723600
0.760555
0.802875
0.855923
0.789762
0.790954
0.755787
0.824928
0.934601
1.023412
1.076460
1.208782
1.167655
1.267791
1.365542
1.091957
1.372695
1.328588
1.240969
1.385808
1.532435
1.649857
1.804829
4.870892
18.846989
69.791675
145.337582
316.218734
498.464704
777.066946
969.436765
1016.006470
1016.006470
1016.006470
888.569951
607.254505
413.616896
210.429430
##END
