##TITLE=SH751
##FORMAT=SPECTACLE-ASCII V-1.2
##DATA TYPE=ULTRAVIOLET SPECTRUM
##SECOND TYPE=ULTRAVIOLET SPECTRUM
##DATE=10/24/17
##TIME=15:03:56
##SPECTROMETER/DATA SYSTEM=SPECTACLE
##XUNITS=NM EM
##YUNITS=ENERGY
##YFACTOR=1
##FIRSTX=220
##LASTX=410
##NPOINTS=96
##3DDATA=Equidistant
##ZUNITS=NM EX
##FIRSTZ=210
##LASTZ=400
##ZPOINTS=39
##XYDATA=(Y..Y)
##ZVALUE=210
7.728934
7.372499
7.217526
7.084608
6.159544
6.269813
5.110502
5.195737
4.982948
5.320907
3.878474
4.070997
3.484488
3.559589
3.822446
3.918409
3.249645
3.469586
3.778934
3.941655
4.688501
3.975630
4.628897
4.595518
4.964471
5.239844
6.161928
5.694628
5.638599
5.389452
7.106662
6.905794
7.586479
6.996989
6.796718
7.098913
7.571578
7.500648
8.502603
8.428693
8.093715
8.079410
8.577704
8.332729
7.809997
7.681847
8.579493
8.465648
9.463429
9.168983
9.955764
9.941459
10.020733
10.652542
9.586811
10.960698
9.423494
10.459423
11.111498
10.095835
10.045767
10.796785
10.780692
10.981560
11.295676
12.621880
12.166500
13.601780
15.435815
17.635822
19.841790
19.155741
23.690462
27.437806
28.238893
27.729869
28.434992
28.863549
27.060509
26.312470
23.322701
21.018982
19.795895
17.054677
15.323758
13.495684
12.064576
11.380911
11.257529
11.335611
10.513663
10.951757
11.639595
12.220740
13.873577
14.206767
##ZVALUE=215
28.857589
27.934909
22.525787
19.205809
15.327930
10.910630
11.118650
9.838939
11.016726
11.641979
9.786487
8.586645
6.324649
5.816817
5.488992
4.479885
4.008412
5.662441
4.268885
4.057884
4.810691
5.226731
5.033612
5.417466
5.647540
6.663799
6.367564
5.807877
7.403493
7.062554
6.839633
7.346869
7.208586
8.091927
8.477569
8.137822
9.139776
9.860992
8.948445
8.757710
10.217428
9.498596
9.426475
11.663437
9.887815
9.825826
10.243654
10.367632
11.211634
11.479855
11.302829
11.428595
12.390614
12.134910
11.319518
11.250973
11.943579
10.674596
12.332797
11.542439
12.847781
12.785792
12.245774
12.031794
13.435483
13.709664
13.348460
14.297962
16.672611
18.946528
18.850565
21.504760
25.354624
28.565526
28.503537
28.906465
28.528571
27.657747
28.274655
26.514530
23.368597
22.770762
19.807816
19.542575
16.470551
15.000701
14.173985
12.840629
12.791753
12.717843
12.951493
12.749434
12.939572
12.862682
12.346506
13.200641
##ZVALUE=220
70.156455
69.830418
76.188445
69.514513
59.067607
47.713518
35.493970
27.737617
20.811558
19.319654
20.006895
18.440485
18.326640
16.726851
14.697909
11.095405
7.500648
6.400943
5.415678
5.191565
5.294681
5.655885
5.027652
6.100535
5.792975
5.985498
6.792545
7.271767
7.505417
7.132888
7.968545
9.520650
9.399652
10.261536
9.640455
9.128451
10.424852
11.006594
9.699464
11.516809
10.875463
10.994673
12.034774
12.330413
11.929870
12.479424
12.824535
12.111664
13.956428
12.689829
13.825893
13.968945
14.278889
13.336539
14.273524
13.939738
15.728474
14.441609
16.293526
14.597774
14.779568
17.580986
16.987920
16.305447
16.514659
17.169714
16.823411
19.047856
19.781590
22.706985
21.596551
25.239587
26.669502
31.456947
31.559467
31.596422
31.614900
32.006502
31.134486
27.804971
27.240515
25.641918
24.163723
21.157861
20.745993
18.844604
19.837618
16.281605
15.365481
15.770793
16.585588
14.014840
14.880896
14.660954
14.525652
13.960600
##ZVALUE=225
101.517439
107.885599
134.349465
157.475471
161.065459
154.900551
141.386986
104.271770
80.274940
53.201914
38.298965
32.990575
30.926466
34.287572
34.606457
30.867457
26.025772
20.255446
14.984608
11.429787
8.722544
6.704926
6.645918
5.919933
6.991625
6.539822
7.146597
7.660985
7.753968
9.588599
9.301901
9.026527
10.523796
11.030436
9.922981
11.443496
11.286736
12.082458
12.843609
12.472868
14.080405
13.584495
14.377832
15.459657
14.588833
15.109777
14.625788
16.003847
14.208555
16.162992
16.406775
17.677546
16.631484
16.016960
19.643903
19.193888
18.713474
19.055605
21.538734
20.350814
19.008517
20.777583
22.325516
22.401810
21.909475
21.293759
21.676421
24.252534
25.340915
25.220513
27.268529
31.553507
32.069683
31.941533
35.506487
35.998821
34.068823
35.494566
33.211708
31.553507
28.394461
28.350949
28.497577
28.246641
24.077892
23.485422
23.291707
23.096800
20.972490
21.608472
21.678805
21.432638
19.906759
21.200776
19.627810
18.596649
##ZVALUE=230
73.188543
74.813962
137.774944
196.598768
250.629783
315.736532
333.122015
317.832828
288.663507
215.665698
157.905817
99.579692
72.287917
55.706501
54.015517
55.446625
58.820844
55.354834
47.304630
38.278699
28.889775
20.767450
14.569759
11.460781
9.049773
7.847548
8.773804
8.115768
8.885860
9.768605
10.138750
11.160970
10.096431
10.598898
12.187958
12.634993
12.369752
12.413859
13.487935
14.340878
15.085936
15.945435
15.542507
18.447638
15.566945
17.313957
17.102957
19.793510
17.499924
18.123984
20.721555
22.100806
22.097826
21.303892
22.042990
22.239685
24.537444
24.352670
24.536848
26.697516
25.282502
27.896762
24.595857
25.344491
28.059483
26.340485
27.603507
30.223727
29.807687
32.743812
33.124685
36.676526
39.835572
39.727688
42.190552
40.920973
41.568875
41.405559
41.473508
37.236810
36.987662
37.129521
34.674406
34.843683
31.360984
30.301809
29.553771
30.954480
28.991699
29.109716
28.210878
28.611422
26.267767
25.809407
28.518438
28.236508
##ZVALUE=235
19.954443
22.078753
50.817728
119.948983
198.557973
310.031772
412.565470
527.542830
571.194887
571.275949
501.814485
415.602922
271.748900
198.154449
126.451850
92.064738
78.901649
83.848834
86.605549
84.787607
80.142617
68.856478
55.689812
37.505627
28.741956
19.769669
14.607906
10.985732
10.730624
11.093616
10.391474
11.245608
10.788441
12.694597
13.191700
14.078617
12.246966
14.445782
13.782978
15.892982
15.189648
17.581582
16.264915
17.651916
17.406940
18.547773
18.998981
20.293593
21.250844
20.355582
20.938516
21.782517
24.256706
23.954511
26.137829
24.595857
25.475621
27.535558
27.045608
27.980804
29.609799
31.333566
31.103492
31.064749
32.626987
32.743812
32.776594
34.064651
35.943985
39.723516
39.007664
42.246580
47.941804
45.801997
50.031543
48.143864
49.384832
51.651597
47.383904
48.984885
42.848587
42.850971
41.939616
40.175915
40.536523
39.074421
39.786696
36.992431
36.642551
36.547780
38.196445
35.073757
36.738515
35.575628
34.195781
36.603808
##ZVALUE=240
3.472567
3.618598
6.251931
25.791526
56.823492
140.551925
238.961577
424.758792
574.281812
711.674690
839.445591
852.770805
764.964819
649.722815
472.450852
325.735807
189.862847
134.272575
101.604462
104.853511
109.927654
120.369792
113.647580
102.025867
84.798932
64.479709
48.223734
33.324957
25.522709
17.128587
15.455484
14.443994
12.876987
13.144612
14.087558
13.618469
14.793873
13.959408
14.763474
14.790893
16.293526
15.089512
17.146468
16.064644
17.578602
17.567873
18.267632
18.848777
20.131469
20.121932
20.481944
21.540523
22.778511
24.166703
25.058985
25.979877
26.460886
28.537512
27.204752
29.946566
28.798580
31.146407
31.612515
29.856563
33.175945
33.250451
35.274625
33.904910
36.779642
38.492680
42.103529
46.580434
49.580932
49.353838
51.498413
52.711964
53.585768
52.068830
49.824715
49.859881
47.563910
49.504638
46.531558
44.974685
45.616627
43.148994
43.098927
42.325854
40.018559
42.364597
43.610930
41.320920
42.207837
40.833950
40.597916
41.296482
##ZVALUE=245
2.273917
2.498627
2.228618
2.933741
5.082488
15.319586
50.657988
110.094547
254.413486
400.449634
651.357770
834.828615
973.939896
1015.793681
996.463895
836.058855
676.915646
445.353985
305.273533
171.815753
122.080445
106.212497
114.525557
128.208995
134.458542
125.927925
112.985969
96.429586
75.269938
56.433678
41.456819
28.656721
21.842718
16.020536
14.694929
13.276935
14.421940
14.539957
14.553666
15.207529
14.356971
14.611483
14.572740
14.932752
16.517639
15.710592
16.998649
16.470551
17.557740
18.959641
20.031929
21.418929
20.136833
22.140741
21.497607
22.421479
21.927953
23.995638
24.913549
26.077628
25.373697
26.675463
28.219819
27.206540
29.775500
31.484962
30.968785
33.153892
34.511685
37.041903
38.934946
39.870739
43.813586
46.473742
49.792528
47.374964
45.809746
47.253966
45.724511
45.472980
45.135617
44.463873
43.849945
44.876933
42.656660
41.523576
42.658448
41.173697
41.307807
39.455891
42.551756
39.851665
40.087700
40.768981
41.357875
38.657784
##ZVALUE=250
1.933575
2.037883
2.617836
2.047420
2.084970
2.412796
3.396869
8.399487
37.693977
84.299445
219.366550
381.951928
578.197837
858.140588
1011.042595
1015.793681
1015.793681
1015.793681
903.291702
628.184676
424.870849
271.531940
149.526596
108.833909
108.714700
123.149753
133.958459
141.656995
136.784911
121.976733
108.316541
83.476901
61.281919
40.635467
27.861595
19.819736
16.274452
13.913512
13.410449
14.087558
13.820529
14.028549
14.174581
14.105439
14.653802
15.702844
15.660524
15.053749
15.944839
17.718673
17.021894
17.967820
18.007755
19.468665
19.828677
19.029975
21.737814
20.078421
22.082925
20.530820
23.192763
22.779703
22.793412
23.661852
26.614666
26.133657
27.407408
27.178526
29.808879
31.753778
32.858849
37.083626
37.671924
38.256645
40.584803
40.839911
41.059852
38.465858
40.425658
40.155649
40.256977
40.831566
39.226413
39.386749
40.375590
40.477514
39.121509
39.412975
37.045479
37.173629
35.682917
40.240884
37.947893
36.634803
39.439797
37.759542
##ZVALUE=255
2.003908
1.827478
1.866817
1.962781
2.084970
2.100468
2.380610
2.356768
2.805591
5.449653
24.709702
67.772865
145.843625
328.098536
526.721478
847.128630
1015.793681
1015.793681
1015.793681
1015.793681
1015.793681
910.975933
568.639636
368.304849
185.366869
121.952891
100.301504
107.134581
128.746629
138.432980
150.644779
143.682957
130.575895
108.629465
86.967945
59.990883
41.775703
26.605725
19.719601
14.885664
13.082623
13.381839
12.663603
13.812780
13.710856
14.839768
14.551878
16.029477
15.157461
15.305877
15.933514
17.389655
17.990470
17.441511
18.351674
18.768907
19.700527
19.074678
19.564629
20.692945
21.761656
21.971464
21.726489
21.674633
22.492409
23.554564
24.578571
26.459694
27.052760
28.584599
29.602647
31.880736
33.761859
32.833815
34.886599
37.324429
36.977530
37.579536
36.219954
38.502812
35.083890
36.512613
35.620928
37.269592
36.772490
36.927462
36.905408
35.809875
35.418868
36.539435
34.554601
36.183000
36.069751
35.792589
36.490560
35.463572
##ZVALUE=260
1.633763
1.517534
1.414418
1.591444
1.677871
1.577735
1.943707
2.075434
2.425909
2.161860
2.408624
3.326535
9.999871
40.377975
99.199414
260.986686
441.586971
769.695640
1001.459956
1015.793681
1015.793681
1015.793681
1015.793681
1015.793681
769.492388
526.328683
296.436548
177.199841
99.471807
88.700652
105.058551
127.316713
140.895844
151.945949
149.756670
131.362677
114.803910
85.628629
64.722896
40.522814
30.924678
20.403862
16.435981
14.458895
14.877915
14.919639
14.989972
15.384555
16.026497
16.477704
17.117858
17.876625
17.413497
18.536448
18.823743
19.489527
20.365715
19.824505
20.368695
20.988584
21.484494
20.495653
21.880865
21.972656
23.453832
23.784637
24.129748
24.391413
25.378466
27.736425
28.370619
29.612780
30.925870
32.064915
33.461452
34.616590
34.626722
34.006834
33.941865
33.149719
33.685565
34.175515
35.216808
34.693480
34.042001
35.731792
33.703446
35.218596
35.272837
35.327673
34.080744
33.641458
34.853816
33.914447
34.605861
35.175681
##ZVALUE=265
1.640916
1.501441
1.787543
1.622438
1.631975
1.727939
1.870990
1.784563
1.677871
1.577735
1.983643
2.445579
2.561808
2.837777
5.696416
27.738810
76.258779
208.719969
382.287502
727.564692
997.542739
1015.808582
1015.808582
1015.808582
1015.808582
1015.808582
992.055535
727.762580
408.505797
242.536664
139.297843
84.079504
84.135532
111.142993
133.920908
151.386857
156.622529
149.983764
137.802958
111.529827
91.271996
61.724782
44.978857
30.033588
22.572875
17.983913
17.365813
17.167926
17.929673
18.230677
18.746853
19.251704
19.368529
20.450950
21.437407
20.264983
21.540523
22.142529
22.930503
22.760630
22.231936
23.262501
23.009777
23.297668
23.646951
24.727583
25.190711
25.798678
25.894642
26.742816
28.599501
30.033588
31.234622
32.823682
32.164454
33.172965
33.643842
33.250451
33.322573
32.822490
32.447577
33.523440
34.258962
31.771660
33.754706
34.117699
32.878518
32.627583
32.838583
33.832788
32.612681
32.769442
32.331944
33.504963
32.818913
34.269691
##ZVALUE=270
1.247525
1.400709
1.400709
1.289845
1.450777
1.322627
1.458526
1.759529
1.741648
1.778603
1.969934
2.088547
2.046824
2.108812
2.302527
2.641678
3.151894
12.644529
41.787624
143.714547
297.369361
528.284907
960.334539
1015.800834
1015.800834
1015.800834
1015.800834
1015.800834
1015.800834
954.186916
654.744506
342.420936
190.634727
87.265968
69.902539
86.937547
107.447505
138.391852
152.793527
160.265565
154.374838
138.679743
119.804740
88.303685
68.069696
45.691729
35.734773
26.007891
23.117661
21.248460
21.249652
20.858645
21.854639
22.261739
22.108555
22.831559
23.208857
24.426579
24.255514
23.585558
24.704933
24.004579
24.511814
24.575591
25.806427
26.577711
26.220679
25.887489
27.972460
29.495955
28.553605
30.451417
31.022429
32.020807
33.031702
34.028888
32.099485
33.740997
33.004880
32.466650
32.465458
31.829476
32.620430
31.703711
32.460690
32.904744
32.937527
32.468438
31.880736
31.562448
31.702518
31.784773
31.815767
31.723976
32.257438
32.014847
##ZVALUE=275
1.116991
1.309514
1.351833
1.298785
1.314878
1.208782
1.282692
1.503825
1.562834
1.568794
1.705885
1.684427
2.014637
1.705885
2.023578
2.175570
2.133846
2.380610
2.792478
6.494522
23.768544
77.006817
234.979391
451.596975
868.845582
1015.851498
1015.851498
1015.851498
1015.851498
1015.851498
1015.851498
1015.851498
837.938786
447.100997
253.190994
110.273957
68.922639
66.571832
86.225867
113.303661
133.986473
154.737830
158.739686
155.126452
143.008828
117.381811
96.211433
70.054531
54.678917
39.677620
31.779408
25.714636
24.993420
24.708509
23.958683
25.635958
25.589466
26.721954
26.098490
26.688576
26.156902
26.912689
26.662946
26.460886
28.230548
27.615428
28.697848
27.540922
29.782653
30.514598
30.139685
31.038523
31.424761
34.025908
32.854676
33.990741
33.114552
34.384727
33.965707
33.005476
31.717420
31.858683
32.301545
32.485723
32.468438
32.081604
31.660795
32.387972
32.409430
32.089949
32.247901
31.785965
31.231642
31.803846
31.467676
31.355619
##ZVALUE=280
1.047850
1.104474
1.261830
0.941753
1.239777
1.046658
1.301765
1.293421
1.280904
1.054406
1.268983
1.136661
1.336932
1.432896
1.477599
1.677871
1.947880
2.061725
1.987815
2.408624
2.723932
3.294945
16.411543
59.071779
193.506479
362.067819
700.498819
996.854901
1015.789509
1015.789509
1015.789509
1015.789509
1015.789509
1015.789509
976.433754
562.886000
327.684879
144.502521
75.993538
51.505566
62.046647
89.685917
111.157894
140.030980
151.523948
162.170529
157.838464
140.487552
122.020841
96.484423
75.169802
54.265857
42.705536
34.183860
28.860569
26.970506
26.786923
28.064847
28.131604
27.568936
28.342605
27.998686
28.598905
28.861761
28.999448
28.718710
28.637648
29.533505
29.951930
30.652881
31.516552
31.405687
31.697750
33.552647
33.581853
32.888651
32.677650
33.203959
32.681823
32.644868
31.932592
32.910705
33.153892
32.444596
32.426715
31.849742
31.717420
31.671524
31.423569
31.918883
31.283498
30.851960
30.329823
30.263662
30.991435
30.257702
##ZVALUE=285
1.009703
0.977516
0.862479
0.852942
1.083612
1.057982
1.192689
1.064539
1.147985
1.169443
1.217723
1.303554
1.164675
1.347661
1.572967
1.336932
1.569986
1.599789
1.893640
1.839995
1.946688
2.324581
2.500415
3.220439
7.602572
29.929876
106.755495
227.192640
498.188734
806.315541
1015.793681
1015.793681
1015.793681
1015.793681
1015.793681
1015.793681
1015.793681
766.050816
476.160645
229.156613
117.051601
52.385926
44.272542
60.981512
83.660483
112.814903
132.985711
152.881742
158.689618
156.602859
146.832466
122.699738
103.291869
76.364875
60.531497
43.924451
35.934448
29.925704
28.499961
27.980804
28.505921
28.796792
28.882623
28.635859
28.928518
30.041933
30.021667
30.192733
30.166507
31.356812
30.941963
32.099485
32.296777
32.819510
33.186674
33.133626
33.358932
32.273531
32.477975
33.105612
32.577515
31.648874
32.131672
31.645894
31.733513
31.642914
31.501651
31.775832
31.153560
30.721426
30.989647
30.095577
30.557513
30.145645
30.153990
29.567480
##ZVALUE=290
0.871420
1.003742
0.986457
1.037717
0.855923
0.870824
1.076460
1.072884
1.176000
0.859499
0.889897
1.114607
1.140833
1.092553
1.066923
1.223683
1.426935
1.530647
1.527667
1.737475
1.848936
1.873970
2.166629
2.392530
2.459884
2.635717
3.677607
11.166930
58.754683
145.685673
294.700861
629.592538
971.571803
1015.796661
1015.796661
1015.796661
1015.796661
1015.796661
1015.796661
973.309875
656.857491
326.295495
169.032812
64.601898
38.025975
42.156577
57.287812
80.078840
100.792646
127.381682
145.897865
154.500604
154.386759
141.732693
123.467445
95.911622
77.249408
56.383610
45.524836
35.002828
31.121969
28.365850
27.610660
28.109550
27.911663
28.333664
28.857589
29.286742
30.050874
30.816793
31.100512
32.135844
32.773614
32.611489
33.076406
31.956434
32.657981
32.913685
32.721758
32.282472
31.229854
32.268763
32.037497
31.540990
31.886697
31.150579
31.762719
31.285882
30.892491
30.027628
30.336976
29.979944
29.557943
30.102730
29.787421
29.737949
##ZVALUE=295
0.749826
0.889897
0.971556
0.742674
0.881553
0.862479
0.917912
1.090765
0.953674
1.229644
0.988841
1.083612
1.023412
1.051426
1.009703
1.349449
1.180768
1.136661
1.315475
1.472831
1.353621
1.639724
1.618862
1.846552
2.191663
2.209544
2.389550
2.316833
3.149509
5.192757
30.999780
91.823936
214.506388
519.135594
852.696896
1015.793681
1015.793681
1015.793681
1015.793681
1015.793681
1015.793681
1015.793681
847.587585
434.166789
237.538815
88.946819
43.318868
30.058622
36.879778
55.289865
72.651505
99.802613
119.093657
139.251947
147.546530
145.055652
133.224726
112.699866
94.414949
73.044896
57.410002
41.840672
35.079718
29.363632
27.000904
26.764870
26.916862
27.556419
27.989745
29.213428
29.464960
29.879808
30.544996
31.636953
30.958652
30.997992
32.134652
31.473637
32.019615
31.182766
31.759739
31.212568
31.869411
30.967593
31.532645
31.234622
30.851960
30.807853
30.866861
30.166507
30.263662
29.903650
29.591918
29.503703
28.765798
28.712749
##ZVALUE=300
0.818968
0.756979
0.859499
0.888705
0.579953
0.819564
0.735521
0.909567
0.977516
0.821948
0.913739
1.034737
0.942945
0.926852
0.967979
1.025796
0.922680
0.982881
1.257658
1.253486
1.365542
1.361966
1.569986
1.540780
1.449585
1.947880
1.976490
1.845956
2.317429
2.341866
2.647638
3.102422
13.736486
49.332976
169.986486
338.366628
711.035728
1015.794873
1015.794873
1015.794873
1015.794873
1015.794873
1015.794873
1015.794873
985.029936
661.246777
325.391889
172.524452
64.583421
31.012893
25.576949
33.347607
50.482750
67.375898
91.602802
109.073520
132.686496
140.344501
138.758421
132.508874
112.412572
94.831586
72.468519
57.804585
41.696429
34.456849
29.419661
27.398467
26.491880
27.043819
27.675629
27.923584
29.474497
28.972626
30.117631
30.777454
30.449629
30.296445
31.076670
30.861497
31.176805
31.023622
31.179786
31.176805
31.986833
30.950904
31.113625
30.747652
30.729771
30.137897
29.604435
29.757619
29.106736
28.845668
28.861761
28.479695
##ZVALUE=305
0.819564
0.752807
0.562668
0.746846
0.918508
0.731945
0.780821
0.798702
0.879765
0.802875
0.784993
0.808835
0.824928
0.873804
0.882745
0.889897
0.958443
0.934601
1.035929
1.073480
1.092553
1.173615
1.251698
1.400709
1.464486
1.443624
1.711845
1.677871
1.765490
1.799464
2.024770
2.464652
2.756715
3.272891
5.327463
34.614801
101.194978
290.907621
520.209670
957.794785
1015.793681
1015.793681
1015.793681
1015.793681
1015.793681
1015.793681
1015.793681
783.624649
484.718680
218.558908
106.237531
37.158728
22.113919
23.854971
32.558441
48.161745
65.699816
89.196563
105.944872
123.559833
130.676627
131.353736
122.542977
106.284618
90.111494
68.628788
54.762959
40.680766
33.692718
27.830601
27.545691
27.251840
27.632713
28.034449
29.212832
29.898882
29.201508
29.059649
30.092597
30.557513
30.499697
30.300617
30.677915
31.397939
31.399727
31.807423
31.101704
30.538440
30.422807
30.301809
29.602647
29.945970
29.603839
29.445887
29.249787
29.683709
##ZVALUE=310
0.610948
0.866652
0.772476
0.688434
0.622869
0.698566
0.773668
0.726581
0.840425
0.834465
0.658631
0.777841
0.813603
0.817776
0.821948
0.796914
0.823736
0.977516
0.953674
0.971556
0.950694
1.056790
1.155734
1.145601
1.234412
1.486540
1.394749
1.622438
1.550913
1.581907
1.780987
1.970530
2.116561
2.259612
2.554655
2.730489
3.448725
15.233755
54.242611
180.883408
357.387662
730.114579
1015.814543
1015.814543
1015.814543
1015.814543
1015.814543
1015.814543
1015.814543
1015.814543
712.759495
345.089436
176.043510
62.622428
27.024746
18.692613
22.113919
30.760765
41.578412
60.977936
77.695847
100.461841
114.776492
124.723911
124.957561
117.228627
106.303692
87.197423
71.639419
52.509904
42.786598
34.287572
30.697584
28.182864
27.795434
27.493834
27.847886
28.796792
28.850436
29.679537
29.467940
29.773712
30.504465
30.593872
30.805469
30.909777
30.843616
30.552745
31.182766
30.959845
30.073524
29.936433
29.446483
29.512644
29.120445
29.280782
##ZVALUE=315
0.360608
0.529885
0.539422
0.700951
0.646710
0.646710
0.690818
0.642538
0.692606
0.826716
0.672936
0.792742
0.800490
0.673532
0.906587
0.724792
0.811815
0.750422
0.856519
0.846982
0.710487
1.025796
0.934601
1.061559
1.194477
1.210570
1.231432
1.439452
1.255870
1.521707
1.442432
1.614690
1.642704
1.765490
1.840591
1.993775
2.379417
2.494454
3.009439
6.799698
27.315617
117.050409
257.616639
578.661561
944.010019
1015.793681
1015.793681
1015.793681
1015.793681
1015.793681
1015.793681
1015.793681
919.146538
480.547547
258.064866
93.199611
39.208531
18.006563
16.914606
21.147728
27.235746
40.273666
53.734779
74.011683
91.139674
108.657479
118.012428
119.220614
115.159750
100.461841
85.732937
69.190860
54.869652
41.828752
34.876466
30.151606
28.330684
28.073788
27.823448
28.423667
28.381944
28.916597
29.132962
29.774904
29.995441
30.191541
30.286908
30.471683
29.811859
29.804707
29.971600
30.110478
29.724836
29.464960
29.064417
28.879642
##ZVALUE=320
0.663996
0.572801
0.766516
0.642538
0.619888
0.710487
0.772476
0.761747
0.660419
0.596642
0.609756
0.712872
0.574589
0.787973
0.714660
0.714660
0.757575
0.883937
0.753999
0.834465
0.919700
1.018643
0.948906
0.844598
1.055598
1.044869
1.073480
1.096725
1.110435
1.109838
1.057982
1.287460
1.300573
1.623631
1.562834
1.662970
1.634955
2.110600
2.421737
2.547503
2.530813
3.764629
11.934638
68.285465
175.883770
455.656648
757.254958
1015.793681
1015.793681
1015.793681
1015.793681
1015.793681
1015.793681
1015.793681
1015.793681
643.742681
359.279513
144.749880
64.045787
22.455454
15.175939
15.827417
18.688440
25.910735
34.345984
51.121712
66.356659
85.948706
100.358725
112.202764
114.707947
110.026002
100.048780
83.938837
67.808628
50.881505
42.475462
34.477711
30.945539
28.556585
27.566552
27.852654
27.815700
28.418899
28.489828
28.975606
28.936863
28.990507
29.085875
28.844476
28.555989
28.636456
29.170513
28.506517
28.848648
28.792620
##ZVALUE=325
0.341535
0.485778
0.456572
0.491738
0.495911
0.455976
0.440478
0.476837
0.530481
0.587702
0.432730
0.523925
0.399947
0.520945
0.708699
0.687838
0.539422
0.761747
0.772476
0.710487
0.625849
0.765920
0.748634
0.688434
0.694990
0.771880
0.818968
1.018643
1.027584
1.011491
1.200438
1.114607
1.007915
0.956655
1.342893
1.381636
1.669526
1.783967
1.569986
1.743436
2.025962
2.273917
2.340674
2.768636
5.940795
44.800639
121.522546
319.536924
574.635863
1010.268927
1015.693545
1015.693545
1015.693545
1015.693545
1015.693545
1015.693545
1015.693545
807.393789
481.527448
207.498670
95.722675
30.163527
15.729666
13.696551
14.985800
18.651485
23.545623
34.856796
47.663450
68.008900
82.600713
98.516941
106.995702
109.806657
104.594827
91.987848
78.667998
63.365698
51.139593
39.246678
34.018755
29.524565
27.736425
27.350783
27.840734
27.504563
27.282834
27.968884
27.793646
27.860999
27.800798
27.939677
27.520657
27.628541
27.942657
27.737617
##ZVALUE=330
0.443459
0.626445
0.501871
0.585914
0.522733
0.412464
0.477433
0.696778
0.564456
0.582933
0.592470
0.707507
0.627637
0.594854
0.607967
0.637770
0.665784
0.640750
0.667572
0.612736
0.636578
0.727773
0.724792
0.812411
0.825524
0.921488
0.926852
0.821948
0.983477
0.963807
0.887513
1.163483
1.152754
1.277924
1.279712
1.326799
1.311898
1.581907
1.545548
1.596808
1.506805
1.962781
1.973510
2.000928
2.489686
2.883673
3.781915
19.204617
64.340830
214.005709
413.088799
833.069682
1015.798450
1015.798450
1015.798450
1015.798450
1015.798450
1015.798450
1015.798450
972.051024
638.371706
292.890668
144.768953
49.684644
20.759702
12.996793
13.327599
14.473796
17.770529
25.182962
33.132434
47.611594
61.627626
80.693960
93.419552
101.705790
104.426742
98.874569
89.465976
73.112845
61.007738
46.523809
39.754510
33.385754
30.230880
27.262568
26.338696
26.316643
26.495457
26.273727
26.490688
26.170611
26.433468
26.590824
26.326776
26.531816
##ZVALUE=335
0.524521
0.485778
0.563860
0.476837
0.653863
0.429749
0.573993
0.546575
0.535846
0.627637
0.499487
0.593662
0.516772
0.678897
0.818968
0.660419
0.648499
0.548959
0.726581
0.698566
0.788569
0.730753
0.762939
0.811815
0.776649
0.787973
0.786781
0.724792
0.806451
0.952482
0.914931
1.042485
1.016855
1.022816
1.188517
1.191497
1.187921
1.358986
1.327991
1.536608
1.343489
1.332760
1.530647
1.680851
1.738667
2.182722
2.133846
2.652407
2.938509
8.249879
32.826662
133.408904
282.278657
622.288585
974.986553
1015.820503
1015.820503
1015.820503
1015.820503
1015.820503
1015.820503
1015.820503
803.714991
414.021611
214.401484
71.717501
29.719472
14.084578
12.928843
13.917685
15.176535
18.434525
23.312569
34.420490
45.268536
61.521530
74.774623
88.441968
95.453858
97.172856
93.419552
81.633925
71.489811
58.534741
48.740506
38.491488
33.010840
28.773546
26.480556
25.850534
25.342703
25.504827
25.295615
25.502443
24.953485
24.961829
##ZVALUE=340
0.462532
0.376701
0.435710
0.520945
0.546575
0.619888
0.593662
0.544786
0.653863
0.566840
0.463724
0.415444
0.497699
0.506639
0.624657
0.610948
0.594854
0.636578
0.722408
0.589490
0.605583
0.624657
0.699759
0.715852
0.874996
0.776649
0.737906
0.801682
0.824928
0.918508
0.928640
0.944734
0.865459
0.895858
0.994802
1.081824
0.948906
1.013875
1.048446
1.102686
1.156926
1.296997
1.152754
1.663566
1.631975
1.788735
1.843572
1.950860
2.059937
2.424717
2.615452
4.389882
16.407967
84.125996
203.062892
496.577621
836.298466
1015.793681
1015.793681
1015.793681
1015.793681
1015.793681
1015.793681
1015.793681
960.956812
506.571531
278.192759
111.133456
44.080615
15.983582
13.103485
14.058948
14.309883
16.310811
18.653870
24.547577
31.737685
44.094920
56.425929
72.913766
82.607865
90.597868
92.377663
87.768435
81.007481
67.978501
58.681965
46.437979
38.775802
31.459928
27.684569
25.252700
24.500489
23.733974
23.913980
24.041533
##ZVALUE=345
0.399947
0.397563
0.368953
0.475645
0.500679
0.360608
0.280738
0.398755
0.401735
0.478625
0.449419
0.426769
0.423789
0.533462
0.483990
0.530481
0.526905
0.421405
0.478625
0.480413
0.582933
0.458956
0.429749
0.485778
0.637770
0.592470
0.536442
0.676513
0.644922
0.666976
0.619888
0.682473
0.781417
0.865459
0.735521
0.965595
0.853539
0.848770
0.946522
0.984669
0.959635
0.985861
0.977516
1.133680
1.138449
1.409650
1.367927
1.349449
1.695752
1.856685
1.848936
2.273917
2.531409
2.956986
7.092953
48.636794
135.557652
352.745652
623.492599
1015.719771
1015.719771
1015.719771
1015.719771
1015.719771
1015.719771
1015.719771
1015.719771
705.967546
394.743681
153.513551
68.765879
23.138523
14.243722
13.665557
13.278723
14.183521
14.837980
17.593503
21.540523
30.505657
40.226579
54.796934
64.423680
76.694489
82.779527
86.465478
83.188415
74.473619
67.863464
55.917501
45.929551
36.103725
31.472445
26.099682
24.443865
23.287535
##ZVALUE=350
0.489950
0.525713
0.479817
0.488758
0.393987
0.425577
0.525713
0.588894
0.564456
0.442863
0.573993
0.558496
0.525713
0.563860
0.647902
0.662804
0.487566
0.571609
0.696778
0.522733
0.672936
0.619888
0.566840
0.600815
0.533462
0.649691
0.819564
0.620484
0.617504
0.869632
0.681877
0.701547
0.707507
0.820756
0.905991
0.893474
0.850558
0.946522
1.067519
1.104474
0.855923
1.108646
0.991821
0.929832
1.123548
1.197457
1.270771
1.403689
1.470447
1.383424
1.757741
1.690984
2.234578
2.246499
2.213717
2.774000
4.791617
18.763542
92.203617
213.714838
505.097508
831.789970
1015.794873
1015.794873
1015.794873
1015.794873
1015.794873
1015.794873
1015.794873
876.837969
442.417860
243.157744
92.996955
36.619902
14.522672
12.929440
12.427568
12.541413
13.419986
14.258623
17.186999
21.039844
28.481483
35.195947
47.991872
57.795644
69.020987
75.508952
79.017878
78.185797
70.753694
63.608885
51.875710
43.929815
34.608841
29.874444
##ZVALUE=355
0.447631
0.472665
0.508428
0.465512
0.512600
0.336766
0.671744
0.440478
0.531673
0.516772
0.515580
0.450611
0.537634
0.593662
0.722408
0.672936
0.659823
0.699759
0.641942
0.633597
0.683665
0.689626
0.564456
0.720620
0.584722
0.686646
0.802875
0.706911
0.716448
0.538826
0.895858
0.724792
0.769496
0.689626
0.741482
0.843406
0.851750
0.915527
1.066923
1.024604
1.015663
0.951886
1.161695
1.166463
1.236796
1.065731
1.139641
1.390576
1.217723
1.304746
1.313686
1.552701
1.815557
2.031922
1.929998
1.946688
2.279878
2.669692
3.197789
10.604858
40.759444
164.737701
337.453485
703.018904
1015.797853
1015.797853
1015.797853
1015.797853
1015.797853
1015.797853
1015.797853
991.373658
652.509928
291.647911
140.099525
42.907000
17.997622
11.868477
11.965632
12.050867
12.553930
13.092756
13.943911
16.317964
18.983483
25.598407
31.989813
43.327808
51.335692
61.595440
68.695545
72.688460
71.728826
66.616535
60.356855
50.346851
##ZVALUE=360
0.663996
0.464916
0.516772
0.446439
0.519753
0.412464
0.433922
0.453591
0.455976
0.463724
0.484586
0.487566
0.641942
0.605583
0.627637
0.425577
0.603795
0.588894
0.572801
0.608563
0.519753
0.668764
0.711679
0.618696
0.744462
0.743866
0.635982
0.791550
0.697970
0.766516
0.857711
0.820756
0.794530
0.689626
0.757575
0.673532
0.793934
0.998974
0.960827
0.951886
0.903606
1.005530
1.017451
1.060963
1.176000
1.157522
1.101494
1.296997
1.307726
1.441836
1.397729
1.481771
1.699924
1.521707
1.652837
1.892447
1.868606
2.121925
2.357960
2.638698
2.919436
4.928708
16.999841
82.741976
206.638575
518.896580
859.936476
1015.786529
1015.786529
1015.786529
1015.786529
1015.786529
1015.786529
1015.786529
779.084563
377.936959
197.179914
72.365999
28.586984
12.326837
11.472702
11.462569
11.654496
11.713505
12.135506
12.812614
14.389753
17.332435
21.043420
28.157830
35.452843
45.741796
53.737760
62.495470
65.400600
65.775514
##ZVALUE=365
0.492930
0.434518
0.474453
0.444651
0.551939
0.331998
0.494719
0.581741
0.566840
0.478625
0.529885
0.554919
0.636578
0.525713
0.701547
0.576973
0.578761
0.540614
0.536442
0.545979
0.537634
0.743866
0.612736
0.552535
0.585914
0.514984
0.602603
0.766516
0.762939
0.689626
0.821948
0.819564
0.904799
0.831485
0.696778
0.719428
0.907779
0.894666
0.887513
0.899434
0.812411
0.973940
1.003742
1.012683
1.072884
1.113415
1.084805
1.222491
1.140833
1.225471
1.194477
1.364946
1.452565
1.544952
1.544952
1.486540
1.614690
1.862645
1.856685
2.107620
2.628565
2.737641
3.220439
3.622770
7.768869
47.499537
132.440925
356.189013
657.213926
1015.793681
1015.793681
1015.793681
1015.793681
1015.793681
1015.793681
1015.793681
965.289474
508.832932
275.605917
100.445747
40.256977
14.181733
10.952950
10.501742
10.789633
10.840893
11.132956
11.497736
11.829734
13.295412
14.785528
19.196868
23.812652
31.816959
38.865805
48.518777
##ZVALUE=370
0.524521
0.488758
0.522733
0.533462
0.486970
0.573993
0.501871
0.590682
0.503659
0.622869
0.640750
0.678897
0.522733
0.512600
0.642538
0.592470
0.540614
0.758767
0.734925
0.606775
0.530481
0.625849
0.721812
0.744462
0.715852
0.597835
0.668764
0.685453
0.635982
0.731945
0.763535
0.803471
0.653863
0.840425
0.798702
0.943542
0.903606
0.870824
0.924468
0.831485
0.899434
0.871420
0.949502
0.939965
0.916719
1.008511
0.974536
1.064539
1.117587
1.020432
1.163483
1.228452
1.106858
1.092553
1.153946
1.387596
1.355410
1.431704
1.667738
1.775622
1.858473
1.970530
2.043843
2.331734
2.644658
3.103614
4.205704
22.583604
80.153942
260.069966
490.213633
936.838984
1015.830636
1015.830636
1015.830636
1015.830636
1015.830636
1015.830636
1015.830636
609.709620
337.876678
132.201910
60.191751
21.309853
11.576414
9.722710
9.855628
10.083914
9.950995
10.219812
10.069609
11.091828
11.945963
13.594627
16.720891
21.523833
##ZVALUE=375
0.499487
0.473857
0.511408
0.495911
0.540614
0.639558
0.451803
0.365973
0.380874
0.545979
0.276566
0.546575
0.579953
0.472665
0.632405
0.584722
0.657439
0.464916
0.448823
0.441670
0.387430
0.277758
0.537634
0.739694
0.597835
0.550747
0.618696
0.638962
0.647902
0.558496
0.553727
0.544786
0.563860
0.768900
0.655651
0.708699
0.635982
0.610948
0.548959
0.715852
1.119971
0.794530
0.738502
1.006722
0.775456
0.844598
0.898838
0.848770
0.705719
1.007915
1.029968
0.899434
0.926852
1.118779
1.094937
1.031756
1.074672
1.248717
1.260638
1.408458
1.330972
1.489520
1.526475
1.821518
1.670718
2.064705
2.409816
2.667904
3.324747
10.825992
40.621758
156.340599
331.544876
735.642910
1015.793681
1015.793681
1015.793681
1015.793681
1015.793681
1015.793681
1015.793681
803.893805
492.118597
221.476555
108.462572
34.349561
15.126467
9.539723
8.894801
8.968711
9.047985
9.144545
9.359717
9.568930
10.072589
10.741949
##ZVALUE=380
0.428557
0.488758
0.477433
0.436902
0.354648
0.392795
0.404716
0.432730
0.386834
0.581741
0.358820
0.485778
0.564456
0.566840
0.456572
0.396967
0.454783
0.515580
0.477433
0.323653
0.368953
0.418425
0.526905
0.464916
0.547767
0.424981
0.623465
0.563860
0.558496
0.476837
0.658631
0.518560
0.551939
0.542998
0.805855
0.679493
0.617504
0.640750
0.606775
0.669956
0.737906
0.724792
0.648499
0.684857
0.790954
0.745654
0.575781
0.877976
0.782609
0.879765
0.791550
0.820756
0.753999
0.874996
0.789762
0.916719
0.875592
1.106858
1.192689
1.119971
1.094937
1.197457
1.138449
1.472831
1.388788
1.620650
1.727939
2.094507
2.330542
2.774000
3.122687
5.674958
22.809505
110.012889
253.534913
593.142509
956.124663
1015.794873
1015.794873
1015.794873
1015.794873
1015.794873
1015.794873
998.224616
688.250661
330.895782
167.733431
58.077574
23.481846
9.826422
8.162856
8.084774
8.190870
8.266568
8.347631
8.655787
##ZVALUE=385
0.229478
0.403523
0.312924
0.307560
0.320673
0.480413
0.486970
0.268817
0.324845
0.537634
0.443459
0.393987
0.455976
0.365973
0.500679
0.551939
0.291467
0.466704
0.391603
0.406504
0.400543
0.411868
0.591874
0.439882
0.462532
0.576973
0.438690
0.544786
0.415444
0.386834
0.515580
0.549555
0.578761
0.496507
0.582933
0.578761
0.534654
0.658631
0.502467
0.678897
0.777841
0.518560
0.608563
0.626445
0.704527
0.706911
0.628829
0.650883
0.744462
0.811815
0.807643
0.765920
0.797510
0.813603
0.793934
0.854731
0.844598
0.845790
1.032948
0.915527
1.109838
1.110435
1.117587
1.154542
1.319647
1.321435
1.440644
1.774430
1.940727
2.291799
2.301931
2.737641
2.808571
3.747940
11.308789
69.501996
178.056955
446.565747
768.525004
1015.793681
1015.793681
1015.793681
1015.793681
1015.793681
1015.793681
1015.793681
905.423760
482.548475
268.615484
106.879473
43.047667
12.189746
8.163452
7.563829
7.713437
7.459521
##ZVALUE=390
0.315905
0.369549
0.519753
0.457764
0.368953
0.506639
0.404716
0.421405
0.433922
0.366569
0.314713
0.374913
0.283718
0.340939
0.337958
0.367761
0.348687
0.561476
0.376701
0.283718
0.627637
0.453591
0.592470
0.491738
0.409484
0.485778
0.441670
0.357628
0.454783
0.419617
0.399947
0.464916
0.432730
0.664592
0.462532
0.589490
0.519753
0.456572
0.556707
0.525713
0.672936
0.498891
0.581741
0.676513
0.660419
0.692606
0.551939
0.650883
0.674725
0.692606
0.721812
0.815988
0.699759
0.729561
0.835657
0.834465
0.809431
0.869632
0.826716
0.911951
1.078844
1.016855
1.086593
1.101494
1.123548
1.367927
1.520514
1.557469
1.812577
1.992583
2.098680
2.301931
2.464652
2.760887
2.422929
3.025532
5.135536
34.119487
109.806657
334.770679
626.440048
1015.793681
1015.793681
1015.793681
1015.793681
1015.793681
1015.793681
1015.793681
1015.793681
691.684484
392.693877
156.606436
69.317818
18.825531
8.788705
7.185936
##ZVALUE=395
0.313520
0.422597
0.204444
0.361800
0.178814
0.330806
0.319481
0.406504
0.264645
0.269413
0.511408
0.331998
0.355840
0.490546
0.482798
0.303984
0.340939
0.346899
0.364780
0.418425
0.295639
0.615716
0.323653
0.492930
0.417829
0.419617
0.577569
0.362992
0.562668
0.434518
0.418425
0.421405
0.523925
0.522733
0.363588
0.514984
0.593662
0.292659
0.414848
0.536442
0.568628
0.605583
0.795722
0.552535
0.587702
0.773668
0.519753
0.604987
0.578761
0.718832
0.775456
0.715852
0.673532
0.794530
0.697970
0.809431
0.908971
0.784993
0.890493
0.772476
0.805855
0.928640
1.005530
1.188517
1.161695
1.205802
1.271963
1.451969
1.718998
1.836419
1.845956
1.885891
2.043843
2.030730
2.308488
2.190471
2.301931
2.618432
3.565550
12.717843
76.446533
186.693668
443.275571
759.604573
1015.793681
1015.793681
1015.793681
1015.793681
1015.793681
1015.793681
1015.793681
946.213007
489.183664
254.210830
92.202425
38.838983
##ZVALUE=400
0.336766
0.376701
0.380874
0.196695
0.291467
0.308752
0.476837
0.355840
0.393987
0.484586
0.401735
0.396967
0.242591
0.452995
0.370741
0.487566
0.337958
0.430942
0.423789
0.323653
0.576973
0.388622
0.438690
0.435710
0.283718
0.459552
0.333786
0.458956
0.539422
0.526905
0.484586
0.408888
0.488758
0.393987
0.504851
0.453591
0.675917
0.413656
0.593662
0.549555
0.467896
0.520945
0.678897
0.672936
0.644922
0.767708
0.555515
0.632405
0.723600
0.724792
0.748634
0.449419
0.888705
0.651479
0.755787
0.804663
0.868440
0.770688
0.790954
0.642538
0.868440
0.759959
0.849962
1.089573
1.020432
1.350641
1.270771
1.321435
1.489520
1.558661
1.832843
1.971722
1.900792
1.888871
1.832843
1.760721
1.842976
2.081990
2.150536
2.546906
2.869964
8.870959
32.895803
123.556852
265.883803
595.269799
951.978564
1015.793681
1015.793681
1015.793681
1015.793681
1015.793681
1015.793681
985.434651
658.208728
320.969820
##END
