##TITLE=SH752
##FORMAT=SPECTACLE-ASCII V-1.2
##DATA TYPE=ULTRAVIOLET SPECTRUM
##SECOND TYPE=ULTRAVIOLET SPECTRUM
##DATE=10/24/17
##TIME=15:07:40
##SPECTROMETER/DATA SYSTEM=SPECTACLE
##XUNITS=NM EM
##YUNITS=ENERGY
##YFACTOR=1
##FIRSTX=220
##LASTX=410
##NPOINTS=96
##3DDATA=Equidistant
##ZUNITS=NM EX
##FIRSTZ=210
##LASTZ=400
##ZPOINTS=39
##XYDATA=(Y..Y)
##ZVALUE=210
8.671880
8.273721
7.340908
6.234646
5.119443
5.156994
5.876422
5.886555
5.607605
5.260706
4.143715
4.002452
3.928542
4.114509
3.872514
4.233718
4.307628
4.255772
4.124641
4.540682
5.966425
5.343556
6.473660
7.299781
6.719828
6.402731
8.191466
7.074475
7.669926
7.967949
8.502603
7.887483
9.228587
9.041429
9.782910
10.461807
10.113716
10.641813
10.901690
11.543632
10.670424
12.278557
11.365414
12.287498
12.798905
12.206435
12.311935
13.777614
13.983846
12.810826
14.678836
14.472604
16.610622
15.138984
15.528798
15.637875
16.331673
16.325712
16.414523
16.021729
16.271472
15.461445
16.243458
15.706420
17.338991
17.695427
19.642711
19.852519
23.140907
27.643442
30.643940
36.500692
41.117668
45.169592
50.211549
54.992437
56.709647
54.789782
56.027770
52.060485
44.791698
43.868423
37.682652
33.896565
26.968718
24.729967
21.390915
19.121766
17.856956
16.471744
17.886758
16.799569
18.550754
17.960668
20.805597
23.113489
##ZVALUE=215
28.241873
28.311610
23.346543
19.499660
15.372634
12.986660
11.251569
10.846853
10.797977
9.921789
7.898808
8.182526
6.655455
5.674958
5.303621
4.788637
4.432797
4.374981
4.697442
5.619526
5.507469
5.730987
6.119609
6.332994
6.574988
7.039905
7.009506
8.025765
8.269548
8.925796
8.702874
8.946657
9.551644
9.530783
9.913445
11.939406
10.355711
9.783506
10.880828
12.174845
12.094975
11.874437
12.569427
12.828708
13.732910
13.639927
12.794733
13.539791
14.612675
14.313459
13.859868
14.833808
16.342998
16.476512
15.544891
17.745495
17.143488
17.733574
16.636848
17.801523
17.524958
17.559528
17.981529
17.749667
19.720793
17.918944
20.510554
19.936562
23.965836
25.593638
32.342672
34.101605
40.521622
45.381784
49.524903
53.783655
51.307678
53.261518
52.446723
48.992634
44.403672
40.106773
34.888983
29.761791
27.655959
24.147630
20.541549
19.351840
18.981695
18.460751
17.313957
16.236901
16.140938
17.228723
16.513467
17.017722
##ZVALUE=220
70.751905
73.718429
73.192716
74.618459
60.559511
46.869516
36.342740
25.203824
22.121668
19.693971
19.258857
20.243526
18.710494
17.198920
12.576580
10.835528
6.945729
6.405711
5.981922
5.500913
5.540848
6.197691
5.635619
6.424785
6.539822
7.034540
8.093715
7.440448
7.476807
8.681417
9.248853
8.684993
10.017753
9.461641
10.104775
10.194778
10.287762
12.286901
12.767911
12.431741
12.204647
13.556480
13.143420
14.469624
15.629530
14.625788
15.342832
15.074611
14.559627
16.065836
16.747713
17.097592
17.851591
17.404556
17.953515
17.766953
18.523932
19.305944
18.358827
18.939972
18.911958
20.679832
21.468997
20.349622
21.838546
20.274520
21.456480
22.356510
25.015473
28.014779
32.402873
35.343766
41.416883
44.163465
47.961473
51.028728
50.990582
51.925778
49.053431
48.487782
42.213798
38.454533
35.869479
30.794740
27.675629
23.971796
23.818612
21.923780
20.906925
18.963814
20.281672
20.038486
18.786788
18.776655
18.655658
20.081997
##ZVALUE=225
94.730854
103.876591
129.800439
159.193873
164.920688
158.224702
146.816969
112.022758
80.256462
64.032674
42.734742
34.342408
32.358766
34.980774
32.761693
29.573441
26.259422
19.590855
16.841888
12.325644
8.702874
6.935596
6.162524
6.222725
7.134676
7.404685
7.206798
7.619858
8.220673
8.934736
8.957982
9.963512
9.520650
10.545850
10.597706
11.405945
10.426641
13.541579
14.750957
13.972521
14.889836
14.740825
14.968514
15.712976
16.389489
17.349720
17.850995
18.238425
18.766522
19.413829
20.132661
20.788908
20.023584
21.878481
21.970868
23.293495
25.080442
24.311543
24.303794
26.164651
25.037527
27.511716
26.687980
25.629997
26.194453
28.598905
26.012659
31.011701
30.637980
34.589767
35.280585
39.411783
44.872761
48.414469
50.630569
50.429702
52.370429
49.721599
48.932433
45.873523
41.852593
38.220882
37.229657
34.411550
32.130480
31.131506
27.712584
28.836727
25.356412
24.925470
25.476813
24.637580
25.916696
25.415421
24.183989
24.926662
##ZVALUE=230
65.923929
72.620511
115.216970
186.611414
247.720480
308.918953
322.261453
323.177576
290.939808
248.453617
168.585777
117.496848
75.647831
59.720874
55.738688
56.153536
58.571696
56.380630
51.358938
39.131641
32.383800
21.757483
14.491677
11.164546
8.667707
8.098483
8.943677
9.740591
9.357929
8.965731
9.904504
10.153651
11.238456
11.643767
12.384653
12.805462
13.348460
14.194846
14.691949
15.220642
16.419888
18.866658
17.389655
17.806888
18.299818
20.258427
19.874573
20.912886
21.270514
23.528934
23.004413
23.914576
26.568770
26.793480
27.673841
28.299689
27.571917
28.505921
30.702949
29.979944
31.190515
29.816628
32.824874
31.623840
31.657815
32.967925
34.032464
32.859445
37.346482
41.443706
41.520000
45.966506
48.647523
52.958727
55.418611
56.294799
56.640506
55.177808
54.193735
52.348971
49.123764
46.420693
43.230653
41.166544
37.858486
34.792423
36.565661
35.679936
34.361482
33.241510
33.162832
33.220649
32.416582
31.874776
31.351447
30.588508
##ZVALUE=235
20.334721
21.196604
59.535503
112.605691
204.577446
304.748416
426.525474
520.371795
579.606891
571.025014
517.901778
415.749550
313.504934
206.733942
143.650770
93.495846
81.526637
81.844926
89.402795
84.016919
84.017515
68.466663
53.486824
40.147901
26.589632
19.235611
13.547540
10.842681
9.276867
10.552406
11.266470
10.950565
10.962486
12.580752
12.578964
14.079809
13.932586
13.593435
15.827417
17.597675
15.097857
18.663406
18.765926
20.167828
20.215511
20.835996
20.629764
22.483468
23.410916
24.742484
24.685860
26.985407
27.286410
29.426813
30.357838
29.109716
32.987595
32.051802
34.211874
34.555793
34.394860
34.645796
34.711957
36.404729
36.228895
39.381981
40.361881
42.728782
42.446852
46.630502
48.696995
50.968528
55.647492
61.747432
63.359737
63.177943
61.976910
62.244534
66.039562
60.588717
56.636930
54.597855
50.303936
52.077770
45.968890
45.641661
44.401884
42.837858
42.108893
41.245818
41.229725
39.579868
40.168762
39.535761
39.300919
41.193962
##ZVALUE=240
2.668500
3.264546
8.962750
22.724867
68.628788
126.508474
273.439884
407.938957
621.752739
764.522552
888.935924
905.667543
848.583579
676.691532
537.797809
337.410569
232.588649
145.698786
110.756755
103.203654
114.669800
118.620992
113.699436
103.631616
81.078410
68.592429
47.995448
34.726858
21.698475
15.953779
15.564561
11.440516
11.976957
11.586547
12.523532
14.194846
14.035702
14.989972
14.580488
16.182661
15.945435
17.499924
18.075705
18.593669
21.043420
21.381974
24.455786
24.100542
25.581717
25.430918
25.560856
27.831793
27.169585
30.719638
28.593540
30.162930
29.456615
34.213662
32.913685
34.052730
35.399795
35.895705
37.306547
36.712885
37.861466
39.354563
39.609671
41.052699
47.030449
49.358606
51.733851
54.957867
60.217977
62.732697
63.496828
67.582726
68.614483
67.565441
64.843893
65.573454
63.031912
57.040453
55.151582
53.378940
51.455498
47.699809
53.106546
48.968792
49.251914
47.584772
48.257709
46.400428
46.083927
47.761798
47.336817
46.039820
##ZVALUE=245
2.768636
2.678633
2.753735
2.809763
6.553531
17.133951
55.703521
115.302801
266.574621
423.575640
684.641600
871.322751
1003.520489
1015.767455
1015.767455
901.843905
741.714835
502.589941
339.224935
189.621449
127.226710
108.103752
112.525821
125.076771
125.212669
125.404596
112.926960
92.481971
69.645643
54.872632
40.647984
24.868846
17.827749
14.288425
12.198687
11.680722
12.125969
13.305545
14.014840
15.130639
14.748573
17.122626
15.843511
17.972589
18.273592
17.817616
20.435452
19.660592
20.031929
21.634698
23.261905
22.142529
24.344921
26.694536
26.050806
26.540756
28.723478
27.816892
27.751923
28.757453
30.308962
30.177832
32.229424
31.413436
32.264590
34.732819
37.110448
37.953854
41.146874
42.645931
44.479966
50.778985
51.434636
55.470467
58.769584
58.752894
60.042739
58.570504
57.423711
57.289600
52.752495
53.025484
54.303408
50.294995
49.026608
48.359632
48.850775
45.602918
45.070648
44.732690
45.566559
43.200850
46.647787
43.360591
44.175982
44.729710
##ZVALUE=250
1.974702
2.012849
1.819730
2.351999
2.367496
1.923442
3.291965
12.092590
34.974813
104.803443
215.061903
385.951996
660.039783
870.734453
1015.793681
1015.793681
1015.793681
1015.793681
944.355726
724.841952
448.491573
283.773541
150.753856
108.676553
104.898810
121.557713
132.467747
139.959455
132.627487
115.751624
106.332898
75.269938
59.846640
37.090778
25.775433
19.188523
13.477802
12.525916
12.593865
12.915730
14.223456
14.871955
15.413761
16.316772
15.539527
15.980601
16.940832
17.761588
18.308759
19.715428
21.569729
21.479726
21.806955
21.744967
22.413731
23.223758
22.822618
24.596453
25.348663
26.530623
27.206540
27.979612
27.999878
28.292537
29.788613
31.291842
29.544830
34.034848
35.716891
34.933686
39.586425
44.165850
46.098828
47.565699
51.292777
49.685836
51.325560
50.586462
49.430728
48.940778
48.069954
46.805739
47.483444
44.889450
44.824481
45.204759
42.038560
42.933822
43.759942
40.574670
40.784478
41.264892
41.448474
41.899681
39.987564
40.994883
##ZVALUE=255
1.563430
1.841784
1.692772
1.870990
1.874566
2.335906
2.095699
2.489686
2.904534
7.501841
24.358630
66.509843
176.744461
312.034488
555.999875
800.842643
1015.793681
1015.793681
1015.793681
1015.793681
1015.793681
981.772542
620.415807
398.318768
242.008567
126.435757
98.191500
103.819966
121.461749
138.883591
145.951509
140.735507
130.156875
104.194880
84.482431
59.795976
39.971471
25.575757
19.414425
15.134811
13.246536
13.682842
14.568567
15.308857
14.593601
16.378760
17.151833
18.286705
17.959476
19.379854
19.705892
18.788576
20.338893
20.869970
21.324754
22.456646
21.789670
22.111535
23.268461
24.263859
25.499463
25.465488
26.069880
26.700497
27.000904
28.423667
29.242635
29.921532
32.012463
34.740567
35.948753
38.673878
41.793585
42.421818
43.958426
46.937466
47.306418
46.357512
44.505000
44.028759
44.254661
43.258667
43.507814
39.327741
39.665699
39.719939
39.394498
40.062666
39.875507
39.342642
37.974715
39.257407
38.960576
38.260818
39.112568
38.584471
##ZVALUE=260
1.337528
1.478791
1.849532
1.537800
1.581907
1.924634
2.013445
1.912713
1.833439
2.213717
2.433658
3.090501
15.039444
40.886998
121.677518
241.800547
501.351953
744.468570
1015.793681
1015.793681
1015.793681
1015.793681
1015.793681
1015.793681
854.851604
569.194555
354.048610
176.393986
110.406876
87.943673
103.410482
129.551888
141.205788
151.977539
149.004459
131.681561
115.893483
85.737705
67.226887
41.593909
30.651689
21.931529
17.279983
15.374422
15.419722
15.592575
16.774535
17.484426
18.838644
18.344522
18.635988
19.168854
21.216869
21.440983
21.186471
22.437572
22.566915
23.059845
24.661422
25.671721
24.910569
25.497675
25.768876
25.438666
25.817752
26.900768
28.102994
29.224753
29.901862
30.907989
33.865571
35.903454
36.303997
37.282705
39.833784
41.651726
40.541887
41.401982
41.417480
39.837956
38.628578
37.699938
37.356615
38.639903
36.652684
36.806464
37.028790
36.990643
37.704706
36.298633
36.449432
36.719441
36.362410
38.732886
37.876964
36.109686
##ZVALUE=265
1.391768
1.334548
1.351833
1.640916
1.892447
1.917481
1.773834
1.994967
1.734495
1.820922
1.905560
2.264977
2.031922
2.991557
6.279945
33.336878
82.708597
215.481520
389.490724
741.567016
1007.159948
1015.793681
1015.793681
1015.793681
1015.793681
1015.793681
1015.793681
807.803869
444.187522
264.834762
194.894671
84.778666
83.349943
112.161636
135.038495
153.408647
157.661438
150.467753
136.156678
111.232996
89.672804
63.553452
46.694875
30.341744
23.394823
18.872619
18.863678
18.452406
18.815994
20.597577
20.832419
21.020770
21.966696
23.318529
22.378564
23.037791
24.230480
24.679899
24.320483
26.036501
24.917722
26.752949
26.000738
26.919842
26.300550
27.233958
27.795434
28.746724
30.013919
30.247569
31.507611
33.981800
36.825538
37.116408
38.573742
39.801002
38.848519
38.894415
38.347840
38.381815
36.892891
36.303997
35.444498
36.264658
36.428571
35.810471
35.662651
36.683679
35.412908
35.393834
35.690665
35.492778
34.655929
36.839843
34.759641
35.660863
##ZVALUE=270
1.403689
1.309514
1.460910
1.486540
1.377463
1.437664
1.544952
1.462698
1.575947
1.675487
2.008677
1.903772
2.212524
2.382994
2.467632
2.805591
3.492832
15.617609
46.532750
157.525539
320.706964
573.521852
989.215970
1015.843749
1015.843749
1015.843749
1015.843749
1015.843749
1015.843749
1015.843749
762.477517
401.355624
221.207738
98.390579
73.725581
88.832974
111.464858
138.114691
156.489611
161.207914
156.183839
139.115453
118.426681
92.446804
71.513653
47.005415
36.326647
28.237700
24.187565
22.365451
23.589730
23.289919
23.534894
24.457574
25.122762
25.690794
25.665760
26.087761
27.956963
27.112961
27.452707
27.859807
28.158426
27.562976
28.584599
28.054714
28.800964
29.843450
30.217767
32.849908
32.775998
33.307672
35.412908
36.303997
36.862493
38.425922
37.432909
37.238598
37.845969
37.876964
35.638809
36.698580
35.066605
34.587979
34.735799
35.906434
34.714937
35.189986
33.499599
33.783913
33.902526
33.910871
33.788681
33.439994
34.510493
34.012794
##ZVALUE=275
1.043677
1.191497
1.170635
1.331568
1.224875
1.525879
1.169443
1.352429
1.556873
1.437664
1.752973
1.675487
1.821518
1.829863
2.106428
2.223849
2.387762
2.513528
2.779961
6.415844
23.899674
106.505752
235.043764
531.728864
867.386460
1015.793681
1015.793681
1015.793681
1015.793681
1015.793681
1015.793681
1015.793681
983.036757
560.194850
325.019956
143.753886
78.834891
66.918731
83.789825
114.331841
136.142969
154.708624
163.423419
158.875585
145.145655
120.328665
97.050667
71.689487
56.029558
40.475726
33.517480
28.416514
27.174950
26.996732
26.803613
27.503967
27.705431
28.511882
28.593540
29.161572
28.382540
29.004812
29.365420
29.508471
29.616952
30.658841
29.891729
31.113625
31.369925
33.323765
33.357739
35.103559
36.644936
36.252737
38.715601
37.776828
37.704706
36.279559
37.013888
35.749674
35.589933
34.232736
34.577847
34.367442
34.172535
33.618808
33.868551
33.809543
33.372641
33.547878
33.402443
33.049583
33.119917
32.398701
32.384992
33.033490
##ZVALUE=280
1.105666
1.195669
1.362562
1.356602
1.377463
1.053810
1.452565
1.249909
1.543760
1.393557
1.400709
1.225471
1.549721
1.660585
1.760721
1.552701
1.962781
2.036691
2.035499
2.334714
2.655983
3.488660
18.721819
65.389872
210.310817
398.044586
762.553811
1015.805602
1015.805602
1015.805602
1015.805602
1015.805602
1015.805602
1015.805602
1015.805602
738.717914
444.696546
193.409920
95.438957
56.963563
64.278841
89.283586
114.844441
141.268969
157.494545
161.390901
158.165693
142.338872
125.703812
98.094940
79.639554
57.058930
44.682622
35.735965
31.238794
28.597713
28.486848
29.378533
29.340982
29.757619
29.645562
29.792786
29.971600
30.073524
31.047463
30.035973
31.157732
31.332970
31.823516
32.525659
32.748580
35.273433
35.314560
36.762953
37.039518
36.163926
36.514997
36.374927
35.888553
35.268664
35.028458
34.335852
33.654571
33.741593
32.795668
33.462644
33.253431
33.184886
32.128692
32.523870
32.532811
31.359792
31.412840
31.918883
30.964613
31.093955
##ZVALUE=285
1.005530
0.981688
1.017451
1.024604
1.061559
1.077652
1.305938
1.308918
1.272559
1.217723
1.334548
1.076460
1.277924
1.594424
1.632571
1.449585
1.566410
1.524687
1.855493
2.054572
2.222657
2.336502
2.547503
3.075600
9.336472
34.626722
125.067830
261.983871
569.817424
922.992826
1015.793681
1015.793681
1015.793681
1015.793681
1015.793681
1015.793681
1015.793681
964.351892
623.054504
297.252536
150.465965
61.131716
46.363473
63.660741
83.556771
115.606785
134.844780
153.035522
161.430836
157.396793
147.950649
124.292970
104.203820
79.939961
61.392784
45.453906
37.655830
31.491518
30.592680
29.477477
29.107928
29.763579
30.135512
30.614734
29.853582
31.210780
30.717850
31.732917
31.747818
32.782555
33.862591
34.642816
34.582615
36.054850
36.390424
35.941601
35.738945
35.030842
35.077929
34.233928
34.358501
33.951998
33.618808
33.970475
33.297539
32.631755
31.667948
33.511519
32.361746
32.233596
31.570792
31.818748
30.497909
31.082630
31.466484
30.519962
##ZVALUE=290
0.914931
1.002550
1.006722
0.911951
0.922680
0.883937
1.207590
1.181960
1.115799
0.916719
1.156926
1.134872
1.291633
1.190901
1.315475
1.452565
1.458526
1.279712
1.518726
1.861453
1.836419
1.891851
2.019405
2.312660
2.733469
2.855659
4.229546
12.988448
65.022707
165.292621
337.584615
733.243823
1015.794873
1015.794873
1015.794873
1015.794873
1015.794873
1015.794873
1015.794873
1015.794873
883.430839
453.302860
238.904953
86.583495
44.419765
45.237541
59.081912
83.998442
103.076696
131.443739
148.303509
156.630874
156.572461
141.707659
124.744773
98.032951
78.880787
57.112575
46.256781
36.497712
31.807423
29.142499
28.983951
28.450489
29.848814
29.290915
28.857589
30.202866
30.140877
31.851530
32.248497
32.830834
32.963753
33.889413
34.215450
34.024715
33.836961
33.826828
32.890439
33.150911
32.784939
32.525659
32.249689
31.669736
32.566786
32.048821
32.317638
31.693578
30.879974
31.310916
30.026436
30.095577
30.991435
30.068755
30.251741
29.530525
##ZVALUE=295
0.867844
0.872612
0.947714
0.721812
0.961423
0.913739
0.936985
1.091957
0.982881
0.908971
1.072884
1.020432
1.143813
1.201630
1.115799
1.186728
1.372695
1.488924
1.384616
1.316667
1.600981
1.847744
1.786947
2.028942
2.203584
2.181530
2.361536
2.668500
3.357530
6.032586
22.946596
109.236836
257.731676
621.035695
973.962545
1015.794873
1015.794873
1015.794873
1015.794873
1015.794873
1015.794873
1015.794873
1015.794873
605.412722
332.835913
119.985938
54.726601
32.260418
37.672520
57.383776
74.476600
101.265907
120.126605
139.820576
148.772597
146.240592
136.455894
115.747452
96.311569
73.202848
58.800578
42.025447
35.144687
29.591918
26.568770
26.269555
26.779771
27.852654
28.708577
29.698610
30.167699
31.402707
31.317472
32.164454
32.524467
32.404661
32.877922
31.739473
31.998754
31.714439
30.554533
31.158924
31.115413
32.084584
31.004548
31.748414
31.579733
31.275749
30.163527
30.025840
29.426813
29.244423
28.969646
28.969646
29.432774
28.810501
##ZVALUE=300
0.860691
0.726581
0.905991
0.908971
0.955462
0.920892
0.997782
1.035929
0.901818
1.049638
0.920892
0.831485
1.055598
0.896454
1.118779
1.169443
1.197457
1.162887
1.178980
1.337528
1.472831
1.476407
1.679659
1.660585
1.680851
2.114773
1.940727
2.161860
2.351999
2.735853
3.214478
4.050732
11.524558
69.003701
180.943608
478.000641
823.629498
1015.794873
1015.794873
1015.794873
1015.794873
1015.794873
1015.794873
1015.794873
1015.794873
790.891647
472.190976
209.030509
94.844699
33.663511
27.152896
36.814809
48.487782
70.118904
90.218782
116.616488
132.527947
141.336918
140.399933
128.945708
116.133690
90.677738
73.707700
54.521561
42.926669
33.180714
28.736591
26.679635
26.627779
27.354956
27.883649
29.726624
29.104948
30.168891
30.792952
30.160546
31.511784
30.521750
31.110644
30.570626
30.851960
30.883551
30.651689
30.748844
31.198859
31.257868
30.499697
30.802488
29.866695
30.439496
29.718876
29.571652
29.371977
29.026866
28.349757
28.831959
##ZVALUE=305
0.794530
0.779629
0.827909
0.878572
0.869632
0.941753
0.859499
0.849962
0.848770
0.962615
0.996590
0.780821
1.003742
0.971556
0.833869
1.316667
1.171827
1.053810
1.209974
1.251698
1.337528
1.484752
1.611710
1.542568
1.535416
1.540780
1.840591
1.892447
2.099872
2.068877
2.160668
2.764463
2.984405
3.587604
6.417632
43.516755
124.689937
364.433527
666.306615
1015.791893
1015.791893
1015.791893
1015.791893
1015.791893
1015.791893
1015.791893
1015.791893
1007.316113
684.391856
321.012735
156.762600
50.097704
25.179982
25.973916
32.998919
49.779415
64.647794
90.104938
106.498599
125.629902
132.887959
131.965876
123.729706
107.525587
89.643002
67.979693
54.923892
41.440725
33.344626
29.346943
27.592778
26.881695
28.144717
28.920770
28.979778
29.244423
29.414892
29.710531
30.182600
30.550957
30.301809
30.791759
30.420423
30.758977
30.769706
30.630827
30.043721
30.100942
30.098557
29.931664
29.833913
29.394627
28.693676
28.638840
28.749704
28.342605
##ZVALUE=310
0.751615
0.843406
0.675917
0.897646
0.920892
0.935793
0.823736
0.866652
0.847578
0.784993
0.956655
0.958443
0.848770
0.991821
0.932813
0.941753
0.986457
0.913739
1.095533
0.986457
1.053810
1.008511
1.097918
1.296997
1.387596
1.636744
1.646876
1.782775
1.671910
2.021790
2.053976
2.106428
2.442598
2.656579
2.880692
3.127456
3.850460
21.254420
71.474910
238.867998
469.514728
956.201553
1015.793681
1015.793681
1015.793681
1015.793681
1015.793681
1015.793681
1015.793681
1015.793681
957.017541
487.891436
259.480476
91.917515
36.596656
20.066500
23.140907
31.319857
42.475462
60.619712
78.639984
101.684928
116.213560
126.195550
127.432942
119.512677
107.830763
86.412430
71.428418
53.008795
43.435693
35.090446
31.116605
29.129982
28.022528
28.383732
28.301477
28.602481
28.756857
29.024482
29.389858
29.578805
30.126572
30.066967
30.233860
30.262470
30.022860
30.214787
29.842854
29.470921
29.525757
28.548837
28.747916
28.652549
28.625727
28.343797
##ZVALUE=315
0.659823
0.609756
0.704527
0.644922
0.817776
0.697970
0.773668
0.847578
0.818968
0.801682
0.851750
0.721812
0.797510
0.942945
0.876784
0.961423
1.076460
1.034737
1.016855
1.032948
0.960827
0.847578
1.005530
1.080632
1.113415
1.271963
1.330972
1.366735
1.382828
1.479983
1.816750
1.848936
1.838803
1.871586
2.293587
2.374649
2.706647
3.160834
3.696680
9.331703
39.031506
159.307718
357.542634
817.750692
1015.794873
1015.794873
1015.794873
1015.794873
1015.794873
1015.794873
1015.794873
1015.794873
1015.794873
665.439963
361.389518
129.919648
50.789714
19.797683
18.827915
23.058653
28.949976
40.798783
54.308772
74.318647
91.187954
109.766722
119.272470
121.613741
115.300417
100.804567
86.782575
68.934560
55.980682
42.954683
36.449432
30.294657
28.877854
28.126836
27.493834
27.718544
27.807951
28.165579
28.748512
29.351711
29.942989
28.789639
29.665828
30.050874
29.750466
29.618740
29.436946
28.931499
28.938651
28.771758
29.058456
28.572679
##ZVALUE=320
0.827909
0.814795
0.663996
0.769496
0.727773
0.726581
0.728965
0.732541
0.797510
0.697970
0.923872
0.807643
0.842810
0.858903
0.853539
0.984669
0.882745
0.984669
0.964999
0.963807
0.975728
1.067519
1.112819
1.054406
1.254678
1.163483
1.217723
1.396537
1.422763
1.339912
1.574755
1.636744
1.577735
1.936555
2.336502
2.242923
2.319813
2.601743
2.768636
3.115535
3.694892
5.070567
17.486811
100.576878
251.786709
651.637912
1015.793681
1015.793681
1015.793681
1015.793681
1015.793681
1015.793681
1015.793681
1015.793681
1015.793681
948.159099
543.688536
231.186748
98.969936
28.203726
16.666651
17.465949
19.543767
26.834607
34.802556
50.454736
67.227483
88.169575
101.738572
114.126801
117.535591
110.803843
102.031827
82.906485
68.454742
52.952766
42.746663
34.201741
30.953884
28.552413
27.416945
27.532578
27.730465
27.805567
28.402805
28.269887
28.713942
29.024482
28.683543
28.277636
28.789639
28.592944
28.537512
27.667880
28.269887
27.783513
##ZVALUE=325
0.734925
0.712872
0.713468
0.782609
0.734925
0.673532
0.854731
0.743866
0.801682
0.874996
0.881553
0.961423
0.773668
0.881553
0.836849
0.836849
0.841618
1.008511
1.071692
0.933409
1.002550
0.933409
0.924468
1.078844
1.302958
1.176000
1.091957
1.314878
1.206994
1.244545
1.498461
1.531839
1.380444
1.721978
1.695752
1.936555
1.839995
2.265573
2.203584
2.546906
2.638698
3.072619
3.634691
4.102588
8.742809
67.040920
177.145600
457.983017
813.689828
1015.793681
1015.793681
1015.793681
1015.793681
1015.793681
1015.793681
1015.793681
1015.793681
1015.793681
771.271586
338.575840
154.654980
41.959882
18.936992
15.362501
16.008615
20.115972
24.281740
36.328435
49.354434
67.807436
83.144903
99.969506
108.596683
110.772848
106.155872
92.248917
79.487562
62.122941
51.126480
39.693713
34.141541
29.206872
28.173923
27.090907
27.277470
27.354956
26.814938
27.285814
27.900934
27.544498
27.279854
26.984811
27.436614
27.312636
27.301908
27.011633
##ZVALUE=330
0.605583
0.567436
0.625849
0.757575
0.659823
0.596642
0.712872
0.728965
0.689626
0.629425
0.711679
0.689626
0.566840
0.897646
0.865459
0.827909
0.569820
0.805855
0.737906
0.783801
0.935793
0.984669
0.826716
0.929832
1.090765
1.003742
1.075864
0.868440
1.077652
1.034737
1.164675
1.405478
1.376867
1.536608
1.388788
1.651645
1.584888
1.881719
1.861453
2.021790
2.097487
2.320409
2.590418
2.800822
3.215671
3.820658
5.196929
27.548671
92.943907
307.200551
596.301556
1015.793681
1015.793681
1015.793681
1015.793681
1015.793681
1015.793681
1015.793681
1015.793681
1015.793681
961.454511
460.509658
230.845809
75.796843
26.761889
14.378428
14.549494
16.007423
18.689632
26.772618
33.972859
48.700571
63.319802
82.335472
93.569756
103.778839
103.954673
99.131465
90.887547
72.866678
60.586929
46.606660
39.693713
32.846928
29.402971
27.246475
26.354790
26.392937
26.152730
25.753975
25.912523
25.978684
26.165843
26.046634
26.552677
26.209950
##ZVALUE=335
0.556707
0.533462
0.667572
0.639558
0.643730
0.492930
0.554919
0.630617
0.487566
0.778437
0.552535
0.655651
0.652671
0.671744
0.655651
0.632405
0.804663
0.752807
0.652671
0.888705
0.807643
0.662804
0.776649
0.909567
0.831485
0.785589
0.801682
0.952482
1.045465
1.013875
1.083612
1.174808
1.194477
1.152754
1.195669
1.413822
1.463890
1.547933
1.576543
1.541972
1.482964
1.932979
1.918674
2.235770
2.476573
2.859831
3.047585
3.627539
4.018545
11.111498
44.283867
180.902481
389.153957
894.616842
1015.780568
1015.780568
1015.780568
1015.780568
1015.780568
1015.780568
1015.780568
1015.780568
1015.780568
610.296726
316.670537
105.640888
40.623546
16.198754
14.812946
15.348792
16.718507
20.674467
25.181770
35.642982
46.261549
62.729716
75.074434
87.988973
96.879601
98.578930
93.267560
82.069635
72.174668
58.322549
48.786998
38.830638
32.553673
28.141737
26.316643
25.347471
25.180578
24.743676
24.244785
24.683475
25.019646
24.692416
##ZVALUE=340
0.561476
0.516772
0.553727
0.707507
0.504851
0.636578
0.619888
0.547767
0.734925
0.564456
0.516772
0.749826
0.505447
0.764728
0.643730
0.624657
0.656843
0.668764
0.740886
0.804663
0.730753
0.753999
0.660419
0.863671
0.742674
0.825524
0.799894
0.769496
0.713468
0.975728
1.020432
0.964999
1.203418
1.181960
1.203418
1.272559
1.275539
1.287460
1.238585
1.406670
1.561642
1.660585
1.696944
1.819730
1.927614
2.101660
2.143979
2.555847
2.731681
3.222823
3.699660
5.728602
19.995570
109.754801
270.046592
684.134960
1015.793681
1015.793681
1015.793681
1015.793681
1015.793681
1015.793681
1015.793681
1015.793681
1015.793681
749.408007
415.280461
165.876746
63.672662
19.657612
15.580654
15.539527
15.849471
17.691851
19.978881
25.886893
32.570958
45.231581
56.144595
72.496533
83.745718
92.387795
92.831850
88.479519
81.763864
68.302751
57.750940
45.232773
37.953854
30.979514
27.263761
25.124550
23.975968
23.775697
23.575425
23.439527
##ZVALUE=345
0.428557
0.411868
0.552535
0.610948
0.692606
0.505447
0.463724
0.598431
0.552535
0.675917
0.491738
0.565648
0.604987
0.571609
0.489950
0.661612
0.712872
0.742674
0.675917
0.697970
0.831485
0.854731
0.693798
0.734925
0.728965
0.994802
0.792742
1.027584
0.787973
0.911951
0.867844
0.714660
0.851750
0.994802
1.114607
0.976920
1.117587
1.134872
1.406670
1.321435
1.476407
1.540780
1.477599
1.579523
1.569986
1.752973
1.675487
2.090931
2.397895
2.627969
2.678633
3.281832
3.324747
4.136562
8.672476
59.915781
174.394846
489.194989
892.179608
1015.793681
1015.793681
1015.793681
1015.793681
1015.793681
1015.793681
1015.793681
1015.793681
967.507958
558.501482
210.115910
90.207458
27.790666
16.748905
15.454888
15.480518
15.682578
16.105771
18.706918
22.723675
31.347871
40.711761
54.799914
65.683722
77.406764
83.341002
86.073875
83.496571
75.628757
67.231655
55.455565
45.969486
36.351681
30.791759
26.069880
24.601817
23.277998
##ZVALUE=350
0.525713
0.586510
0.574589
0.636578
0.588894
0.681877
0.583529
0.618696
0.746846
0.593662
0.563860
0.707507
0.638962
0.620484
0.658631
0.656843
0.716448
0.711679
0.646710
0.611544
0.700951
0.771880
0.597835
0.676513
0.652671
0.878572
0.846982
0.804663
0.715852
0.889897
0.799894
0.944734
0.975728
1.062751
0.953674
1.086593
1.040697
1.159906
1.377463
1.056790
1.173615
1.352429
1.357794
1.383424
1.493692
1.500845
1.548529
1.759529
1.773834
2.236962
2.087951
2.468824
2.637506
2.876520
3.190637
3.673434
5.808473
34.086704
109.210610
344.757438
670.250654
1015.793681
1015.793681
1015.793681
1015.793681
1015.793681
1015.793681
1015.793681
1015.793681
1015.793681
732.558966
300.934911
128.774643
35.215616
17.780662
14.589429
14.295578
14.278889
14.013648
15.438795
17.639995
22.729635
28.127432
37.676692
46.888590
59.629679
68.661571
76.261759
78.844428
77.835917
72.185993
62.281489
53.388476
42.278767
35.435557
28.813481
##ZVALUE=355
0.644922
0.571609
0.553727
0.645518
0.438690
0.557899
0.673532
0.750422
0.560880
0.661612
0.823736
0.697970
0.874996
0.673532
0.644922
0.708699
0.766516
0.690818
0.869632
0.827909
0.817776
0.707507
0.744462
0.695586
1.000762
0.891685
0.671744
0.883937
0.738502
0.916719
0.895858
0.863671
0.969768
1.042485
0.993609
1.151562
1.071692
1.049638
1.067519
0.994802
1.313686
1.184940
1.291633
1.284480
1.436472
1.430511
1.458526
1.627803
1.644492
1.732707
1.947880
2.175570
2.207756
2.514720
2.642870
2.977848
3.185868
3.662705
4.163980
13.682842
52.276850
209.496617
442.270637
939.772725
1015.793681
1015.793681
1015.793681
1015.793681
1015.793681
1015.793681
1015.793681
1015.793681
950.334668
416.456461
192.914009
54.304600
21.781921
13.760924
13.453960
13.314486
13.630986
14.212728
14.484525
17.038584
19.639730
26.322603
33.058524
43.567419
52.115917
61.839819
68.389773
72.437525
72.063804
66.036582
60.411692
51.142573
##ZVALUE=360
0.603795
0.454783
0.589490
0.613928
0.641942
0.571609
0.690818
0.769496
0.780821
0.651479
0.562668
0.612736
0.516772
0.578761
0.559688
0.664592
0.686646
0.605583
0.672936
0.810623
0.897646
0.768900
0.719428
0.780821
0.826716
0.914931
0.881553
1.023412
0.914931
1.001954
0.984669
0.945926
0.973940
0.901818
0.997782
1.022816
0.865459
1.336932
1.065731
1.165867
1.353621
1.217723
1.310706
1.227856
1.350641
1.382828
1.417994
1.623631
1.593828
1.609921
1.812577
1.918674
1.948476
2.130866
2.203584
2.552867
2.674460
2.915859
3.072619
3.717542
4.322529
6.587505
20.938516
105.804801
256.818533
644.388795
1015.793681
1015.793681
1015.793681
1015.793681
1015.793681
1015.793681
1015.793681
1015.793681
1015.793681
590.662956
297.701955
100.196004
36.900640
14.409423
13.237596
13.053417
13.244748
12.903810
13.433695
14.149547
15.009642
18.094778
21.856427
28.762817
35.783648
46.356916
53.912997
61.463714
65.601468
66.396594
##ZVALUE=365
0.605583
0.626445
0.644922
0.794530
0.730753
0.614524
0.711679
0.720620
0.654459
0.599623
0.700951
0.587702
0.702739
0.719428
0.613928
0.698566
0.671744
0.789762
0.704527
0.616908
0.712872
0.762939
0.679493
0.749826
0.810623
0.775456
0.757575
0.915527
0.988841
0.991821
0.956655
0.936985
1.120567
0.968575
0.940561
0.858903
1.077652
1.161695
1.273751
1.269579
1.227856
1.096725
1.339912
1.324415
1.300573
1.281500
1.549721
1.445413
1.388788
1.486540
1.647472
1.744628
1.797676
1.911521
2.125502
2.082586
2.343655
2.603531
2.765656
2.962947
3.265738
3.815889
4.503727
4.895926
9.724498
57.629943
163.712502
456.484556
881.779790
1015.790701
1015.790701
1015.790701
1015.790701
1015.790701
1015.790701
1015.790701
1015.790701
843.373537
436.740518
147.488713
54.233670
16.495585
13.057590
12.257695
12.294650
12.036562
12.348890
12.470484
12.808442
13.888478
15.604496
19.925833
24.177432
31.417608
38.865805
48.075914
##ZVALUE=370
0.518560
0.609756
0.530481
0.697970
0.615716
0.674725
0.566840
0.516772
0.532866
0.535846
0.508428
0.617504
0.495911
0.612736
0.647902
0.708699
0.641942
0.515580
0.559688
0.649691
0.632405
0.732541
0.580549
0.735521
0.617504
0.846982
0.834465
0.910759
0.775456
0.925660
0.850558
0.797510
0.827909
0.880957
0.789762
0.967979
0.970960
0.983477
0.901818
0.886917
1.048446
0.950694
1.012683
1.016855
1.109838
1.200438
1.082420
1.345873
1.169443
1.266599
1.396537
1.526475
1.480579
1.647472
1.660585
1.470447
1.705885
1.823902
1.969934
2.280474
2.308488
2.715588
2.901554
3.171563
3.382564
3.932714
5.542636
25.738478
92.709661
315.628648
611.374974
1015.755534
1015.755534
1015.755534
1015.755534
1015.755534
1015.755534
1015.755534
1015.755534
970.014930
555.739999
204.909444
87.331533
26.169419
13.085604
11.057854
11.082888
10.611415
10.706782
10.867715
10.899901
11.378527
12.116432
13.962984
16.934872
21.672845
##ZVALUE=375
0.340939
0.342727
0.395775
0.454783
0.401735
0.334978
0.389814
0.395775
0.355840
0.514984
0.422597
0.314713
0.587702
0.318885
0.435710
0.414848
0.538826
0.378489
0.399947
0.479817
0.352859
0.390410
0.491738
0.462532
0.414848
0.497699
0.731945
0.602603
0.428557
0.546575
0.600815
0.509620
0.418425
0.630617
0.658631
0.657439
0.608563
0.688434
0.861883
0.604987
0.708699
0.620484
0.830889
0.897646
0.887513
0.871420
0.748634
0.970960
0.915527
0.941753
0.995994
0.826716
1.150966
1.077652
1.127720
1.213551
1.291633
1.361966
1.474619
1.472831
1.697540
1.762509
2.010465
2.178550
2.322793
2.584457
2.985597
3.352761
4.305840
13.167858
47.935843
184.751749
408.591628
942.426920
1015.605927
1015.605927
1015.605927
1015.605927
1015.605927
1015.605927
1015.605927
1015.605927
845.105648
403.077602
192.393661
54.624677
18.753409
10.487437
10.089874
9.525418
9.761453
9.867549
10.089874
10.064840
10.221601
10.845661
##ZVALUE=380
0.583529
0.463724
0.686646
0.609756
0.530481
0.429749
0.523925
0.591874
0.390410
0.518560
0.380874
0.617504
0.555515
0.544786
0.633597
0.548959
0.656843
0.578761
0.615716
0.597835
0.574589
0.644922
0.537634
0.595450
0.480413
0.678897
0.610948
0.536442
0.564456
0.718832
0.653863
0.644922
0.709891
0.531673
0.635982
0.569820
0.812411
0.841618
0.791550
0.791550
0.880957
0.831485
0.980496
0.905991
0.920892
0.724792
1.062751
0.986457
1.118779
1.097918
1.138449
0.937581
1.116991
1.096725
1.396537
1.378655
1.465678
1.432896
1.647472
1.568794
1.541972
1.658797
1.794696
1.816750
2.076626
2.273917
2.600551
2.841949
3.508925
3.974438
4.749894
6.994605
33.620596
106.915832
356.138945
694.479942
1015.793681
1015.793681
1015.793681
1015.793681
1015.793681
1015.793681
1015.793681
1015.793681
1011.558771
633.257627
247.370601
104.470849
25.629997
11.974573
9.507537
9.436607
9.188652
9.187460
9.182692
9.198785
##ZVALUE=385
0.551939
0.484586
0.380874
0.422597
0.456572
0.376701
0.337958
0.379682
0.537634
0.322461
0.462532
0.459552
0.429749
0.520945
0.483990
0.457764
0.340939
0.589490
0.594854
0.527501
0.455976
0.598431
0.537634
0.389814
0.562668
0.476837
0.584722
0.490546
0.553727
0.521541
0.602603
0.528693
0.464916
0.661612
0.646710
0.591874
0.624657
0.696778
0.730753
0.872612
0.718832
0.810623
0.857711
0.726581
0.685453
0.932813
0.798702
0.978708
0.900626
0.959635
1.013875
1.003742
1.082420
1.071692
1.121759
1.187921
1.360774
1.296997
1.275539
1.357794
1.342893
1.460910
1.491904
1.703501
1.915693
1.879930
2.097487
2.463460
2.838969
3.286600
3.686547
4.179478
4.529953
5.310774
13.628602
83.408952
222.726464
600.537658
1015.793681
1015.793681
1015.793681
1015.793681
1015.793681
1015.793681
1015.793681
1015.793681
1015.793681
899.349451
483.033657
184.096694
68.167448
15.754700
9.810925
8.909702
8.455515
8.447766
##ZVALUE=390
0.476837
0.417829
0.418425
0.398755
0.324845
0.363588
0.443459
0.412464
0.528693
0.399947
0.383854
0.479817
0.630617
0.540614
0.538826
0.533462
0.454783
0.424981
0.463724
0.440478
0.328422
0.474453
0.442863
0.544786
0.362992
0.518560
0.419617
0.507832
0.582933
0.676513
0.686646
0.555515
0.782609
0.615716
0.586510
0.597835
0.553727
0.721812
0.637770
0.533462
0.558496
0.670552
0.601411
0.719428
0.745654
0.712872
0.721812
0.753999
0.803471
0.851750
0.838637
0.955462
0.824928
0.916719
1.052618
0.950694
1.155734
1.231432
1.167655
1.248717
1.163483
1.283884
1.426935
1.572967
1.588464
1.673698
2.016425
2.096891
2.398491
2.850890
3.025532
3.354549
3.314614
3.560781
3.698468
4.132986
7.015467
43.512583
138.703585
429.796576
831.739902
1015.787721
1015.787721
1015.787721
1015.787721
1015.787721
1015.787721
1015.787721
1015.787721
1015.787721
758.675933
299.384594
131.767988
34.139752
11.840463
8.364916
##ZVALUE=395
0.406504
0.275970
0.353456
0.482798
0.387430
0.458956
0.234842
0.258684
0.317693
0.168681
0.065565
0.340939
0.263453
0.432730
0.400543
0.499487
0.365973
0.523925
0.518560
0.361800
0.461936
0.391603
0.570416
0.423789
0.415444
0.475645
0.500679
0.381470
0.464916
0.426769
0.511408
0.492930
0.534654
0.472665
0.543594
0.566840
0.565648
0.538826
0.640750
0.732541
0.595450
0.465512
0.710487
0.723600
0.614524
0.741482
0.783801
0.816584
0.852942
0.807643
0.807643
1.047850
0.833869
0.755787
0.753999
0.852942
0.833869
1.028776
1.024604
1.160502
1.127720
1.212955
1.321435
1.358986
1.363754
1.504421
1.638532
1.841784
2.105832
2.327561
2.596974
2.725720
2.719760
2.873540
2.702475
2.924800
3.414750
3.520846
4.490614
24.093986
92.258453
318.303704
600.206852
1015.732884
1015.732884
1015.732884
1015.732884
1015.732884
1015.732884
1015.732884
1015.732884
1015.732884
838.834643
349.251628
158.553720
47.743917
##ZVALUE=400
0.414848
0.317693
0.301600
0.439882
0.351667
0.417829
0.359416
0.306964
0.375509
0.469685
0.254512
0.455976
0.488758
0.405908
0.410676
0.490546
0.507832
0.337958
0.551939
0.368953
0.353456
0.530481
0.492930
0.531673
0.372529
0.423789
0.446439
0.555515
0.537634
0.464916
0.659823
0.359416
0.484586
0.475645
0.597835
0.675917
0.510812
0.483990
0.676513
0.787973
0.566840
0.656843
0.665784
0.742674
0.636578
0.705719
0.795722
0.990629
0.848770
0.836849
0.874996
1.030564
0.924468
0.915527
0.989437
1.011491
1.083612
1.122952
1.107454
1.063943
1.242757
1.159906
1.108646
1.358986
1.342893
1.448989
1.611710
1.852512
1.965761
2.357960
2.548695
2.583861
2.795458
2.587438
2.461672
2.632737
2.702475
2.787709
3.193617
3.708601
4.175901
11.168718
46.799779
192.690492
411.975980
920.463800
1015.793681
1015.793681
1015.793681
1015.793681
1015.793681
1015.793681
1015.793681
1015.793681
1015.793681
573.359728
##END
