##TITLE=SKDZ102
##FORMAT=SPECTACLE-ASCII V-1.2
##DATA TYPE=ULTRAVIOLET SPECTRUM
##SECOND TYPE=ULTRAVIOLET SPECTRUM
##DATE=10/25/17
##TIME=10:49:27
##SPECTROMETER/DATA SYSTEM=SPECTACLE
##XUNITS=NM EM
##YUNITS=ENERGY
##YFACTOR=1
##FIRSTX=220
##LASTX=410
##NPOINTS=96
##3DDATA=Equidistant
##ZUNITS=NM EX
##FIRSTZ=210
##LASTZ=400
##ZPOINTS=39
##XYDATA=(Y..Y)
##ZVALUE=210
4.685521
5.250573
4.663467
4.650950
4.813671
4.526973
5.494952
4.597902
3.836751
3.888607
4.515648
3.071427
3.214478
3.454685
3.616810
3.648996
3.260970
4.311800
3.956556
4.332662
4.395843
4.728436
4.582405
4.980564
4.913807
4.980564
5.661845
6.403923
6.055832
5.982518
5.490780
6.394982
6.651878
6.489754
7.211566
6.801486
7.104874
6.941557
7.296801
8.027554
7.711649
8.190870
7.976890
7.306933
8.277893
9.578466
8.394718
8.769631
8.733869
8.989573
9.171963
8.323789
8.654594
9.654760
10.126829
8.691549
9.826422
9.276867
8.902550
9.338856
9.916425
10.043979
10.694861
11.343956
10.667443
11.352897
11.042953
12.324452
13.537407
16.974807
19.100904
21.736622
25.758743
27.249455
30.735731
32.848716
31.636953
32.764673
29.168725
29.029846
27.871728
25.534630
21.974444
19.584894
18.195510
15.636683
12.920499
11.562705
11.035800
10.674596
10.547638
9.823442
9.748936
10.953546
10.709763
10.612607
##ZVALUE=215
14.173985
12.726784
11.707544
9.515882
9.000897
8.019805
8.749962
8.282661
8.342862
8.393526
7.041693
6.581545
7.042885
5.370975
4.578829
3.836751
3.967881
3.900528
4.445910
4.503727
5.108714
4.671812
4.405975
5.036592
5.785823
6.001592
6.179810
6.258488
5.807877
6.675720
6.275773
6.276965
7.197857
7.026792
6.815791
7.424951
7.916689
7.446408
7.543564
8.086562
8.115768
8.433461
8.212924
7.363558
9.172559
8.428693
8.031726
8.693933
8.508563
9.139776
9.175539
9.641647
10.635853
9.237528
9.351969
10.264516
9.841919
9.420514
10.599494
10.423660
10.764599
10.769963
10.727644
10.555983
10.814667
11.049509
11.547804
11.571646
13.014674
15.145540
18.190742
19.620657
24.468899
24.131536
28.244853
29.481649
29.736757
29.542446
29.487610
28.009415
26.054978
23.846626
20.574927
18.303990
16.255975
14.582872
12.345910
12.231469
10.710955
9.780526
9.620786
9.022951
8.544922
9.416938
8.537769
10.739565
##ZVALUE=220
36.841631
36.069751
38.773417
37.708879
34.698844
28.706789
24.605989
19.239783
16.764998
16.056895
16.072989
16.772747
15.418530
13.836622
11.909604
9.998679
7.311702
5.835891
5.287528
5.161762
5.283952
4.978776
5.517602
5.371571
5.658865
5.139709
6.224513
6.582737
5.767941
5.936623
6.672740
7.159710
6.547570
7.857680
7.241964
7.533431
8.704662
8.362532
8.246899
8.446574
9.031892
8.749962
9.314418
9.475946
9.939671
8.918643
9.308457
9.626746
9.420514
9.176731
9.614825
9.683967
10.146499
10.433793
10.833740
10.600686
9.986758
11.714697
11.344552
10.873675
9.937882
10.487437
12.099743
10.451674
11.498928
12.261868
11.064410
13.267994
12.671947
16.308427
17.137527
21.461844
22.290945
24.503469
27.567744
29.423833
30.981898
29.916763
29.634833
27.142763
26.964545
24.832487
22.599697
20.186901
19.484758
14.369488
13.848543
11.741519
11.712909
10.577440
11.391640
11.534691
11.527538
11.248589
10.459423
11.531711
##ZVALUE=225
53.305626
59.396625
78.682899
95.108747
99.588633
101.052523
91.079473
72.641969
58.076978
41.758418
33.388734
29.736757
30.223727
29.054880
29.242635
28.411746
23.968816
19.914508
14.247894
10.904670
7.058978
5.986691
6.399751
6.107688
6.413460
5.660653
5.498528
6.503463
7.410645
7.833838
7.570982
6.205440
7.105470
7.704496
8.116961
8.096695
8.338690
9.350777
8.702874
8.690953
8.265972
8.564591
9.870529
9.346604
10.906458
10.218620
9.814501
10.086894
10.022521
11.288524
11.534691
11.358857
12.848973
11.900663
11.771917
12.756586
13.036728
12.572408
12.937784
12.855530
12.288690
13.697743
12.067556
14.095902
14.037490
13.172626
15.061498
15.354753
16.083717
16.911626
19.038916
23.515821
24.984479
26.191473
28.179884
27.747750
28.024912
25.954843
25.947690
24.980903
23.463964
21.483898
19.515753
18.210411
18.251538
14.874935
14.961958
14.036894
12.839437
12.745857
12.928843
12.590885
11.636615
12.493730
13.063550
12.924671
##ZVALUE=230
46.935678
50.380826
79.005957
131.830573
175.866485
207.550526
225.576758
216.214657
198.540688
162.227750
110.539794
84.459782
61.210990
52.596927
51.584840
52.213669
54.291487
50.543547
47.108531
36.380887
31.100512
20.038486
13.618469
9.220839
7.545948
7.461905
7.074475
7.290840
7.376671
7.819533
7.063746
7.573962
7.664561
7.510781
8.393526
8.341670
9.637475
9.776950
10.094643
9.229779
9.259582
10.060668
10.408759
10.729432
10.730624
10.300875
10.709763
12.056828
11.625886
11.141896
12.930632
11.601448
12.586713
12.500882
12.061596
13.276935
13.283491
12.648702
14.703870
16.005635
16.124845
15.246868
15.791655
14.826655
15.243888
16.163588
17.701983
17.319918
19.492507
21.144748
23.908615
23.368001
25.686622
26.414990
27.414560
28.128624
27.988553
28.537512
27.271509
26.407838
23.463964
22.802949
21.987557
19.515753
18.416643
18.579960
16.751885
16.390681
15.104413
15.794635
16.198754
16.780496
14.672875
15.063882
15.430450
16.237497
##ZVALUE=235
16.342998
19.443631
36.988854
91.492534
146.633983
232.163668
301.537514
384.958982
410.991907
401.848555
364.795923
286.287665
208.136439
137.351751
103.450418
82.268715
77.855587
78.262687
84.808469
84.944963
75.524449
65.923929
50.320625
36.316514
24.792552
17.769933
11.940598
8.881688
8.800626
8.011460
7.816553
8.817911
9.834766
8.748770
9.685755
8.942485
9.350777
9.420514
9.764433
9.623766
8.435845
9.469986
11.189580
11.548996
10.842681
11.657476
12.444854
13.136864
12.143850
11.876822
12.744665
13.989806
13.492703
14.062524
14.699697
17.124414
16.680956
18.277764
18.555522
18.074512
16.063452
17.435551
17.743707
19.593835
17.595887
19.050837
20.775795
22.541881
23.938417
23.429990
26.997924
28.308630
30.481815
32.375455
32.635927
31.922460
32.016635
32.148957
31.311512
30.427575
27.637482
27.814507
23.480654
24.539828
22.757649
22.632480
21.526814
21.763444
20.527840
18.765926
19.731522
17.863512
18.903613
19.984841
19.302964
19.261837
##ZVALUE=240
3.135800
3.019571
7.794499
20.349622
57.364702
109.889507
218.447447
317.727923
474.208593
560.481548
625.998974
614.104867
563.628674
450.196862
349.920988
251.851678
158.214569
119.321942
91.960430
96.298456
108.620524
115.530491
111.468434
98.433495
92.899799
65.010786
46.830773
34.146905
21.786690
16.151667
11.947751
9.959936
9.865761
10.353923
9.857416
9.719729
9.052753
9.243488
10.564923
9.765625
9.249449
10.586977
9.744763
10.690689
10.444522
10.804534
11.776686
12.759566
11.323690
11.852980
12.548566
13.165474
12.842417
14.080405
14.964938
14.763474
15.415549
16.696453
17.036796
17.642975
17.746687
16.199946
18.846989
18.716455
19.609928
18.494725
20.177960
19.324422
23.140907
22.909641
27.478933
29.697418
29.772520
32.802820
32.831430
33.643842
33.048987
33.043623
31.140447
31.750798
29.889941
26.603937
24.085641
26.139617
22.713542
22.396445
23.114681
21.794438
22.974610
22.140741
23.667812
20.601749
21.190643
22.493601
20.854473
21.247864
##ZVALUE=245
2.110600
2.181530
2.523661
2.581477
5.183816
16.214848
54.682493
103.011727
232.085586
350.661874
544.605851
665.808916
740.700960
778.011680
711.530447
583.352447
478.705764
325.160623
229.183435
137.359500
111.788511
99.127889
110.507607
125.392675
130.114555
124.550462
112.452507
96.107721
70.690513
55.223703
41.188598
24.730563
16.596913
11.194944
10.591745
9.595752
9.447932
9.873509
9.420514
9.634495
9.267926
9.374619
8.326769
9.899735
9.410977
9.576678
8.726716
10.852814
10.688901
10.385513
11.548996
10.885000
12.728572
13.519526
12.746453
13.594627
14.360547
13.912916
14.220476
14.449954
14.149547
14.952421
15.360713
16.344786
17.222762
16.180873
16.969442
18.371940
19.523501
21.308661
22.670627
25.420785
27.133822
27.775764
27.160645
28.619766
28.752685
27.519464
28.280616
25.444627
24.036765
22.934675
23.175478
22.770762
20.174980
21.001697
20.424724
21.775961
21.110773
21.323562
21.211505
20.497441
19.794703
19.351840
20.605922
20.406842
##ZVALUE=250
1.891851
1.896620
1.917481
2.636909
2.387762
2.931952
3.161430
12.446642
33.948421
78.620911
201.033950
341.618657
548.640490
692.254901
838.486552
887.693763
850.036740
784.102678
595.956445
449.642539
279.998779
180.350542
113.105774
94.225407
101.348758
117.521882
130.622983
139.277577
135.043859
118.838549
99.398494
73.826909
54.866672
35.560727
24.544597
16.135573
11.475682
9.364486
8.184910
8.445978
8.411407
8.689761
8.771420
8.318424
8.734465
9.036660
8.830428
9.780526
9.102821
9.890795
10.098815
10.651946
10.151863
10.683537
11.952519
11.444688
10.889769
11.928678
12.118816
11.465549
12.512803
12.842417
12.409687
14.275908
13.954639
15.012622
15.041828
15.507936
17.615557
18.413663
19.555688
20.750761
23.157001
23.400784
23.870468
24.943948
25.564432
23.960471
24.444461
22.125840
22.069812
20.821691
21.250844
19.520521
19.750595
19.527674
18.810630
18.692613
18.467903
18.864870
18.184781
18.045902
18.761754
16.858578
17.653704
17.364621
##ZVALUE=255
1.788735
2.216697
2.059937
2.212524
1.895428
2.026558
2.182722
2.512932
2.752542
5.858541
28.342605
75.602531
153.414011
318.209529
478.791595
713.506937
853.770971
988.390446
1004.284024
922.557712
785.204768
619.665980
391.680598
253.540874
137.489438
100.572705
91.966987
102.391839
125.038624
134.980679
141.028762
138.945580
127.429962
104.105473
81.613660
55.059791
38.984418
22.682548
15.194416
10.197759
8.451939
8.229613
7.975698
8.327961
7.922649
7.883906
8.571744
8.571744
8.300543
8.481741
9.075999
9.075999
8.578897
8.919835
10.139942
10.456443
10.232925
9.961724
10.224581
10.776520
11.032820
11.744499
12.215972
12.062788
11.879802
12.567639
12.660623
12.815595
14.373660
15.506744
17.292500
18.663406
19.993782
20.437837
20.441413
21.995902
20.835996
20.279884
21.170974
19.240975
17.951727
18.880963
18.437505
17.693639
18.161535
17.588735
16.535521
16.006827
16.938448
16.646981
16.726851
17.013550
17.579794
15.053749
16.563535
16.942620
##ZVALUE=260
1.683831
1.702905
1.613498
1.760721
1.566410
1.869798
1.843572
1.976490
2.080798
2.197623
2.348423
2.854466
16.474724
44.820905
124.221444
238.973498
460.902452
657.008886
889.260769
1015.830636
1015.830636
1015.830636
949.852467
773.769021
568.262935
337.346792
214.433670
113.524795
83.440542
83.683729
98.889470
123.845935
142.792463
149.742961
145.124793
128.236413
109.799504
80.532432
60.858727
37.054420
25.654435
10.296702
10.433793
8.441806
7.760525
8.174777
7.908940
8.236766
8.471608
8.665919
8.314848
9.193420
9.249449
9.039640
9.146929
10.066628
9.517670
9.465814
9.963512
10.426641
10.237694
10.209680
10.629892
10.228753
10.348558
11.339784
12.151599
12.600422
12.827516
13.567805
14.756918
15.936494
17.020702
17.575622
17.971992
18.471479
17.871857
17.942786
17.177463
16.928911
16.268492
15.344620
15.396476
15.854836
15.323758
15.480518
14.731884
14.552474
13.898611
15.125871
14.901757
14.575720
14.678836
14.701486
14.077425
14.020801
##ZVALUE=265
1.449585
1.510978
1.547933
1.598597
1.734495
1.861453
1.842976
1.748800
1.975894
1.987815
1.843572
2.320409
2.432466
2.511740
6.742477
35.921931
88.292956
219.986439
374.773741
667.655468
890.786648
1015.830636
1015.830636
1015.830636
1015.830636
936.183929
671.621561
475.518703
262.959003
158.872604
87.372661
70.991516
83.021522
103.146434
130.224824
143.593550
151.292682
147.153735
128.384829
110.778809
81.583858
60.856938
38.593411
25.038719
14.419556
10.975599
9.162426
9.047985
9.182692
8.622408
8.910894
9.398460
9.193420
9.159446
9.480715
9.853840
9.850860
9.780526
10.279417
10.238886
10.455847
10.384917
10.796785
10.424852
10.678768
11.910796
11.907816
11.769533
11.806488
13.529658
14.146566
14.687777
16.027689
16.244650
17.209649
16.864538
16.804934
15.490651
16.394854
15.611649
15.561581
15.182495
14.854670
14.167428
14.442801
13.912916
13.754964
13.506413
14.245510
12.972951
13.219714
13.941526
14.059544
13.707876
13.809800
13.119578
##ZVALUE=270
1.667738
1.445413
1.374483
1.408458
1.366735
1.496673
1.442432
1.520514
1.695752
2.035499
1.747608
1.662970
2.027750
2.237558
2.399683
2.450943
3.004670
16.658902
49.352646
161.804557
310.640931
530.429482
881.096721
1015.850902
1015.850902
1015.850902
1015.850902
1015.850902
877.920985
649.626851
440.236926
227.428675
127.303600
67.246556
61.013699
80.651641
104.566813
131.579638
145.352483
152.543783
149.684548
132.007003
110.623837
81.969500
61.278939
37.543774
25.752783
17.295480
12.899637
10.322928
9.435415
9.790659
10.072589
9.775758
10.676980
10.284781
10.672808
10.467768
10.523796
10.749698
10.927916
10.734797
10.794997
11.008978
11.837482
11.042953
11.674762
12.316704
12.674928
13.413429
13.517737
15.521646
15.267730
15.221834
16.117692
16.176701
15.891790
15.927553
15.403628
14.716983
14.426708
14.708638
14.332533
14.458895
14.064908
13.418794
13.515949
13.389587
13.649464
12.950897
13.511777
13.489723
13.082623
13.860464
12.434721
13.781786
##ZVALUE=275
1.368523
1.294613
1.304746
1.307726
1.535416
1.173615
1.450777
1.575947
1.582503
1.333952
1.484752
1.584888
1.740456
1.688600
1.795888
2.200603
2.294779
2.227426
2.473593
8.306503
31.823516
87.645650
258.929729
465.617776
818.344951
1015.828848
1015.828848
1015.828848
1015.828848
1015.828848
1015.828848
827.085972
583.485961
309.792757
179.627538
83.386898
56.088567
61.166883
77.367425
106.482506
126.115680
145.236850
149.856806
147.300959
129.723549
105.208755
84.706545
58.970451
43.198466
26.921630
18.609762
13.188720
11.142492
10.833740
10.174513
10.425448
10.638833
11.134744
10.728836
11.036992
11.087656
11.560917
12.047887
11.139512
11.715889
12.206435
11.712909
12.711883
13.255477
12.965798
13.451576
15.030503
14.764667
15.918612
16.303658
15.755892
15.737414
15.350580
15.313625
14.487505
13.700724
13.810992
13.713837
13.049841
13.198853
12.766719
12.832880
13.056993
12.428761
12.352467
12.326837
12.944937
12.885928
12.526512
12.798905
12.361407
##ZVALUE=280
1.342893
1.284480
1.135468
1.296997
1.178980
1.251698
1.424551
1.296997
1.421571
1.260638
1.480579
1.484752
1.480579
1.591444
1.693964
1.777411
1.809597
1.843572
1.913905
2.398491
2.554655
3.000498
20.607710
69.096684
215.166807
384.058952
681.589842
954.687595
1015.802622
1015.802622
1015.802622
1015.802622
1015.802622
974.059701
714.979768
410.153866
245.513916
110.484958
59.154630
43.923855
54.617524
80.888867
101.009607
127.363801
142.072439
148.553848
143.730640
129.588842
108.187795
80.737472
61.571598
39.836764
28.248429
18.289685
13.935566
11.055470
10.576844
10.723472
10.879636
10.909438
10.908842
11.322498
11.903644
11.289716
11.597872
11.823773
12.027621
11.469722
12.636781
13.216734
13.767481
14.320612
14.824867
15.081763
14.667511
15.460849
15.654564
14.188886
14.352798
14.285445
13.787746
13.472438
13.170838
12.618899
12.379885
12.526512
12.776852
12.584925
12.587905
12.048483
11.965632
11.595488
12.084842
12.605786
11.989474
11.519790
##ZVALUE=285
1.267791
1.268983
1.132488
1.287460
1.220703
1.145601
1.066923
1.367927
1.229644
1.205802
1.249909
1.255870
1.241565
1.445413
1.574755
1.477599
1.509786
1.671910
1.863837
1.927614
1.880527
2.032518
2.446771
2.714992
9.529591
35.178661
121.336579
248.160958
522.169471
800.943971
1015.830636
1015.830636
1015.830636
1015.830636
1015.830636
1015.830636
939.948559
589.662790
368.496776
173.195601
87.603927
40.114522
36.728978
54.231882
73.409677
102.048516
119.963884
138.787627
144.466758
140.061975
131.314993
106.159449
86.961985
61.209798
42.692423
27.718544
19.487739
14.524460
11.712909
10.919571
10.619760
10.459423
10.702610
10.822415
11.110902
11.411905
11.317730
11.393428
12.709498
12.781620
13.224483
13.630986
14.315844
14.457703
14.465451
13.862848
14.081597
13.392568
14.145970
12.247562
13.334751
12.628436
12.119412
12.356639
12.057424
12.061000
12.128949
11.885762
11.794567
11.949539
11.758804
11.959672
11.626482
11.552572
11.608601
11.380911
##ZVALUE=290
0.947714
1.054406
1.001954
1.083612
1.129508
1.161695
1.016855
0.996590
1.223683
1.183748
1.104474
1.135468
1.414418
1.198649
1.111627
1.206994
1.085997
1.506805
1.402497
1.568794
1.693964
1.776814
2.001524
2.081990
2.364516
2.898574
4.118681
14.964938
73.474646
168.169737
382.694602
633.966923
932.532549
1015.830636
1015.830636
1015.830636
1015.830636
1015.830636
1015.830636
722.437501
482.153893
244.990587
126.221776
47.374964
28.707981
34.119487
47.410727
70.196986
89.819431
114.205480
130.479932
139.146447
137.924552
123.027563
108.256936
79.661608
61.453581
38.242936
27.187467
17.728806
14.187694
10.964870
10.175705
10.057688
9.901524
9.539723
9.981990
10.043979
10.766983
11.149645
11.827946
11.796951
12.347698
12.950897
12.807846
12.574792
12.451410
12.122989
12.103915
11.996627
11.637807
11.656880
11.415482
11.341572
11.387467
11.180639
11.547804
11.332631
11.194944
11.275411
11.421442
11.379719
11.611581
11.030436
11.301637
11.163950
##ZVALUE=295
0.944734
0.972748
0.758767
0.839829
1.028776
1.121759
1.041889
1.095533
0.991821
1.063943
1.176596
1.112819
1.019835
1.171827
1.340508
1.433492
1.494884
1.506805
1.448989
1.440644
1.421571
1.508594
1.547933
1.706481
1.915693
2.041459
2.301931
2.738833
2.890825
5.912781
37.950873
100.984573
270.918012
491.130948
881.114602
1015.830636
1015.830636
1015.830636
1015.830636
1015.830636
972.452760
907.445550
642.043948
224.969983
154.641867
38.014650
28.387904
23.012757
43.648481
45.744777
67.366958
85.693598
123.435855
127.962828
133.183002
121.333599
118.954778
98.635554
80.784559
58.036447
33.550858
28.041601
13.690591
13.436675
10.489821
9.997487
9.710789
9.840727
10.419488
10.609627
10.973811
11.403561
12.244582
12.441874
12.571812
12.346506
11.861920
11.662841
11.829734
11.388659
11.671782
11.616945
11.263490
11.664629
11.258721
11.056662
11.291504
11.246800
11.257529
11.104941
11.066794
11.350513
11.145473
11.208653
11.367798
10.942817
##ZVALUE=300
0.859499
0.905991
0.969768
0.987649
0.985861
1.065731
1.033545
1.132488
1.000762
0.979900
1.222491
1.098514
1.167655
1.320839
1.228452
0.859499
1.235604
1.231432
1.135468
1.309514
1.392961
1.436472
1.455545
1.641512
1.706481
1.690984
1.933575
2.117753
1.975894
2.216697
2.569556
3.433824
11.847615
70.173740
169.246793
413.626432
690.588951
1015.830636
1015.830636
1015.830636
1015.830636
1015.830636
1015.830636
1015.830636
870.273709
476.189852
281.145573
126.245618
56.943893
21.097660
19.390583
29.058456
40.516853
61.079860
79.152584
104.526877
116.189718
127.086639
126.875639
115.803480
101.012588
77.987909
60.809851
40.415525
29.528737
18.438697
14.035702
10.925531
10.111928
10.377765
10.372996
10.995865
11.116862
11.270642
11.246800
11.546612
10.894537
11.010766
10.858774
10.854602
11.262894
10.928512
10.668635
11.000633
11.219978
11.154413
11.182427
10.971427
11.078715
11.362433
11.393428
10.907650
10.956526
11.374950
11.157990
10.988712
##ZVALUE=305
0.943542
0.976920
0.945926
0.965595
1.036525
1.013875
1.012683
0.951886
0.969768
1.004934
0.997782
0.952482
1.103878
1.049638
1.069903
0.927448
1.016855
1.308918
1.113415
1.155734
1.142621
1.411438
1.250505
1.234412
1.215935
1.551509
1.570582
1.590848
1.652837
1.967549
2.019405
2.230406
2.371669
2.845526
6.194711
43.041706
120.204687
330.637693
569.836497
971.455574
1015.830636
1015.830636
1015.830636
1015.830636
1015.830636
1015.830636
966.857076
581.762791
346.734524
153.295994
72.859526
25.419593
16.226768
18.222928
25.634766
39.858818
56.414604
79.166889
96.000433
113.115907
119.702816
118.755698
112.183690
93.837976
78.696609
56.110620
40.612817
26.348829
18.894672
13.301969
12.003779
10.599494
10.786653
11.132956
10.925531
10.546446
10.671616
10.283589
10.635853
10.355711
10.805726
10.631680
10.588765
11.000633
10.796785
10.647774
10.671616
10.905862
10.938644
10.998845
10.827780
10.725856
10.503531
10.667443
10.648966
11.146665
##ZVALUE=310
0.879765
0.996590
0.782609
0.917912
0.777841
1.058578
0.883937
0.962615
0.849962
1.001954
0.921488
1.039505
0.985861
1.016855
1.107454
1.058578
1.092553
1.067519
1.137853
0.973940
1.187921
1.172423
1.221895
1.249909
1.305938
1.355410
1.502633
1.455545
1.603961
1.616478
1.714826
1.903772
1.908541
2.065897
2.404451
2.635717
3.742576
22.958517
76.211691
235.561728
433.669686
820.918679
1015.830636
1015.830636
1015.830636
1015.830636
1015.830636
1015.830636
1015.830636
821.059942
530.100465
259.256959
135.297775
47.974586
19.839406
13.469458
15.903711
24.058819
34.970641
51.979423
67.450404
89.294910
102.723837
113.044977
113.523602
104.611516
92.897415
72.741508
57.339668
39.081573
28.554797
19.298792
15.285611
11.911988
10.998845
10.553598
10.324717
9.927750
9.846687
9.947419
9.927750
10.064840
10.250807
10.626912
10.494590
10.493994
10.956526
10.843873
10.901690
10.634661
10.873675
10.644794
10.681748
11.037588
10.560751
10.538697
##ZVALUE=315
0.788569
0.738502
0.852942
0.810623
0.978708
0.878572
1.057982
0.791550
0.917912
0.807643
0.773668
0.900626
0.875592
0.967979
0.922680
1.021624
1.090765
1.068711
1.007915
1.063943
1.153946
1.070499
1.211762
1.345873
1.261830
1.313686
1.379848
1.355410
1.480579
1.594424
1.644492
1.782775
1.666546
1.914501
2.047420
2.157688
2.298951
2.500415
3.015399
8.367896
37.117600
148.654580
320.918560
675.906539
985.573530
1015.828848
1015.828848
1015.828848
1015.828848
1015.828848
1015.828848
1015.828848
771.961808
399.960876
208.973885
73.859692
29.349923
12.560487
12.003779
15.827417
20.949841
33.760667
45.367479
64.907670
80.265999
97.408891
106.224418
108.372569
101.802945
87.046623
72.261691
54.487586
41.358471
26.128888
19.274950
13.855696
11.592507
10.095835
10.089874
9.658933
9.773970
9.822845
9.765625
10.129809
10.139942
10.081530
10.320544
10.342598
10.657907
10.218620
10.323524
10.615587
10.403991
10.227561
10.465980
10.180473
##ZVALUE=320
0.800490
0.615716
0.698566
0.684857
0.669956
0.734925
0.634789
0.748634
0.651479
0.616908
0.537634
0.684857
0.737906
0.799894
0.781417
0.767708
0.933409
0.894666
0.892878
0.895858
0.939965
1.097918
0.953674
0.924468
1.043677
1.142621
1.021624
0.978708
1.083612
1.281500
1.204610
1.365542
1.524687
1.301765
1.611710
1.730919
1.757741
2.132654
2.128482
2.313852
2.911687
3.972650
16.072989
91.183782
216.782093
517.491698
826.640725
1015.696526
1015.696526
1015.696526
1015.696526
1015.696526
1015.696526
1015.696526
1003.431082
585.354567
332.482457
136.179924
56.409836
17.006993
11.098981
11.589527
13.458729
19.461513
27.464628
42.879581
57.062507
75.562596
88.366866
99.802613
101.636648
96.060634
86.401701
68.467855
52.918792
36.473870
26.637912
17.786622
13.861656
11.001825
9.798408
9.523630
9.677410
9.680986
9.781718
9.692907
10.099411
9.842515
9.928942
10.020733
9.868741
10.215640
10.323524
10.176897
9.928942
10.110736
##ZVALUE=325
0.838637
0.773668
0.828505
0.870824
0.777841
0.871420
1.068711
0.902414
0.754595
0.860691
1.004934
0.869632
0.600815
0.774860
0.811815
0.869632
1.009703
1.043677
1.002550
1.079440
1.048446
1.035929
1.031756
1.063943
1.078844
1.072884
1.309514
1.162887
1.118779
1.354814
1.441836
1.391768
1.547933
1.595616
1.602769
1.721978
1.675487
1.820922
1.871586
2.068877
2.271533
2.240539
2.774000
2.936721
9.020567
40.189624
153.569579
312.370658
658.822656
988.993645
1015.831828
1015.831828
1015.831828
1015.831828
1015.831828
1015.831828
1015.831828
868.763924
505.337715
281.957984
98.254681
36.323667
11.880994
9.660721
10.423660
12.448430
18.636584
26.376843
41.780472
56.117773
74.607730
85.519552
96.030831
96.292496
89.372993
79.565644
63.525438
49.502850
34.083724
24.536848
16.712546
13.230443
11.185408
10.362864
9.686947
9.938478
9.435415
9.913445
9.755492
9.711981
9.880662
9.586811
9.611845
9.831786
9.811521
9.766817
##ZVALUE=330
0.836849
0.689626
0.852942
0.714660
0.826716
0.699759
0.675917
0.746846
0.671744
0.779629
0.782609
0.743866
0.918508
0.747442
0.829697
0.850558
0.739694
0.886917
0.871420
0.800490
0.876784
0.820756
0.928640
0.813603
1.113415
1.135468
0.980496
1.145601
1.100898
1.113415
1.221895
1.204610
1.327991
1.304746
1.298785
1.446605
1.536608
1.409650
1.813769
1.807809
1.672506
1.776814
1.871586
2.324581
2.340674
2.793670
4.164577
21.424890
78.227520
202.968717
499.254465
823.123455
1015.830636
1015.830636
1015.830636
1015.830636
1015.830636
1015.830636
1015.830636
846.235752
455.434918
254.984498
101.608634
43.446422
13.739467
9.477735
8.968711
9.697676
12.974739
17.436743
27.007461
37.211776
54.441690
66.643953
80.250502
87.380409
88.445544
84.341764
71.459413
59.720874
43.461919
33.469796
23.771524
18.346906
13.421774
11.022687
10.063648
9.527802
9.226799
9.295940
9.210706
9.136796
9.107590
9.372830
9.342432
9.385943
##ZVALUE=335
0.759959
0.505447
0.703931
0.591874
0.550747
0.697970
0.788569
0.685453
0.558496
0.679493
0.626445
0.698566
0.736713
0.615716
0.686646
0.733733
0.774860
0.579953
0.618696
0.842810
0.625849
0.792742
0.653863
0.882745
0.881553
0.846982
1.021624
0.948906
0.943542
0.957847
0.956655
0.875592
1.021624
1.033545
1.108646
1.159906
0.971556
1.203418
1.351833
1.351833
1.459718
1.503825
1.561642
1.658797
1.914501
2.162457
2.330542
2.675653
2.822876
9.740591
39.412379
161.323547
337.612629
714.635849
1015.740633
1015.740633
1015.740633
1015.740633
1015.740633
1015.740633
1015.740633
961.757898
644.993782
327.430964
162.516832
52.035451
20.540953
9.761453
8.931756
8.826852
9.668469
12.505651
16.741753
25.608540
35.125613
50.669909
62.568784
75.751543
81.997514
82.847476
78.602433
66.267848
56.725740
44.086576
34.410954
23.782849
18.090606
13.381839
11.014938
9.709597
8.975863
8.740425
8.641481
9.006858
8.845925
8.957982
##ZVALUE=340
0.794530
0.617504
0.709891
0.674725
0.672936
0.837445
0.768900
0.792742
0.577569
0.781417
0.609756
0.679493
0.571609
0.666976
0.682473
0.823736
0.791550
0.819564
0.842810
0.918508
0.837445
0.996590
0.917912
0.810623
0.760555
0.908971
0.928640
0.898838
1.068711
0.973940
0.782609
0.993609
0.971556
1.062751
1.076460
1.185536
1.081824
1.082420
1.167655
1.369715
1.475811
1.423955
1.499653
1.639724
1.564622
1.894832
1.886487
1.988411
2.126694
2.388954
2.767444
4.753470
19.939542
101.925731
240.031481
572.464466
912.616849
1015.830636
1015.830636
1015.830636
1015.830636
1015.830636
1015.830636
1015.830636
810.679793
407.572389
221.183896
85.387826
33.036470
10.870695
9.122491
9.004474
9.039640
10.266900
11.772513
17.077923
23.025870
35.008788
45.940876
61.382651
70.763826
77.521801
77.593923
72.723627
66.285729
54.267645
43.745637
31.511784
24.353862
17.647743
13.526678
10.238886
9.517670
8.850694
8.427501
8.546710
##ZVALUE=345
0.791550
0.576973
0.602603
0.722408
0.656843
0.714660
0.626445
0.761747
0.914931
0.686646
0.726581
0.687838
0.796914
0.734925
0.815988
0.826716
0.843406
0.845790
0.732541
0.694990
0.846982
0.726581
0.881553
0.956655
0.987649
0.744462
0.738502
0.932813
0.959635
0.877976
0.914931
0.847578
0.931621
1.009703
1.027584
0.987649
0.991821
0.904799
1.254678
1.119971
1.271963
1.288652
1.409650
1.213551
1.277924
1.554489
1.469851
1.669526
1.765490
1.828671
2.091527
2.227426
2.781749
3.016591
8.231997
58.067441
159.732699
427.199602
746.948719
1015.830636
1015.830636
1015.830636
1015.830636
1015.830636
1015.830636
1015.830636
936.051607
537.189841
301.246643
117.419958
51.699877
16.746521
10.124445
9.127855
8.684993
8.528829
8.775592
11.197925
14.279485
22.227764
30.420423
43.567419
53.174496
64.279437
69.349408
71.793795
70.273876
62.074661
53.728819
41.750669
32.541752
22.663474
16.899705
12.489557
10.393858
9.184480
##ZVALUE=350
0.697970
0.691414
0.732541
0.631809
0.747442
0.626445
0.510812
0.775456
0.824928
0.720620
0.797510
0.681877
0.790954
0.665784
0.786781
0.824928
0.850558
0.634789
0.660419
0.802875
0.650883
0.792742
0.856519
0.766516
0.754595
0.915527
0.882745
0.768900
0.813603
0.796914
0.825524
0.886917
1.008511
0.783801
0.908971
0.952482
1.138449
1.013875
1.178980
0.955462
1.111627
1.083612
1.086593
1.142621
1.211762
1.458526
1.335740
1.468658
1.583695
1.721978
1.727939
2.016425
2.062917
2.475977
2.768636
2.971888
4.351735
25.547743
78.654885
254.953504
526.767969
1004.940867
1015.830636
1015.830636
1015.830636
1015.830636
1015.830636
1015.830636
1015.830636
658.460855
388.946533
165.950656
76.905489
21.633506
10.830760
8.634925
8.472800
7.857680
8.049607
8.458495
10.148883
14.349818
19.973516
28.821826
37.197471
49.264431
56.695938
63.437819
65.802932
64.036846
58.997869
48.291683
40.145516
30.577779
23.751855
17.038584
##ZVALUE=355
0.670552
0.881553
0.849962
0.712872
0.903606
0.897646
0.795722
0.715852
0.704527
0.559688
0.688434
0.778437
0.617504
0.942945
0.765920
1.001954
0.831485
0.781417
0.865459
0.858903
0.772476
0.793934
0.989437
0.688434
0.779629
0.917912
0.741482
0.907779
0.993609
0.891685
0.775456
1.022816
0.901818
0.911951
0.905991
0.899434
0.983477
1.128912
1.007915
1.068711
1.024604
1.162887
1.285672
1.159906
1.399517
0.954866
1.276731
1.301765
1.388788
1.454949
1.533628
1.721978
1.783967
1.808405
2.068877
2.090931
2.128482
2.387762
2.992749
11.510849
43.084621
159.221292
317.981839
636.615753
965.543985
1015.830636
1015.830636
1015.830636
1015.830636
1015.830636
1015.830636
828.402638
499.434471
206.515789
94.972849
27.069449
11.728406
8.296967
7.874966
7.153749
7.361770
7.091761
7.730722
9.294748
12.185574
17.529726
23.564696
33.380985
41.363835
50.335526
57.156682
59.647560
59.204698
54.085851
47.797561
37.594438
##ZVALUE=360
0.612736
0.825524
0.664592
0.741482
0.623465
0.694990
0.683665
0.610948
0.701547
0.532866
0.707507
0.530481
0.726581
0.810623
0.817776
0.866652
0.790954
0.761747
0.780821
0.805855
0.651479
0.833869
0.918508
0.945926
0.793934
0.872612
0.892878
0.923872
0.724792
0.803471
0.988841
0.912547
0.710487
0.929832
0.935793
1.052618
0.991821
1.067519
1.095533
1.141429
1.134872
0.988841
1.184940
1.057982
1.146793
1.075864
1.167655
1.150966
1.225471
1.416802
1.349449
1.317859
1.615882
1.546741
1.742840
1.710653
1.837611
2.055764
2.169609
2.627969
2.911687
4.253983
23.053885
72.710514
238.018632
441.004038
816.907883
1015.831828
1015.831828
1015.831828
1015.831828
1015.831828
1015.831828
985.087752
577.619672
331.274867
134.058595
54.360628
15.675426
8.507967
7.492900
7.143617
6.800890
6.593466
6.585717
7.033944
8.022785
9.929538
14.405847
19.128919
27.563572
34.404993
43.930411
49.473643
54.428577
54.336786
##ZVALUE=365
0.614524
0.823736
0.657439
0.745654
0.668764
0.529885
0.635982
0.605583
0.664592
0.822544
0.763535
0.830889
0.644922
0.641942
0.629425
0.629425
0.634789
0.770688
0.713468
0.785589
0.828505
0.715852
0.928640
0.966787
0.654459
0.696778
0.746846
0.895858
0.603795
0.830889
0.844598
0.853539
0.866652
0.899434
0.898838
0.976920
1.121759
0.884533
1.031756
1.055598
0.918508
1.012683
1.005530
1.053810
1.050830
0.892878
1.086593
1.333952
1.156926
1.268983
1.211762
1.296997
1.382828
1.523495
1.210570
1.544952
1.637936
1.661777
1.811981
2.096891
2.166629
2.466440
2.895594
3.343821
7.766485
43.771863
116.469860
296.385884
537.487864
960.520506
1015.830636
1015.830636
1015.830636
1015.830636
1015.830636
1015.830636
794.006586
422.751904
224.161744
75.678825
28.229952
8.961558
7.029772
6.597638
6.265640
5.980730
5.989671
5.990863
5.999804
6.607771
8.425713
11.876822
15.722513
22.890568
29.369593
37.392974
##ZVALUE=370
0.676513
0.556707
0.535846
0.696778
0.567436
0.733733
0.718832
0.604987
0.804663
0.705719
0.682473
0.553727
0.823736
0.636578
0.743866
0.658631
0.561476
0.694990
0.645518
0.647902
0.602603
0.932813
0.766516
0.758767
0.736713
0.745654
0.857711
0.729561
0.726581
1.021624
0.784993
0.569820
0.907779
0.845790
0.810623
0.759959
1.012683
0.796914
0.863671
0.841618
1.041889
0.886917
0.913739
1.068711
1.130700
0.952482
1.128912
1.007915
1.084805
0.941753
1.057982
1.114607
1.169443
1.123548
1.307726
1.474619
1.286864
1.530647
1.590848
1.800656
1.730919
2.030730
1.936555
2.248883
2.453923
2.867579
4.390478
24.286509
78.458786
229.109526
435.347557
830.588937
1015.839577
1015.839577
1015.839577
1015.839577
1015.839577
1015.839577
1002.332568
566.805005
307.002664
112.893581
46.044588
12.964606
7.349849
6.284714
5.833507
5.535483
5.501509
5.483627
5.165935
5.575418
5.913973
7.615685
9.785891
14.287829
##ZVALUE=375
0.616908
0.707507
0.557899
0.612736
0.720620
0.696778
0.762939
0.640750
0.575781
0.563860
0.635982
0.532866
0.486970
0.864863
0.590682
0.697970
0.686646
0.729561
0.604987
0.687838
0.710487
0.699759
0.705719
0.816584
0.639558
0.782609
0.664592
0.698566
0.711679
0.616908
0.586510
0.699759
0.666976
0.820756
0.688434
0.742674
0.829697
0.881553
0.769496
0.884533
0.937581
0.916719
0.917912
0.843406
0.836849
0.985861
0.794530
0.729561
1.172423
0.980496
0.844598
1.126528
1.114607
1.204610
1.135468
1.095533
1.121759
1.272559
1.195669
1.279712
1.425743
1.324415
1.491904
1.490712
1.897812
1.973510
2.070665
2.489686
3.152490
11.739731
41.254759
145.807862
305.332541
653.811693
971.807837
1015.831828
1015.831828
1015.831828
1015.831828
1015.831828
1015.831828
690.061450
432.812572
206.115842
96.764565
27.214885
10.308623
6.286502
5.826950
5.309582
5.326867
5.150437
4.720688
4.745722
4.974604
5.258918
##ZVALUE=380
0.626445
0.558496
0.669956
0.654459
0.599623
0.677705
0.716448
0.492930
0.690818
0.512600
0.693798
0.581741
0.662804
0.597835
0.648499
0.665784
0.469685
0.691414
0.784993
0.652671
0.666976
0.799894
0.776649
0.819564
0.747442
0.695586
0.730753
0.731945
0.730753
0.671744
0.922680
0.757575
0.726581
0.800490
0.774860
0.658631
0.788569
0.811815
0.824928
0.834465
0.783801
0.815988
0.935793
0.793934
0.830889
0.825524
0.832677
0.772476
0.899434
1.062751
0.902414
0.965595
0.949502
1.107454
1.150966
1.192689
1.075864
1.094937
1.299977
1.302958
1.312494
1.269579
1.473427
1.322627
1.538992
1.686811
1.774430
1.991987
2.166629
2.660751
2.984405
6.223917
23.778677
109.966993
246.565938
560.604930
874.508023
1015.889645
1015.889645
1015.889645
1015.889645
1015.889645
1015.889645
885.753036
593.622923
288.587809
145.376921
46.617985
17.048717
6.625652
5.627871
5.224943
5.326867
4.974604
4.897714
4.698634
##ZVALUE=385
0.673532
0.623465
0.549555
0.612736
0.391603
0.517964
0.672936
0.596642
0.467896
0.383854
0.438690
0.489950
0.554919
0.465512
0.502467
0.479817
0.593662
0.615716
0.528693
0.544786
0.608563
0.643730
0.633597
0.651479
0.678897
0.726581
0.519753
0.586510
0.724792
0.652671
0.780821
0.755787
0.676513
0.725985
0.724792
0.609756
0.763535
0.683665
0.712872
0.682473
0.701547
0.789762
0.723600
0.747442
0.813603
0.789762
0.785589
0.695586
0.697970
0.774860
0.790954
0.747442
0.780821
0.898838
0.917912
1.023412
0.988841
1.057982
1.027584
1.010895
1.263618
1.023412
1.195669
1.102686
1.207590
1.383424
1.562834
1.612902
1.653433
1.946688
2.212524
2.478957
2.803802
3.441572
11.149645
65.630674
162.814856
396.797657
680.122972
1015.816927
1015.816927
1015.816927
1015.816927
1015.816927
1015.816927
1015.816927
750.460029
400.100946
221.281648
87.120533
33.273697
8.382797
5.513430
4.790425
4.391670
4.737973
##ZVALUE=390
0.553727
0.529885
0.469685
0.726581
0.643730
0.562668
0.386834
0.605583
0.545979
0.562668
0.509620
0.493526
0.562668
0.667572
0.503659
0.584722
0.520945
0.557899
0.511408
0.532866
0.486970
0.587702
0.558496
0.487566
0.540614
0.440478
0.433922
0.678897
0.570416
0.747442
0.730753
0.561476
0.772476
0.749826
0.688434
0.732541
0.763535
0.610948
0.758767
0.765920
0.791550
0.598431
0.717640
0.744462
0.729561
0.708699
0.821948
0.715852
0.810623
0.827909
0.856519
0.830889
0.993609
0.777841
0.918508
0.999570
0.978708
0.937581
1.029968
0.989437
0.971556
1.081824
0.986457
1.140833
1.117587
1.235604
1.452565
1.508594
1.707673
1.943707
2.118945
2.200603
2.133846
2.322793
2.583861
2.638698
6.777644
30.402541
131.214857
287.441611
627.284646
946.722627
1015.829444
1015.829444
1015.829444
1015.829444
1015.829444
1015.829444
940.466523
630.370975
304.464698
150.351524
49.516559
17.805696
5.994439
4.975796
##ZVALUE=395
0.480413
0.359416
0.549555
0.474453
0.665784
0.513792
0.491738
0.541806
0.372529
0.408888
0.603795
0.472665
0.433922
0.442863
0.549555
0.601411
0.491738
0.557899
0.476837
0.630617
0.652671
0.622869
0.634789
0.563860
0.475645
0.598431
0.554919
0.602603
0.511408
0.550747
0.602603
0.393987
0.593662
0.674725
0.722408
0.753999
0.654459
0.633597
0.869632
0.710487
0.745654
0.479817
0.514984
0.715852
0.623465
0.762939
0.720620
0.826716
0.759959
0.688434
0.850558
0.781417
1.091957
0.739694
0.900626
0.829697
0.887513
0.915527
0.938773
0.904799
1.105666
1.056790
0.975728
1.121759
1.112819
1.360774
1.196861
1.451969
1.571774
1.778603
1.757741
1.999736
2.024770
1.953840
2.101660
2.142787
2.135634
2.467632
3.275871
20.620823
76.650977
256.760716
480.952859
890.198946
1015.823483
1015.823483
1015.823483
1015.823483
1015.823483
1015.823483
1015.823483
668.349862
419.519544
192.423463
90.400577
27.230978
##ZVALUE=400
0.609756
0.450611
0.451803
0.546575
0.384450
0.482798
0.469685
0.646710
0.520945
0.479817
0.560880
0.569820
0.427961
0.549555
0.609756
0.411868
0.510812
0.461936
0.453591
0.650883
0.566840
0.647902
0.569820
0.538826
0.643730
0.550747
0.573993
0.581741
0.514984
0.577569
0.556707
0.661612
0.659823
0.673532
0.728965
0.757575
0.606775
0.722408
0.923872
0.683665
0.684857
0.600815
0.726581
0.776649
0.817776
0.662804
0.704527
0.810623
0.741482
0.589490
0.817776
0.684857
0.861883
0.674725
0.795722
0.928640
0.998974
1.069903
0.863671
1.137853
0.975728
1.164675
1.027584
1.042485
1.086593
1.190901
1.351833
1.377463
1.327991
1.619458
1.789927
1.650453
1.732707
1.788735
1.819730
1.630783
2.023578
2.039671
2.072453
2.414584
2.876520
10.654926
41.534901
153.762698
325.194001
687.850714
998.793840
1015.829444
1015.829444
1015.829444
1015.829444
1015.829444
1015.829444
783.914924
501.507521
246.937871
##END
