##TITLE=SKZ152
##FORMAT=SPECTACLE-ASCII V-1.2
##DATA TYPE=ULTRAVIOLET SPECTRUM
##SECOND TYPE=ULTRAVIOLET SPECTRUM
##DATE=10/25/17
##TIME=11:06:35
##SPECTROMETER/DATA SYSTEM=SPECTACLE
##XUNITS=NM EM
##YUNITS=ENERGY
##YFACTOR=1
##FIRSTX=220
##LASTX=410
##NPOINTS=96
##3DDATA=Equidistant
##ZUNITS=NM EX
##FIRSTZ=210
##LASTZ=400
##ZPOINTS=39
##XYDATA=(Y..Y)
##ZVALUE=210
4.731417
4.683733
4.710555
4.770756
4.188418
5.238652
4.710555
4.879832
4.632473
3.859997
3.785491
4.393458
3.008842
3.476739
3.950000
4.046559
4.249811
3.706813
4.654527
4.359484
4.545450
4.692674
5.401969
6.021857
6.770492
5.815625
5.913973
6.574988
5.376935
6.837845
5.556941
6.287694
6.501675
6.240606
6.274581
7.312894
8.347631
7.704496
7.793903
7.313490
7.059574
7.756948
7.498860
8.433461
8.165836
8.320808
8.156896
9.097457
9.714961
8.777976
9.178519
9.714961
8.864999
9.546876
9.478927
9.181499
9.511709
8.589625
9.274483
10.198951
9.313822
10.520816
10.473728
10.729432
10.314584
11.351705
10.758638
12.000799
13.974905
15.585423
19.471645
21.537542
24.575591
25.589466
30.339956
31.610727
32.346845
30.891895
31.281710
30.699968
28.635859
23.981929
21.110773
19.148588
15.407801
13.598800
10.832548
11.029840
9.995699
9.922981
8.861423
8.987784
9.517670
9.887815
10.496974
10.300875
##ZVALUE=215
13.538599
14.733672
13.607740
11.232495
10.503531
9.215474
8.922815
10.408759
8.601546
9.044409
8.633733
7.196665
5.017519
5.656481
4.769564
4.280806
4.128814
4.517436
4.083514
4.631877
4.299879
4.722476
5.377531
6.445646
5.303621
5.822778
6.289482
6.074905
7.159710
6.581545
6.520748
7.165670
6.947517
6.954670
6.681681
7.678866
8.396506
7.816553
7.892847
8.149743
7.924438
7.593632
8.447766
8.826852
8.526444
9.004474
9.455681
9.135604
9.251833
9.959936
10.171533
9.955764
10.478497
10.621548
9.398460
9.673834
9.708405
11.449456
10.881424
10.436773
10.603666
10.877848
10.224581
10.890961
10.358691
12.843609
12.352467
12.952685
14.760494
15.960932
18.774867
20.871758
23.351908
25.713444
29.837489
29.902458
30.909777
33.518672
30.442476
27.230978
25.915504
23.211837
20.220876
18.350482
14.940500
12.374520
12.029409
10.576844
10.680556
10.156631
11.052489
9.869933
9.361506
9.553432
9.769797
10.882616
##ZVALUE=220
42.426586
45.524836
47.313571
43.404698
38.304925
31.183958
24.307966
19.674897
16.736984
15.756488
17.531514
16.678572
16.408563
13.289452
11.762977
10.195971
7.878542
6.038547
5.012751
4.703999
4.607439
6.045699
5.625486
5.817413
6.203651
6.713867
6.132722
5.875826
7.317662
6.983876
6.847978
7.295609
7.016659
7.477999
8.290410
8.738637
7.968545
9.304881
8.650422
8.136630
8.980632
9.942651
9.435415
9.587407
9.750724
8.585453
9.338856
10.284781
9.960532
10.633469
10.405779
9.046793
10.695457
9.741783
10.899901
10.283589
10.795593
9.956956
11.315942
11.090636
11.142492
11.594892
11.434555
11.657476
11.670589
12.654662
13.816953
12.845993
14.597774
16.438961
19.387603
22.082925
25.643706
27.005672
28.210878
31.301975
33.019781
31.638741
30.661821
29.333830
28.483868
24.573803
20.830631
18.865466
15.664697
14.382601
12.973547
11.947751
11.843443
11.277795
9.578466
10.314584
10.318756
9.830594
9.620786
10.670424
##ZVALUE=225
68.851709
72.927475
96.149445
120.542645
123.270750
121.278763
109.363794
80.761909
59.529543
43.182969
31.606555
30.072927
30.316710
31.828880
30.710697
28.216839
24.649501
20.038486
16.489625
11.213422
9.490848
7.327795
5.843639
6.088614
6.396770
7.154942
6.994605
7.524490
7.535815
7.790923
7.883906
8.371472
8.944869
9.232759
8.885860
9.445548
9.510517
8.992553
10.291934
9.933710
9.740591
9.494424
10.359883
10.095835
9.501576
10.859966
10.917783
11.514425
10.165572
11.409521
11.395812
11.849999
11.079907
12.153983
11.618733
11.815429
11.723638
11.968613
12.322664
11.841655
13.094544
13.172626
12.019873
12.781620
12.791753
13.336539
13.437867
15.489459
17.072558
18.238425
18.590689
21.760464
25.177598
25.305748
27.195811
27.615428
28.864741
29.725432
29.224753
24.967790
22.974610
21.929741
19.197464
17.525554
16.524792
14.274716
12.712479
11.570454
12.607574
11.388659
12.042522
11.250973
10.875463
11.928678
12.030602
11.272430
##ZVALUE=230
57.203770
64.944625
99.340677
170.914531
216.396451
263.322592
284.534693
273.757577
239.231586
192.240477
128.200650
86.728930
58.999658
50.302744
49.711466
53.282976
54.731965
51.964521
45.028925
38.076639
27.590990
20.468831
15.261769
10.492802
9.014606
7.417798
7.667542
8.525848
7.853508
8.846521
8.905530
8.994937
9.662509
8.723736
9.805560
10.007620
9.976625
10.026693
10.502934
10.170937
10.144711
10.782480
10.853410
10.331869
10.667443
12.292862
12.199879
11.736751
11.958480
11.972785
11.868477
13.137460
12.828708
14.077425
13.647676
14.718771
14.404655
14.549494
14.657974
14.817715
14.925599
15.209913
16.887784
15.588999
15.382767
14.521480
18.303990
16.556978
19.408464
21.902919
22.990704
25.445819
25.820732
29.648542
29.255748
29.565692
28.689504
28.548837
28.140545
27.117729
24.260879
21.352768
19.531846
18.737912
18.156767
16.797781
16.844869
14.519691
14.495850
15.118718
14.408827
14.750957
14.776587
13.611913
11.742711
12.608767
##ZVALUE=235
19.007921
20.913482
46.953559
107.950568
179.635882
288.089514
377.326608
479.416847
506.379604
503.525734
438.197851
351.463556
228.280425
165.317655
102.963448
82.793832
74.390769
77.011585
83.318949
85.998774
75.977445
63.800812
53.685904
37.909746
25.680661
17.512441
12.519956
10.486841
9.722710
8.689761
9.283423
9.885430
9.763837
9.440780
9.261966
10.152459
9.780526
10.723472
11.152625
10.346770
11.108518
10.855794
11.351705
12.251735
12.099743
12.162924
12.894869
12.033582
12.831688
14.598966
13.362765
15.910864
14.660954
15.477538
15.886426
15.847683
16.903877
16.609430
15.616417
16.613603
17.324686
17.052889
17.507672
18.150806
17.508864
18.505454
18.911958
22.216439
22.919774
24.294853
26.359558
29.073954
32.019615
32.683611
33.461452
34.477711
34.114718
31.389594
31.433702
29.916763
28.575659
25.381446
25.559664
23.380518
21.515489
20.427704
18.847585
18.229485
18.361807
18.311739
17.502904
16.277432
16.931891
17.609596
17.288923
16.728640
##ZVALUE=240
3.561974
3.088713
8.963943
21.196604
66.037774
124.184489
258.408785
388.453603
587.979555
697.140694
787.174702
773.900747
697.668791
540.998578
410.961509
245.009661
173.718929
115.442872
97.974539
97.532868
111.736655
113.875866
109.979510
105.681419
83.731413
65.609813
47.105551
32.452941
21.339655
15.817881
12.385845
10.547638
9.638667
11.177659
10.664463
10.867715
10.879636
10.987520
11.119843
11.385679
10.417700
11.056662
11.942983
11.728406
12.075901
11.990666
11.821985
12.716651
12.731552
13.688803
14.089942
14.539957
15.635490
15.294552
16.247630
15.973449
16.472936
17.898679
18.737912
17.009974
18.591881
18.828511
19.500852
18.337965
19.051433
19.626617
22.121668
22.513866
22.588968
25.347471
28.347969
29.560924
31.393766
34.627914
33.921599
34.105778
34.619570
33.735633
31.296611
32.145977
29.718876
28.129816
27.225614
24.180412
23.334622
22.079945
20.127892
21.352768
21.142960
20.004511
21.401644
17.767549
19.357800
18.942952
18.955469
17.590523
##ZVALUE=245
2.295971
2.685785
2.303720
2.806783
5.618930
15.836954
55.131912
121.050477
270.370841
425.628424
653.696656
812.628865
919.419527
961.607695
909.332037
741.261840
587.819815
377.416015
259.938836
148.654580
110.260844
99.599957
113.460422
126.467943
126.727819
126.747489
112.203956
95.322728
69.230795
51.666498
39.195418
25.056601
17.029643
11.554956
9.448528
10.803938
9.788871
9.619594
10.670424
10.060668
10.718703
9.151697
9.872913
10.834932
10.205507
10.386705
10.577440
12.202859
11.356473
12.564659
12.892485
12.256503
12.725592
13.342500
14.252663
13.857484
13.811588
14.811754
14.983416
16.336441
16.374588
15.721917
14.899969
16.066432
17.369986
16.517639
17.456412
18.116832
20.357966
22.088885
22.656918
24.661422
28.609633
29.188991
28.108954
28.777719
30.376911
29.087663
28.564930
27.069449
25.769472
23.407936
22.489429
21.591783
21.339655
20.052791
18.733740
18.625855
18.406510
19.084811
17.004609
17.094612
16.624928
15.865564
17.582774
17.954707
##ZVALUE=250
2.191663
2.363920
2.541542
2.146959
2.236962
2.568960
3.835559
10.097623
44.402480
101.041794
243.103504
406.686664
592.651963
853.417516
1001.818776
1015.830636
1015.830636
964.809656
801.370740
543.323755
361.984968
226.859450
125.177503
94.782710
103.479624
118.524432
129.679441
137.142539
128.163695
118.440986
96.857548
78.072548
59.853792
35.631657
24.633408
15.167594
12.064576
9.066463
9.289980
8.502603
9.466410
9.534955
8.871555
9.102821
9.027719
10.359883
10.224581
10.572672
10.096431
10.841489
10.874867
10.486841
11.223555
12.741685
12.441874
12.835860
12.964606
12.779832
12.849569
12.799501
13.407469
14.347434
14.896989
13.975501
15.011430
14.256835
15.418530
15.336871
16.588569
18.232465
20.926595
21.192431
22.784472
24.343729
23.945570
25.223494
25.365949
24.247766
22.520423
22.045970
21.438599
20.078421
18.279552
18.161535
17.486811
17.241836
16.362667
15.706420
16.564727
14.759898
16.104579
15.226603
15.279651
15.908480
15.692711
15.914440
##ZVALUE=255
1.968741
1.713634
1.735687
1.816750
2.109408
2.309680
2.592802
2.393723
2.895594
6.376505
29.757619
77.598691
163.633823
355.500579
551.619530
844.460726
1015.777588
1015.830636
1015.830636
1015.830636
1003.906727
800.274014
503.673553
319.671631
165.226460
110.670924
90.811849
100.344419
123.163462
136.210918
141.643882
138.636827
128.252506
103.211999
81.936717
54.103732
37.659407
23.702979
15.216470
10.534525
9.521842
8.652806
8.000731
8.427501
8.428693
8.418560
9.105802
9.241700
9.288788
9.194613
9.903908
9.628534
10.263920
10.102987
10.494590
10.228753
10.835528
11.292696
10.483861
11.880994
11.707544
11.526942
11.517406
12.429953
13.387799
12.336969
13.233423
13.673902
14.990568
16.035438
16.114712
17.506480
18.708706
19.081831
19.338727
21.199584
20.371675
19.244552
18.719435
17.980933
17.447472
16.202927
15.687943
15.899539
14.818907
13.874769
14.814734
13.943911
13.940930
14.077425
14.260411
13.120770
14.229417
12.837648
13.903975
14.231801
##ZVALUE=260
1.625419
1.723766
1.835823
1.837611
2.065897
1.520514
1.953840
1.962781
2.032518
2.394915
2.720952
3.393888
16.450882
47.662854
134.169459
266.337991
522.300601
750.256777
976.429582
1015.830636
1015.830636
1015.830636
1015.830636
971.575975
719.839931
417.343974
268.062949
137.727857
91.630816
86.668730
98.989010
125.298500
139.217973
148.124695
143.659711
129.087567
106.968880
79.085827
60.780644
37.878752
24.404526
14.581680
10.151863
8.660555
8.544922
7.892847
7.858872
7.834435
8.400679
8.629560
9.203553
9.641647
9.475946
9.824634
10.009408
10.143518
9.730458
9.402633
10.695457
10.915995
11.320710
10.144711
10.366440
11.360645
11.541843
11.268854
11.756420
12.287498
13.480783
13.249516
14.932752
15.917420
16.614795
16.833544
17.936826
18.439889
16.760826
17.197728
16.591549
15.942454
15.293956
14.804602
13.444424
13.565421
13.163686
12.805462
13.223886
13.480783
13.248920
12.750626
12.763739
13.821721
12.611747
13.001561
13.490915
12.949705
##ZVALUE=265
1.793504
1.618862
1.623631
1.608729
1.604557
1.844764
1.788735
1.597404
1.903772
2.092719
2.363920
2.588630
2.583861
3.042817
7.129908
35.407543
88.238716
232.157707
404.980779
729.771852
992.438793
1015.926003
1015.926003
1015.926003
1015.926003
1015.926003
821.498632
583.278537
320.109725
194.494724
101.454854
75.501800
80.948472
107.726455
128.806829
145.796537
152.829885
145.716667
133.908987
104.059577
82.832575
55.999756
39.554834
22.836924
15.324950
10.879636
8.844733
9.180903
8.747578
8.654594
9.039640
9.995699
9.010434
9.744763
9.996891
9.972453
10.052919
9.421706
10.542870
10.737777
11.129975
10.624528
11.237860
11.097789
10.443926
11.730790
11.603832
12.525916
12.577772
13.240576
13.483763
14.943480
15.581846
16.103983
15.921593
16.024709
15.026927
14.585853
15.345812
14.808774
13.800859
13.308525
12.840629
12.412667
12.455583
12.253523
11.994839
12.537837
11.973977
11.359453
11.508465
10.922551
11.784434
12.065768
11.961460
12.120605
##ZVALUE=270
1.537800
1.205802
1.329780
1.455545
1.459718
1.494884
1.579523
1.806617
1.790524
1.680851
1.611710
2.196431
2.095699
1.918674
2.291799
2.668500
3.906488
15.535951
46.929717
159.001946
319.280624
651.077032
951.611996
1015.830636
1015.830636
1015.830636
1015.830636
1015.830636
1015.830636
723.533630
486.899614
246.876478
140.042901
70.929527
63.141584
83.495975
105.147958
131.710768
147.064924
152.629614
149.484873
131.379962
111.928582
81.929564
60.749650
37.662983
25.641918
15.544891
12.107491
10.203719
9.758472
8.831620
9.761453
10.018945
9.686947
10.616779
11.015534
11.147857
11.115670
10.565519
10.948777
10.858774
10.761619
11.412501
10.843873
11.188984
10.822415
12.019873
11.555552
13.312697
13.237596
13.870597
13.954639
14.807582
15.547872
15.181899
15.318990
14.530420
13.819933
13.335943
12.782812
12.214780
11.887550
10.761619
11.133552
11.695623
11.171699
11.528730
10.824800
10.828972
10.854602
11.261702
10.121465
10.749698
10.414720
10.729432
##ZVALUE=275
1.244545
1.179576
1.242757
1.062751
1.074672
1.268983
1.424551
1.366735
1.371503
1.503825
1.248717
1.568794
1.634955
1.822710
1.841784
2.112985
2.203584
2.803802
2.496839
7.900596
31.312704
94.721913
273.118615
496.533513
891.489983
1015.702486
1015.702486
1015.702486
1015.702486
1015.702486
1015.702486
944.657922
654.976964
340.725780
192.315578
85.000992
54.556727
59.530735
77.993870
104.655623
125.962496
144.381523
150.323510
147.804618
133.592486
105.379820
85.804462
59.977770
42.643547
26.696920
19.316673
13.077855
11.449456
10.715723
10.160804
10.122657
10.176897
10.978580
11.030436
10.617971
11.295676
10.681748
11.424422
10.827780
11.043549
11.217594
11.879802
11.564493
11.377931
12.855530
12.794733
13.581514
13.879538
14.408827
14.153719
13.945699
14.366508
13.949871
12.648702
12.856722
12.336969
12.010932
11.519790
11.202693
11.030436
11.105537
10.401607
10.620952
10.397434
9.866953
10.237694
10.437965
10.296702
9.848475
9.672642
9.558797
##ZVALUE=280
1.308918
1.365542
1.223683
1.305938
1.109838
1.273751
1.341701
1.156926
1.534820
1.483560
1.493692
1.665950
1.583695
1.828671
1.578927
1.750588
1.928806
1.901984
2.383590
2.653599
2.499819
3.569722
21.367669
72.023869
228.888392
418.019891
763.160586
1015.830636
1015.830636
1015.830636
1015.830636
1015.830636
1015.830636
1015.830636
796.799660
442.490578
261.095762
113.399625
60.723424
44.600964
55.866838
81.593990
101.415515
128.399730
143.162608
148.172975
144.859552
129.845738
108.682513
82.666874
62.763691
40.565729
28.946996
18.516779
14.351606
11.149645
10.734797
11.260509
11.232495
11.041760
11.717677
11.448860
11.860728
11.334419
11.202693
11.656880
11.730790
11.323690
11.843443
12.450814
12.660623
13.005733
13.707876
13.949871
13.315678
13.933778
13.612509
12.904406
12.405515
12.097955
11.742711
11.100769
10.999441
10.566711
10.898709
10.326505
10.126829
10.145903
10.320544
9.502769
9.944439
9.356737
9.741783
9.543896
9.698868
9.546876
##ZVALUE=285
1.053810
1.132488
1.242757
1.342893
1.145601
1.210570
1.201630
1.159906
1.100898
1.327991
1.458526
1.198649
1.415610
1.548529
1.488924
1.699924
1.772642
1.641512
1.738667
1.966953
2.021790
2.162457
2.788901
2.995729
10.025501
37.474632
129.354596
275.792480
593.187809
901.167989
1015.831828
1015.831828
1015.831828
1015.831828
1015.831828
1015.831828
987.941623
605.998635
374.987721
175.207853
87.801814
40.689707
37.476420
54.863691
74.491501
103.794932
122.191906
138.733983
145.176649
141.037703
130.379796
109.145641
88.247657
61.671734
43.990612
28.000474
19.938946
14.680624
12.226701
11.359453
10.699630
11.322498
11.107922
10.574460
10.478497
11.098981
11.187792
11.661649
11.465549
11.798739
12.112856
12.493730
12.862682
12.954473
12.543797
12.433529
12.637973
12.247562
11.617541
11.379719
11.223555
10.878444
10.587573
10.041595
10.025501
10.307431
10.357499
10.255575
10.198951
10.022521
9.916425
9.414554
9.222627
9.071827
8.794665
9.772778
##ZVALUE=290
1.119971
1.149774
1.168847
1.092553
1.016855
1.260638
1.157522
0.974536
1.193881
1.266599
1.260638
1.221895
1.210570
1.315475
1.369715
1.343489
1.334548
1.433492
1.587868
1.524687
1.810789
1.747608
1.998544
2.153516
2.423525
2.847910
4.304647
15.030503
73.809624
169.496536
394.899845
668.965578
1015.831828
1015.831828
1015.831828
1015.831828
1015.831828
1015.831828
1015.831828
884.311795
497.320890
287.392735
117.642879
56.912899
28.153658
32.888651
50.099492
67.503452
93.244910
113.911629
134.126544
141.185522
137.950778
128.875971
106.259584
84.776878
58.413744
43.264627
27.884841
20.514727
14.304519
12.497902
10.632873
10.531545
10.119677
9.897947
10.618567
10.554790
10.973811
10.749698
11.639595
11.898875
12.098551
12.367964
12.041926
11.993647
11.687875
11.481643
11.068583
10.709763
10.337830
10.477901
9.537935
9.892583
9.891987
9.540915
9.369850
9.049773
9.690523
9.087920
9.522438
9.396672
8.932948
9.105802
8.724928
8.726716
##ZVALUE=295
1.014471
1.009703
0.860691
0.881553
0.951886
1.155734
0.937581
1.118779
1.149774
1.056790
1.112819
1.170635
1.355410
1.218915
1.359582
1.444817
1.303554
1.346469
1.047850
1.352429
1.299977
1.659989
1.703501
2.110600
2.012849
2.433658
2.396703
2.878904
2.971888
8.018613
29.757619
122.675896
260.165930
584.293008
912.455916
1015.830636
1015.830636
1015.830636
1015.830636
1015.830636
1015.830636
989.946723
691.328645
349.042416
184.641480
67.345500
33.039451
23.600459
30.249953
48.480630
65.096617
91.428757
107.795000
128.169656
133.529902
130.856633
121.193528
100.514889
82.653761
58.881640
42.634606
27.009845
19.308925
13.569593
12.042522
10.187626
10.348558
10.253787
10.511875
10.473728
10.807514
11.073947
11.185408
11.540651
11.663437
10.833740
10.964870
10.923743
10.369420
10.218620
9.963512
9.357929
9.411573
9.394884
9.072423
9.063482
8.688569
8.857846
8.947849
8.594990
8.655787
8.288622
8.476973
8.396506
8.488894
8.358955
##ZVALUE=300
0.963807
0.921488
1.124740
1.082420
1.106858
1.116991
1.249909
0.952482
0.955462
1.100898
1.044869
0.939965
1.172423
1.187921
1.115799
1.181960
1.267791
1.341701
1.317859
1.477599
1.515746
1.571774
1.649857
1.728535
1.670718
1.859665
1.814961
2.187490
2.097487
2.667904
2.721548
3.482699
16.772747
61.463714
200.980902
388.729572
778.164864
1015.830636
1015.830636
1015.830636
1015.830636
1015.830636
1015.830636
1015.830636
870.475769
544.347763
262.977481
135.378838
48.300624
23.299456
20.204782
28.039813
43.266416
59.220791
82.053542
100.865960
122.728944
128.600001
126.943588
118.680000
99.626780
81.468821
59.285760
44.420958
27.804971
19.812584
14.371872
11.447668
10.345578
10.495782
10.886788
10.671616
10.842681
11.124611
11.084676
10.674000
10.406971
10.359883
9.807944
9.303689
9.663701
9.157658
9.011626
9.091496
8.952618
8.857846
8.931756
8.728504
8.361936
8.509755
8.568764
8.303523
8.289814
8.105636
8.028746
7.953644
##ZVALUE=305
0.957847
0.861883
0.858903
0.950694
0.848770
0.923872
1.124740
0.958443
0.971556
1.016855
1.099706
1.089573
1.141429
1.282692
1.255870
1.217723
1.212955
1.222491
1.281500
1.366735
1.240969
1.478791
1.329780
1.423955
1.593828
1.724958
1.554489
1.817942
1.983643
2.202988
2.278686
2.524853
2.772808
3.164411
6.587505
41.968822
120.353699
333.750844
585.098863
992.941856
1015.830636
1015.830636
1015.830636
1015.830636
1015.830636
1015.830636
1015.830636
678.879619
418.075919
183.358788
84.669590
28.396845
16.925931
19.497871
26.500821
41.705966
57.269931
80.044866
96.271634
114.713907
122.091770
120.266676
111.136436
94.807744
77.249408
55.983663
41.456819
26.151538
19.471645
13.869405
11.218786
10.155439
9.950995
9.921789
9.853840
9.919405
9.487867
9.251833
9.034872
8.867979
8.635521
8.642673
8.524656
8.441806
8.571744
8.401871
8.503795
8.407831
8.261800
7.920861
8.022785
7.753968
7.434487
7.532835
8.104444
7.960796
##ZVALUE=310
0.886917
0.825524
0.792742
0.848770
0.753999
0.763535
0.836849
0.968575
0.993609
1.025796
1.045465
0.872612
0.992417
1.177788
0.911951
1.139641
1.208782
1.129508
1.159906
1.084805
1.364946
1.189709
1.354814
1.140833
1.284480
1.380444
1.449585
1.532435
1.721978
1.751781
1.909733
1.912713
2.208948
2.231598
2.678633
2.944469
3.531575
18.519759
63.222647
205.772519
402.572751
803.333521
1015.831828
1015.831828
1015.831828
1015.831828
1015.831828
1015.831828
1015.831828
930.230021
601.989627
285.366774
145.727992
49.034953
20.651817
14.157891
17.095804
24.762750
34.951568
53.342581
68.642497
90.070963
104.923844
114.145875
114.606619
105.047822
93.538761
73.819757
56.819916
38.317442
27.888417
18.935800
13.958812
10.920763
9.734631
9.169579
9.084940
8.259416
8.662939
8.417964
8.271933
7.956624
7.966757
8.107424
8.038878
8.155704
8.025765
7.961988
7.762909
7.843971
7.598996
7.449985
7.367730
7.244945
7.521510
7.431507
##ZVALUE=315
0.859499
0.807643
0.945926
1.008511
0.718832
0.970960
0.946522
0.956655
0.873804
0.886917
0.868440
1.036525
0.912547
0.993609
1.173615
0.945926
1.053810
0.959635
0.961423
1.094937
1.174808
0.973940
1.198649
1.257658
1.253486
1.405478
1.575947
1.318455
1.382828
1.615882
1.677871
1.812577
1.801848
2.018809
2.080798
2.281666
2.540946
2.707839
3.258586
8.363724
33.070445
135.806799
291.382670
632.925630
973.279476
1015.830636
1015.830636
1015.830636
1015.830636
1015.830636
1015.830636
1015.830636
765.121579
395.158529
211.622715
74.249506
29.477477
13.325810
12.823939
16.515851
21.882653
33.787489
46.060681
65.628886
80.847740
98.213553
105.937719
107.029676
102.309585
85.312724
72.023869
52.717924
38.725734
25.255680
17.945766
12.477636
10.215640
8.604527
8.230805
7.727742
7.680655
7.409453
7.425547
7.371902
7.838607
7.465482
7.767677
7.626414
7.514954
7.504821
7.345676
7.219911
7.196665
7.042885
7.386804
7.080436
##ZVALUE=320
1.003742
0.756979
0.817776
0.758767
0.694990
0.757575
0.792742
0.811815
0.836849
0.911951
0.843406
0.927448
1.074672
1.018643
1.006722
0.798702
0.964999
1.047850
0.966787
1.099706
1.145601
1.019835
1.102686
1.077652
1.221895
1.187921
1.120567
1.155734
1.289845
1.258850
1.568794
1.391768
1.473427
1.595616
1.642704
1.807809
1.875758
2.128482
2.302527
2.703667
2.695918
4.117489
15.108585
79.903603
198.053718
484.371781
769.515634
1015.827656
1015.827656
1015.827656
1015.827656
1015.827656
1015.827656
1015.827656
917.452574
498.895645
284.610987
116.660595
50.256848
16.302466
11.069775
11.596680
13.505816
19.730926
26.741624
41.768551
56.402683
75.984001
89.079738
99.757910
101.200938
94.871521
85.216761
65.603852
51.311851
35.023689
24.795532
16.068816
11.922717
8.855462
7.672906
7.174611
7.045865
7.007718
6.953478
6.991625
7.054806
6.901622
6.822944
6.904602
7.119775
6.632805
6.661415
6.962419
6.934404
6.584525
##ZVALUE=325
0.852942
0.778437
0.827909
0.840425
0.734925
0.862479
0.861883
0.796914
0.707507
0.794530
0.875592
0.944734
0.893474
0.809431
0.896454
0.965595
0.948906
0.811815
0.909567
1.005530
0.886917
1.017451
1.118779
1.010895
1.139641
1.094937
1.167655
1.050830
1.052618
1.194477
1.244545
1.283884
1.360774
1.469851
1.443624
1.566410
1.602769
1.909733
1.891851
2.107620
2.030730
2.356768
2.854466
3.057718
7.602572
54.549575
140.433908
346.294045
597.620606
998.045802
1015.830636
1015.830636
1015.830636
1015.830636
1015.830636
1015.830636
1015.830636
664.262772
405.637622
178.865790
84.413886
24.021864
10.954738
9.277463
9.910464
12.762547
17.124414
26.893616
38.611889
57.407618
70.670843
85.983872
92.923641
94.546676
88.864565
74.708462
61.844587
44.892430
33.333898
21.092892
14.861822
9.881854
8.251667
7.333755
7.158518
6.578565
6.457567
6.623864
6.425977
6.658435
6.471872
6.414652
6.394982
6.357431
6.357431
6.375909
##ZVALUE=330
0.734925
0.833869
0.660419
0.593662
0.643730
0.577569
0.565648
0.592470
0.579953
0.537634
0.684857
0.621676
0.542998
0.767708
0.662804
0.684857
0.604987
0.645518
0.752807
0.744462
0.632405
0.761747
0.799894
0.773668
0.849962
0.768900
0.877976
0.864863
0.971556
0.850558
1.047850
1.058578
1.131892
1.194477
1.043677
1.306534
1.262426
1.488924
1.443624
1.466870
1.516938
1.603961
1.838803
1.996756
2.256632
2.620816
4.033446
24.236441
80.978870
258.921385
478.225350
902.324915
1015.628576
1015.628576
1015.628576
1015.628576
1015.628576
1015.628576
1015.628576
842.549801
539.860725
248.311758
122.459531
41.198730
15.864968
8.584857
8.374453
9.183884
11.336803
16.919971
24.339557
37.752986
50.586462
67.991614
78.775883
87.423921
87.758899
81.720948
71.632862
56.473613
43.713450
29.315948
21.435618
14.000535
10.502934
7.697940
6.933808
6.548762
6.128550
6.005764
5.967617
5.967617
6.232858
6.022453
5.730987
5.699992
##ZVALUE=335
0.741482
0.798702
0.889897
0.804663
0.859499
0.838637
0.761747
0.874996
0.744462
0.790954
0.805855
0.781417
0.771880
0.839829
0.889897
0.731945
0.951886
0.762939
0.835657
0.904799
0.906587
0.871420
0.857711
0.840425
0.997782
0.918508
0.949502
1.082420
1.079440
1.010895
1.053810
1.059771
1.110435
1.199841
1.273751
1.328588
1.309514
1.401901
1.382828
1.336932
1.600981
1.705885
1.821518
2.083778
2.156496
2.334714
2.535582
2.780557
3.200769
10.769963
44.056773
175.761580
358.715653
753.581524
1015.830636
1015.830636
1015.830636
1015.830636
1015.830636
1015.830636
1015.830636
1013.121009
717.193484
368.704796
188.356638
60.190558
22.731423
10.011792
8.712411
8.618832
9.630919
12.096763
16.121864
24.842620
35.239458
50.383806
62.173605
74.291825
80.902576
81.094503
76.788664
65.311790
54.912567
41.232705
31.633973
21.519661
15.280843
10.222793
8.528829
7.116795
6.623864
6.068945
5.802512
5.812645
5.893707
5.712509
##ZVALUE=340
0.718832
0.646710
0.610948
0.653863
0.576973
0.718832
0.897646
0.934601
0.688434
0.741482
0.766516
0.773668
0.750422
0.810623
0.816584
0.659823
0.794530
0.695586
0.744462
0.834465
0.984669
0.935793
0.930429
0.926852
0.794530
0.947714
1.043677
1.039505
1.006722
0.887513
1.057982
1.039505
1.176000
1.110435
1.095533
1.051426
1.111627
1.164675
1.252890
1.411438
1.355410
1.601577
1.605749
1.692772
1.980662
1.957417
2.061725
2.253652
2.371669
2.634525
3.021955
5.057454
19.063950
98.927617
245.271921
598.708987
961.259604
1015.830636
1015.830636
1015.830636
1015.830636
1015.830636
1015.830636
1015.830636
900.529027
459.492803
250.456929
96.828938
35.811663
11.639595
9.002686
8.641481
8.685589
9.462833
11.497736
16.324520
22.777915
33.667684
44.662952
59.241652
69.034696
75.830817
76.114535
71.508884
64.319968
51.640868
41.073561
29.281974
21.955967
14.333725
10.705590
7.820725
6.617904
6.259680
5.833507
5.625486
##ZVALUE=345
0.679493
0.643730
0.615716
0.719428
0.606775
0.736713
0.815988
0.721812
0.817776
0.813603
0.748634
0.667572
0.668764
0.887513
0.705719
0.923872
0.810623
0.901818
0.785589
0.723600
0.833869
0.795722
0.712872
0.956655
0.906587
1.097918
0.864863
0.957847
1.057982
0.960827
0.782609
0.998974
1.147985
1.114607
1.039505
1.050830
1.200438
1.046658
0.878572
1.144409
1.413822
1.308918
1.473427
1.556873
1.621842
1.671910
1.714826
1.860857
2.008677
2.257824
2.217889
2.518892
2.751946
3.533959
8.984804
58.933496
159.566402
422.890782
749.245882
1015.830636
1015.830636
1015.830636
1015.830636
1015.830636
1015.830636
1015.830636
1015.830636
646.230578
358.800888
132.882595
55.306554
16.877651
10.048747
8.792877
8.565784
7.892847
8.236766
9.996891
13.446808
21.328926
29.797554
43.023825
52.325726
63.170791
68.489909
71.029663
68.166852
60.217977
51.604509
39.949417
30.473471
20.378828
14.858842
10.128617
8.173585
6.668568
##ZVALUE=350
0.782609
0.657439
0.718832
0.788569
0.798702
0.584722
0.645518
0.709891
0.660419
0.695586
0.680685
0.868440
0.858903
0.716448
0.755787
0.796914
0.759959
0.631809
0.766516
0.724792
0.823736
0.833869
0.800490
0.869632
0.910759
1.019835
0.795722
0.917912
0.965595
0.746846
1.055598
1.102686
1.109838
1.021624
1.002550
1.083612
1.047850
1.090765
1.157522
1.148582
1.209974
1.345873
1.222491
1.400709
1.346469
1.396537
1.497865
1.604557
1.689792
1.862645
1.912713
2.067685
2.423525
2.429485
2.695918
3.230572
4.772544
28.017759
91.217756
284.335613
543.175936
999.150872
1015.830636
1015.830636
1015.830636
1015.830636
1015.830636
1015.830636
1015.830636
792.894959
475.834608
206.322670
91.043711
23.715496
11.039972
8.335710
7.440448
7.260442
7.165670
7.645488
9.161830
13.339520
18.507838
27.249455
36.288500
46.596527
55.235624
61.993599
64.655542
62.531829
57.666898
46.990514
39.311647
28.963685
21.684766
14.782548
##ZVALUE=355
0.742674
0.798702
0.801682
0.743866
0.752807
0.903606
0.889897
0.862479
0.887513
0.874996
0.838637
0.848770
0.723600
0.919700
0.807643
0.840425
0.966787
0.962615
0.798702
0.758767
0.907779
0.907779
0.859499
0.894666
0.936985
1.012683
1.049638
0.875592
1.000762
0.944734
1.072884
1.081824
1.182556
1.085997
1.096725
1.069903
1.137853
1.190901
1.148582
1.383424
1.248717
1.453757
1.340508
1.260638
1.472831
1.304746
1.648664
1.644492
1.614690
1.690984
1.782775
1.872778
1.920462
2.205968
2.405643
2.622604
2.679825
3.013611
3.650784
13.233423
49.396753
196.036696
405.306816
836.579800
1015.836000
1015.836000
1015.836000
1015.836000
1015.836000
1015.836000
1015.836000
1006.805897
666.731000
282.700658
127.721429
35.442710
13.586879
8.423924
7.625818
7.282495
6.877780
6.834865
7.166862
8.895993
11.286736
16.757846
22.419691
32.113791
39.732456
50.258636
55.627823
59.063435
57.646632
52.407980
45.806766
36.200881
##ZVALUE=360
0.859499
0.737906
0.873804
0.686646
0.833869
0.794530
0.749826
0.764728
0.658631
0.713468
0.792742
0.680685
0.647902
0.841618
0.772476
0.822544
0.857711
0.853539
0.884533
0.927448
0.870824
0.981688
0.829697
0.868440
0.889897
0.863671
0.899434
0.783801
0.895858
1.017451
1.127720
1.028776
1.012683
1.036525
1.162887
1.166463
1.069903
1.117587
1.268983
1.183748
1.152754
1.311898
1.413822
1.388788
1.303554
1.398921
1.509786
1.436472
1.335740
1.391768
1.637936
1.712441
1.699924
1.893640
1.913905
2.089739
2.274513
2.472997
2.673864
3.010631
3.436804
5.901456
20.699501
92.710853
223.719478
544.699430
889.242887
1015.834808
1015.834808
1015.834808
1015.834808
1015.834808
1015.834808
1015.834808
844.946504
409.675837
206.370950
68.389773
23.777485
8.671880
7.463694
6.980896
6.433725
6.279945
6.188750
6.433725
7.222891
9.683967
12.719631
18.925667
25.254488
35.764575
42.882562
49.808621
52.465796
52.570701
##ZVALUE=365
0.875592
0.863671
1.044869
1.051426
0.970960
0.969768
0.930429
0.929832
0.985861
0.995994
1.086593
1.119971
1.000762
1.045465
1.081824
0.988841
1.088977
0.888705
1.044869
1.149774
0.876784
0.986457
1.078844
1.224875
1.124740
1.134872
1.257658
1.306534
1.112819
1.076460
1.097918
1.046658
1.067519
1.157522
1.196861
1.163483
1.125932
1.440644
1.346469
1.316667
1.305938
1.470447
1.410842
1.522899
1.531839
1.520514
1.545548
1.527667
1.534820
1.660585
1.691580
1.812577
1.929998
1.929998
1.919866
1.966953
2.230406
2.324581
2.550483
2.565980
3.021955
3.256798
3.652573
4.148483
9.782910
60.097575
160.785913
401.732922
719.257593
1016.033888
1016.033888
1016.033888
1016.033888
1016.033888
1016.033888
1016.033888
1000.432968
565.962791
299.564600
97.809434
33.946633
10.006428
7.691979
6.989837
6.561875
6.113648
5.880594
5.760789
5.513430
6.491542
7.892847
11.609793
15.047789
22.231936
28.715730
37.158728
##ZVALUE=370
0.633597
0.627637
0.653863
0.658631
0.734925
0.747442
0.801682
0.611544
0.650883
0.671744
0.643730
0.600815
0.758767
0.734925
0.792742
0.729561
0.721812
0.687838
0.636578
0.759959
0.814795
0.959635
0.870824
0.845790
0.761747
0.919700
0.917912
0.932813
0.780821
0.930429
0.800490
0.826716
0.952482
0.823736
1.000762
0.798702
1.042485
0.970960
0.897646
0.969768
1.091957
0.924468
0.908971
1.039505
1.168847
0.982881
1.072884
1.263618
1.137853
1.299977
1.127720
1.120567
1.232624
1.302958
1.282692
1.453757
1.421571
1.598597
1.679659
1.734495
1.941919
2.036691
2.397895
2.432466
2.808571
3.214478
5.156994
30.773878
100.687742
293.355584
551.782846
987.584591
1015.830636
1015.830636
1015.830636
1015.830636
1015.830636
1015.830636
1015.830636
660.073757
369.682908
137.443542
56.323409
14.297962
7.413626
6.230474
5.852580
5.389452
5.165935
4.880428
4.842877
4.993677
5.211830
6.841421
9.220839
13.058782
##ZVALUE=375
0.575781
0.574589
0.642538
0.701547
0.565648
0.765920
0.580549
0.683665
0.647902
0.612736
0.708699
0.657439
0.778437
0.602603
0.596642
0.700951
0.835657
0.749826
0.762939
0.673532
0.758767
0.570416
0.648499
0.575781
0.647902
0.685453
0.695586
0.728965
0.791550
0.889897
0.685453
0.918508
0.658631
0.914931
0.837445
0.781417
0.892878
0.755787
0.962615
0.882745
0.794530
0.926852
0.989437
0.973940
1.005530
1.048446
1.005530
1.028776
1.043677
1.124740
1.021624
1.096725
1.127720
0.982881
1.201630
1.101494
1.205802
1.150966
1.358986
1.387596
1.654625
1.578927
1.737475
1.588464
2.004504
2.199411
2.431870
2.836585
3.328919
14.185905
51.386952
183.906555
378.871560
798.313022
1015.830636
1015.830636
1015.830636
1015.830636
1015.830636
1015.830636
1015.830636
753.032565
470.117927
226.828456
108.170509
30.749440
10.774732
6.075501
5.644560
5.122423
4.959702
4.626513
4.360676
4.476905
4.368424
4.771948
##ZVALUE=380
0.711679
0.510812
0.781417
0.611544
0.614524
0.671744
0.674725
0.722408
0.511408
0.555515
0.530481
0.444651
0.593662
0.575781
0.736713
0.541806
0.499487
0.616908
0.604987
0.603795
0.622869
0.654459
0.665784
0.540614
0.727773
0.721812
0.755787
0.675917
0.603795
0.627637
0.658631
0.754595
0.608563
0.740886
0.715852
0.737906
0.790954
0.933409
0.832677
0.757575
0.914931
0.700951
0.809431
0.821948
0.862479
0.805855
0.867844
0.872612
0.817776
1.054406
0.889897
0.854731
0.873804
1.021624
0.962615
1.138449
1.177788
1.059771
1.286864
1.229644
1.281500
1.454949
1.357794
1.501441
1.665950
1.719594
1.942515
2.219677
2.413988
2.841949
3.345609
6.763935
28.666854
135.255456
301.669836
671.135783
993.905663
1015.837789
1015.837789
1015.837789
1015.837789
1015.837789
1015.837789
955.052972
628.750920
300.322771
149.888992
48.159957
17.510653
6.407499
5.398989
4.977584
4.770756
4.528761
4.308820
4.031658
##ZVALUE=385
0.441670
0.414848
0.532866
0.491738
0.415444
0.301600
0.459552
0.367761
0.353456
0.400543
0.444651
0.454783
0.375509
0.379682
0.398755
0.512600
0.460744
0.427961
0.529885
0.589490
0.347495
0.448823
0.498891
0.487566
0.424981
0.626445
0.570416
0.511408
0.609756
0.432730
0.620484
0.472665
0.584722
0.609756
0.473857
0.544786
0.540614
0.698566
0.685453
0.552535
0.666976
0.718832
0.630617
0.538826
0.680685
0.713468
0.696778
0.694990
0.731945
0.813603
0.590682
0.499487
0.823736
0.828505
0.830889
0.955462
0.894666
0.854731
0.987649
1.033545
1.091957
1.150966
1.147985
1.180768
1.323819
1.222491
1.550913
1.680851
1.852512
2.211928
2.334714
2.594590
2.693534
4.054904
14.791489
90.483427
220.595598
514.922738
855.684876
1015.702486
1015.702486
1015.702486
1015.702486
1015.702486
1015.702486
1015.703082
820.879936
434.044600
239.967704
92.026591
34.126639
8.434653
5.158782
4.518628
4.378557
4.102588
##ZVALUE=390
0.398755
0.440478
0.391603
0.355840
0.374913
0.413656
0.470877
0.334978
0.566840
0.542998
0.379682
0.468493
0.472665
0.383854
0.505447
0.309944
0.311732
0.288486
0.383854
0.334978
0.475645
0.421405
0.451803
0.361800
0.447631
0.455976
0.560880
0.412464
0.538826
0.667572
0.526905
0.594854
0.594854
0.581741
0.572801
0.511408
0.544786
0.485778
0.679493
0.560880
0.425577
0.627637
0.663996
0.567436
0.662804
0.541806
0.548959
0.728965
0.691414
0.653863
0.801682
0.611544
0.760555
0.756979
0.831485
0.882745
0.927448
0.872612
0.851750
0.772476
1.036525
0.873804
1.016855
1.087785
1.148582
1.439452
1.468658
1.639724
1.953840
1.957417
2.177954
2.246499
2.183914
2.353787
2.642870
2.960563
5.969405
43.296814
135.648847
393.908620
696.203709
1015.684009
1015.684009
1015.684009
1015.684009
1015.684009
1015.684009
1015.683413
1015.684009
652.226806
376.493931
143.721700
61.372519
14.327765
6.151795
4.612803
##ZVALUE=395
0.512600
0.456572
0.603795
0.472665
0.489950
0.582933
0.551939
0.410676
0.457764
0.616908
0.599623
0.546575
0.583529
0.592470
0.559688
0.538826
0.520945
0.526905
0.527501
0.509620
0.696778
0.574589
0.698566
0.843406
0.674725
0.590682
0.733733
0.586510
0.658631
0.667572
0.604987
0.597835
0.855923
0.679493
0.745654
0.754595
0.625849
0.582933
0.770688
0.687838
0.739694
0.866652
0.694990
0.807643
0.825524
0.732541
0.794530
0.673532
0.850558
0.713468
0.743866
1.015663
0.788569
0.813603
1.066923
0.963807
1.014471
0.904799
1.021624
1.154542
1.146793
1.129508
1.213551
1.206994
1.293421
1.254678
1.425743
1.607537
1.694560
1.772642
1.974702
2.087951
2.155900
2.143979
2.226830
2.404451
2.496839
2.836585
3.894567
22.185445
82.615614
281.114578
533.127785
970.425606
1015.830636
1015.830636
1015.830636
1015.830636
1015.830636
1015.830636
1015.830636
803.875923
503.318906
231.474638
107.095838
31.729937
##ZVALUE=400
0.580549
0.529885
0.484586
0.637770
0.515580
0.469685
0.537634
0.609756
0.586510
0.510812
0.540614
0.518560
0.478625
0.602603
0.540614
0.505447
0.506639
0.559688
0.638962
0.731945
0.792742
0.642538
0.498891
0.612736
0.736713
0.753999
0.629425
0.623465
0.539422
0.584722
0.781417
0.697970
0.656843
0.464916
0.735521
0.705719
0.693798
0.667572
0.782609
0.732541
0.643730
0.839829
0.735521
0.687838
0.735521
0.840425
0.752807
0.810623
0.728965
0.837445
0.796914
0.732541
0.850558
0.890493
1.059771
0.954866
0.909567
0.926852
1.035929
1.045465
1.151562
1.145601
0.972748
1.035929
1.110435
1.383424
1.296997
1.601577
1.441836
1.780987
1.900792
2.106428
1.986623
2.041459
1.889467
1.994967
1.938939
2.119541
2.531409
2.661943
3.278852
12.699962
47.472715
169.071555
360.329747
779.913664
1015.831828
1015.831828
1015.831828
1015.831828
1015.831828
1015.831828
1015.831828
939.972997
604.273677
291.799903
##END
