##TITLE=SKZ151
##FORMAT=SPECTACLE-ASCII V-1.2
##DATA TYPE=ULTRAVIOLET SPECTRUM
##SECOND TYPE=ULTRAVIOLET SPECTRUM
##DATE=10/25/17
##TIME=11:02:36
##SPECTROMETER/DATA SYSTEM=SPECTACLE
##XUNITS=NM EM
##YUNITS=ENERGY
##YFACTOR=1
##FIRSTX=220
##LASTX=410
##NPOINTS=96
##3DDATA=Equidistant
##ZUNITS=NM EX
##FIRSTZ=210
##LASTZ=400
##ZPOINTS=39
##XYDATA=(Y..Y)
##ZVALUE=210
4.643798
4.653931
4.215837
4.279613
5.048513
5.009770
5.318522
5.141497
3.560781
4.114509
4.040599
3.402829
3.341436
3.510714
3.411770
3.761649
3.797412
3.948808
3.756881
4.205704
4.796982
4.012585
4.416704
5.255938
5.682707
5.208850
5.108714
5.448461
5.624890
5.985498
5.898476
5.921721
5.341768
5.344748
5.975962
6.648898
6.230474
7.174611
7.350445
7.358789
7.299781
5.875826
7.210970
6.060600
6.775856
7.253885
7.242560
7.387996
7.423759
6.952882
7.299781
8.409619
7.896423
7.774830
8.485913
8.202791
8.378625
8.469820
9.313822
7.743835
8.348823
8.000731
7.674694
8.463860
8.662939
9.569526
10.472536
9.551644
11.768937
13.574958
15.615821
18.126965
20.173788
21.662712
22.789836
23.360848
24.616718
23.503900
23.714900
22.937655
19.459724
16.767979
16.542673
14.931560
12.787580
10.011792
8.833408
8.862615
8.280873
7.621646
7.462502
8.019805
8.026958
8.011460
8.609891
8.282661
##ZVALUE=215
12.002587
13.058782
12.409687
10.911822
8.960962
8.592606
8.673668
7.920861
8.369684
8.603930
7.144809
7.062554
5.832911
5.141497
4.708767
4.121661
4.261732
3.859997
3.841519
4.739761
4.311800
4.670620
4.905462
5.700588
5.103946
5.191565
5.297661
5.705953
5.569458
5.781651
5.631447
6.209612
5.728602
6.016493
6.253719
6.247759
5.894899
5.518794
6.732941
6.588697
6.990433
6.801486
7.050633
6.930828
7.650852
7.038713
8.433461
7.344484
8.034706
8.398890
7.811785
7.957816
8.536577
7.927418
7.880926
8.321404
8.178949
8.947849
8.200407
8.790493
9.178519
8.862615
8.496642
8.451939
8.719563
9.102821
9.565949
10.376573
11.870861
13.246536
15.046597
16.466975
19.549727
21.322966
20.926595
23.126602
21.597743
22.439957
22.810698
21.656752
20.216703
19.106865
16.651750
14.746785
11.881590
11.322498
9.187460
8.866787
8.114576
7.510781
7.013679
7.257462
7.615685
8.130670
7.761717
7.470846
##ZVALUE=220
33.607483
36.666989
37.408471
37.119985
34.327507
26.975870
24.201870
19.052625
15.833974
15.780926
15.903711
17.270446
16.491413
13.185740
12.439489
9.575486
7.561445
6.292462
5.532503
4.330873
5.035996
5.009770
5.535483
5.116463
5.431771
5.202889
5.363822
6.269813
6.060600
6.019473
6.253719
6.090999
6.693602
6.301999
6.585717
7.179976
7.228851
8.094907
7.055998
6.651878
6.791949
7.324815
8.046627
8.328557
8.892417
7.848740
8.901954
7.524490
8.551478
8.432865
8.201599
8.701682
9.132624
8.691549
7.623434
8.082986
8.988976
8.576512
9.155869
9.694695
9.966493
9.155869
8.780956
8.958578
8.565784
9.778738
9.944439
10.487437
10.863543
12.709498
13.937950
17.408729
18.045902
21.423697
21.806955
21.048784
22.105575
20.716786
20.452738
21.471977
18.990636
16.735792
15.772581
14.915466
12.554526
11.959672
9.968877
9.345412
8.466840
8.333921
9.437799
7.894635
7.137656
9.067655
7.341504
8.618832
##ZVALUE=225
53.961873
59.522986
71.440935
88.980794
94.285607
97.593665
88.597536
67.700744
53.381920
40.396452
30.748844
27.496815
29.568672
31.958818
31.759739
28.678775
25.282502
18.328428
15.635490
10.405779
7.814765
6.165504
6.591678
4.956722
6.604791
6.251931
6.653666
6.776452
7.727742
6.366968
7.109642
7.513762
7.769465
7.502437
7.478595
7.106662
7.692575
7.224679
7.993579
7.877946
8.036494
8.525848
9.642839
9.068847
7.573962
7.837415
8.304715
8.310676
8.627772
8.614659
9.496808
9.009838
8.977652
10.249615
8.349419
9.489655
10.449886
9.553432
8.834600
9.919405
10.115504
10.007620
10.672808
9.780526
10.675788
10.885000
11.016726
11.833906
13.682842
14.281869
14.946461
15.280843
18.677711
20.353794
19.797683
20.238757
20.218492
20.417571
18.232465
19.282699
16.875863
17.050505
14.324784
13.394952
12.409687
12.438893
10.519624
9.121895
8.333921
9.733438
8.098483
9.630919
9.384751
8.231997
9.996891
8.074641
##ZVALUE=230
47.314763
49.526691
76.375604
129.179955
167.033672
204.062462
215.459466
215.539932
188.863873
147.908926
107.221603
79.662800
57.753921
50.562620
49.465895
51.740408
55.862665
52.510500
45.238733
37.114620
26.097894
20.986795
14.036894
9.954572
9.040833
6.019473
6.290674
6.950498
6.511807
5.923510
7.333755
7.943511
7.500648
7.051826
8.013844
7.274747
8.146763
8.250475
8.648634
8.427501
8.092523
8.346438
7.796884
8.008480
9.328723
8.541942
9.680986
9.235740
10.227561
9.663701
8.668900
9.144545
9.784698
10.066628
10.758638
10.441542
9.705424
10.645986
11.450648
12.507439
12.314916
10.660887
11.622906
12.196898
11.682510
11.790991
13.937950
14.329553
15.060902
15.177727
16.682744
18.769503
20.414591
22.386909
22.517443
24.814606
22.713542
23.788810
21.326542
19.744635
19.828677
19.114614
16.428828
16.275644
13.570786
12.076497
12.114644
12.121797
12.051463
10.670424
11.194944
10.876656
9.712577
10.438561
11.367798
10.710955
##ZVALUE=235
15.566945
17.735958
39.795637
93.192458
150.862932
240.375996
304.913521
396.213531
431.780815
422.418714
352.302790
292.685628
204.519629
147.689581
98.320842
81.568956
75.973868
75.336695
88.125467
82.885623
80.046654
66.194534
54.671764
37.467480
27.178526
17.016530
12.471676
10.177493
8.234978
7.457733
8.734465
7.900596
9.669662
9.035468
9.556413
8.369684
8.306503
8.111596
9.797812
8.874536
9.530783
9.047985
9.490848
9.688735
9.543896
10.497570
10.747910
10.153651
10.500550
10.286570
10.450482
11.521578
10.950565
11.189580
12.233853
11.382699
12.396574
12.001991
12.371540
11.424422
13.329983
12.818575
13.187528
13.322830
14.787912
14.572740
15.576482
16.654730
17.699599
18.895864
20.239949
21.401644
23.718476
22.652745
23.620725
24.321675
25.842786
23.417473
22.801757
21.990538
19.493699
20.217896
18.738508
16.780496
18.056631
15.921593
13.802648
13.095737
14.678836
13.879538
13.027787
13.124943
12.275577
12.787580
12.455583
12.616515
##ZVALUE=240
2.732873
2.897978
7.101893
21.621585
60.621500
111.114979
224.023461
337.875485
491.507649
569.166541
650.369525
638.009906
572.021008
447.748899
337.407589
216.231942
151.843429
105.514526
91.282725
96.858740
107.859969
114.870667
109.491944
104.590654
78.869462
67.039728
46.388507
34.403801
21.730661
16.412735
12.198687
10.186434
9.680986
9.380579
9.741783
8.298755
8.975863
8.477569
8.982420
9.847879
9.960532
9.734631
9.416938
9.176731
9.137988
9.207726
9.463429
9.811521
10.041595
10.061860
9.287000
11.222959
11.491776
11.247993
10.782480
12.035966
11.629462
12.449622
13.760924
12.343526
12.749434
13.589859
14.354587
14.599562
13.716817
15.071630
14.632940
16.001463
16.161799
19.378662
20.982623
22.398829
22.435784
23.582578
24.231672
23.530722
25.580525
24.150610
23.475885
21.267533
21.125674
19.814968
17.437935
16.646981
16.638637
15.749931
14.852881
14.997721
14.658570
13.623834
14.726520
13.434887
13.676882
12.906790
13.589859
14.211535
##ZVALUE=245
2.384782
2.292991
2.271533
2.794862
5.984902
16.274452
51.953793
107.652545
241.383910
362.303853
554.320812
674.448609
756.098628
784.345865
732.691884
604.856014
475.116968
319.611430
218.329430
129.671693
101.552606
98.395944
109.382868
121.007562
131.136775
124.418736
109.494925
94.250441
72.587729
53.744912
40.530562
26.034713
18.277764
12.415648
10.294914
9.133816
8.591413
8.304715
8.789897
8.644462
9.176731
8.650422
8.584857
8.092523
8.741617
7.322431
8.642673
9.367466
9.882450
9.274483
9.453893
10.273457
11.396408
11.454821
11.293888
10.336637
11.306405
11.365414
12.680888
12.350678
12.379885
11.927485
11.618733
14.074445
12.400746
13.142824
14.514923
14.771819
15.747547
15.697479
16.545653
18.706918
20.472407
21.528602
21.415949
22.036433
21.028519
19.590855
19.769669
20.544529
18.722415
17.633438
15.630722
15.797615
13.940930
13.648868
13.799667
13.838410
13.168454
13.210773
12.872815
12.951493
11.756420
11.891723
11.794567
12.173653
##ZVALUE=250
1.962781
2.303720
1.977682
1.945496
2.087951
2.325773
3.507733
9.629726
40.874481
93.639493
223.367810
354.359746
507.751703
711.846948
831.229687
892.832875
865.017772
756.122470
627.802610
424.811840
285.541415
190.308690
114.083886
95.275640
102.410913
116.498470
129.415989
134.958625
132.876635
120.842457
108.248591
79.574585
60.495734
36.642551
24.009943
14.733672
11.457801
9.566545
7.546544
7.718801
8.415580
9.152889
8.176565
8.382797
7.841587
7.962584
7.496476
8.302927
7.495880
7.527471
8.181930
9.018779
9.447932
8.370876
9.396672
8.906722
9.610653
9.813905
10.295510
9.911656
10.066628
10.124445
11.246800
9.933710
11.360645
10.424852
10.446906
11.755824
12.659431
13.579726
15.148520
15.573502
17.339587
17.354488
18.532872
18.298626
16.724467
17.273426
15.947819
16.220808
15.384555
14.350414
12.246966
12.509823
12.837648
12.048483
10.960698
11.544824
12.281537
11.628866
10.890961
11.968613
11.149645
11.803508
10.716915
10.935664
##ZVALUE=255
1.794696
1.814961
1.984835
1.906753
2.281666
2.200603
2.339482
2.691746
2.802610
5.328655
29.169917
73.904991
150.616765
320.730805
489.215851
723.572969
871.352553
992.274880
1012.650728
916.951895
775.660872
599.597692
374.683738
241.879821
132.531524
97.497702
87.820888
101.578832
120.200515
134.390593
142.541528
137.601495
125.767589
102.302432
81.804991
52.815676
38.325787
21.935701
14.510751
9.682775
7.621646
7.663965
7.043481
6.976724
6.401539
7.057786
6.892681
7.260442
7.202625
6.686449
7.048845
7.300973
7.700920
8.274913
7.641912
8.608699
8.250475
8.550882
8.306503
8.708835
8.500814
9.419918
8.833408
9.255409
9.157658
9.346604
9.419918
11.016726
10.878444
11.474490
12.355447
13.278723
13.917685
14.613867
14.750957
14.876723
15.682578
13.747811
13.687611
13.772845
12.706518
11.409521
11.581779
11.466742
10.632873
10.268688
10.324717
9.948611
10.732412
9.584427
11.280775
9.307861
10.074973
9.962916
9.755492
8.950830
##ZVALUE=260
1.718998
1.802444
1.741648
1.542568
1.853704
1.660585
2.036691
2.060533
2.057552
1.973510
2.497435
3.295541
11.425614
48.333406
114.928484
272.362828
429.378748
683.377981
876.662731
1015.830636
1015.830636
1015.830636
952.088833
757.188797
499.154925
337.490439
190.477967
121.846795
82.171559
81.694722
97.384453
124.856830
140.610933
147.238970
144.527555
126.044750
107.604861
79.103708
60.996413
37.339926
25.626421
13.444424
9.573698
7.121563
6.913543
6.803870
6.260872
7.204413
6.636977
6.850958
6.868839
7.303953
7.417798
6.871819
7.274747
6.862879
7.679462
7.791519
8.123517
8.040667
8.402467
8.142591
8.077621
8.194447
8.144975
9.216666
8.922815
9.223819
9.292960
10.033846
10.681748
11.609793
12.760758
12.073517
12.410879
12.826920
12.266636
11.518598
11.839867
11.550784
10.496974
10.576844
10.584593
9.676814
8.369684
9.927750
9.202957
8.556843
9.067655
9.003878
8.725524
8.079410
8.439422
8.708835
8.322597
8.490682
##ZVALUE=265
1.735687
1.612902
1.586676
1.632571
1.543760
1.673698
1.572967
1.567602
1.667738
2.066493
2.085567
2.197623
2.382994
2.508759
6.979704
36.449432
90.251565
222.954750
384.307504
677.572489
904.042721
1015.831828
1015.831828
1015.831828
1015.831828
921.517611
669.548512
468.219519
267.118812
155.347586
95.734000
69.720745
78.790784
106.034875
127.632618
145.094991
152.985454
142.088532
128.666759
103.843808
81.893802
54.613948
37.573576
21.435618
14.121532
8.517504
7.586479
6.704926
5.969405
6.888509
6.787777
6.566644
6.805658
7.178783
6.932616
7.149577
7.350445
7.294416
7.348657
7.197857
7.302761
7.854700
7.841587
7.589459
7.808805
7.486939
8.191466
8.501410
8.862615
9.423494
9.593964
10.550618
11.013746
11.388659
11.389852
11.696815
11.213422
10.183454
9.962916
10.066628
9.361506
8.765459
9.080768
7.891655
8.347631
7.847548
8.387566
8.549690
7.820725
7.607937
7.851720
8.114576
7.472634
7.818937
8.138418
7.500648
##ZVALUE=270
1.389980
1.307726
1.474619
1.462698
1.454949
1.349449
1.689792
1.733899
1.629591
1.915693
1.698732
1.868606
1.868606
1.941919
2.120733
2.411604
3.150702
16.239882
50.963759
162.757635
315.466523
535.356402
879.325867
1015.830636
1015.830636
1015.830636
1015.830636
1015.830636
832.543969
620.799661
433.944464
223.139524
126.936436
68.484545
61.102509
79.692006
102.259517
128.222704
144.556761
150.677562
147.063732
128.548741
110.085607
79.156756
57.485700
34.064651
22.614598
14.563799
9.138584
7.030964
7.209778
6.440878
6.527901
7.069707
7.079840
6.843805
6.474853
6.983876
7.359982
7.697940
7.493496
7.306933
7.544756
7.165670
7.280707
7.697940
7.536411
7.484555
7.916689
8.552670
8.888841
9.971857
10.018945
10.262728
10.585785
10.283589
10.115504
9.746552
9.203553
9.023547
8.568764
8.145571
7.943511
7.337928
7.098913
7.322431
7.242560
6.797910
6.656647
6.863475
7.015467
7.016659
7.295609
7.006526
7.093549
6.924868
##ZVALUE=275
1.329780
1.386404
1.286864
1.423955
1.421571
1.433492
1.593828
1.280904
1.593828
1.430511
1.526475
1.949668
1.589656
1.977682
2.072453
2.050996
2.233982
2.071857
2.582669
7.436872
29.838681
91.536641
265.172720
473.993421
842.128992
1015.830636
1015.830636
1015.830636
1015.830636
1015.830636
1015.830636
786.260962
543.852448
284.572840
158.012509
72.943568
51.705837
58.223605
75.042844
104.377866
122.471452
142.486691
150.746703
142.313838
129.575729
102.102757
82.880855
56.789517
40.666461
23.648739
15.702844
10.290742
7.858872
6.944537
6.879568
7.062554
7.229447
6.804466
7.262826
7.377863
7.394552
7.051826
7.335544
7.271767
7.526875
7.417798
7.435679
7.446408
7.947683
8.772612
8.766651
9.426475
10.170937
9.931922
10.183454
10.123849
10.089874
10.051727
8.819699
8.521676
8.145571
7.907748
7.714629
7.294416
6.811619
6.907582
7.086992
7.090569
6.926656
7.042885
6.524920
6.852746
6.541610
6.588697
6.131530
6.693602
##ZVALUE=280
1.317859
1.325607
1.064539
1.125932
1.434684
1.245737
1.386404
1.260638
1.512766
1.490712
1.487732
1.516938
1.363754
1.633763
1.839995
1.701713
1.884699
1.858473
2.000928
2.317429
2.573729
3.113747
20.804405
69.996715
219.144821
396.034718
706.703663
978.379846
1015.830636
1015.830636
1015.830636
1015.830636
1015.830636
916.131735
658.890009
363.829732
211.526752
92.980862
51.406622
41.318536
52.248836
78.593493
98.832846
126.839876
138.928890
145.708919
140.047669
125.253797
106.645823
79.053640
58.824420
36.773682
25.626421
14.835000
10.441542
8.272529
7.805824
7.366538
7.358789
7.745624
7.307529
7.359982
7.689595
7.283688
7.754564
7.909536
7.597804
7.677674
7.628798
8.622408
9.236932
8.882880
9.148717
9.887815
9.432435
9.291768
8.698702
8.563995
8.379817
7.819533
8.169413
7.319450
7.601976
6.775856
7.220507
6.681681
6.326437
6.408691
6.708503
6.180406
6.348491
6.033778
5.742908
5.792975
5.957484
6.122589
##ZVALUE=285
1.207590
1.311898
1.141429
1.169443
1.259446
1.234412
1.142621
1.165867
1.367927
1.514554
1.436472
1.295805
1.238585
1.448989
1.447797
1.429915
1.639724
1.674891
1.756549
1.789927
1.999736
2.262592
2.271533
2.641678
10.829568
39.696693
130.163431
259.422064
530.463457
806.363821
1015.843749
1015.843749
1015.843749
1015.843749
1015.843749
1015.843749
864.407420
523.319840
318.230987
144.038796
73.127747
35.132766
34.020543
50.484538
71.760416
99.026561
117.210746
134.303570
142.503977
138.942003
127.095580
105.310678
84.824562
58.573484
41.894913
25.009513
17.176867
10.805726
9.147525
7.706881
7.979870
7.693768
7.458925
7.915497
7.241964
7.476807
8.215904
8.243918
8.206964
8.388758
8.806586
9.321570
9.262562
9.148717
9.139776
8.865595
8.260608
8.124709
8.040667
7.670522
7.060766
6.811619
6.515980
6.749630
6.351471
6.504655
6.365776
6.200671
6.390810
6.324649
6.043911
5.918741
5.857944
5.700588
5.501509
5.251765
##ZVALUE=290
0.989437
0.904799
1.018643
0.962615
1.220703
1.023412
1.007915
0.969768
0.991821
1.070499
1.169443
1.296997
1.345873
1.188517
1.092553
1.180768
1.421571
1.346469
1.438856
1.561642
1.556873
1.624823
1.860857
2.130866
2.389550
2.418756
3.851652
15.455484
74.134469
170.101523
325.038433
647.858977
953.444839
1015.702486
1015.702486
1015.702486
1015.702486
1015.702486
1015.702486
696.530938
445.076823
214.274526
107.732415
42.319894
27.535558
33.463836
46.522617
69.434643
88.926554
114.278793
128.768682
139.034986
135.702491
123.025775
105.861425
80.564618
59.738755
39.733648
27.235746
16.566515
12.424588
9.410977
8.265972
7.809997
8.004904
7.801652
7.759929
7.588863
7.866621
8.218884
8.653998
8.448958
8.676648
9.188652
8.561611
8.687973
8.276701
7.808805
7.205606
7.131696
6.969571
6.501675
6.510615
6.465912
6.078482
6.068945
6.272793
5.957484
5.693436
5.627871
5.876422
5.763769
5.515814
5.427599
5.419850
5.433559
##ZVALUE=295
0.871420
1.033545
0.970960
1.020432
1.027584
1.055598
0.978708
1.119971
1.087785
1.045465
1.079440
1.090765
1.167655
1.192689
1.277924
1.342893
1.207590
1.200438
1.334548
1.473427
1.559854
1.488924
1.636744
1.827478
1.951456
2.104640
2.153516
2.367496
3.040433
6.482601
26.034713
113.607645
245.462656
543.690920
828.421712
1015.816927
1015.816927
1015.816927
1015.816927
1015.816927
1015.816927
857.540965
588.299632
304.661989
160.407424
56.565404
28.795600
21.695495
28.236508
45.602918
62.873960
87.483525
106.109977
126.053691
132.630467
130.341649
120.035410
99.473596
79.085827
56.232810
41.041970
25.509000
17.876625
12.213588
9.714961
8.610487
8.062720
8.203983
8.402467
8.512735
8.578897
8.648634
8.605719
8.681417
8.906722
8.581877
8.039474
7.607937
7.325411
6.890893
6.788969
7.037520
6.615520
6.431937
6.018877
6.295443
5.724430
6.101727
6.020665
5.715489
5.733967
5.603433
5.713701
5.178452
5.207658
4.977584
##ZVALUE=300
1.030564
0.908971
0.929832
1.132488
1.070499
0.925660
0.870824
1.018643
1.041889
1.114607
1.059771
1.082420
1.127720
1.068711
1.083612
1.031756
1.292825
1.225471
1.166463
1.251698
1.173615
1.470447
1.315475
1.631975
1.691580
1.860857
1.942515
1.992583
1.963973
2.211928
2.793670
3.373623
11.691451
73.079467
177.685022
415.485501
670.487881
1015.829444
1015.829444
1015.829444
1015.829444
1015.829444
1015.829444
1015.829444
771.386027
409.539938
238.152742
103.251934
46.602488
19.726753
18.814802
27.433634
39.837956
59.084892
79.643726
102.198720
115.992427
126.476884
126.755834
112.735629
99.569559
76.550841
59.973001
40.704608
28.773546
17.176867
12.626648
9.636879
8.728504
8.671880
8.645654
8.353591
8.605719
8.393526
8.202791
8.021593
7.669926
7.639527
7.613897
7.060766
6.369948
6.633997
6.647706
6.198883
6.316900
6.190538
5.956888
5.461574
5.640984
5.795956
5.673766
5.473495
5.145669
5.236864
5.209446
4.871488
##ZVALUE=305
0.825524
0.631809
0.960827
0.799894
0.852942
0.748634
0.785589
1.019835
0.746846
0.963807
0.901818
0.821948
0.877976
0.771880
0.901818
1.011491
1.061559
1.107454
0.910759
1.188517
1.136661
1.283884
1.277924
1.162887
1.219511
1.410842
1.496673
1.718998
1.775622
1.874566
2.026558
2.234578
2.446771
2.770424
5.694628
42.700768
119.021535
320.267677
554.633737
954.759717
1015.705466
1015.705466
1015.705466
1015.705466
1015.705466
1015.705466
945.122838
579.733849
351.042747
156.356692
73.509812
26.400685
15.850663
18.365979
25.437474
40.788651
57.211518
78.398585
95.630884
113.034844
120.480657
118.766427
109.637976
92.665553
76.195598
52.722692
39.056540
25.010705
17.069578
12.185574
9.529591
8.378625
8.567572
7.963777
8.261800
7.679462
7.480979
7.061958
7.224679
6.779432
6.389618
6.369948
6.193519
5.942583
5.983710
5.784631
5.450845
5.903840
5.575418
5.549788
5.532503
5.207658
5.070567
4.991889
5.267859
4.821420
##ZVALUE=310
0.917912
0.952482
1.035929
0.842810
0.811815
1.033545
0.896454
1.003742
0.988841
0.933409
0.967979
0.952482
0.903606
1.027584
1.164675
0.912547
1.207590
0.864863
0.924468
1.203418
1.008511
1.038909
1.225471
1.259446
1.466870
1.410842
1.505613
1.583695
1.572967
1.711845
1.825690
1.873970
2.202988
2.209544
2.371669
2.682805
3.316402
17.668605
60.785413
200.237036
388.701558
760.327578
1015.830636
1015.830636
1015.830636
1015.830636
1015.830636
1015.830636
1015.830636
774.051547
502.586961
241.403580
124.018788
42.639971
18.790960
13.199449
16.039610
24.338961
34.476519
52.281618
67.278743
88.704824
101.528764
112.626553
112.867951
105.320811
92.818737
71.956515
55.984855
37.432909
27.166605
17.180443
12.916923
9.603500
8.630753
7.462502
7.302761
7.027984
6.448627
6.124973
6.204844
6.097555
6.007552
5.802512
5.840659
5.842447
5.481839
5.401969
5.755424
5.436540
5.223751
5.687475
5.052686
5.096793
4.919767
4.817843
##ZVALUE=315
1.021624
0.924468
0.884533
0.945926
0.980496
0.896454
0.934601
0.977516
1.094937
1.159906
0.994802
0.987649
1.080632
1.104474
1.098514
1.070499
1.138449
1.240969
1.123548
1.249909
1.236796
1.339912
1.293421
1.209974
1.302958
1.423955
1.358986
1.472831
1.549721
1.526475
1.767874
1.690984
1.842976
2.068877
2.113581
2.328753
2.467632
2.709627
2.842546
7.544756
30.579567
127.763748
280.570984
625.234842
969.152451
1015.954018
1015.954018
1015.954018
1015.954018
1015.954018
1015.954018
938.632488
643.841028
331.396461
173.841715
62.529445
26.137829
12.597442
12.441874
15.943646
20.777583
33.301711
45.116544
63.707829
79.672933
96.211433
104.555488
105.895996
100.742579
84.473491
70.560575
52.087903
38.058758
23.818612
16.716719
11.090636
8.840561
7.427931
6.828904
6.308556
6.342530
5.896688
5.746484
5.618930
5.601645
5.670786
5.767941
5.332828
5.354881
5.378723
5.299449
5.204678
5.309582
4.961491
5.124807
4.997849
##ZVALUE=320
0.833869
0.700951
0.897646
0.829697
0.900626
0.838637
0.929832
0.936985
0.806451
0.912547
0.941753
0.676513
0.806451
0.952482
0.824928
1.024604
0.961423
1.059771
0.985861
0.991821
0.963807
0.962615
0.949502
1.268983
1.076460
1.176000
1.287460
1.298785
1.319647
1.398921
1.655817
1.394749
1.353621
1.512766
1.794696
1.812577
1.963973
2.064705
2.421737
2.444983
2.785921
3.917813
13.277531
73.822737
184.644461
475.819707
783.049464
1015.834808
1015.834808
1015.834808
1015.834808
1015.834808
1015.834808
1015.834808
812.290907
431.225896
239.329934
97.405910
42.992830
14.977455
10.326505
10.737777
12.703538
18.618703
27.019978
42.314529
56.371689
74.452758
87.398887
98.831654
100.608468
94.298720
83.987713
65.194964
50.421953
33.979416
23.474693
14.819503
10.631680
7.317662
6.380677
5.783439
5.358458
5.447865
5.311966
4.899502
5.234480
5.069971
4.894733
5.295873
5.046725
5.057454
4.942417
4.845858
4.929900
5.037785
##ZVALUE=325
0.853539
0.901818
0.786781
0.892878
0.894666
1.017451
0.862479
0.984669
0.955462
0.767708
0.794530
0.922680
1.034737
1.106858
1.041889
0.928640
1.043677
1.062751
0.840425
1.093745
1.040697
0.993609
1.093745
1.018643
1.104474
1.102686
1.123548
1.101494
1.241565
1.197457
1.229644
1.337528
1.342893
1.407862
1.468658
1.758933
1.811981
1.804829
1.974702
2.214909
2.332926
2.406836
2.624989
2.863407
7.126927
45.152903
117.771626
302.740932
548.116565
984.581709
1015.897989
1015.897989
1015.897989
1015.897989
1015.897989
1015.897393
961.951017
556.705594
322.753787
136.688948
63.206553
19.702911
10.351539
8.799434
9.154677
12.106895
16.321540
26.687980
37.662983
55.366755
69.428682
84.747672
91.394782
92.534423
87.694526
73.500872
61.342716
43.853521
32.362938
19.715428
13.579726
8.676648
6.911755
5.842447
5.370975
5.310774
5.016923
5.071759
4.927516
4.907846
4.775524
4.571676
4.624724
4.545450
4.778504
4.659891
##ZVALUE=330
0.772476
0.859499
0.720620
0.851750
0.775456
0.560880
0.641942
0.771880
0.762939
0.739694
0.707507
0.793934
0.819564
0.805855
0.843406
0.828505
0.919700
0.818968
0.970960
0.931621
0.941753
0.978708
0.956655
0.917912
0.883937
1.014471
1.093745
1.055598
0.981688
1.076460
1.095533
1.149774
1.156926
1.290441
1.216531
1.336932
1.343489
1.307726
1.455545
1.391768
1.614690
1.912713
1.976490
2.124906
2.296567
2.705455
4.334450
14.671683
73.102713
176.838636
421.514511
692.800879
1015.841961
1015.841961
1015.841961
1015.841961
1015.841961
1015.841961
1008.504033
741.456747
391.818881
215.191841
85.188746
35.888553
11.818409
8.120537
7.661581
8.532405
11.444688
15.965700
25.639534
35.555959
52.620769
65.736771
77.868700
84.209442
86.025596
80.917478
68.475604
56.763887
40.523410
28.811693
19.556880
13.922453
9.059906
6.961823
5.505681
5.243421
4.789829
4.811883
4.679561
4.694462
4.489422
4.331470
4.324913
4.422665
##ZVALUE=335
0.673532
0.663996
0.647902
0.692606
0.721812
0.735521
0.682473
0.792742
0.719428
0.875592
0.727773
0.759959
0.830889
0.720620
0.732541
0.811815
0.864863
0.760555
0.893474
0.991821
0.895858
0.765920
0.797510
0.921488
1.019835
0.941753
0.917912
1.081824
1.051426
0.964999
0.998974
0.991821
1.181960
1.100898
1.021624
1.125932
1.074672
1.285672
1.306534
1.439452
1.332760
1.547933
1.584888
1.742840
1.849532
2.175570
2.307892
2.462864
2.903938
9.374619
35.995841
133.353472
269.452929
566.936731
890.064836
1015.830636
1015.830636
1015.830636
1015.830636
1015.830636
1015.830636
864.319801
563.319921
285.518765
145.535469
49.987435
19.484758
8.314848
7.647872
7.696748
8.361936
11.051893
15.529990
24.192929
33.805966
49.014688
60.395598
72.880983
78.395605
80.519915
75.279474
64.059496
53.623915
39.153695
29.929876
19.363761
14.003515
9.519458
6.821752
5.596876
5.042553
4.471540
4.541874
4.372597
4.337430
4.009604
##ZVALUE=340
0.620484
0.791550
0.796914
0.845790
0.945926
0.886917
0.742674
0.814795
0.730753
0.718832
0.921488
0.859499
0.965595
0.725985
0.897646
0.798702
0.711679
0.775456
0.655651
0.842810
0.915527
0.784993
1.071692
0.824928
0.967979
0.943542
0.939965
0.991821
1.017451
0.937581
0.998974
0.979900
0.969768
1.044869
1.068711
1.203418
1.108646
1.122952
1.381636
1.184940
1.405478
1.519918
1.489520
1.550913
1.601577
1.788735
1.881719
1.968741
2.015829
2.221465
2.559423
3.787875
21.006465
66.036582
199.182630
386.357903
750.473738
1012.239456
1015.895605
1015.895605
1015.895605
1015.895605
1015.895605
1015.895605
657.038689
389.884710
171.211958
79.723001
22.716522
10.512471
8.106828
7.517934
7.569790
8.137822
10.273457
14.059544
21.707416
31.025410
45.424700
56.428909
69.094896
74.187517
75.633526
71.938634
61.687827
52.086711
38.665533
29.370785
19.261837
13.619661
8.895993
6.840825
5.258918
4.909635
4.639626
4.453659
##ZVALUE=345
0.698566
0.725985
0.619888
0.679493
0.600815
0.695586
0.653863
0.560880
0.540614
0.812411
0.722408
0.854731
0.819564
0.662804
0.759959
0.565648
0.703931
0.755787
0.839829
0.799894
0.766516
0.732541
0.660419
0.841618
0.685453
0.764728
0.864863
0.775456
0.707507
0.802875
0.890493
0.765920
0.886917
0.937581
0.933409
0.999570
1.022816
1.003742
0.990629
1.006722
1.031756
1.214743
1.253486
1.150966
1.393557
1.363754
1.545548
1.590848
1.702905
1.587868
1.830459
2.126694
2.187490
2.723932
6.813407
45.499802
121.628642
306.895971
526.492000
900.878906
1015.830636
1015.830636
1015.830636
1015.830636
1015.830636
1015.830636
881.744623
506.333709
271.890759
99.528432
43.050647
13.888478
8.353591
7.421970
6.879568
6.855726
7.156730
8.905530
12.269616
20.095706
28.339624
40.625930
50.710440
61.749816
67.272782
69.244504
66.244602
59.268475
50.352812
38.936734
29.491782
18.956661
13.711452
8.749962
7.105470
5.170703
##ZVALUE=350
0.775456
0.743866
0.638962
0.664592
0.683665
0.455976
0.566840
0.628829
0.754595
0.496507
0.692606
0.661612
0.582933
0.754595
0.771880
0.737906
0.640750
0.573993
0.572801
0.815988
0.605583
0.791550
0.687838
0.791550
0.703931
0.857711
0.954866
0.835657
0.720620
0.771880
0.717640
0.887513
0.797510
1.010895
0.993609
0.874996
0.944734
0.982881
1.056790
0.983477
1.058578
0.975728
1.182556
1.158714
1.162887
1.241565
1.280904
1.287460
1.358986
1.537800
1.615882
1.883507
1.821518
2.023578
2.182722
2.426505
3.600717
22.675991
72.488785
218.119621
402.494669
761.644840
1015.830636
1015.830636
1015.830636
1015.830636
1015.830636
1015.830636
1003.184915
611.837506
361.552835
155.675411
69.011450
18.826723
9.075999
7.101893
6.577969
6.294847
5.988479
6.643534
8.249879
12.285709
17.002821
25.161505
33.372641
45.410991
52.646995
61.297417
62.907934
61.554909
55.739880
45.378804
37.396550
26.371479
19.492507
12.872815
##ZVALUE=355
0.645518
0.630617
0.723600
0.661612
0.660419
0.682473
0.719428
0.829697
0.910759
0.799894
0.782609
0.890493
0.770688
0.842810
0.886917
0.757575
0.812411
0.847578
0.774860
0.832677
0.923872
0.793934
0.783801
0.843406
0.832677
1.019835
0.724792
0.881553
0.828505
0.723600
0.905991
1.003742
0.897646
0.993609
0.846982
0.958443
0.952482
1.097918
1.069903
1.136661
1.045465
1.016855
1.093745
1.196861
1.185536
1.209974
1.301765
1.516938
1.429915
1.518726
1.512766
1.543760
1.655817
1.537800
1.754761
1.961589
1.979470
2.440810
2.684593
10.925531
38.863420
142.847896
282.079577
563.369989
858.505964
1015.895605
1015.895605
1015.895605
1015.895605
1015.895605
1015.895605
710.663795
448.728800
193.138719
88.870525
25.958419
10.576844
6.831884
6.346703
5.894899
5.508661
5.552769
6.094575
7.626414
9.820461
15.282631
20.907521
31.147599
38.418770
48.776865
54.388642
56.794882
55.852532
49.961805
44.185519
34.222603
##ZVALUE=360
0.620484
0.727773
0.637770
0.727773
0.770688
0.649691
0.710487
0.673532
0.653863
0.795722
0.694990
0.603795
0.774860
0.769496
0.710487
0.716448
0.492930
0.657439
0.789762
0.841618
0.599623
0.925660
0.852942
0.779629
0.987649
0.927448
0.831485
0.780821
0.835657
0.882745
0.820756
0.751615
0.817776
1.005530
0.965595
0.909567
0.908971
0.948906
1.069903
0.967979
0.927448
1.046658
1.009703
1.065731
1.110435
1.180768
1.227856
1.226664
1.417994
1.313686
1.384616
1.288652
1.315475
1.536608
1.661777
1.828671
1.745820
1.771450
2.177954
2.441406
2.845526
4.884601
17.315745
73.694587
168.702602
395.252705
643.243790
1000.253558
1015.830636
1015.830636
1015.830636
1015.830636
1015.830636
838.852525
551.344752
262.971520
136.235952
46.718717
17.394423
7.010698
6.099939
5.585551
5.513430
5.111694
5.068779
5.404949
6.173849
8.132458
11.271834
17.712712
24.532676
34.322739
41.353703
48.081875
50.852895
51.807761
##ZVALUE=365
0.522733
0.695586
0.586510
0.682473
0.777841
0.532866
0.637770
0.627637
0.650883
0.661612
0.708699
0.742674
0.687838
0.685453
0.672936
0.649691
0.768900
0.758767
0.731945
0.617504
0.641942
0.852942
0.713468
0.727773
0.839829
0.770688
0.825524
0.812411
0.766516
0.789762
0.881553
0.916719
0.774860
0.889897
0.783801
0.785589
0.930429
0.989437
0.852942
0.811815
0.944734
0.965595
1.116991
1.112819
1.083612
0.903606
1.188517
1.036525
1.169443
1.142621
1.287460
1.218915
1.371503
1.181960
1.376867
1.451969
1.627803
1.669526
1.846552
1.983643
1.956820
2.411604
2.526641
2.856851
8.799434
32.237768
118.601918
251.037478
561.421514
861.065984
1015.831828
1015.831828
1015.831828
1015.831828
1015.831828
1015.831828
688.611865
418.325663
176.720619
79.176426
21.266937
8.839965
5.963445
5.282760
5.305409
4.699826
4.385710
4.546642
4.551411
5.288720
6.946921
9.451509
14.575720
20.963550
28.664470
34.939647
##ZVALUE=370
0.597835
0.657439
0.590682
0.803471
0.745654
0.541806
0.658631
0.662804
0.670552
0.506639
0.580549
0.605583
0.560880
0.604987
0.659823
0.790954
0.772476
0.768900
0.738502
0.660419
0.660419
0.705719
0.625849
0.769496
0.753999
0.551939
0.637770
0.716448
0.792742
0.816584
0.677705
0.868440
0.789762
0.862479
0.825524
0.677705
0.756979
0.752807
0.755787
0.973940
0.916719
0.751615
0.813603
0.807643
0.988841
0.998974
0.944734
1.029968
0.977516
1.009703
0.991821
1.105666
1.152754
1.190901
1.061559
1.108646
1.154542
1.178980
1.207590
1.483560
1.497865
1.653433
1.915693
2.021790
2.051592
2.488494
3.911853
20.976663
69.853663
214.002728
386.079550
697.845817
974.787474
1015.830636
1015.830636
1015.830636
1015.830636
1015.830636
808.209777
462.685823
263.396502
100.330710
42.505860
11.673570
6.344914
5.060434
4.806519
4.340410
4.213452
4.076958
3.903508
4.040599
4.490614
6.116629
8.023977
12.544990
##ZVALUE=375
0.617504
0.509620
0.661612
0.711679
0.580549
0.573993
0.533462
0.782609
0.659823
0.597835
0.542998
0.544786
0.612736
0.583529
0.653863
0.572801
0.604987
0.544786
0.730753
0.591874
0.697970
0.671744
0.634789
0.683665
0.547767
0.754595
0.569820
0.816584
0.663996
0.750422
0.575781
0.714660
0.627637
0.817776
0.705719
0.598431
0.746846
0.752807
0.716448
0.746846
0.763535
0.805855
0.668764
0.929832
0.751615
0.759959
0.661612
0.824928
0.887513
0.940561
0.982881
0.960827
0.971556
0.933409
1.053810
1.109838
0.922680
1.008511
1.219511
1.331568
1.217723
1.276731
1.595616
1.397729
1.684427
1.666546
1.799464
2.103448
3.006458
8.642673
48.890710
122.211576
304.120779
532.371998
906.730890
1015.830636
1015.830636
1015.830636
1015.830636
1015.830636
929.715633
650.375485
358.625650
196.504593
69.497824
26.904941
7.684827
5.524755
4.741549
4.413724
4.063845
3.739595
3.797412
3.687739
3.615618
4.140735
##ZVALUE=380
0.579953
0.495911
0.560880
0.507832
0.531673
0.557899
0.553727
0.502467
0.538826
0.495911
0.622869
0.660419
0.673532
0.624657
0.641942
0.598431
0.543594
0.571609
0.622869
0.605583
0.653863
0.644922
0.525713
0.592470
0.718832
0.699759
0.696778
0.628829
0.654459
0.625849
0.928640
0.575781
0.564456
0.660419
0.508428
0.646710
0.681877
0.657439
0.626445
0.670552
0.643730
0.714660
0.706911
0.851750
0.819564
0.812411
0.763535
0.781417
0.677705
0.924468
0.719428
0.709891
0.867844
0.775456
0.852942
0.866652
1.036525
1.072884
0.947714
1.021624
0.925660
1.109838
1.258850
1.099706
1.272559
1.494884
1.448989
1.615882
1.729727
2.090931
2.420545
5.052686
21.655560
99.714994
217.020512
464.943647
712.278485
1015.830636
1015.830636
1015.830636
1015.830636
1015.830636
1008.313894
714.761615
477.513671
230.115652
114.650726
37.447810
14.005899
5.363822
4.548430
4.119873
3.947616
3.456473
3.413558
3.427863
##ZVALUE=385
0.436902
0.574589
0.457764
0.550747
0.571609
0.597835
0.725985
0.557899
0.456572
0.514984
0.572801
0.570416
0.426769
0.487566
0.442863
0.507832
0.580549
0.652671
0.421405
0.344515
0.459552
0.634789
0.485778
0.512600
0.522733
0.475645
0.606775
0.691414
0.762939
0.633597
0.498891
0.609756
0.575781
0.539422
0.602603
0.693798
0.624657
0.648499
0.673532
0.788569
0.718832
0.773668
0.729561
0.628829
0.755787
0.701547
0.720620
0.684857
0.661612
0.729561
0.703931
0.673532
0.763535
0.716448
0.882745
0.828505
0.813603
0.878572
0.780821
0.894666
0.905991
0.911951
1.012683
1.015663
1.080632
1.123548
1.248717
1.480579
1.661777
1.666546
1.865625
2.033710
2.324581
2.728701
12.278557
42.830706
147.294998
296.830535
595.894456
870.947838
1015.830636
1015.830636
1015.830636
1015.830636
1015.830636
979.706645
633.745790
403.165817
179.978609
82.537532
24.672747
8.306503
4.325509
4.101992
3.668666
3.547668
##ZVALUE=390
0.595450
0.539422
0.561476
0.405908
0.542998
0.632405
0.426769
0.429749
0.361800
0.504851
0.642538
0.470877
0.493526
0.518560
0.538826
0.586510
0.529885
0.527501
0.568628
0.616908
0.554919
0.534654
0.576973
0.441670
0.591874
0.707507
0.633597
0.459552
0.678897
0.635982
0.549555
0.805855
0.765920
0.753999
0.626445
0.548959
0.549555
0.650883
0.662804
0.475645
0.656843
0.544786
0.573993
0.746846
0.687838
0.658631
0.833869
0.659823
0.727773
0.662804
0.777841
0.654459
0.693798
0.775456
0.919700
0.683665
0.693798
0.851750
0.895858
0.844598
0.785589
1.021624
1.071692
0.965595
0.991821
1.023412
1.184940
1.416802
1.611710
1.699924
1.557469
1.845956
1.856685
1.867414
2.094507
2.219677
6.075501
27.376413
115.565658
244.376659
520.902872
777.434707
1015.830636
1015.830636
1015.830636
1015.830636
1015.830636
1015.830636
737.859011
499.288440
254.606605
128.339529
41.551590
14.363527
4.972816
3.933907
##ZVALUE=395
0.496507
0.569820
0.619888
0.584722
0.576973
0.585914
0.557899
0.501871
0.543594
0.483990
0.544786
0.556707
0.567436
0.485778
0.551939
0.484586
0.648499
0.614524
0.493526
0.550747
0.486970
0.639558
0.584722
0.626445
0.452995
0.574589
0.532866
0.537634
0.545979
0.543594
0.568628
0.521541
0.499487
0.452995
0.567436
0.561476
0.485778
0.502467
0.626445
0.599623
0.675917
0.695586
0.628829
0.624657
0.609756
0.626445
0.754595
0.615716
0.633597
0.589490
0.786781
0.680685
0.845790
0.834465
0.787973
0.726581
0.784993
0.951886
0.719428
0.904799
1.043677
0.838637
0.834465
0.976920
0.989437
0.949502
1.013875
1.201630
1.372695
1.459718
1.496673
1.634955
1.724958
1.769662
1.697540
1.724958
1.992583
2.249479
3.100634
20.370483
72.069764
225.619674
396.636724
697.754025
969.625711
1015.825868
1015.825868
1015.825868
1015.825868
1015.825868
939.061642
574.739575
351.745486
152.605772
72.899461
21.853447
##ZVALUE=400
0.520945
0.499487
0.546575
0.408888
0.499487
0.371933
0.437498
0.453591
0.584722
0.485778
0.417829
0.475645
0.442863
0.443459
0.645518
0.412464
0.462532
0.578761
0.428557
0.419617
0.577569
0.475645
0.464916
0.579953
0.539422
0.429749
0.538826
0.519753
0.492930
0.467896
0.463724
0.641942
0.571609
0.626445
0.671744
0.542998
0.560880
0.658631
0.596642
0.664592
0.674725
0.658631
0.564456
0.729561
0.574589
0.699759
0.699759
0.678897
0.853539
0.670552
0.756979
0.586510
0.676513
0.744462
0.813603
0.834465
0.873804
0.831485
0.992417
0.842810
0.912547
0.712872
0.937581
0.996590
0.850558
1.143813
1.113415
1.191497
1.328588
1.554489
1.443624
1.512766
1.420975
1.488924
1.511574
1.492500
1.470447
1.784563
1.845956
1.991987
2.269745
10.269880
39.347410
135.144591
271.014571
549.832582
817.520618
1015.831828
1015.831828
1015.831828
1015.831828
1015.831828
1015.831828
715.673566
469.512939
234.524608
##END
