##TITLE=FQP00651
##FORMAT=SPECTACLE-ASCII V-1.2
##DATA TYPE=ULTRAVIOLET SPECTRUM
##SECOND TYPE=ULTRAVIOLET SPECTRUM
##DATE=03/29/18
##TIME=14:05:09
##SPECTROMETER/DATA SYSTEM=SPECTACLE
##XUNITS=NM EM
##YUNITS=ENERGY
##YFACTOR=1
##FIRSTX=220
##LASTX=410
##NPOINTS=96
##3DDATA=Equidistant
##ZUNITS=NM EX
##FIRSTZ=210
##LASTZ=400
##ZPOINTS=39
##XYDATA=(Y..Y)
##ZVALUE=210
2.429485
2.760887
2.652407
2.835989
3.359914
2.595782
2.727509
3.469586
2.819896
2.724528
2.743602
2.454519
2.472997
2.311468
3.280640
2.631545
2.877712
3.188848
4.523993
3.875494
3.411770
3.327727
4.398823
3.310442
3.661513
4.149675
3.906488
4.615784
4.411936
4.408956
4.590750
5.082488
4.865527
4.737973
4.791617
5.601645
5.481839
5.244613
5.403757
5.183816
5.424619
5.270839
5.364418
5.576611
5.861521
5.621910
5.247593
5.364418
5.469918
5.343556
5.839467
5.308986
5.489588
5.070567
5.301833
5.064607
5.074739
5.705953
5.113482
5.327463
5.876422
6.186962
6.012917
5.736947
5.613565
5.785823
6.032586
5.651712
8.161664
7.242560
10.625720
9.957552
11.688471
12.580752
12.934804
14.279485
14.426708
14.503598
13.531446
13.741851
11.491776
11.063814
9.246469
8.947849
7.386804
6.778836
6.038547
5.341768
4.660487
4.849434
5.257726
5.333424
4.766583
5.878806
6.630421
6.890893
##ZVALUE=215
6.831884
6.768703
6.037951
5.339980
5.129576
4.675984
4.866719
4.758835
5.121827
5.547404
5.988479
4.261732
3.849864
3.652573
2.986789
2.910495
3.506541
3.208518
3.676414
3.542900
3.662705
3.250837
3.722906
3.552437
4.423857
4.638433
4.078746
5.171895
4.802942
5.068779
5.256534
6.367564
6.264448
6.628633
6.742477
6.495714
6.237626
6.845593
5.492568
6.177425
5.217791
6.057620
5.833507
6.133914
6.446838
6.121993
5.159974
5.934834
6.167889
5.288720
5.289912
5.516410
5.857944
5.343556
4.610419
5.518794
5.170703
5.460978
5.779862
4.933476
5.290508
5.932450
5.314946
5.909801
5.093813
5.594492
5.821586
7.669926
7.186532
8.597970
8.353591
10.014772
10.716915
11.291504
12.466908
12.579560
12.915730
12.514591
12.602806
11.233687
10.234714
10.248423
9.644628
8.005500
7.760525
6.215572
6.069541
5.187988
4.499555
5.140901
4.876852
4.572868
5.184412
5.332828
4.930496
4.986525
##ZVALUE=220
23.392439
21.796823
23.260713
22.226572
20.421743
16.043782
13.950467
11.995435
11.987686
10.434985
10.769963
11.785626
11.568666
10.489821
8.943677
8.447766
5.195737
4.725456
3.446937
4.023910
3.793836
3.864765
3.198981
3.555417
4.667640
5.160570
5.387664
5.647540
6.590486
7.040501
7.235408
7.092953
7.780790
7.540584
7.673502
8.429885
8.245707
8.314848
8.081794
8.293986
7.071495
7.320642
7.341504
7.113814
7.058978
7.271767
6.857514
6.311536
6.163716
5.904436
6.237626
7.623434
6.340742
6.339550
6.471872
5.704761
6.327629
6.745458
6.136894
6.144643
6.309748
6.955862
5.301833
6.317496
6.024837
6.263852
6.482601
7.973909
7.753968
8.364916
8.883476
9.456873
11.579990
12.234449
12.208819
13.279915
13.531446
12.268424
12.177825
13.741851
10.154843
9.966493
9.221435
7.541776
8.480549
7.007718
6.464720
6.692410
5.777478
5.188584
5.340576
5.905628
5.450845
5.322695
5.719662
5.320907
##ZVALUE=225
39.717555
42.854548
51.742792
65.704584
68.864822
60.713887
57.968497
46.067834
35.866499
27.975440
23.617744
22.234917
24.946928
25.250912
23.714900
23.995638
20.629764
17.863512
12.174845
8.604527
6.053448
4.177690
4.171729
4.650950
5.121827
5.423427
5.996823
6.666780
5.865693
8.272529
7.817745
8.198619
8.647442
9.358525
8.987784
10.960698
9.981990
9.854436
10.436773
9.416938
9.025931
9.772778
8.323789
8.647442
8.913875
7.368922
7.659793
7.842779
8.160472
6.988645
8.022785
7.848740
6.378889
7.883906
7.448792
7.190704
7.077456
7.895827
7.950664
7.711649
7.128716
7.353425
8.113980
8.098483
7.652640
7.581711
8.325577
8.351803
8.781552
9.728670
10.369420
11.624694
11.558533
12.710690
13.309717
13.164878
14.117956
13.119578
11.381507
11.641979
10.627508
11.823773
10.445714
9.808540
8.387566
8.055568
8.237958
7.982850
7.643700
8.732677
6.418824
7.038713
7.336736
7.786751
7.422566
6.003976
##ZVALUE=230
39.478540
42.811632
65.673590
103.057623
129.794478
157.710910
168.346763
163.434744
140.909553
120.602846
84.106922
60.835481
47.098994
41.778684
44.168830
46.328902
48.854947
45.901537
42.550564
36.211610
25.533438
17.979741
13.437867
7.559657
6.135702
6.281734
6.678700
5.912781
7.523894
7.923841
8.556843
8.594990
9.186864
9.960532
10.103583
11.178851
10.755658
10.842681
9.155869
10.392666
10.597706
9.657741
10.044575
9.562969
9.374619
7.980466
9.314418
9.254813
8.422732
7.096529
8.601546
7.906556
7.777810
9.417534
8.201599
9.278655
9.232759
8.909702
8.787513
8.903742
9.102821
8.799434
8.858442
8.795857
8.442998
9.706616
9.579659
9.740591
10.793805
12.346506
12.151599
13.113618
15.278459
14.357567
15.458465
15.862584
16.417503
15.047789
16.055703
14.897585
13.390779
12.699962
13.286471
12.602806
10.855794
12.305975
10.674000
10.296702
10.848641
10.313988
11.000633
10.148883
9.500980
10.573864
10.606647
10.887980
##ZVALUE=235
14.174581
17.038584
34.583807
79.338551
126.846433
194.235444
248.057842
307.034850
332.482457
322.730541
289.879441
232.944489
165.871978
119.720697
83.473921
72.626472
69.850683
74.121952
79.284906
81.498623
74.914694
61.958432
48.044920
34.724474
24.528503
15.592575
10.514855
9.120703
8.122921
7.079840
8.539557
8.042455
9.834766
8.218884
8.795857
8.768439
9.115934
9.344816
9.628534
9.811521
9.369850
10.159612
9.383559
9.194613
8.803606
10.013580
9.547472
9.803772
8.955598
8.216500
8.779764
9.224415
9.133816
8.118749
9.640455
9.193420
9.314418
9.362698
10.123849
9.694695
10.519624
9.892583
11.182427
11.335611
11.865497
11.774898
12.568831
12.447834
13.479590
13.776422
15.278459
15.546679
17.213821
18.378496
20.587444
16.760826
16.487837
19.683838
18.300414
18.127561
18.357635
16.121864
16.740561
16.716719
15.623569
15.925765
14.830828
15.144944
14.592409
14.420748
14.536977
14.432669
15.078783
12.585521
13.102889
14.018416
##ZVALUE=240
1.915693
2.665520
7.441640
19.613504
47.836900
93.704462
183.285475
268.413424
390.237570
451.532006
508.661866
505.196452
461.707711
367.054939
278.338790
180.173516
133.189559
98.602772
91.865659
95.859766
105.466843
115.945935
108.969808
96.716881
79.627633
63.224435
42.771697
29.399991
19.231439
13.312697
10.141730
7.839799
7.887483
7.963777
8.788705
8.204579
8.908510
7.852912
8.655787
8.871555
9.886622
9.722710
9.981990
10.506511
9.894967
9.659529
8.075833
8.780956
9.462833
9.566545
8.743405
9.536743
8.732677
8.958578
9.326935
8.684993
10.811687
10.083914
9.580851
9.820461
9.823442
11.490583
11.037588
11.975765
11.408925
12.704730
12.820959
13.213754
13.720989
15.634894
15.974641
18.480420
20.112991
19.972920
20.902753
19.640923
20.737648
20.552874
19.090772
21.650791
19.364953
19.613504
18.177629
19.437671
17.854571
18.006563
18.539429
18.297434
17.542839
17.815828
17.576814
15.423894
17.286539
17.452836
16.260743
17.943978
##ZVALUE=245
1.803637
2.320409
1.895428
1.782775
4.906654
13.377666
43.633580
85.626841
189.629793
286.107659
434.140563
529.688597
594.978929
621.828437
582.095981
480.005741
384.972692
258.943439
182.441473
118.594766
97.967982
95.369816
111.565590
123.420954
123.815536
117.242932
104.219913
90.287924
68.748593
48.752427
34.137964
22.001863
14.508963
10.445714
8.642673
8.875728
8.983612
8.711815
8.723736
9.142756
8.874536
10.186434
8.939505
8.699894
9.838939
9.361506
10.009408
9.727478
9.307861
9.891987
9.498000
9.130836
8.885860
8.585453
8.420944
8.903742
8.551478
8.984804
8.651614
9.698868
9.150505
9.318590
9.884834
9.556413
10.060668
10.586977
11.643767
11.755824
12.966990
13.113618
14.331937
15.839934
15.742779
18.685460
18.598437
20.033717
18.151999
18.683672
20.327568
17.655492
19.537807
19.373894
18.419623
19.012690
17.241836
18.021464
17.682910
17.516613
16.747713
15.978813
17.563701
17.249584
17.357469
16.852617
17.918944
16.225576
##ZVALUE=250
1.840591
1.761913
1.666546
1.849532
2.019405
1.773834
2.824664
8.291602
33.251643
72.758794
170.449615
276.371837
394.216776
561.749935
659.034848
717.232823
706.532598
621.380806
516.501665
358.017683
249.538422
159.627795
103.005767
88.351965
103.125572
116.443634
129.233003
133.653879
129.279494
122.090578
100.090504
77.480674
57.941675
36.799908
24.488568
14.673471
11.157990
9.346604
9.491444
9.681582
9.486675
9.030700
9.689927
10.001659
9.623766
9.438992
9.830594
9.312630
8.819699
8.767843
9.918809
9.040833
8.260608
8.441806
8.565784
8.487701
8.061528
8.411407
8.238554
8.246899
7.730722
8.817911
8.525848
9.063482
9.618998
9.472966
9.086728
10.463595
11.865497
12.947917
13.284683
13.863444
15.495420
16.211867
15.775561
17.898679
17.690659
16.516447
18.151999
17.243624
17.346740
16.642809
15.921593
16.395450
16.967654
15.842915
17.038584
16.608834
17.063618
17.706752
16.871691
16.360879
16.330481
16.116500
15.631914
16.117692
##ZVALUE=255
1.612902
1.267791
1.546741
1.729727
1.849532
1.569986
1.657605
1.768470
2.097487
6.037951
18.440485
64.389706
123.808980
256.788731
373.159647
506.621003
679.208636
770.114660
813.840032
771.159530
637.755990
492.779016
303.950906
196.796656
113.448501
87.946653
85.315704
102.304816
119.700432
138.699412
145.188570
140.676498
127.854943
103.261471
81.967711
57.908893
40.286779
24.557710
16.591549
12.802482
10.932684
10.493994
10.563731
10.054708
10.733604
10.414720
9.714961
10.194778
8.951426
9.881854
9.271502
9.297729
8.364916
7.818937
8.227825
8.158684
7.695556
7.720590
8.207560
7.617474
7.943511
8.190870
7.998943
8.124709
8.341670
8.293986
9.521842
9.483695
9.515882
10.760427
11.586547
12.235641
12.945533
13.481975
13.757944
13.983846
14.327765
14.913678
14.619827
15.375614
14.622808
14.264584
15.810728
14.608502
15.665889
15.970469
15.426874
15.345812
15.487671
16.341805
15.847683
16.456842
15.871525
15.579462
16.025901
16.044974
##ZVALUE=260
1.347661
1.348853
1.499653
1.218915
1.391768
1.435876
1.353621
1.564622
1.668930
1.868606
1.889467
2.677441
8.172989
36.195517
80.662966
188.529491
305.466652
495.627522
648.779869
824.285746
898.900032
895.173550
775.455832
633.257627
416.925550
289.593935
164.925456
107.466578
79.797506
82.557797
106.995702
124.820471
143.017769
150.209665
146.839619
131.516457
115.021467
83.018541
62.668920
41.630864
29.077530
18.276572
13.645887
12.264848
10.508895
10.362864
9.971857
10.429621
9.543896
10.026693
9.047985
8.574724
8.597970
8.506775
8.830428
7.617474
7.991791
7.779598
7.483959
7.629991
7.091761
7.164478
7.111430
7.957816
7.799864
8.184910
8.750558
8.860826
9.435415
9.637475
9.520650
11.161566
11.629462
11.858940
12.032986
12.733936
12.913942
12.871623
13.984442
13.022423
13.839602
12.887716
13.797879
13.386607
13.656616
14.452934
14.350414
13.905764
14.370680
12.869835
14.679432
14.569759
13.533831
14.240742
15.537739
15.488863
##ZVALUE=265
1.287460
1.310706
1.413822
1.208782
1.409650
1.544952
1.198649
1.512766
1.480579
1.675487
1.773834
1.616478
1.773834
2.405643
5.289912
24.842620
57.542920
145.834684
256.632566
467.135906
650.984645
813.570619
962.444544
978.375673
879.181623
748.046637
550.556779
386.890769
222.059488
137.522817
88.825822
70.960522
83.234906
112.770796
132.064819
155.123472
157.456994
150.110722
135.619640
109.053850
86.402893
60.653687
42.178631
27.085543
18.587708
13.503432
11.165738
10.696650
9.946823
9.651780
9.221435
8.355975
8.897781
8.396506
8.288622
8.064508
7.690787
7.733703
7.368922
7.931590
7.689595
7.433891
7.600784
7.289648
7.400513
7.542968
7.358789
8.580685
8.382797
9.121895
9.618998
10.091662
10.772943
10.761619
11.795759
11.353493
11.666417
11.688471
12.651682
12.461543
12.357831
12.257695
12.423992
12.788773
12.711883
12.472868
13.106465
13.733506
13.362765
13.398528
13.730526
12.943745
12.299418
13.799667
14.310479
14.087558
##ZVALUE=270
1.164675
1.235604
1.125932
1.184940
1.198649
1.221895
1.295805
1.394749
1.442432
1.269579
1.389980
1.618862
1.661777
1.719594
1.858473
1.802444
2.869964
11.710525
35.234690
104.634762
205.051899
349.023938
601.359606
790.909529
989.235640
1015.861630
1004.511714
898.659825
689.088702
515.477657
311.871767
193.385482
114.455819
67.088604
63.161850
85.018873
106.473565
134.375691
147.109628
157.010555
153.217912
133.286715
114.161968
84.050894
61.056614
38.619637
27.242899
16.928911
13.052821
10.870695
9.761453
8.817911
8.645654
8.006692
8.173585
7.773638
7.949471
7.766485
7.105470
7.060766
7.348657
6.823540
7.441640
7.600784
7.640719
7.526875
7.682443
7.698536
8.436441
8.201599
9.414554
9.594560
10.839701
11.133552
10.858774
11.340976
11.431575
12.316704
11.701584
11.894703
11.205673
11.421442
11.413693
11.563897
12.690425
12.852550
12.362599
11.678934
11.773705
12.464523
12.658834
12.275577
12.934804
12.548566
12.973547
13.192892
##ZVALUE=275
0.979900
1.251698
1.053810
1.011491
1.056790
1.116991
1.264811
1.356602
1.306534
1.418591
1.360774
1.307726
1.413822
1.307726
1.512766
1.776814
1.682639
2.042651
2.110600
5.447865
20.638704
54.279566
159.219503
296.691656
545.270443
725.114942
928.903818
1015.882492
1015.882492
1003.765464
831.373930
652.572513
417.754650
263.556838
125.865936
76.446533
51.935911
58.490634
85.874796
105.416775
131.813884
146.497488
153.472424
150.390863
130.702853
113.620758
84.053874
62.030554
39.622784
27.369857
16.130805
11.578798
9.244680
7.838607
7.234812
7.748604
8.000731
7.243752
7.350445
7.200837
7.211566
7.271767
7.427931
7.527471
7.437468
7.699728
7.688999
7.943511
8.371472
8.561611
9.860992
8.948445
10.123849
10.311604
10.833740
10.550618
10.779500
11.040568
11.211634
11.332631
10.908842
11.025667
11.421442
11.221766
11.169910
11.210442
10.923743
11.304617
11.423826
11.789799
11.509657
11.827946
11.826754
12.313724
11.487603
11.821985
##ZVALUE=280
0.997782
1.034737
0.961423
1.050830
1.103878
1.127720
1.130700
1.247525
1.088977
1.164675
1.456738
1.305938
1.383424
1.289845
1.347661
1.482964
1.387596
1.550913
1.636744
1.896620
2.047420
3.412962
11.415482
49.442649
119.060874
266.210437
417.428613
665.427446
843.871832
1011.745930
1015.861630
1015.861630
944.858789
717.074871
531.485677
308.637023
185.377598
82.812905
48.244596
43.654442
55.217743
80.000758
103.352666
129.634738
143.453479
151.448846
146.614909
125.364661
107.578635
79.848766
59.276819
36.563873
25.396943
15.526414
10.976791
8.193851
7.290840
7.015467
7.258654
7.559657
7.336736
7.154942
7.323623
7.621646
7.725954
7.226467
7.732511
8.129478
8.299947
8.551478
8.631945
9.712577
9.965897
10.224581
10.728836
10.138750
10.705590
10.395646
10.854602
10.923743
10.486841
10.773540
10.757446
11.149645
10.873675
11.069775
10.901690
11.107922
11.066794
11.192560
10.911822
10.998845
10.791421
11.029840
10.941625
11.472702
##ZVALUE=285
1.059771
1.013875
1.006722
1.076460
1.088977
1.051426
1.194477
1.002550
1.208782
1.103878
1.269579
1.079440
1.165867
1.213551
1.269579
1.390576
1.254678
1.533628
1.402497
1.620650
1.672506
1.617670
2.040863
2.464652
6.421804
21.978617
72.298646
151.955485
323.554873
490.656495
667.377710
913.408995
1015.878916
1015.878916
1015.878916
843.545794
663.406849
412.876606
258.477926
123.564601
65.106750
33.316612
34.949780
52.424669
71.614981
100.157857
119.436979
136.694908
144.517422
140.416622
127.058625
105.359554
85.314512
58.744550
41.022897
24.534464
15.897751
10.375977
8.547902
7.410645
6.972551
7.246733
7.222891
7.586479
7.762909
8.027554
8.035898
8.514524
8.592606
8.966923
9.485483
9.392500
10.325909
9.961724
10.155439
10.200739
10.259748
10.395646
10.481477
10.713935
11.037588
10.872483
10.647774
10.886788
10.522604
10.847449
11.096597
10.571480
11.141896
11.130571
11.018515
10.639429
10.731816
10.605454
11.313558
10.557771
##ZVALUE=290
0.968575
0.994802
0.859499
0.898838
0.810623
0.989437
1.064539
1.000762
0.983477
0.989437
1.009703
1.001954
1.091957
1.225471
1.188517
1.165867
1.208782
1.259446
1.302958
1.314878
1.403689
1.547933
1.706481
1.872778
1.789927
2.072453
2.614856
11.304617
33.730865
104.085803
199.520588
403.270721
587.571859
846.766829
996.593833
1015.861630
1015.861630
934.416652
768.484473
514.717698
340.746641
172.290802
90.670586
37.918687
25.253892
34.564734
47.379732
70.270896
90.478659
116.216540
130.195618
140.635967
137.884617
121.773481
105.629563
78.369975
59.207678
37.112832
25.773644
15.859604
11.087656
8.468628
8.034706
7.491708
7.506609
7.734895
8.031726
8.467436
8.709431
9.209514
9.598732
9.814501
9.878874
10.077953
10.752678
10.676980
10.353923
10.918975
10.414720
10.409951
10.484457
10.613799
10.697842
10.646582
11.117458
10.952950
10.621548
10.982752
10.578632
10.782480
10.606647
10.900497
10.848641
10.646582
10.443926
10.849833
##ZVALUE=295
0.793934
0.975728
1.015663
1.066923
0.924468
1.003742
0.917912
0.980496
0.913739
0.879765
1.140833
1.044869
1.011491
0.931621
1.057982
1.132488
1.031756
1.091957
1.160502
1.129508
1.334548
1.352429
1.382828
1.428723
1.738667
1.634955
1.887679
2.040863
2.152920
3.996491
21.181703
59.744716
132.066607
300.543904
473.941565
734.615922
912.647843
1015.862823
1015.862823
1008.278728
874.308944
626.510978
432.561636
223.238468
124.941468
48.754811
25.660992
21.088719
28.319955
46.483874
62.407851
87.891817
106.863976
127.371550
134.082437
130.341649
119.921565
97.589493
79.664588
55.183768
41.012764
24.337769
16.786456
11.745691
9.383559
8.270741
8.206964
8.529425
8.325577
8.945465
9.495616
10.125637
10.156631
10.477901
10.659695
10.575652
10.518432
10.473728
10.505915
11.151433
11.263490
10.607839
10.781884
11.113882
11.150837
10.980964
11.213422
10.858774
11.105537
10.959506
10.668635
10.375977
10.981560
11.002421
10.682940
10.825992
##ZVALUE=300
0.809431
0.726581
0.900626
0.783801
0.750422
0.868440
0.862479
0.902414
0.953674
0.942945
1.010895
0.966787
0.986457
0.981688
1.105666
1.224875
0.899434
0.958443
1.185536
0.884533
1.176000
1.204610
1.211762
1.327991
1.383424
1.417994
1.586676
1.537800
1.591444
1.754761
1.969934
2.446771
9.234548
31.296611
101.349950
193.718672
389.513969
579.849482
836.432576
983.488560
1015.861630
1015.861630
940.994024
768.205523
511.763692
327.779651
165.097713
88.247657
34.387708
18.351674
18.602610
25.765896
41.012764
57.576895
81.656575
101.331472
119.103789
125.859976
123.703480
118.419528
97.619891
79.962611
56.471825
41.470528
25.509596
18.421412
12.218952
9.975433
9.093881
9.122491
9.461641
9.652972
10.023713
10.162592
10.116696
10.429621
10.455847
10.501742
10.514855
10.468960
11.209846
10.913610
10.693669
11.428595
11.056662
10.652542
10.689497
10.435581
10.877848
10.492802
10.602474
10.861754
10.437965
10.107756
10.657907
10.409951
##ZVALUE=305
0.927448
0.797510
0.913739
0.826716
0.814795
0.870824
0.845790
0.758767
0.869632
0.915527
0.726581
0.832677
0.948906
0.914931
0.891685
0.916719
1.005530
0.997782
0.976920
1.054406
1.086593
1.222491
1.239777
1.111627
1.259446
1.320839
1.302958
1.267791
1.291633
1.471639
1.618862
1.615882
1.724958
2.114773
3.870726
20.768642
56.702495
156.622529
280.089974
501.360893
699.564815
937.999487
1015.856862
1015.856862
1012.741923
812.481642
632.261634
400.025845
247.507691
112.060905
54.758787
19.807816
13.636947
16.633868
23.535490
39.763451
55.415630
78.052878
96.040964
112.755895
121.061802
119.355917
110.571980
94.280839
76.748729
54.840446
39.434433
25.261641
17.747879
12.945533
10.957718
9.789467
9.777546
9.610653
10.445714
10.600686
10.484457
10.044575
10.889769
11.097789
10.483861
11.393428
11.185408
10.949969
11.189580
11.101961
11.055470
10.792613
11.125803
10.887980
10.865927
11.049509
10.800958
10.642409
10.674000
10.152459
##ZVALUE=310
0.591874
0.657439
0.652671
0.683665
0.565648
0.491738
0.405908
0.530481
0.320673
0.676513
0.595450
0.533462
0.546575
0.680685
0.580549
0.723600
0.820756
0.773668
0.762939
0.694990
0.707507
0.692606
0.964999
0.878572
0.765920
0.746846
0.944734
0.951886
1.114607
1.113415
1.163483
1.335740
1.364946
1.493692
1.476407
1.461506
2.087951
8.402467
28.421879
93.209743
185.247660
376.019478
567.113757
829.685926
984.233618
1015.644670
1015.644670
939.273834
770.194530
517.810583
345.188975
172.081590
91.681480
32.929778
15.501976
11.274815
14.483929
22.243857
32.559633
50.967932
67.155957
89.605451
102.320910
112.674832
113.524795
105.193853
93.527436
73.560476
57.405829
37.454963
27.644634
18.539429
14.380813
11.409521
10.357499
9.949803
10.108948
10.575652
10.128617
10.433793
10.537505
10.395646
10.643601
10.630488
10.886788
10.560751
10.714531
11.039972
11.084676
10.531545
10.509491
10.811687
10.427833
10.364652
10.398626
10.343790
##ZVALUE=315
0.855923
0.765920
0.754595
0.656843
0.838637
0.878572
0.712872
0.686646
0.665784
0.940561
0.705719
0.794530
0.933409
0.867844
0.755787
0.951886
0.833869
0.824928
0.922680
0.906587
1.051426
0.828505
0.845790
1.160502
0.998974
1.020432
1.144409
1.161695
1.174808
1.125932
1.316667
1.266599
1.378655
1.299977
1.408458
1.458526
1.953840
2.006888
1.950860
4.103780
14.693737
60.425997
130.564570
288.430452
463.284850
729.970932
901.398659
1015.861630
1015.861630
1002.202034
864.090919
621.744990
436.388850
231.477618
126.623511
46.872497
20.431876
10.404587
10.451674
14.641881
19.980669
32.434464
45.481920
64.800978
80.671906
98.833442
108.720660
107.991695
102.393627
85.587502
70.693493
53.562522
39.345622
26.346445
19.360781
13.627410
12.007952
10.880828
10.496974
10.528564
10.704994
10.635853
10.637641
10.560751
10.620952
11.226535
10.782480
10.927916
10.966659
10.990500
10.539889
10.790825
10.663867
10.723472
10.311604
10.876656
##ZVALUE=320
0.745654
0.792742
0.720620
0.857711
0.623465
0.863671
0.733733
0.821948
0.699759
0.778437
0.740886
0.820756
0.655651
0.784993
0.645518
0.760555
0.849962
0.840425
0.840425
0.837445
0.938773
0.736713
0.870824
0.940561
0.912547
0.951886
0.994802
1.024604
0.895858
1.016855
0.921488
1.163483
1.262426
1.180768
1.380444
1.214743
1.250505
1.294613
1.370907
1.502633
1.761913
2.269745
6.858706
35.306811
85.069537
213.608742
352.176428
586.493611
769.912601
983.994007
1015.862823
1015.862823
956.078768
733.385682
535.478592
298.787951
169.077516
69.230795
32.584667
12.848973
9.375811
10.038614
11.884570
18.876791
27.036667
43.963790
57.857633
76.638460
89.848638
101.616979
103.290677
98.601580
86.696744
67.848563
54.247975
36.926866
27.685761
18.634796
14.501810
11.776686
10.939837
10.956526
10.623932
10.511875
10.372996
10.874867
10.557771
10.581613
10.781884
10.643601
10.809898
10.780692
10.705590
10.527968
10.579824
10.546446
##ZVALUE=325
0.572801
0.698566
0.775456
0.842810
0.734925
0.752807
0.648499
0.752807
0.799894
0.686646
0.763535
0.844598
0.621676
0.671744
0.825524
0.728965
0.699759
0.796914
0.813603
0.708699
0.811815
0.805855
0.809431
0.951886
0.948906
0.931621
0.893474
0.901818
0.907779
1.108646
0.948906
1.108646
1.110435
0.976920
1.046658
1.310706
1.139641
1.096725
1.481771
1.249909
1.581907
1.706481
1.708865
2.121925
3.648400
21.969676
57.738423
149.561763
265.479684
487.493873
671.532750
900.781751
1009.934545
1015.861630
985.767841
785.171986
595.299602
364.681482
222.237706
99.136829
47.129989
16.406775
9.495616
8.566976
9.375811
12.651682
17.945766
27.926564
40.546656
59.300661
72.223544
87.928772
95.756650
97.771883
91.751814
77.637434
65.137744
48.766732
36.292672
24.396777
18.706918
14.225841
11.881590
11.261702
10.958910
10.693669
10.840893
10.638833
10.557771
10.524988
10.102987
10.346770
10.421872
10.263920
10.322928
10.418892
##ZVALUE=330
0.636578
0.627637
0.734925
0.780821
0.592470
0.681877
0.705719
0.568628
0.802875
0.679493
0.734925
0.716448
0.585914
0.747442
0.706911
0.818968
0.785589
0.702739
0.811815
0.690818
0.738502
0.653863
0.892878
0.848770
0.913739
0.823736
0.902414
0.880957
0.948906
0.927448
0.917912
0.929832
0.944734
0.869632
1.128912
1.025796
1.155734
1.228452
1.030564
1.308918
1.171827
1.422763
1.458526
1.360774
1.515746
1.700521
2.171993
9.565949
30.709505
99.130869
190.810561
379.997492
557.756424
801.827908
952.676535
1015.861630
1011.297703
858.957767
689.964890
452.391505
293.717980
137.903690
70.356727
25.691986
11.682510
8.545518
8.141994
9.474754
11.810660
18.269420
25.813580
39.972663
53.851604
71.941614
82.859993
90.166926
91.433525
85.200667
75.955987
59.823990
46.976805
32.186508
25.378466
18.558502
15.044808
12.410879
10.922551
10.996461
10.606647
10.287762
9.963512
10.292530
9.927750
10.050535
9.595752
9.769797
##ZVALUE=335
0.565648
0.663996
0.821948
0.672936
0.794530
0.661612
0.729561
0.716448
0.676513
0.728965
0.698566
0.660419
0.665784
0.559688
0.662804
0.765920
0.680685
0.720620
0.665784
0.769496
0.831485
0.768900
0.934601
0.750422
0.676513
0.831485
0.810623
0.987649
0.831485
0.978708
0.833869
0.827909
0.869632
0.797510
0.921488
0.878572
0.877976
0.996590
1.014471
1.134872
1.159906
1.339912
1.188517
1.332760
1.394749
1.474619
1.636744
1.607537
1.886487
4.473925
16.156435
64.402819
134.915709
296.815634
469.785929
724.939704
886.132717
1011.497974
1015.861630
922.562480
772.369504
534.710884
364.161730
190.054774
99.560618
34.826994
16.002655
8.838773
8.162856
8.591413
9.444952
12.262464
16.609430
26.745796
36.693811
52.764416
64.612627
77.686906
84.123611
86.281896
81.565976
69.738626
59.060454
45.606494
36.015511
25.055408
19.414425
14.340878
12.484789
10.591745
10.540485
10.250807
9.742975
9.951591
9.825826
9.679794
##ZVALUE=340
0.671744
0.617504
0.731945
0.588894
0.681877
0.717640
0.605583
0.561476
0.631809
0.600815
0.648499
0.703931
0.791550
0.646710
0.699759
0.636578
0.578761
0.598431
0.712872
0.759959
0.777841
0.778437
0.727773
0.814795
0.753999
0.722408
0.732541
0.931621
0.928640
0.915527
1.008511
0.771880
0.864863
0.849962
0.959635
0.954866
0.919700
0.904799
1.043677
0.990629
0.924468
0.986457
0.927448
1.327991
1.419783
1.229644
1.300573
1.224875
1.393557
1.439452
1.671910
2.607703
7.889867
37.743449
92.472434
227.070451
375.792980
607.172847
783.082843
960.372686
1014.255881
966.406465
847.397447
631.913543
448.805690
235.246420
131.325722
52.232742
21.622777
9.435415
8.583665
8.119941
8.584857
9.702444
12.246966
17.710924
24.305582
36.080480
47.531724
63.198805
72.544813
79.845786
80.924630
75.288415
68.365932
55.892467
45.612454
33.213496
26.090741
18.786788
14.653802
11.368990
10.740757
9.728670
9.662509
9.819865
##ZVALUE=345
0.623465
0.591874
0.528693
0.659823
0.673532
0.653863
0.530481
0.645518
0.680685
0.602603
0.639558
0.649691
0.633597
0.679493
0.612736
0.539422
0.672936
0.616908
0.575781
0.619888
0.729561
0.678897
0.751615
0.694990
0.727773
0.735521
0.771880
0.786781
0.741482
0.631809
0.691414
0.641942
0.767708
0.830889
0.681877
0.792742
0.753999
0.759959
0.903606
0.878572
0.899434
0.911951
0.770688
1.000762
1.097918
1.046658
1.151562
1.197457
1.253486
1.411438
1.401901
1.411438
1.516938
1.696944
4.591942
16.408563
65.970421
134.673715
286.350846
438.894629
674.485564
829.978585
962.892771
975.815654
866.553783
717.958808
488.844514
322.368741
150.338411
75.518489
25.873780
12.619495
8.226633
8.017421
8.064508
8.058548
9.117723
11.011958
16.096830
22.264719
34.021735
43.800473
56.608915
64.870715
73.283911
75.164437
72.075725
65.851808
53.657889
44.127703
32.821894
25.385618
17.729998
13.928413
10.783672
10.083914
##ZVALUE=350
0.636578
0.734925
0.604987
0.517964
0.641942
0.591874
0.679493
0.608563
0.557899
0.524521
0.542998
0.744462
0.744462
0.718832
0.690818
0.749826
0.714660
0.824928
0.911951
0.684857
0.727773
0.685453
0.701547
0.623465
0.715852
0.754595
0.693798
0.833869
0.598431
0.822544
0.601411
0.836849
0.714660
0.583529
0.644922
0.842810
0.910759
0.986457
0.908971
0.788569
0.847578
0.860691
0.870824
0.818968
0.901818
0.892878
1.008511
1.070499
1.117587
1.128912
1.033545
1.224875
1.362562
1.517534
1.308918
1.519918
2.292991
10.567904
32.785535
102.121830
191.301703
378.822684
548.047423
765.146017
897.798538
968.089700
920.660496
760.481954
586.088896
351.854563
216.073990
100.431442
46.931505
15.331507
9.135604
7.615685
7.407665
7.350445
7.619858
8.622408
10.427833
15.566945
20.459890
30.060410
38.620830
50.490499
58.493614
66.170692
69.022775
66.269636
61.052442
50.818920
42.205453
31.368732
24.423599
17.770529
##ZVALUE=355
0.565648
0.587702
0.681877
0.739694
0.613928
0.468493
0.707507
0.693798
0.658631
0.576973
0.735521
0.672936
0.662804
0.685453
0.698566
0.613928
0.644922
0.836849
0.701547
0.624657
0.733733
0.613928
0.616908
0.607967
0.721812
0.731945
0.752807
0.825524
0.650883
0.813603
0.779629
0.899434
0.803471
0.572801
0.721812
0.746846
0.871420
0.836849
0.804663
0.728965
0.938773
0.946522
0.910759
0.902414
0.862479
0.978708
0.911951
0.900626
0.961423
1.035929
1.109838
1.306534
1.196861
1.110435
1.364946
1.362562
1.609921
1.487732
1.897812
4.001856
20.750761
56.122541
149.113536
265.858769
478.499532
650.246739
842.819810
925.498009
918.776989
808.866024
597.893596
436.019897
244.960785
136.477947
53.440928
23.948550
9.566545
7.525682
6.985664
7.145405
7.065535
7.209778
8.145571
9.529591
13.304949
17.729998
25.870800
33.948421
44.559836
52.649975
59.458613
62.485933
61.534643
56.925416
48.025846
40.267706
##ZVALUE=360
0.593662
0.698566
0.683665
0.577569
0.612736
0.478625
0.766516
0.696778
0.581741
0.664592
0.531673
0.619888
0.709891
0.516772
0.660419
0.650883
0.539422
0.562668
0.611544
0.663996
0.666976
0.771880
0.661612
0.823736
0.617504
0.834465
0.822544
0.631809
0.581741
0.746846
0.691414
0.645518
0.836849
0.855923
0.704527
0.773668
0.714660
0.481606
0.860691
0.946522
0.757575
0.838637
0.733733
0.821948
1.019835
1.103878
1.105666
0.865459
0.922680
1.022816
1.128912
1.174808
0.935793
1.114607
1.034737
1.227856
1.257658
1.395941
1.557469
1.768470
1.637936
2.740622
8.141994
36.306977
85.875392
209.281445
346.121788
557.137728
723.633766
879.617929
917.677879
844.704509
711.966753
484.767556
324.963927
159.669518
84.049702
31.358600
13.233423
7.421970
6.966591
6.716847
6.777644
6.688833
6.963611
7.545948
8.420944
11.147857
14.530420
21.068454
28.191805
37.790537
45.548677
52.373409
56.175590
55.655837
##ZVALUE=365
0.682473
0.559688
0.676513
0.659823
0.492930
0.656843
0.590682
0.786781
0.696778
0.552535
0.664592
0.756979
0.541806
0.652671
0.650883
0.573993
0.674725
0.671744
0.548959
0.534654
0.621676
0.584722
0.725985
0.638962
0.603795
0.668764
0.659823
0.708699
0.624657
0.641942
0.649691
0.694990
0.622869
0.613928
0.626445
0.751615
0.759959
0.834465
0.812411
0.786781
0.831485
0.709891
0.894666
0.887513
0.908971
1.023412
0.895858
0.810623
1.006722
0.879765
0.870824
1.016855
1.071692
1.156926
1.102686
1.058578
0.975728
1.313686
1.204610
1.276731
1.394749
1.403689
1.670718
1.877546
3.661513
20.002723
53.139925
139.359832
255.800486
467.573404
626.420975
800.232887
880.981684
866.479874
764.899850
563.279390
402.023792
222.060680
119.777918
43.589473
18.582940
7.673502
6.610751
6.218553
6.153584
6.072521
5.851984
6.073713
6.465912
7.424951
8.996725
12.753606
17.084479
24.811625
31.235814
40.037632
##ZVALUE=370
0.590682
0.527501
0.640750
0.598431
0.602603
0.614524
0.689626
0.611544
0.534654
0.600815
0.611544
0.535846
0.699759
0.570416
0.542998
0.703931
0.554919
0.608563
0.597835
0.623465
0.639558
0.546575
0.546575
0.675917
0.865459
0.849962
0.820756
0.735521
0.779629
0.574589
0.552535
0.595450
0.691414
0.762939
0.735521
0.647902
0.754595
0.849962
0.875592
0.843406
0.796914
0.854731
0.813603
0.811815
0.913739
0.774860
0.824928
0.707507
0.891685
0.853539
0.762939
0.848770
0.904799
0.927448
0.820756
0.762939
0.820756
1.000762
1.080632
1.291633
1.270771
1.228452
1.287460
1.564622
1.574755
1.618862
2.283454
10.191798
33.694506
106.388927
197.970867
372.123718
542.982817
752.821565
859.712958
887.557864
817.369819
645.139813
477.095842
265.326500
149.565935
59.315562
27.643442
10.656714
6.737709
6.129742
5.800724
5.552769
5.724430
5.672574
5.669594
5.766749
6.370544
8.066893
10.543466
15.316606
##ZVALUE=375
0.500679
0.471473
0.459552
0.530481
0.452995
0.486970
0.383854
0.440478
0.601411
0.421405
0.498891
0.526905
0.366569
0.576973
0.411868
0.586510
0.510812
0.512600
0.589490
0.500679
0.536442
0.518560
0.463724
0.567436
0.497699
0.384450
0.566840
0.528693
0.483990
0.555515
0.328422
0.625849
0.695586
0.655651
0.617504
0.638962
0.641942
0.585914
0.778437
0.575781
0.566840
0.574589
0.642538
0.582933
0.614524
0.558496
0.643730
0.641942
0.697970
0.627637
0.684857
0.658631
0.793934
0.793934
0.664592
0.748634
0.860691
0.737906
0.840425
0.942945
0.778437
0.890493
0.825524
0.911951
0.947714
1.185536
1.379848
1.605749
1.698732
5.239844
17.938614
62.453747
135.393739
296.796560
455.335975
671.566725
801.767707
883.351564
857.430696
711.300969
550.655723
336.396694
213.806629
105.458498
52.612424
17.254949
8.118749
5.704761
5.342960
5.293489
5.172491
5.098581
4.851818
5.028844
5.431771
5.866885
##ZVALUE=380
0.503659
0.454783
0.668764
0.493526
0.706911
0.631809
0.670552
0.646710
0.635982
0.501871
0.536442
0.570416
0.505447
0.619888
0.614524
0.379682
0.623465
0.553727
0.596642
0.646710
0.613928
0.477433
0.531673
0.708699
0.602603
0.531673
0.618696
0.552535
0.655651
0.618696
0.547767
0.626445
0.647902
0.711679
0.716448
0.592470
0.730753
0.609756
0.723600
0.679493
0.593662
0.625849
0.583529
0.610948
0.760555
0.603795
0.749826
0.726581
0.713468
0.686646
0.642538
0.688434
0.741482
0.897646
0.870824
0.925660
1.055598
0.945926
0.849962
0.785589
1.039505
0.819564
1.027584
0.961423
1.053810
1.060963
1.143813
1.190901
1.484752
1.616478
1.754761
2.948642
9.878874
45.396686
103.922486
239.591002
381.349921
591.305494
741.032958
860.929489
859.937668
747.874975
616.200566
428.848863
287.983418
141.235590
73.794723
25.925636
11.229515
5.861521
5.158782
4.940629
4.841685
4.814863
4.796982
4.746914
##ZVALUE=385
0.565648
0.606775
0.391603
0.606775
0.612736
0.535846
0.586510
0.530481
0.509620
0.485778
0.483990
0.533462
0.668764
0.603795
0.564456
0.627637
0.391603
0.556707
0.628829
0.525713
0.527501
0.640750
0.616908
0.604987
0.536442
0.582933
0.667572
0.559688
0.582933
0.535846
0.642538
0.455976
0.685453
0.659823
0.633597
0.585914
0.635982
0.625849
0.768900
0.555515
0.720620
0.697970
0.600815
0.659823
0.581741
0.625849
0.722408
0.468493
0.575781
0.739694
0.760555
0.638962
0.731945
0.512600
0.625849
0.669956
0.685453
0.742674
0.875592
0.677705
0.835657
0.971556
0.953674
0.829697
0.763535
0.959635
1.011491
1.241565
1.298785
1.192689
1.369715
1.483560
1.551509
1.806617
4.861951
25.350451
64.823627
163.245797
287.224650
498.811603
658.006668
808.802843
851.681828
807.893872
706.672668
517.502427
367.778540
201.586485
114.691854
46.967864
19.430518
6.641746
4.920959
4.477501
4.354715
4.599690
##ZVALUE=390
0.650883
0.632405
0.603795
0.543594
0.549555
0.542998
0.587702
0.480413
0.531673
0.465512
0.564456
0.662804
0.634789
0.603795
0.666976
0.627637
0.613928
0.586510
0.670552
0.639558
0.593662
0.602603
0.684857
0.581741
0.551939
0.668764
0.689626
0.655651
0.501871
0.639558
0.731945
0.505447
0.579953
0.699759
0.683665
0.653863
0.594854
0.905991
0.810623
0.804663
0.712872
0.707507
0.624657
0.617504
0.771880
0.592470
0.800490
0.666976
0.759959
0.763535
0.756979
0.895858
0.876784
0.713468
0.846982
0.704527
0.758767
0.857711
0.871420
0.730753
0.848770
0.877976
0.911951
0.830889
1.129508
0.969768
0.942945
0.946522
0.985861
1.253486
1.358986
1.474619
1.294613
1.456738
1.437664
1.723766
2.635717
13.575554
41.079521
122.917891
227.760673
419.889688
568.009615
733.432770
821.977854
846.303701
774.871707
610.511899
462.156534
278.960466
162.011981
66.787601
30.374527
9.524822
5.198717
4.561543
##ZVALUE=395
0.507832
0.496507
0.613928
0.475645
0.576973
0.484586
0.617504
0.550747
0.606775
0.439882
0.557899
0.464916
0.616908
0.616908
0.524521
0.640750
0.490546
0.631809
0.679493
0.584722
0.500679
0.631809
0.671744
0.487566
0.591874
0.593662
0.637770
0.696778
0.575781
0.653863
0.501871
0.675917
0.533462
0.658631
0.552535
0.552535
0.478625
0.683665
0.623465
0.707507
0.621676
0.528693
0.753999
0.753999
0.807643
0.692606
0.772476
0.833869
0.672936
0.713468
0.581741
0.678897
0.755787
0.725985
0.596642
0.783801
0.706911
0.817776
0.787973
0.774860
0.679493
0.879765
0.844598
0.732541
0.890493
0.864863
0.994802
0.871420
1.012683
1.129508
1.165867
1.194477
1.256466
1.247525
1.345873
1.289845
1.403689
1.368523
1.859665
7.581711
27.068853
90.312958
168.830752
319.918990
468.794703
673.595667
793.542862
867.244601
838.518739
706.913471
552.113652
343.331695
214.444995
93.833804
44.831634
15.203953
##ZVALUE=400
0.595450
0.583529
0.516772
0.467896
0.537634
0.499487
0.417829
0.405908
0.560880
0.436902
0.535846
0.513792
0.564456
0.603795
0.693798
0.595450
0.503659
0.640750
0.556707
0.476837
0.549555
0.711679
0.500679
0.604987
0.798702
0.457764
0.665784
0.688434
0.648499
0.633597
0.269413
0.664592
0.642538
0.686646
0.610948
0.641942
0.552535
0.621676
0.532866
0.702739
0.683665
0.601411
0.673532
0.711679
0.745654
0.725985
0.656843
0.573993
0.659823
0.560880
0.630617
0.622869
0.705719
0.721812
0.679493
0.722408
0.678897
0.705719
0.875592
0.877976
0.610948
0.751615
0.661612
0.736713
0.862479
0.925660
0.933409
0.934601
1.022816
0.986457
1.155734
1.042485
1.152754
1.073480
1.049638
1.108646
1.402497
1.186728
1.226664
1.435876
1.664758
4.224777
13.941526
51.195621
109.572411
243.214965
382.637978
587.083697
716.834664
825.201869
834.167600
729.568005
600.520968
398.124456
263.264775
131.904483
##END
