##TITLE=FQP00601
##FORMAT=SPECTACLE-ASCII V-1.2
##DATA TYPE=ULTRAVIOLET SPECTRUM
##SECOND TYPE=ULTRAVIOLET SPECTRUM
##DATE=03/29/18
##TIME=14:18:50
##SPECTROMETER/DATA SYSTEM=SPECTACLE
##XUNITS=NM EM
##YUNITS=ENERGY
##YFACTOR=1
##FIRSTX=220
##LASTX=410
##NPOINTS=96
##3DDATA=Equidistant
##ZUNITS=NM EX
##FIRSTZ=210
##LASTZ=400
##ZPOINTS=39
##XYDATA=(Y..Y)
##ZVALUE=210
3.090501
3.009439
2.774596
2.697706
3.289580
2.789497
2.825856
3.175735
3.386736
3.148913
2.864599
2.868772
3.094673
3.489852
3.168583
3.580451
3.683567
3.458858
3.920794
4.773736
4.447699
4.623532
4.683733
4.342794
4.893541
5.158782
5.942583
5.670786
5.959868
6.155968
6.768703
6.252527
7.557869
6.204844
6.469488
7.560849
7.225871
7.181764
7.505417
7.198453
7.913709
7.483959
7.184744
7.215738
7.800460
7.151961
7.628798
7.554889
7.498860
7.799864
6.712675
7.336736
8.384585
7.816553
7.149577
7.791519
8.629560
7.801652
8.474588
8.778572
7.767677
7.689595
7.316470
7.514954
8.322597
9.066463
8.449554
10.034442
9.819865
11.718869
15.466809
15.585423
18.454790
19.610524
20.694733
23.401976
22.086501
21.349788
23.757815
19.835830
19.621849
17.973781
15.436411
14.085770
12.103915
10.515451
9.304881
8.862615
8.387566
7.373691
8.091927
7.585883
7.425547
7.285476
8.611679
7.735491
##ZVALUE=215
7.627606
7.435679
6.404519
5.823970
5.335808
4.530549
3.955960
5.212426
5.634427
5.931854
5.791783
4.822612
5.148649
3.980994
3.834963
3.784895
3.323555
3.674626
4.029870
4.360676
3.524423
4.304647
4.263520
4.293919
4.652739
5.200505
5.297661
5.451441
5.767941
6.445646
6.186962
6.481409
5.903840
8.213520
7.750988
8.978844
7.291436
8.343458
7.526875
8.477569
7.864833
7.525682
7.040501
7.338524
7.055998
7.589459
8.318424
8.080602
8.150935
7.274747
7.096529
7.196665
7.597804
7.777810
7.943511
7.679462
7.852912
8.123517
6.724596
7.722974
8.076429
7.304549
6.958842
7.162690
7.499456
6.438494
8.053780
9.335876
9.925961
10.803938
13.337731
13.725758
16.268492
17.421842
17.529726
19.843578
21.399856
20.793676
19.263625
19.224882
17.407537
15.451908
14.703870
12.002587
12.072921
10.670424
9.376407
9.219646
7.080436
7.667542
7.266998
7.488728
7.657409
8.249879
8.046627
7.799864
##ZVALUE=220
25.186539
27.478933
27.408600
27.254820
24.222732
19.007921
17.780662
14.512539
11.189580
11.267662
12.209415
11.106730
11.273623
12.020469
9.431839
8.334517
6.175637
5.706549
4.201531
4.367828
4.028678
4.249811
3.898740
5.265474
5.338788
5.757809
5.833507
6.244779
6.371737
7.330775
9.002686
9.262562
9.717941
9.209514
8.833408
9.075999
9.408593
9.590983
9.416938
9.711981
9.607673
10.001659
9.519458
9.801984
9.204745
8.433461
9.143949
8.784533
9.311438
8.449554
9.183884
8.741617
8.870959
8.367896
7.872581
8.570552
7.622838
8.346438
8.442998
8.121729
9.047985
8.751750
7.690787
8.167624
8.175969
8.247495
8.844733
10.084510
10.214448
10.890961
12.460947
13.742447
14.746785
18.640757
20.174980
20.082593
19.359589
20.971894
20.524859
19.692779
18.082857
17.990470
16.128421
15.252829
13.105869
12.409687
10.978580
9.883642
9.483695
9.022951
9.006858
8.462667
8.986592
8.307695
7.631779
9.044409
##ZVALUE=225
43.928623
47.662854
56.344867
72.506666
77.572465
73.941946
71.509480
55.283904
40.279627
31.618476
24.499893
22.141933
23.516417
26.080608
25.865436
24.420619
20.135641
16.972423
13.372898
10.299683
7.493496
5.033612
5.862713
5.345941
4.945993
5.671978
5.764961
6.369948
7.584691
8.783937
8.063912
9.213686
10.084510
10.150671
10.958910
10.737777
11.185408
11.693835
11.180639
10.728836
10.420680
11.520982
9.858608
9.329915
9.412766
10.172725
10.767579
9.052753
9.191632
9.813905
8.821487
9.343624
8.812547
9.063482
10.058880
9.795427
9.309649
10.658503
9.042621
8.918643
8.932948
10.557771
9.521842
9.743571
10.834932
9.920597
11.214614
9.704828
11.388659
11.320710
14.501810
14.870763
16.350746
17.942786
17.447472
18.309951
18.573999
19.321442
18.393993
16.960502
17.680526
13.721585
14.603734
13.617873
13.054609
14.125705
12.593865
12.361407
12.550950
11.407733
12.092590
11.267662
13.078451
10.627508
11.452436
9.769797
##ZVALUE=230
41.261911
44.500828
68.111420
104.277730
138.093829
168.225765
179.925561
181.424618
162.642598
135.084987
92.834830
68.201423
48.035979
45.485497
43.980479
45.742989
49.304962
44.727921
43.507814
36.803484
27.795434
20.073652
13.917685
7.797480
6.745458
5.681515
6.102920
7.111430
7.587671
9.311438
9.982586
9.651780
9.985566
11.313558
11.608601
11.149645
12.099743
10.971427
12.087822
11.881590
11.530519
10.526776
11.515617
10.764599
11.326671
10.100603
10.615587
9.548664
9.321570
10.559559
9.799600
9.730458
11.911988
11.151433
10.805726
11.296868
10.697842
10.872483
10.527968
10.987520
10.119677
11.268854
11.261702
11.598468
13.443828
13.386607
12.702942
13.291836
13.926625
14.665723
16.172528
18.621683
17.914772
19.359589
21.832585
20.296574
22.586584
19.646883
20.024776
20.375848
19.514561
19.270778
18.963814
18.297434
17.212629
17.086864
17.834902
15.884638
17.705560
15.864968
16.378760
16.598701
15.802979
16.038418
15.480518
15.913844
##ZVALUE=235
14.321804
15.367866
35.704970
80.557466
127.729774
203.271508
254.419446
327.913761
353.927612
352.884531
319.830775
259.211659
179.322958
135.337710
93.187690
73.659420
69.561601
74.058771
78.892708
80.036521
77.495575
63.140988
53.465962
34.363866
23.710728
15.555620
13.586879
8.339882
9.312630
8.193851
8.692741
8.885860
8.609891
10.038614
9.470582
11.141896
10.770559
10.130405
9.828806
10.782480
12.558699
11.437535
9.868741
10.760427
10.887980
10.521412
11.183619
10.209680
9.801984
10.981560
10.028481
10.796785
10.571480
12.309551
12.228489
12.022853
12.272596
11.437535
12.719631
12.827516
12.867451
14.134645
13.900995
14.274716
17.032623
15.543699
15.879869
16.437769
16.990900
19.944906
19.733906
22.524595
26.160479
26.202798
25.989413
25.900602
25.932789
28.674603
26.564598
26.647449
24.580956
25.439858
24.316907
24.091601
25.340915
23.835897
24.008751
25.446415
24.028420
24.189949
23.602843
23.422837
23.972988
25.177598
23.362637
24.581552
##ZVALUE=240
2.483726
3.059506
6.432533
22.695661
47.008991
105.266571
172.436833
298.097730
400.663614
484.986901
558.427572
564.489961
509.917736
432.608724
308.641791
222.562551
136.385560
108.164549
96.581578
98.411441
107.420683
112.735629
111.607909
95.899701
86.358786
61.873794
46.315789
30.422807
22.851825
14.415979
11.228919
9.698868
9.051561
9.706616
10.445714
9.479523
10.225773
10.148883
11.018515
9.806752
10.959506
10.553598
10.564923
9.970665
11.137724
12.111664
10.931492
11.838675
10.748506
10.005832
9.988546
10.550618
11.117458
11.639595
12.076497
11.617541
11.984706
10.393858
12.397766
14.430881
13.828874
14.511943
14.145970
15.019774
16.496778
16.919971
17.548800
19.173622
18.843412
20.896792
23.349524
24.806857
25.699735
27.991533
27.974844
29.307604
30.400753
30.611753
30.644536
31.981468
31.052828
30.611753
32.120943
31.753778
31.413436
30.342937
31.399727
29.143691
31.428933
30.574799
30.566454
30.249953
28.769970
28.411746
30.880570
30.825734
##ZVALUE=245
1.960993
2.246499
2.149940
2.486706
5.418658
13.616681
43.946505
93.168616
213.330984
331.398845
523.566604
658.060908
736.059546
773.583651
731.992722
597.456694
477.498770
308.823586
211.814642
130.261779
99.649429
99.910498
110.237002
122.280717
128.319860
125.895739
108.259916
91.978908
71.438551
52.063465
33.603907
24.387836
16.076565
11.444688
10.361671
9.928942
10.453463
10.180473
10.542870
10.769963
9.928942
11.360645
11.078715
10.384917
10.702610
10.329485
10.702610
10.732412
10.434985
11.197925
9.845495
10.220408
9.991527
11.000633
9.976625
12.061000
11.324883
11.839867
10.932684
11.271834
13.171434
12.302995
13.145804
13.376474
15.277863
15.019774
16.884804
17.977953
17.446876
18.884540
22.432804
24.014711
24.884939
27.265549
28.333664
29.484630
29.182434
29.633641
29.697418
29.306412
30.944943
30.039549
29.836893
29.636621
30.470490
30.494928
30.405521
31.430721
28.927922
31.042695
30.417442
29.984713
28.610826
30.519962
31.507611
30.812621
##ZVALUE=250
2.074838
2.063513
2.063513
2.151728
1.859665
2.544522
3.315806
8.687973
39.877892
87.347627
221.118927
367.384553
528.724790
749.279857
874.703526
941.373706
903.802514
788.170695
641.226768
433.246493
286.979675
185.529590
114.461780
98.884702
105.470419
116.556883
134.841800
138.898492
131.196976
120.991468
106.810927
80.831647
59.138536
36.983490
27.017593
16.173720
13.942719
11.768937
10.983944
10.533929
11.604428
10.563731
10.961890
11.894703
11.141896
11.036992
10.660887
11.586547
10.930896
11.467934
11.252761
9.982586
10.370612
10.410547
10.955930
10.591745
10.732412
11.015534
11.193752
11.849999
10.964870
11.609793
12.867451
12.565851
13.166666
13.917685
14.954805
15.201569
17.992854
18.754601
19.829869
22.278428
22.298694
23.959875
25.740862
25.529861
25.324821
27.967691
26.484728
28.918982
27.537942
28.937459
29.246807
28.169751
28.261542
29.252768
28.520823
29.560924
30.260682
29.583573
28.153658
28.508902
29.313564
29.408932
29.786825
29.696822
##ZVALUE=255
1.965761
1.810789
1.870990
1.753569
2.070665
1.987815
2.393723
2.313852
2.699494
6.192923
28.252602
71.272850
144.904852
314.241648
477.174520
701.868534
854.727030
976.491570
996.210575
899.435878
760.763884
595.319867
367.603898
231.570601
129.525661
95.167756
88.335872
104.938745
123.310685
140.673518
146.084428
144.479871
132.302642
106.705427
85.886717
59.446692
43.859482
25.763512
19.476414
14.778972
12.961626
12.469888
12.957454
12.480617
11.502504
12.615919
12.199879
11.568666
12.107491
11.846423
11.662841
11.341572
11.263490
10.268688
11.416674
11.030436
10.309815
11.305809
10.180473
10.906458
10.812879
11.436939
10.610819
11.646748
11.902452
13.050437
13.528466
14.128685
15.109777
17.160773
17.918944
19.233823
20.385981
20.983815
21.768808
23.196936
24.039745
24.302602
24.640560
24.895668
25.473833
25.118589
25.338531
27.343631
25.079846
25.936961
27.431846
26.963949
26.770830
26.711822
26.718974
28.085709
27.884841
27.324557
29.411912
29.009581
##ZVALUE=260
1.573563
1.697540
1.545548
1.701713
1.847744
1.791716
1.757741
1.752973
1.878738
2.160668
2.464652
3.342628
9.997487
39.582849
86.287856
208.908916
348.824859
569.207668
761.009455
987.395644
1015.861630
1015.861630
935.972929
760.080814
498.286486
336.902738
190.243721
120.962858
84.671974
87.048411
101.195574
129.345655
148.067474
155.747533
153.636932
136.115551
116.226673
88.450909
67.247748
43.971539
32.210946
21.664500
15.807748
14.850497
13.892651
13.458729
13.434887
12.942553
12.958646
12.024641
12.025833
12.090802
11.230707
11.266470
11.618733
10.926723
10.971427
10.678768
10.775924
10.947585
10.604858
11.161566
11.778474
11.892915
11.904836
12.557507
12.751818
13.885498
13.765693
13.969541
16.592741
16.976595
18.057823
18.799901
21.171570
19.819736
20.767450
22.012591
21.582842
23.297668
22.637844
23.020506
22.832751
23.808479
24.743676
25.245547
24.403930
25.957823
26.773810
25.698543
26.317835
25.725961
26.828647
27.143955
26.885867
27.416945
##ZVALUE=265
1.273751
1.292825
1.182556
1.637936
1.365542
1.621842
1.870990
1.496673
1.830459
1.854897
1.663566
2.391934
2.206564
2.579689
4.945993
26.762486
64.448714
162.168741
282.256007
528.059602
739.159584
935.402513
1015.868783
1015.868783
1010.065675
881.338716
645.544529
457.943678
258.794427
156.072974
98.679662
74.454546
85.159540
116.750002
137.374401
158.074498
163.785815
156.510472
140.836835
115.626454
90.935826
64.068437
45.302510
31.105876
21.736622
16.015768
15.411973
14.894605
13.344884
13.542771
13.094544
12.549758
12.494922
12.126565
12.270808
11.714697
11.153817
11.415482
11.213422
11.002421
11.295676
10.589957
11.294484
12.092590
12.464523
12.955666
13.837814
13.637543
14.267564
14.591813
15.586615
16.427636
17.694831
18.183589
18.455982
20.095706
20.131469
20.728707
20.333529
20.297766
21.582842
22.130609
21.794438
21.937490
23.072958
22.393465
23.609996
24.334788
25.411844
26.075840
25.761724
25.306940
24.789572
25.642514
24.923682
25.475621
##ZVALUE=270
1.425743
1.553893
1.424551
1.552701
1.343489
1.288652
1.677871
1.697540
1.705885
1.796484
1.618862
1.733899
1.892447
1.942515
1.997948
2.360940
2.889633
12.198687
37.229657
112.900734
224.639773
387.508869
677.452683
895.942450
1015.889645
1015.889645
1015.889645
1015.889645
810.621977
611.988902
415.406823
218.756795
129.165649
72.618723
68.266988
91.484785
115.742683
141.178966
157.646537
163.677931
159.501433
142.554641
122.451782
90.473890
68.632960
44.949651
32.863617
22.432804
16.808510
14.552474
13.435483
12.879968
12.878776
11.622906
12.541413
12.112856
11.961460
11.115670
11.589527
11.875629
11.700988
12.123585
11.664629
11.564493
11.919737
12.437701
12.559891
13.437867
14.006495
14.912486
15.874505
15.835762
16.984940
18.371940
18.753409
18.766522
19.700527
19.383430
20.001531
20.135641
20.746589
21.137595
20.903945
22.366643
21.880865
22.000670
22.588968
21.782517
22.353530
22.634864
22.388697
23.419857
23.238659
23.961663
23.759604
24.487972
##ZVALUE=275
1.272559
1.242757
1.160502
1.178980
1.361966
1.455545
1.217723
1.134872
1.362562
1.564622
1.509786
1.319647
1.460910
1.557469
1.659989
1.882911
1.882911
2.125502
2.527833
5.149841
19.761920
78.099966
163.660645
361.405611
563.716888
859.605670
1015.571952
1015.861630
1015.861630
1015.861630
1000.120640
727.131367
517.816544
278.469920
164.654851
80.906749
57.907701
67.435503
87.201595
115.310550
136.478543
157.704949
161.537528
153.601766
141.199827
113.730431
90.531707
63.394904
47.052503
29.372573
21.549463
15.999675
13.109446
12.264848
12.139678
11.827946
11.952519
11.605620
11.764765
12.053847
12.043715
12.208819
12.377501
11.995435
13.281703
12.891889
13.451576
14.259815
14.022589
15.297532
15.263557
16.732812
17.205477
18.672943
18.055439
18.453598
18.922687
19.088984
19.387603
19.911528
20.226836
20.538568
21.298528
20.951629
21.197796
21.463633
21.684766
21.670461
21.341443
22.092462
21.656752
21.149516
22.255778
22.146702
21.916628
22.962689
##ZVALUE=280
1.088977
1.218915
1.095533
1.058578
1.154542
1.112819
1.385808
1.355410
1.254678
1.488924
1.410842
1.395941
1.502633
1.606941
1.704693
1.692772
1.568794
1.723766
1.804829
2.368689
2.385974
2.822876
13.180971
44.914484
140.109658
254.109502
473.025441
690.896511
967.803597
1015.861630
1015.861630
1015.861630
1015.861630
848.350525
629.934669
358.292460
213.941932
97.775459
56.629777
47.941804
59.167743
85.222721
109.488964
136.143565
149.533749
154.604912
149.512887
132.612586
112.294555
85.450411
64.156651
42.109489
29.829741
18.519759
14.833808
12.143850
11.305809
11.210442
11.177659
11.331439
11.764765
11.850595
12.114644
11.961460
12.437701
12.673736
13.043880
13.684630
14.124513
15.004873
15.643835
15.740991
17.391443
17.377734
17.844439
18.111467
18.643737
19.141436
19.201636
19.482970
19.518733
20.228624
20.482540
20.243526
20.610690
21.106601
20.913482
21.122694
21.105409
21.471977
20.635724
20.878911
21.760464
21.477938
21.381974
21.569729
##ZVALUE=285
1.193881
1.181960
1.239777
1.103878
1.095533
1.065731
1.208782
1.182556
1.039505
1.139641
1.364946
1.247525
1.406670
1.424551
1.516938
1.462698
1.500845
1.591444
1.366735
1.935959
1.619458
1.888871
2.191663
2.592802
6.788969
22.594929
78.331828
160.551667
339.214802
537.700653
752.023458
1010.561585
1015.861630
1015.861630
1015.861630
983.197689
769.160986
483.704805
302.654505
143.163800
76.058507
38.325787
37.768483
56.617856
75.098872
104.821920
125.006437
142.218471
148.281455
145.166516
133.623481
109.836459
89.269876
63.653588
44.601560
27.183890
20.038486
13.803840
11.798739
11.042953
10.949969
11.382699
12.451410
11.502504
11.805892
12.635589
13.207793
13.677478
14.212728
14.740825
15.353560
16.037822
16.505718
17.024875
17.813444
18.076897
18.255711
19.085407
19.255877
19.556880
19.326806
20.211935
20.257831
20.327568
20.841956
20.189881
20.752549
21.077991
21.812916
20.764470
20.119548
21.199584
20.957589
20.887852
21.328926
21.287799
##ZVALUE=290
0.973940
1.041889
1.108646
0.929832
1.176000
1.223683
1.153946
1.056790
1.137853
1.176596
1.187921
1.467466
1.218915
1.290441
1.318455
1.231432
1.327991
1.483560
1.380444
1.373887
1.705885
1.680851
1.821518
1.813769
1.835823
2.177954
3.086925
9.266734
42.725801
101.552606
198.271871
419.097543
632.965565
946.990848
1015.862823
1015.862823
1015.862823
1015.862823
900.349021
610.916615
400.808454
200.807452
105.265975
43.554902
28.684735
35.862923
49.769878
73.656440
94.349980
120.775700
134.836435
144.758821
143.525600
127.841830
110.223889
82.076788
62.802434
41.637421
29.890537
19.356608
15.238523
12.393594
11.530519
11.399984
11.688471
12.826920
12.854934
14.259815
13.997555
15.151501
15.453696
16.101599
17.361641
17.842650
18.142462
18.388629
18.982887
18.577576
18.757582
19.376874
19.959807
20.024776
20.325780
20.317435
20.708442
20.513535
20.981431
20.622611
20.710826
20.660758
20.913482
20.859838
21.525621
20.465851
21.148920
20.369887
##ZVALUE=295
0.986457
1.052618
1.069903
0.802875
0.983477
0.943542
1.192689
0.980496
1.107454
1.035929
1.122952
0.968575
1.100898
1.279712
1.143813
1.110435
1.156926
1.277924
1.192689
1.400709
1.522899
1.631975
1.570582
1.405478
1.639724
1.668930
1.872778
1.953840
2.290606
4.378557
22.009611
62.363744
143.030882
330.903530
528.630018
836.384892
1015.861630
1015.861630
1015.861630
1015.861630
1006.556749
734.933615
504.799485
262.336731
144.118667
55.467486
28.699636
22.999644
29.589534
47.427416
64.971447
91.529489
110.046864
129.291415
138.410926
134.921670
123.353004
102.122426
83.352923
59.335828
44.342875
27.759671
20.786524
15.453696
12.830496
12.786984
12.194514
13.094544
13.852715
14.629960
15.451908
16.257763
17.222762
17.293692
17.715693
18.702745
19.175410
19.267797
19.815564
19.838810
19.594431
20.067692
20.687580
20.684600
20.574927
21.223426
20.866990
20.701885
20.866990
21.676421
21.365881
20.401478
20.894408
21.249652
20.293593
20.520687
##ZVALUE=300
1.021624
0.878572
0.959635
0.906587
1.127720
0.852942
0.966787
0.968575
0.938773
0.991821
1.061559
1.085997
1.073480
1.292825
1.111627
1.161695
1.085997
1.092553
1.179576
1.096725
1.294613
1.355410
1.389980
1.278520
1.472831
1.689792
1.836419
1.641512
1.874566
1.939535
2.211928
2.516508
9.858608
33.682585
109.979510
213.373899
433.214903
657.523870
957.318544
1015.862823
1015.862823
1015.862823
1015.862823
910.576582
601.828694
394.761562
196.953416
103.385448
37.671924
19.692779
19.908547
27.014613
42.996407
59.930682
84.246993
102.778673
122.458935
129.014850
128.263831
121.630430
102.676749
82.556605
60.253739
44.726729
29.574633
22.711754
16.194582
14.791489
14.425516
15.023947
15.831590
15.761852
16.685724
17.041564
17.998815
18.279552
19.403696
19.054413
19.414425
19.926429
19.872785
20.585656
21.178722
21.270514
21.074414
21.566749
21.480918
21.480918
21.492839
20.972490
21.326542
21.139979
21.274686
20.393729
20.834804
20.327568
##ZVALUE=305
1.008511
0.670552
0.837445
0.860691
0.961423
0.925660
0.870824
0.991821
1.005530
0.942945
0.974536
0.885725
1.105666
1.062751
1.027584
1.033545
1.128912
1.079440
1.026988
1.025796
1.086593
1.216531
0.999570
1.356602
1.407862
1.493692
1.341701
1.570582
1.557469
1.602769
1.811981
2.049804
1.924634
2.377629
5.114675
18.053651
71.392655
155.118704
345.918536
535.008907
830.467939
1013.765931
1015.861630
1015.861630
1015.861630
994.900465
718.863606
507.645011
271.312594
148.822665
56.230426
26.182532
14.557838
16.771555
26.919842
38.677454
60.516000
78.490973
100.426674
114.011765
123.761892
124.439001
114.671588
100.776553
79.101920
62.024593
43.417811
31.799674
22.203922
18.899441
16.302466
16.639829
17.160773
18.088818
18.470883
18.799901
19.090772
19.828677
20.303726
20.570755
20.922422
21.392703
21.372437
21.510720
21.829605
21.635890
22.410750
22.036433
22.482872
22.445917
21.895766
21.196604
21.259785
21.358728
21.326542
20.706654
##ZVALUE=310
0.875592
0.812411
0.830889
0.788569
0.938773
0.839829
0.960827
0.984669
0.906587
0.919700
0.878572
0.931621
0.845790
1.051426
1.034737
1.074672
1.018643
1.153946
1.043677
1.028776
1.071692
0.948906
1.008511
1.255870
1.089573
1.146793
1.144409
1.229644
1.480579
1.542568
1.495481
1.579523
1.636744
1.881719
1.837611
2.127886
2.798438
7.269979
38.384795
90.294480
224.890709
387.856960
670.436621
903.932452
1015.861630
1015.861630
1015.861630
1015.861630
883.341432
650.309920
369.051695
219.027996
92.467666
43.199658
16.746521
13.009906
17.178655
22.526979
36.360621
50.229430
72.329640
89.990497
109.429955
116.435885
119.364858
114.053488
97.943544
81.679821
59.652925
46.105981
32.788515
26.156902
21.041632
19.221902
18.773675
18.879771
19.449592
19.833446
20.274520
20.568967
20.843744
21.419525
21.334887
22.024512
21.994710
21.939874
22.599697
22.695661
22.662878
22.686720
22.748709
22.313595
21.424890
21.689534
21.455884
21.172762
##ZVALUE=315
0.889897
0.811815
0.771880
0.962615
0.915527
0.880957
0.797510
0.748634
0.904799
0.860691
0.853539
0.800490
0.836849
0.848770
0.882745
0.973940
0.879765
1.017451
0.947714
1.084805
1.049638
1.056790
1.034737
1.006722
1.021624
1.224875
1.367927
1.136661
1.156926
1.296997
1.410842
1.360774
1.380444
1.573563
1.667738
1.742840
1.989603
2.111793
2.377629
4.378557
16.092658
64.669847
145.059824
332.890749
531.003475
844.737887
1015.862823
1015.862823
1015.862823
1015.862823
1006.425619
737.005472
520.577431
276.511908
151.780844
56.170821
23.745894
11.609793
11.958480
16.230941
21.648407
35.468936
48.832893
68.716407
85.261464
104.102492
112.803578
115.495920
107.489824
93.079805
78.731775
59.211850
46.820641
33.531785
27.198792
22.750497
21.379590
20.004511
20.557642
21.240711
21.268725
21.325946
21.899939
22.807717
22.617579
22.848845
22.841692
22.742748
22.760630
23.039579
22.433996
22.769570
22.335649
22.146702
22.321939
21.873713
##ZVALUE=320
0.755787
0.919700
0.782609
0.826716
0.876784
0.892878
0.790954
0.718832
0.689626
0.880957
0.947714
0.984669
1.032948
0.839829
0.831485
0.948906
0.883937
0.980496
0.866652
0.991821
0.803471
0.953674
1.048446
0.907779
0.965595
0.996590
1.257658
1.093745
1.236796
1.391768
1.192689
1.229644
1.106858
1.458526
1.465678
1.405478
1.603961
1.673698
1.739860
1.843572
1.940727
2.479553
7.175803
36.043525
92.566609
240.709782
402.747989
672.492981
898.115635
1015.861630
1015.861630
1015.861630
1015.861630
865.242481
635.565519
353.803635
203.098655
86.422563
38.804412
15.060902
10.907650
11.934638
14.652610
21.895766
30.541420
47.918558
63.365698
82.799792
97.570419
108.580589
111.540556
105.947852
94.947815
76.504946
62.388778
46.279430
36.165714
28.335452
24.594665
21.848679
22.273660
21.961927
21.805763
22.652745
22.308826
22.783875
22.926927
22.779703
22.737980
22.890568
23.103952
22.676587
23.010969
22.918582
22.266507
22.582412
##ZVALUE=325
0.764728
0.700951
0.778437
0.676513
0.728965
0.635982
0.658631
0.768900
0.807643
0.830889
0.885725
0.914931
0.825524
0.941753
0.884533
0.978708
0.913739
0.979900
0.947714
0.986457
0.843406
0.937581
0.965595
0.934601
1.048446
0.872612
1.162887
0.969768
1.054406
1.073480
0.879765
1.113415
1.280904
1.113415
1.100898
1.285672
1.383424
1.400709
1.364946
1.492500
1.623631
1.718998
2.135634
2.076626
4.165769
24.166703
63.054562
166.060925
296.232700
558.499694
778.201818
1015.861630
1015.861630
1015.861630
1015.861630
931.206942
713.397861
435.665846
263.481736
117.400885
57.200789
20.275712
11.226535
11.038780
12.033582
15.683770
21.058917
33.033490
45.510530
63.778758
79.668760
95.440745
103.684664
106.725693
100.224614
88.148713
74.539781
57.762861
46.912432
34.769773
29.661655
25.142431
24.189949
22.486448
22.341609
22.355914
23.122430
23.074746
23.046732
22.665858
22.665858
22.676587
22.398829
22.586584
22.187829
22.224784
##ZVALUE=330
0.712872
0.747442
0.876784
0.779629
0.823736
0.746846
0.738502
0.806451
0.727773
0.673532
0.856519
0.879765
0.672936
0.620484
0.731945
0.743866
0.785589
0.858903
0.719428
0.819564
0.914931
0.942945
0.991821
0.839829
1.009703
0.782609
0.993609
0.879765
0.981688
0.989437
1.012683
1.094937
1.061559
1.115799
1.075864
1.053810
1.271963
1.296997
1.301765
1.462698
1.561642
1.553893
1.572967
1.638532
1.777411
2.081990
2.576709
10.676980
33.801794
110.784769
215.683579
433.324575
639.886856
928.854942
1015.861630
1015.861630
1015.861630
1002.330780
814.900994
531.259775
343.355536
160.629749
83.032846
30.784607
14.877915
10.290742
11.241436
12.776852
15.849471
22.812486
31.121969
45.354962
58.884621
78.313947
90.086460
99.714994
100.453496
95.409751
86.231828
69.093704
57.834983
43.862462
36.235452
29.577613
26.332736
23.627877
23.047924
22.770762
22.183657
22.540689
22.130609
22.345781
21.536946
22.253990
22.033453
21.997690
##ZVALUE=335
0.723600
0.713468
0.739694
0.692606
0.847578
0.826716
0.878572
0.863671
0.857711
0.865459
0.780821
0.711679
0.849962
0.803471
0.828505
0.780821
0.680685
0.841618
0.809431
0.833869
0.868440
1.025796
0.864863
0.793934
0.910759
1.018643
0.931621
0.774860
0.899434
0.953674
0.906587
1.052618
0.948906
1.083612
1.070499
1.156926
1.195669
1.248717
1.038909
1.087785
1.090765
1.361966
1.321435
1.348853
1.587868
1.392961
1.657605
1.835823
2.028942
5.064011
17.377734
67.140460
142.588615
319.959521
513.112545
807.783604
996.733904
1015.868783
1015.868783
1015.868783
915.081501
629.385710
430.731773
226.483941
118.642449
43.644905
19.778609
11.364818
11.501908
11.826754
13.271570
17.044544
21.598935
32.530427
43.142438
59.543848
72.193742
86.368918
94.187856
95.429420
92.275739
79.968572
70.918798
56.637526
47.047734
36.555529
30.165911
26.128888
23.336411
22.534728
21.663904
21.502972
21.413565
21.299720
21.750927
21.389723
##ZVALUE=340
0.712872
0.559688
0.749826
0.645518
0.657439
0.592470
0.708699
0.626445
0.655651
0.665784
0.699759
0.753999
0.873804
0.814795
0.906587
0.927448
0.664592
0.732541
0.829697
0.816584
0.846982
0.877976
0.836849
0.829697
0.602603
0.748634
1.015663
0.916719
0.775456
0.902414
1.048446
0.971556
1.003742
0.848770
0.943542
0.961423
1.142621
0.915527
0.975728
0.966787
1.186728
1.129508
1.098514
1.138449
1.224875
1.242757
1.488924
1.671910
1.909733
1.950860
1.904964
2.951622
8.258820
40.526986
100.491643
249.812603
426.353812
702.750683
904.399753
1015.862823
1015.862823
1015.862823
987.048745
734.069943
518.989563
274.388790
154.262781
63.437819
26.825666
12.319684
11.530519
11.918545
12.331605
14.436841
16.726851
22.923946
30.677915
43.699741
55.768490
72.616935
82.119703
90.922713
91.828704
86.563826
80.365539
67.493916
57.193637
44.194460
36.383867
29.283762
25.081635
22.476912
21.133423
20.479560
20.602942
20.953417
##ZVALUE=345
0.690818
0.644922
0.746846
0.527501
0.849962
0.753999
0.661612
0.663996
0.739694
0.661612
0.777841
0.591874
0.662804
0.763535
0.737906
0.675917
0.734925
0.827909
0.803471
0.808835
0.787973
0.784993
0.890493
0.911951
0.877976
0.733733
0.865459
0.812411
0.820756
0.817776
0.882745
0.856519
0.832677
0.922680
0.942945
0.941753
0.960827
0.911951
0.987649
1.112819
1.041889
1.008511
0.866652
1.108646
1.094937
1.388788
1.305938
1.491904
1.451969
1.337528
1.447797
1.461506
1.643896
1.990795
3.999472
22.912621
62.959790
169.614553
304.490924
551.353693
756.409764
998.114944
1015.861630
1015.861630
1015.861630
809.620619
601.300001
359.771848
203.773975
82.574487
38.821697
15.845895
11.678934
11.806488
12.272000
12.784600
13.850927
16.945601
21.053553
30.431747
39.228797
53.913593
64.678788
76.961517
81.424713
84.445477
82.165003
74.590445
65.951943
53.903461
44.506788
34.379959
29.232502
24.258494
21.933913
20.478964
##ZVALUE=350
0.745654
0.686646
0.703931
0.805855
0.696778
0.609756
0.420809
0.571609
0.703931
0.718832
0.561476
0.744462
0.848770
0.706911
0.690818
0.672936
0.741482
0.761747
0.865459
0.759959
0.661612
0.605583
0.638962
0.682473
0.816584
0.730753
0.789762
0.972748
0.878572
0.889897
0.898838
0.916719
0.921488
0.650883
0.942945
0.926852
0.845790
0.945926
1.061559
1.031756
0.902414
0.884533
1.105666
0.756979
0.939965
1.148582
1.044869
1.183748
1.151562
1.312494
1.273751
1.470447
1.446605
1.424551
1.607537
1.802444
2.438426
11.379719
36.539435
112.578869
218.863487
435.578823
628.218651
881.428719
1015.867591
1015.867591
1015.867591
896.088481
694.593787
418.024659
257.835984
120.643973
56.631565
19.365549
12.309551
11.213422
11.391640
11.723638
12.478828
14.046431
16.260743
21.535754
27.435422
36.715865
45.277476
58.851838
66.238642
74.741840
77.708960
76.019764
70.416927
59.924722
51.827431
40.676594
33.711791
26.925802
##ZVALUE=355
0.658631
0.660419
0.620484
0.678897
0.666976
0.732541
0.793934
0.704527
0.641942
0.710487
0.674725
0.742674
0.575781
0.652671
0.770688
0.817776
0.605583
0.685453
0.803471
0.851750
0.768900
0.771880
0.765920
0.780821
0.819564
0.772476
0.811815
0.899434
0.674725
0.734925
0.900626
0.773668
0.915527
0.767708
0.843406
0.767708
0.963807
0.860691
0.947714
0.901818
0.885725
0.985861
0.943542
0.985861
0.914931
1.051426
1.065731
1.042485
1.115799
1.013875
1.098514
1.252890
1.330972
1.339912
1.312494
1.522899
1.744628
1.817942
2.007484
5.888939
19.912720
75.586438
154.812932
326.017737
514.192581
791.227818
963.568687
1015.861630
1015.861630
936.100483
761.853456
510.945916
324.082971
145.224929
71.654916
24.322867
13.306737
10.732412
10.653734
10.988712
11.756420
12.174845
13.068914
15.426874
18.308759
24.763942
31.663775
42.392612
50.641894
60.892701
66.578984
71.410537
70.138574
64.629912
58.515668
48.846602
##ZVALUE=360
0.799894
0.629425
0.674725
0.815988
0.688434
0.620484
0.642538
0.729561
0.697970
0.695586
0.620484
0.744462
0.636578
0.760555
0.660419
0.739694
0.735521
0.865459
0.667572
0.904799
0.767708
0.722408
0.598431
0.743866
0.696778
0.687838
0.647902
0.835657
0.761747
0.949502
0.718832
0.837445
0.802875
0.818968
0.900626
0.871420
1.010895
0.948906
1.194477
1.121759
0.944734
0.958443
0.995994
0.977516
0.822544
0.991821
1.002550
1.126528
0.991821
1.123548
1.133680
1.126528
1.164675
1.316667
1.334548
1.460910
1.380444
1.412630
1.574755
1.764894
1.994967
2.969503
8.528829
38.727522
94.795823
234.517455
389.858484
635.975003
836.989880
1015.432477
1015.867591
1003.147960
852.760673
589.521527
398.073792
198.036432
105.002522
39.774776
17.869473
10.698438
10.377765
10.305643
10.339618
10.651946
11.394620
12.332797
13.384819
16.774535
20.251870
26.685596
34.046769
45.274496
52.078962
60.362816
62.942505
63.950419
##ZVALUE=365
0.705719
0.691414
0.601411
0.567436
0.788569
0.738502
0.679493
0.791550
0.799894
0.708699
0.778437
0.738502
0.771880
0.762939
0.917912
0.787973
0.724792
0.587702
0.733733
0.804663
0.600815
0.671744
0.759959
0.686646
0.867844
0.646710
0.659823
0.918508
0.733733
0.663996
0.931621
0.730753
0.762939
0.846982
0.764728
0.843406
0.901818
0.827909
0.834465
0.837445
0.810623
0.959635
0.977516
0.835657
0.894666
1.100898
0.852942
0.941753
0.983477
1.152754
1.008511
1.215935
1.154542
1.095533
1.304746
1.267791
1.364946
1.377463
1.267791
1.581907
1.674891
1.724958
1.853704
2.079606
4.020929
21.686554
57.791471
156.830549
288.995504
530.273914
719.898939
928.132534
1015.865803
1011.161804
904.724002
669.177771
478.405952
263.520479
145.372748
54.727793
24.066567
10.573864
9.375811
9.536743
9.618998
9.854436
10.075569
10.213852
10.878444
11.996627
14.068484
18.265843
22.625923
30.765533
37.717819
47.303438
##ZVALUE=370
0.667572
0.556707
0.598431
0.721812
0.650883
0.523925
0.480413
0.723600
0.643730
0.694990
0.569820
0.756979
0.642538
0.703931
0.734925
0.788569
0.676513
0.641942
0.782609
0.820756
0.758767
0.760555
0.757575
0.786781
0.711679
0.858903
0.799894
0.745654
0.826716
0.850558
0.955462
0.690818
0.824928
0.809431
0.970960
0.769496
0.723600
0.869632
0.875592
0.914931
0.771880
1.018643
0.865459
0.851750
1.027584
1.021624
0.808835
0.781417
1.002550
0.812411
0.855923
0.932813
1.007915
1.086593
1.077652
1.062751
1.101494
1.109838
1.125932
1.221895
1.180768
1.494884
1.529455
1.600981
1.669526
1.980662
2.577901
11.552572
36.591887
115.446448
220.790505
424.115658
620.135665
870.198011
999.080539
1015.885472
955.962539
756.416917
568.567514
329.653621
189.158916
77.021718
35.641789
12.934804
9.129643
8.569956
8.697510
8.940697
9.100437
9.096861
9.433627
9.928942
10.807514
12.796521
15.274882
20.235777
##ZVALUE=375
0.564456
0.688434
0.683665
0.751615
0.639558
0.710487
0.544786
0.615716
0.754595
0.528693
0.570416
0.581741
0.713468
0.520945
0.595450
0.703931
0.789762
0.649691
0.685453
0.839829
0.787973
0.469685
0.566840
0.738502
0.790954
0.763535
0.560880
0.733733
0.763535
0.703931
0.773668
0.774860
0.612736
0.700951
0.752807
0.748634
0.791550
0.627637
0.731945
0.856519
0.873804
0.704527
0.648499
0.859499
0.997782
0.801682
0.884533
0.846982
0.907779
0.841618
0.704527
0.845790
0.813603
0.850558
0.812411
0.946522
0.848770
1.136661
1.098514
1.176000
1.208782
1.116991
1.063943
1.247525
1.247525
1.533628
1.553893
1.655817
2.125502
5.728006
19.554496
71.418881
153.744817
508.370996
736.421943
760.575533
950.606465
1015.861630
992.596745
670.781732
623.755455
347.326994
235.536695
142.998695
27.681589
24.045706
9.927750
7.988811
8.059740
8.115768
8.258820
8.305907
8.584857
8.862615
9.077787
9.768605
##ZVALUE=380
0.589490
0.494719
0.640750
0.484586
0.651479
0.649691
0.620484
0.599623
0.585914
0.622869
0.642538
0.660419
0.616908
0.570416
0.578761
0.615716
0.621676
0.779629
0.534654
0.592470
0.604987
0.603795
0.595450
0.568628
0.629425
0.623465
0.529885
0.596642
0.524521
0.609756
0.790954
0.788569
0.684857
0.810623
0.772476
0.634789
0.674725
0.640750
0.758767
0.530481
0.783801
0.715852
0.739694
0.763535
0.776649
0.808835
0.725985
0.952482
0.679493
0.795722
0.800490
0.763535
0.642538
0.975728
0.854731
0.961423
0.999570
0.790954
0.998974
0.933409
1.022816
0.930429
1.119971
1.056790
1.197457
1.186728
1.365542
1.556873
1.535416
1.692772
2.138615
2.954602
13.570786
40.813684
125.948787
232.920647
443.049669
644.354820
883.432031
1001.094580
1009.286642
921.798944
728.075504
548.607707
322.521925
191.546679
81.040859
37.939548
12.858510
7.902980
7.253885
7.249713
7.476807
7.883906
7.966757
8.046627
##ZVALUE=385
0.567436
0.671744
0.581741
0.543594
0.701547
0.558496
0.392795
0.578761
0.641942
0.601411
0.535846
0.545979
0.627637
0.638962
0.533462
0.646710
0.624657
0.728965
0.718832
0.638962
0.563860
0.597835
0.708699
0.665784
0.659823
0.760555
0.681877
0.637770
0.685453
0.739694
0.713468
0.678897
0.560880
0.665784
0.693798
0.828505
0.742674
0.734925
0.658631
0.700951
0.661612
0.564456
0.726581
0.860691
0.771880
0.860691
0.791550
0.671744
0.792742
0.673532
0.762939
0.720620
0.887513
0.768900
0.898838
0.720620
0.853539
0.953674
0.826716
0.872612
0.912547
0.839829
1.042485
0.992417
0.851750
1.108646
1.085997
1.298785
1.439452
1.435876
1.713634
1.616478
1.775622
2.243519
5.326867
28.160810
73.159933
184.777975
326.489806
569.650531
759.088993
955.882668
1013.870835
973.433852
857.530832
635.333657
454.162955
248.597860
141.962767
59.492588
25.040507
8.918643
6.921887
6.887913
6.875992
7.012486
##ZVALUE=390
0.630617
0.523925
0.529885
0.541806
0.649691
0.770688
0.676513
0.579953
0.684857
0.577569
0.640750
0.828505
0.639558
0.663996
0.678897
0.602603
0.591874
0.725985
0.592470
0.601411
0.741482
0.654459
0.550747
0.779629
0.741482
0.562668
0.713468
0.739694
0.562668
0.702739
0.623465
0.595450
0.609756
0.774860
0.580549
0.902414
0.717640
0.664592
0.762939
0.811815
0.865459
0.750422
0.756979
0.746846
0.692606
0.737906
0.863671
0.750422
0.942945
0.899434
0.799894
0.843406
0.843406
0.936985
0.894666
0.836849
0.918508
0.970960
0.925660
0.834465
1.077652
0.926852
1.083612
0.908971
0.925660
1.120567
1.192689
1.120567
1.311898
1.380444
1.403689
1.558661
1.499653
1.610518
1.722574
1.834631
2.677441
14.561415
45.069456
138.869882
260.908008
485.298634
660.490990
860.332847
967.973471
1003.530025
928.204656
739.449859
566.085577
345.531702
200.248957
82.724690
39.508939
13.612509
7.432699
6.497502
##ZVALUE=395
0.529885
0.622869
0.648499
0.523925
0.558496
0.494719
0.515580
0.654459
0.567436
0.523925
0.458956
0.531673
0.580549
0.691414
0.546575
0.459552
0.516772
0.504851
0.524521
0.586510
0.653863
0.627637
0.564456
0.626445
0.570416
0.439882
0.439882
0.464916
0.528693
0.601411
0.678897
0.651479
0.696778
0.694990
0.589490
0.640750
0.741482
0.731945
0.559688
0.676513
0.670552
0.548959
0.688434
0.641942
0.753999
0.680685
0.669956
0.722408
0.592470
0.863671
0.838637
0.748634
0.812411
0.839829
0.817776
0.823736
0.510812
0.794530
0.896454
0.934601
0.834465
0.786781
0.899434
0.840425
0.804663
0.979900
0.946522
1.082420
1.207590
1.324415
1.284480
1.286864
1.425743
1.340508
1.321435
1.429915
1.529455
1.675487
2.022982
8.282661
29.187799
98.994970
187.867880
359.104872
531.767607
778.577924
926.795006
1015.823483
1000.005603
853.751898
666.781664
416.597724
262.034535
115.444660
55.995584
19.058585
##ZVALUE=400
0.414848
0.405908
0.361800
0.413656
0.309944
0.430942
0.422597
0.337958
0.343919
0.400543
0.458956
0.471473
0.391603
0.434518
0.501871
0.338554
0.401735
0.455976
0.524521
0.518560
0.473857
0.532866
0.446439
0.452995
0.380874
0.450611
0.439882
0.536442
0.419617
0.499487
0.643730
0.606775
0.629425
0.562668
0.528693
0.477433
0.515580
0.522733
0.570416
0.524521
0.449419
0.636578
0.513792
0.473857
0.574589
0.408888
0.513792
0.584722
0.535846
0.611544
0.470877
0.503659
0.549555
0.546575
0.517964
0.655651
0.640750
0.766516
0.615716
0.714660
0.763535
0.620484
0.602603
0.711679
0.797510
0.803471
0.923872
1.040697
0.998974
1.009703
1.114607
1.154542
1.189709
1.295805
1.072884
1.344681
1.197457
1.272559
1.310706
1.332760
1.760721
4.198551
14.350414
54.033995
118.799806
270.622969
434.078574
671.759844
836.447477
973.062515
993.867517
879.347920
728.647709
489.478707
323.264003
163.278580
##END
