##TITLE=FQP00652
##FORMAT=SPECTACLE-ASCII V-1.2
##DATA TYPE=ULTRAVIOLET SPECTRUM
##SECOND TYPE=ULTRAVIOLET SPECTRUM
##DATE=03/29/18
##TIME=14:08:15
##SPECTROMETER/DATA SYSTEM=SPECTACLE
##XUNITS=NM EM
##YUNITS=ENERGY
##YFACTOR=1
##FIRSTX=220
##LASTX=410
##NPOINTS=96
##3DDATA=Equidistant
##ZUNITS=NM EX
##FIRSTZ=210
##LASTZ=400
##ZPOINTS=39
##XYDATA=(Y..Y)
##ZVALUE=210
2.790689
2.447963
3.015995
2.896786
2.560616
2.916455
3.204942
2.847910
2.718568
2.779961
3.414750
2.736449
2.695918
3.002882
3.083944
2.464652
3.159642
3.741980
2.929568
3.250837
3.373623
3.600717
4.284978
4.554987
4.098415
4.715919
4.691482
4.535913
5.732775
5.284548
6.030798
5.657673
6.883740
6.786585
7.238984
6.796718
6.268620
6.638765
7.893443
6.755590
6.556511
6.570816
5.953908
5.909801
5.210638
5.980730
6.717443
6.765723
5.543828
5.982518
5.824566
6.148815
6.098747
5.694628
6.012917
5.933642
5.021691
5.040765
6.592870
5.814433
5.617738
6.513000
5.765557
5.679727
5.767941
5.951524
6.227493
6.982684
7.875562
8.517504
10.215640
11.454821
11.069775
13.144612
13.754964
14.710426
14.037490
13.882518
12.633801
13.204813
11.682510
11.209846
10.167956
9.328723
7.226467
7.039905
5.852580
5.687475
4.991889
5.810857
5.484819
5.194545
6.010532
6.070733
5.367994
6.944537
##ZVALUE=215
7.150769
8.019805
6.153584
6.260872
5.282760
4.554987
4.540682
4.494786
5.886555
5.087852
5.610585
4.586577
4.920959
3.905892
4.116893
3.782511
3.231764
3.445745
3.516674
3.686547
4.130602
3.603697
4.255772
4.849434
4.173517
5.304813
4.940629
6.713867
7.033944
7.152557
8.065701
7.512569
9.447932
9.675622
9.376407
9.410977
9.406805
8.950830
8.906722
8.788705
8.840561
8.514524
7.779598
7.486939
6.926656
7.481575
7.421970
7.043481
7.198453
7.385612
6.943941
6.477833
5.809665
7.728934
5.616546
6.726980
6.454587
6.988645
7.135868
6.704926
6.227493
6.189942
6.208420
5.864501
5.758405
6.339550
6.310940
7.157922
8.089542
8.432865
10.068417
10.911822
12.879968
13.686419
13.360977
15.644431
14.463663
13.050437
12.343526
12.884736
13.896823
10.481477
10.143518
8.294582
6.936789
7.047653
6.615520
5.932450
5.859733
5.574822
5.627871
5.971789
5.625486
5.001426
5.478859
4.767776
##ZVALUE=220
27.852654
24.900436
25.703907
24.590492
20.866990
16.389489
13.875961
11.640787
11.193752
10.583997
11.990666
11.825562
11.730790
9.912848
9.421706
7.204413
5.907416
4.824996
4.078746
3.879666
3.600717
4.470944
4.443526
4.578829
4.093647
5.587935
6.780624
7.411838
8.755922
9.340644
10.629892
12.612939
13.790727
12.742877
13.921857
13.101697
14.144778
13.977885
12.438893
11.597872
12.080669
12.238622
10.619760
11.194944
10.290742
10.190606
10.831952
9.860992
9.323955
8.666515
8.090734
8.080602
8.498430
7.963777
7.879734
7.779598
7.620454
8.252859
7.980466
6.811619
7.590652
9.139776
7.276535
6.853938
7.377863
6.067753
7.382631
7.519722
8.410811
9.269714
9.980798
11.566877
12.303591
12.948513
13.814569
13.506413
13.783574
14.248490
13.936758
12.985468
12.657642
10.619760
9.574890
9.252429
8.295774
7.178783
6.944537
6.105900
6.399751
5.955696
6.515980
5.944967
5.130768
5.774498
5.184412
5.825758
##ZVALUE=225
46.155453
47.551990
58.609843
69.375634
72.026849
67.453980
63.819885
46.944618
38.943887
30.431747
23.233891
21.652579
25.322437
25.036931
25.769472
23.595691
21.680593
16.053915
11.506677
9.177923
6.227493
5.413890
4.539490
5.073547
5.320907
6.144643
7.499456
7.497668
9.490848
10.803938
13.579726
13.205409
14.426708
16.328692
17.300844
16.135573
16.433001
16.468763
16.053915
16.385913
14.461875
14.172792
13.895631
12.896657
12.081861
12.548566
11.960864
11.720657
10.522604
9.934902
10.958910
10.263920
9.821653
8.610487
8.888841
9.611845
9.153485
9.093881
8.648634
9.800792
8.704662
7.405877
8.485913
8.067489
8.572936
9.145737
8.487701
8.848906
9.852648
10.711551
10.425448
12.002587
13.915896
13.455749
13.340712
14.019608
14.771819
12.836456
13.507605
13.364553
11.165738
10.196567
9.667873
9.903908
8.739829
9.009838
7.576942
8.543730
7.923841
7.127523
7.411838
7.944703
9.022951
7.557869
8.032918
7.785559
##ZVALUE=230
41.795969
46.509504
71.393847
110.057592
140.430927
166.198611
175.842643
170.247555
147.591829
119.784474
86.786747
63.973665
46.354532
42.399764
44.351816
47.018528
51.153898
48.128963
41.208863
36.132932
26.237965
19.744635
11.183619
8.728504
6.324649
6.050467
6.831884
8.136630
9.566545
10.197759
12.650490
12.924671
12.185574
15.135407
13.689995
16.168952
15.887618
14.766455
14.913678
15.317798
15.194416
15.246868
14.433861
14.451742
12.830496
11.749864
12.094975
11.583567
12.035966
10.798573
10.647774
11.263490
10.536909
10.954738
10.398626
11.400580
10.008812
10.229945
10.744929
10.772943
10.233521
10.801554
9.636879
10.656714
11.307597
11.087656
11.064410
11.516809
12.178421
12.580752
13.869405
15.195608
17.036796
16.952753
17.127991
15.802979
15.673637
15.588999
15.633702
14.842749
14.236569
15.086532
13.441443
13.785958
11.197925
11.505485
11.447668
10.312796
11.887550
9.855628
10.328889
11.516809
11.218786
10.448694
9.489655
9.931922
##ZVALUE=235
16.752481
19.870996
40.422678
86.259842
136.437416
211.820602
263.292789
318.424702
347.707868
333.184600
295.410752
238.525867
163.642764
121.024847
84.509850
71.891546
68.221688
74.733496
82.634687
78.876615
75.383782
63.017607
51.590800
34.398437
25.313497
16.090870
12.327433
9.333491
8.931756
8.316636
9.607673
9.375811
10.580420
10.744929
11.196733
11.257529
12.037754
12.244582
12.767911
12.329817
12.700558
13.064742
12.267828
12.856722
12.126565
13.495684
11.403561
11.874437
11.639595
12.290478
10.944605
11.732578
12.136698
11.348724
11.797547
11.710525
11.530519
11.724830
12.083650
11.889935
11.272430
12.170672
12.750626
12.140870
12.592673
13.571978
13.815761
14.507771
13.918877
14.868975
16.904473
16.874671
19.270778
19.147992
20.902753
18.863678
20.714998
20.031929
20.198822
20.781755
18.501878
18.360615
17.787814
18.028617
16.548634
16.777515
15.093684
15.579462
14.052987
14.825463
15.860796
14.868975
15.295744
14.856458
13.908744
16.557574
##ZVALUE=240
2.999902
2.784729
6.654859
24.949908
54.291487
122.265816
200.217962
331.576467
447.953939
555.981994
614.237785
591.283441
541.150570
424.024463
325.046778
235.124826
149.734616
103.504658
94.703436
97.755790
107.528567
110.164881
107.233524
97.302794
76.977611
62.753558
47.914982
29.986501
22.390485
14.407635
11.893511
10.490417
11.284947
9.852648
10.839701
13.034940
12.868643
12.739897
13.547540
13.036728
13.029575
12.878776
12.952685
13.469458
14.383793
13.319850
13.026595
14.749765
13.655424
12.537837
14.140606
13.302565
13.204813
12.790561
12.241602
12.968779
12.709498
12.372732
12.376904
13.014674
11.966825
12.543797
12.655854
13.392568
13.980865
13.889670
15.171766
14.908910
16.765594
17.167926
18.467903
21.388531
20.783544
21.699667
22.294521
22.125840
22.678971
24.155974
22.563934
22.316575
21.439791
20.039678
19.019842
19.968748
20.207763
18.964410
19.193888
19.909739
18.888712
19.076467
17.851591
17.755628
17.358661
18.823743
18.367767
19.099712
##ZVALUE=245
1.996756
1.912713
2.242923
2.582669
4.838705
19.994974
47.438741
126.942992
220.534801
336.501002
512.477756
639.555454
724.776983
723.394752
662.443638
556.772947
414.510965
299.411416
205.729604
124.930739
99.145770
100.515485
108.398795
122.952461
125.503540
123.274922
109.634995
88.407993
73.359609
56.624413
34.934878
27.157664
17.814636
13.302565
12.453794
14.104843
14.276505
14.810562
14.768839
13.843775
15.689731
14.250875
14.965534
15.268922
15.236735
13.946891
14.001727
15.217662
15.167594
14.607906
13.215542
14.568567
13.137460
13.497472
12.398958
12.939572
11.561513
11.299849
12.370944
11.968613
11.588931
11.214614
12.865663
12.278557
13.613701
12.659431
13.140440
14.608502
15.826821
16.472936
18.209815
18.499494
19.949675
20.307899
21.417737
22.351742
22.855997
22.367835
22.873878
20.105839
20.815730
21.232963
20.261407
21.383762
19.840598
21.268725
20.273924
19.348860
18.437505
19.084811
18.576980
19.726753
19.065738
18.181801
17.048717
19.709468
##ZVALUE=250
1.661777
1.662970
1.722574
1.730919
1.906753
2.441406
3.349781
10.253787
44.531822
95.015764
217.579603
352.634788
496.786833
687.254667
790.935755
846.755505
817.949772
709.604621
580.253005
387.593508
262.526870
173.052549
105.946660
92.635751
100.637674
117.704868
130.075812
136.311650
133.395791
122.602582
103.421807
81.754923
61.530471
41.325688
30.199885
22.396445
17.837882
16.804934
16.005635
16.395450
16.863942
16.860962
16.906857
17.014742
15.635490
16.523600
15.556812
15.479922
14.781952
14.943480
13.852715
13.620853
13.094544
13.287663
13.008714
12.466908
11.397600
11.549592
11.093616
11.318922
11.189580
11.587739
10.089874
11.088848
12.009740
12.139678
11.941791
12.070537
13.974905
14.419556
13.946891
16.485453
16.868711
18.247962
18.970966
19.131899
18.726587
19.291639
19.622445
19.545555
19.139647
16.724467
18.333793
18.869638
17.308593
17.479658
17.712712
17.662644
16.979575
18.086433
18.212795
17.827749
17.043948
17.698407
17.285943
18.154979
##ZVALUE=255
1.690984
1.497865
1.486540
1.591444
1.537800
1.987815
1.820922
2.137423
2.331734
4.487634
21.880865
57.784915
145.558715
251.575708
421.234965
583.955646
768.749714
856.156945
884.975791
820.334554
700.199604
500.800610
351.961851
206.284523
128.698945
87.439418
89.021921
106.329918
126.599669
144.419670
149.083734
145.400763
137.582421
109.933615
91.152787
64.487457
49.910545
32.282472
26.061535
21.622777
18.991828
19.762516
19.417405
18.743873
18.018484
17.728806
17.582774
16.837716
15.578866
15.585423
14.195442
13.632774
13.869405
13.436675
12.287498
11.596680
11.749864
12.299418
10.740757
10.614991
10.633469
10.128617
10.143518
9.609461
9.672642
10.576844
10.754466
11.178851
11.820793
12.608767
13.220906
14.390945
14.529824
15.329719
15.589595
17.394423
16.294718
17.762780
16.972423
15.876889
16.135573
17.069578
16.392469
15.722513
15.291572
16.410947
16.864538
15.907884
16.339421
17.121434
15.597939
17.694831
15.767813
16.898513
16.298890
17.465949
##ZVALUE=260
1.723766
1.532435
1.491904
1.476407
1.798868
1.814961
1.615882
1.709461
2.265573
1.951456
2.118945
2.741814
9.260774
38.927794
87.414980
205.539465
330.677032
533.954501
693.981647
884.195566
956.980586
951.368809
829.294920
676.558614
449.849963
306.378007
178.149939
113.189816
82.303882
87.291002
106.802583
133.353472
150.422454
163.122416
157.991648
145.455003
124.732852
96.239448
75.077415
50.749779
40.485859
29.268861
24.577975
21.239519
19.612908
19.369721
18.661618
18.314719
16.611814
16.734600
15.265942
15.225410
13.879538
12.382865
12.319684
12.256503
11.008978
11.086464
11.479855
10.094643
9.823442
10.796785
10.017753
9.933710
10.115504
9.691715
9.968877
9.711981
9.970665
10.842681
10.952950
12.982488
12.793541
13.191700
13.614893
14.423728
14.103651
14.209747
14.829636
13.922453
14.970899
14.199615
14.119744
15.099645
15.098453
14.392734
14.981627
15.122890
15.098453
15.407801
15.714765
15.664697
14.588833
15.332699
15.669465
16.501546
##ZVALUE=265
1.211762
1.068711
1.288652
1.316667
1.441836
1.403689
1.507998
1.536608
1.812577
1.852512
1.818538
1.785755
1.792908
2.448559
5.147457
26.211739
63.127875
157.533884
277.770758
499.469638
680.309534
858.427882
1005.749702
1015.861630
925.707817
795.673728
589.978695
423.694849
246.731639
153.134465
101.364851
83.450675
93.928576
124.974847
146.496892
166.139603
171.508789
163.675547
147.563815
123.584867
101.086497
73.121786
53.404570
37.400723
28.836727
21.229982
20.528436
18.728971
17.843843
17.417669
15.654564
15.047789
15.487671
14.137626
13.736486
12.276769
12.158751
12.002587
10.623932
10.514855
10.442734
9.894967
9.452701
10.160804
10.008812
9.907484
9.051561
10.186434
10.468960
10.599494
11.788607
12.408495
11.996627
12.728572
12.314916
12.236834
13.647676
12.867451
14.267564
13.034940
13.270974
13.411641
13.122559
13.212562
13.737679
13.632774
14.364719
14.319420
14.931560
14.111996
14.175773
14.401674
14.983416
15.279651
14.986992
14.862418
##ZVALUE=270
1.237988
0.931621
1.252890
1.279712
1.362562
1.285672
1.478791
1.473427
1.295805
1.689792
1.483560
1.718998
1.730919
1.665950
1.783967
1.997948
2.811551
12.427568
36.096573
111.928582
219.845772
375.763774
642.697811
834.707618
1015.861034
1015.861034
1015.861034
952.442884
747.344494
561.071634
385.763645
210.518837
128.648877
79.754591
78.624487
100.084543
123.003721
147.944689
163.712502
171.002746
166.774988
146.063566
125.772953
95.524788
73.494911
48.783422
36.212802
24.872422
20.720959
16.916990
15.878677
14.999509
13.815761
13.379455
12.904406
12.054443
11.677742
11.523962
11.399984
10.684729
10.248423
9.906888
10.562539
9.973645
9.935498
9.842515
9.585619
9.670854
10.027885
10.844469
10.247827
11.620522
12.009740
12.445450
12.500882
12.946725
12.404919
12.748837
13.123751
12.591481
12.658834
13.231635
12.361407
12.386441
13.198853
12.776852
13.148785
13.165474
13.641715
13.733506
13.013482
13.340712
13.274550
13.832450
13.558865
13.660789
##ZVALUE=275
1.046658
1.053810
1.107454
0.944734
1.284480
1.165867
1.136661
1.068711
1.250505
1.511574
1.484752
1.450777
1.469851
1.546741
1.815557
1.633763
1.636744
1.837611
2.114773
5.503893
21.795630
60.479641
174.542665
319.306850
570.109487
763.358474
972.402692
1015.789509
1015.789509
1015.789509
937.929749
694.636703
490.759015
268.296599
161.148906
81.629753
62.937737
70.222616
89.343786
119.460821
139.517784
158.732533
163.589716
158.455968
142.657757
114.225745
93.654990
65.666437
47.871470
31.553507
23.077726
15.779734
14.069676
11.532903
11.731982
11.682510
10.936856
11.004806
10.610819
10.130405
10.505915
9.827614
10.290742
9.882450
10.574460
10.033846
10.455847
10.169744
10.004640
10.539889
10.975599
11.987686
12.023449
12.790561
12.242794
12.393594
12.500882
12.642741
12.815595
13.209581
12.687445
12.558699
12.846589
12.996793
13.176799
12.963414
12.477636
12.952685
13.271570
12.670755
12.734532
12.403727
12.420416
12.354851
12.033582
12.409687
##ZVALUE=280
1.149774
1.055598
0.996590
1.287460
0.958443
1.272559
1.201630
1.330972
1.424551
1.256466
1.078844
1.194477
1.325607
1.565814
1.260638
1.361966
1.663566
1.700521
1.618862
1.876950
1.836419
3.277659
11.639595
54.156780
125.698447
280.403495
440.764427
692.462921
884.521008
1015.861630
1015.861630
1015.861630
1000.855565
773.355961
570.909977
333.460569
199.310780
91.156960
55.204630
47.514439
59.461594
85.611939
106.235743
133.414865
148.170590
154.772997
148.840547
129.709840
110.389590
85.013509
64.522624
41.022897
28.856993
18.565655
14.178753
10.959506
10.540485
10.092854
9.712577
10.410547
10.272861
9.861588
9.820461
11.042953
10.917783
10.391474
11.124611
10.809898
10.849833
11.964440
12.058616
11.977553
12.114644
12.558699
12.347698
13.333559
12.582541
13.064742
12.823939
12.372732
12.736917
12.374520
12.470484
12.231469
12.549758
11.978745
12.861490
12.589693
12.346506
12.329817
12.374520
12.153983
12.260675
12.216568
12.155771
12.276769
##ZVALUE=285
0.991821
1.101494
1.075864
1.018643
0.980496
1.061559
1.219511
1.227856
1.236796
1.179576
1.240969
1.226664
1.375675
1.141429
1.350641
1.424551
1.362562
1.437664
1.593828
1.690984
1.843572
1.864433
2.203584
2.352595
7.197857
23.316741
78.381896
160.299540
340.907574
513.950586
714.960694
968.881845
1015.879512
1015.879512
1015.879512
894.810557
701.083541
438.961983
274.246931
131.293535
67.996979
37.182570
37.678480
55.270791
75.154901
102.974772
121.905804
139.932632
147.693753
142.445564
132.139921
109.759569
87.635517
60.720444
43.970942
27.144551
19.181967
12.971759
10.680556
10.282993
10.874867
10.636449
10.837913
10.713935
11.030436
11.039972
11.785626
11.165738
12.064576
11.953712
12.969971
13.060570
12.744665
12.723804
13.473630
12.955666
13.778806
13.040900
12.968779
12.944937
12.924671
12.994409
12.796521
12.958646
13.633966
12.662411
12.651682
12.539625
12.491941
12.876987
12.432933
12.116432
12.651682
12.081861
12.178421
12.490749
##ZVALUE=290
1.011491
0.947714
0.897646
0.931621
0.932813
0.933409
0.897646
1.063943
0.979900
1.076460
1.043677
0.982881
1.101494
1.174808
1.183748
1.327991
1.211762
1.167655
1.341701
1.309514
1.557469
1.486540
1.719594
1.883507
1.920462
2.243519
2.822876
13.028979
38.408637
113.514662
214.367509
426.111817
624.328852
896.392465
1015.861630
1015.861630
1015.861630
1001.092792
827.272534
553.950667
363.965631
182.597637
97.157955
39.263964
27.136803
34.971833
48.903823
73.722601
92.309713
118.654966
133.791566
142.946839
141.628981
125.605464
110.049844
80.918670
62.073469
40.127635
29.507875
19.288659
15.156865
12.555718
12.000799
11.417866
12.111664
11.980534
12.319684
12.188554
13.146996
13.370514
13.301969
14.190674
14.198422
14.116764
13.724566
14.389753
14.326572
14.096498
13.771653
14.300942
13.880730
13.319850
13.376474
13.470650
13.083816
13.325810
12.768507
12.951493
12.732744
12.543797
12.739897
12.567639
11.799932
11.896491
12.063980
11.811852
##ZVALUE=295
1.088977
1.153946
1.306534
1.156926
1.117587
1.147985
0.968575
1.094937
1.162887
1.282692
1.215935
1.221895
1.172423
1.201630
1.169443
1.222491
1.199841
1.412630
1.403689
1.646876
1.559854
1.514554
1.470447
1.886487
1.909733
2.159476
2.225637
2.208948
2.439618
4.069805
22.173524
59.467554
165.455937
299.303532
545.478463
751.225948
991.619825
1016.038656
1016.038656
1016.038656
898.366570
697.626472
435.592532
270.848870
124.483705
62.176585
26.167631
21.824837
31.425953
45.079589
68.479776
87.356567
114.404559
127.916932
138.797760
135.221481
121.004581
104.852915
80.309510
63.608885
43.027997
31.431913
21.388531
17.435551
14.085770
13.627410
13.065934
13.486743
13.393760
14.042854
14.491677
14.441609
14.900565
15.395880
15.147924
15.593767
15.399456
15.008450
14.811754
14.705658
14.508963
14.406443
14.066696
13.876557
13.659596
13.883710
13.846755
13.549924
13.288856
13.270974
12.836456
12.633801
12.392998
12.296438
12.438893
11.873841
##ZVALUE=300
1.005530
0.975728
1.042485
0.989437
0.878572
1.042485
0.909567
0.856519
0.920892
0.885725
0.857711
1.010895
1.080632
1.011491
0.953674
1.193881
1.149774
0.996590
1.216531
1.281500
1.440644
1.231432
1.158714
1.392961
1.369715
1.444817
1.524687
1.646876
1.973510
1.885891
2.124906
2.397895
6.573796
37.364960
89.965463
226.866603
378.395915
645.272732
853.073001
1015.862823
1015.862823
1015.862823
1004.254818
770.740509
567.498803
319.292545
190.843940
85.771680
41.748881
19.450784
18.853545
28.972626
40.153861
61.555505
81.114769
107.141733
121.627450
131.779909
130.637884
119.239688
105.568767
81.710815
64.227581
44.904947
32.760501
22.597909
17.871857
15.380979
14.589429
14.270544
14.485717
14.695525
14.830828
14.688969
15.066862
15.559793
14.687777
14.807582
14.666915
14.432669
14.554858
14.853477
14.177561
14.783740
14.565587
14.042854
13.461709
13.381839
13.189912
12.842417
13.198853
12.394786
12.040734
12.109876
11.965632
12.012720
##ZVALUE=305
0.862479
0.721812
0.750422
0.786781
0.841618
0.910759
0.882745
0.890493
0.874996
0.837445
0.945926
0.905991
0.911951
1.091957
0.899434
1.072884
1.095533
1.016855
1.186728
1.020432
1.013875
1.181960
1.106858
1.264811
1.240969
1.233816
1.383424
1.364946
1.424551
1.626611
1.618862
1.843572
2.033710
2.254844
3.797412
21.762848
59.835911
166.658759
294.562578
534.612536
739.135742
987.682939
1015.861630
1015.861630
1015.861630
856.484771
671.307445
424.392819
265.936852
121.765733
60.524940
22.786856
15.219450
18.785000
26.358962
42.232871
58.491826
82.397461
100.237727
117.113590
125.285983
124.239922
117.343664
99.171996
82.681775
60.605407
45.671463
30.768514
23.060441
17.716885
15.539527
14.816523
14.967918
14.752746
15.250444
14.305711
14.444590
14.430881
14.960766
14.580488
14.686584
14.224648
14.319420
14.454722
14.331937
13.944507
13.261437
13.500452
13.237596
13.303757
12.435913
13.011694
12.174845
12.033582
11.739731
11.508465
##ZVALUE=310
0.674725
0.758767
0.866652
0.787973
0.811815
0.779629
0.699759
0.707507
0.912547
0.933409
0.868440
0.780821
1.078844
0.849962
0.949502
0.906587
0.780821
0.814795
0.787973
1.120567
1.123548
1.144409
1.011491
1.083612
0.959635
1.115799
1.220703
1.022816
1.177788
1.304746
1.438856
1.481771
1.391768
1.567602
1.629591
1.988411
2.260804
9.497404
30.134916
99.723935
195.546746
403.151512
596.956611
870.976448
1014.349461
1015.806794
1015.806794
996.837020
825.849771
553.155541
365.600586
184.653997
98.075867
36.670566
17.628670
13.250709
17.438531
25.961995
35.829544
55.167675
71.014762
93.178749
108.269453
117.878914
119.217634
110.092759
97.514987
77.253580
61.157942
43.246746
32.500625
22.795796
18.261671
15.429854
14.320612
14.406443
13.901591
13.710856
13.875961
13.709664
14.026761
13.956428
13.928413
13.687611
13.433695
13.574958
13.296604
12.814999
13.456941
12.485981
12.568831
12.611747
12.173653
12.007952
12.200475
11.856556
##ZVALUE=315
0.732541
0.770688
0.727773
0.730753
0.881553
0.898838
0.806451
1.018643
0.904799
0.723600
0.855923
0.882745
0.758767
0.751615
0.952482
1.010895
0.882745
0.935793
0.846982
0.936985
0.947714
0.855923
0.891685
0.988841
0.883937
1.096725
1.250505
1.146793
1.318455
1.385808
1.267791
1.274943
1.399517
1.289845
1.581907
1.494884
1.718998
1.880527
2.155900
4.654527
15.435815
62.554479
135.110021
301.374793
487.196445
786.513686
974.425673
1015.861630
1015.861630
1015.861630
943.612456
674.780011
473.678708
251.605511
137.442946
51.961541
23.715496
12.529492
12.582541
16.966462
22.706985
35.602450
47.823787
68.519711
84.688663
102.045536
110.306740
112.360716
106.861591
91.817975
76.947808
57.352781
43.875575
29.414892
22.456646
17.261505
14.613867
13.515949
13.237596
13.065934
13.297796
13.038516
13.022423
13.369918
12.965798
12.735724
13.041496
12.996793
12.555718
12.560487
12.517571
12.111664
12.092590
11.894703
11.751652
11.502504
##ZVALUE=320
0.745654
0.808835
0.692606
0.812411
0.752807
0.552535
0.821948
0.786781
0.670552
0.810623
0.662804
0.777841
0.833869
0.946522
0.899434
0.725985
0.758767
0.856519
0.806451
0.788569
0.735521
0.939965
1.036525
0.886917
0.952482
1.028776
0.974536
1.190901
1.229644
1.215935
1.127720
1.122952
1.226664
1.392961
1.351833
1.586676
1.457930
1.488924
1.672506
1.668930
1.923442
2.443790
7.416606
37.910938
90.730786
227.392912
378.608704
629.485846
829.530954
1015.862823
1015.862823
1015.862823
1011.571884
787.910819
575.381517
321.983695
183.552504
75.744987
35.387874
14.344454
10.681748
11.796951
14.165640
21.220446
29.230714
46.426654
60.070753
80.036521
92.874765
104.638934
105.685592
99.887848
89.422464
70.872903
56.533813
39.277673
30.036569
20.702481
16.466975
13.657808
12.960434
12.634993
12.555718
12.211800
12.062788
12.468696
12.068748
12.069941
11.987686
11.837482
11.863708
12.011528
11.680722
11.763573
11.624694
11.545420
##ZVALUE=325
0.758767
0.806451
0.698566
0.845790
0.664592
0.825524
0.702739
0.576973
0.856519
0.766516
0.652671
0.835657
0.736713
0.682473
0.744462
0.903606
0.857711
0.761747
0.672936
0.939965
0.915527
0.961423
0.884533
1.030564
1.011491
0.892878
0.999570
0.958443
0.931621
0.780821
0.908971
1.144409
1.086593
1.076460
1.275539
1.299977
1.373887
1.099706
1.551509
1.413822
1.664758
1.583695
1.576543
2.174973
4.034638
22.926927
60.149431
155.865550
279.397964
515.914559
715.029836
958.181620
1015.861630
1015.861630
1015.861630
841.445923
642.890930
390.048623
237.954855
105.247498
50.897598
18.150806
10.594726
9.427667
10.351539
13.970733
19.021630
28.819442
41.089654
60.435534
73.971748
88.986754
96.696615
98.590851
93.121529
79.445839
66.493750
50.083995
38.223863
25.946498
19.508600
15.292764
13.269782
12.287498
11.787415
11.610985
11.736751
11.888742
11.492968
11.825562
11.309981
11.431575
11.234879
11.162758
10.952950
11.219978
##ZVALUE=330
0.787973
0.707507
0.614524
0.618696
0.629425
0.766516
0.609756
0.641942
0.686646
0.556707
0.675917
0.737906
0.752807
0.686646
0.816584
0.836849
0.770688
0.777841
0.859499
0.833869
0.792742
0.866652
0.756979
0.910759
0.816584
0.865459
0.924468
0.930429
0.970960
0.966787
0.966787
0.858903
0.922680
1.098514
1.044869
1.160502
1.001954
1.203418
1.275539
1.294613
1.270771
1.321435
1.505613
1.634955
1.841784
1.797676
2.278686
10.338426
32.046437
104.839802
199.283957
394.944549
582.904816
839.597583
997.483730
1015.862823
1015.862823
904.362798
728.684664
475.869775
307.414532
144.077539
73.319674
26.442409
12.696981
8.702874
8.609891
9.997487
12.407899
19.006729
26.242733
40.060878
53.477883
72.266459
82.703829
92.905760
93.263984
86.552501
77.460408
60.899854
48.381686
34.778714
25.916696
19.343495
15.944839
12.791753
12.065768
11.405945
11.289716
11.215806
10.952950
11.000633
10.974407
10.895729
10.740757
10.800958
##ZVALUE=335
0.642538
0.701547
0.705719
0.692606
0.770688
0.674725
0.761747
0.638962
0.793934
0.679493
0.617504
0.656843
0.581741
0.619888
0.734925
0.708699
0.745654
0.761747
0.834465
0.791550
0.757575
0.763535
0.720620
0.808835
0.793934
0.668764
0.891685
0.910759
1.001954
0.869632
0.931621
0.963807
0.834465
0.847578
1.105666
0.889897
0.912547
1.110435
0.879765
1.101494
0.983477
1.216531
1.292825
1.358986
1.287460
1.417994
1.549721
1.670718
1.923442
4.914999
16.775727
65.187812
135.950446
300.107598
477.164984
743.304491
924.482942
1015.861630
1015.861630
977.895856
823.891759
566.166639
384.542942
199.695826
103.931427
36.625862
15.904903
9.135604
8.545518
8.880496
9.747744
12.810826
17.616749
26.990771
37.041903
53.386688
65.274835
80.304742
86.387992
86.658597
81.641674
70.396662
60.162544
46.559572
36.505461
25.830865
19.651651
15.289783
13.030767
11.997819
11.288524
10.818839
10.272861
10.717511
10.280609
10.430813
##ZVALUE=340
0.562668
0.574589
0.583529
0.645518
0.798702
0.758767
0.582933
0.746846
0.574589
0.578761
0.536442
0.476837
0.668764
0.693798
0.648499
0.703931
0.637770
0.618696
0.579953
0.750422
0.674725
0.736713
0.730753
0.708699
0.873804
0.853539
0.810623
0.944734
0.887513
0.843406
0.961423
0.829697
0.937581
1.003742
0.955462
0.798702
0.887513
0.932813
1.059771
0.926852
1.017451
1.189709
1.121759
1.157522
1.193881
1.367927
1.296997
1.504421
1.534820
1.544952
1.646876
2.780557
8.135438
39.789677
95.085502
234.948993
389.618874
631.515980
820.490718
1001.694798
1015.859842
1000.427604
875.654817
650.280714
459.495783
240.265727
135.363936
54.392815
22.731423
9.793639
8.561611
8.922815
8.861423
9.981990
12.433529
18.383861
24.896860
37.033558
48.873425
64.080954
74.206591
80.746412
81.875920
77.105761
70.187449
56.916475
46.255589
34.585595
26.843548
19.449592
15.531778
12.234449
11.236668
10.280609
10.271668
10.277629
##ZVALUE=345
0.547767
0.663996
0.637770
0.726581
0.601411
0.582933
0.540614
0.582933
0.654459
0.716448
0.603795
0.674725
0.618696
0.703931
0.772476
0.545979
0.524521
0.806451
0.664592
0.718832
0.630617
0.738502
0.818968
0.815988
0.741482
0.799894
0.729561
0.713468
0.657439
0.629425
0.733733
0.741482
0.782609
0.931621
0.988841
0.805855
0.870824
0.860691
0.945926
0.882745
0.856519
1.036525
1.030564
0.986457
0.950694
1.206994
1.287460
1.197457
1.405478
1.425743
1.445413
1.418591
1.501441
1.784563
3.954768
22.464991
60.777664
160.898566
285.375714
510.883927
694.288015
917.825699
1011.692882
1015.858650
937.677026
722.065568
540.216565
318.644643
181.672573
72.432756
33.676624
12.975931
8.964539
8.547902
8.357763
8.567572
9.644628
11.661649
15.753508
24.475455
33.012629
46.871901
56.722760
67.326427
73.034763
75.729489
73.191524
64.884424
56.585670
45.222640
35.478473
24.565458
19.566417
14.953613
12.402534
10.749698
##ZVALUE=350
0.662804
0.497699
0.604987
0.486970
0.643730
0.754595
0.778437
0.568628
0.504851
0.544786
0.666976
0.592470
0.663996
0.671744
0.671744
0.515580
0.640750
0.643730
0.780821
0.584722
0.668764
0.871420
0.664592
0.683665
0.636578
0.694990
0.793934
0.676513
0.663996
0.858903
0.680685
0.802875
0.802875
0.658631
0.727773
0.891685
0.810623
0.891685
0.867844
1.018643
0.952482
0.939965
1.033545
0.896454
1.085997
1.103878
1.140833
1.222491
1.205802
1.206994
1.346469
1.219511
1.191497
1.323819
1.611710
1.580715
2.312660
11.453629
35.401583
108.372569
204.762816
408.982635
585.770011
814.581513
955.111980
1015.861630
972.954035
803.440809
616.212487
368.012786
226.426721
105.929971
49.179792
15.402436
9.384751
8.165836
7.967949
7.906556
8.000731
9.262562
11.018515
15.493631
20.785928
30.141473
38.893819
51.727891
59.176683
66.846609
69.311857
67.168474
61.957836
51.716566
42.935610
31.284690
24.591684
18.067956
##ZVALUE=355
0.471473
0.679493
0.630617
0.626445
0.710487
0.623465
0.663996
0.591874
0.564456
0.637770
0.620484
0.689626
0.733733
0.642538
0.655651
0.684857
0.645518
0.656843
0.593662
0.725985
0.685453
0.635982
0.798702
0.674725
0.732541
0.687838
0.717640
0.750422
0.783801
0.782609
0.701547
0.710487
0.750422
0.686646
0.807643
0.995994
0.882745
0.773668
1.043677
1.029968
0.937581
0.784993
0.808835
1.093745
0.937581
0.983477
1.129508
0.860691
1.097918
1.129508
1.229644
1.078844
1.254678
1.168847
1.271963
1.546741
1.518726
1.515746
1.991987
4.287958
23.086667
60.907602
162.446499
285.077691
513.097644
694.715977
899.519920
987.547636
972.823501
858.868957
632.858872
463.093519
261.697769
144.129992
56.236982
24.871826
10.001659
7.405877
7.492900
7.540584
7.498860
7.822514
8.725524
10.002851
13.449788
18.218756
26.882887
34.216642
45.515895
52.843690
59.827566
63.834786
61.966777
57.294965
48.573613
40.792823
##ZVALUE=360
0.553727
0.478625
0.620484
0.681877
0.585914
0.684857
0.697970
0.731945
0.686646
0.682473
0.699759
0.640750
0.474453
0.765920
0.712872
0.590682
0.706911
0.673532
0.620484
0.779629
0.541806
0.874996
0.761747
0.737906
0.722408
0.730753
0.860691
0.713468
0.783801
0.705719
0.807643
0.727773
0.800490
0.846982
0.775456
0.805855
0.911951
0.992417
0.938773
0.872612
0.789762
0.930429
0.970960
1.042485
0.993609
0.958443
1.151562
0.752807
1.043677
1.164675
1.117587
1.097918
1.089573
1.096725
1.130700
1.234412
1.292825
1.479983
1.631975
1.659989
1.822710
2.792478
8.379817
37.742853
90.885758
223.518610
366.695523
593.131781
773.183703
943.161845
984.833837
913.192630
771.797895
532.050729
355.605483
176.021457
91.041923
33.797622
14.117956
7.812977
7.203817
7.070899
6.928444
6.980896
7.198453
7.678866
8.438826
11.317730
14.891624
21.732450
28.610826
38.646460
45.083761
53.061843
56.251884
57.131648
##ZVALUE=365
0.589490
0.560880
0.611544
0.469685
0.590682
0.627637
0.595450
0.609756
0.585914
0.587702
0.610948
0.600815
0.636578
0.571609
0.561476
0.570416
0.594854
0.610948
0.582933
0.755787
0.716448
0.831485
0.802875
0.691414
0.637770
0.758767
0.669956
0.753999
0.789762
0.823736
0.797510
0.751615
0.624657
0.728965
0.896454
0.758767
0.913739
0.789762
0.841618
0.762939
0.734925
0.872612
0.860691
0.656843
0.980496
0.901818
0.833869
0.982881
1.118779
0.834465
1.052618
0.908971
1.088977
1.037717
1.070499
1.070499
1.143813
1.285672
1.391768
1.475811
1.698732
1.586676
1.771450
2.029538
3.892779
21.209717
56.386590
148.532987
272.600651
496.770740
667.978525
859.508514
945.620537
929.623842
821.971893
604.447722
433.325768
238.896012
130.229592
47.617555
19.813776
7.991791
6.760955
6.557703
6.366968
6.616712
6.418824
6.659627
6.922483
7.740855
9.237528
13.062954
17.802715
25.505424
32.207966
41.032434
##ZVALUE=370
0.429749
0.537634
0.493526
0.485778
0.387430
0.298619
0.298619
0.421405
0.481606
0.399947
0.595450
0.538826
0.604987
0.469685
0.567436
0.351667
0.540614
0.435710
0.398755
0.470877
0.532866
0.428557
0.555515
0.520945
0.533462
0.540614
0.537634
0.561476
0.468493
0.521541
0.576973
0.602603
0.547767
0.573993
0.462532
0.471473
0.621676
0.574589
0.617504
0.634789
0.618696
0.629425
0.555515
0.758767
0.547767
0.553727
0.630617
0.773668
0.840425
0.667572
0.741482
1.004934
0.907779
0.828505
0.860691
0.784993
0.870824
0.905991
0.931621
0.979900
1.011491
1.151562
1.265407
1.330972
1.295805
1.608729
2.331734
10.704994
35.252571
113.908648
210.475922
391.556621
569.740534
793.038607
900.732875
925.906897
853.225589
672.956705
496.842861
279.852748
159.475803
63.479543
29.710531
11.206865
7.032752
6.223917
5.729795
5.668998
5.645752
5.770922
5.757809
5.852580
6.434917
8.333921
10.529757
15.397668
##ZVALUE=375
0.377893
0.371933
0.435710
0.362992
0.292659
0.518560
0.444651
0.371933
0.316501
0.331998
0.301600
0.382662
0.414848
0.392795
0.224710
0.361800
0.353456
0.222921
0.296831
0.332594
0.450611
0.502467
0.394583
0.414848
0.403523
0.434518
0.437498
0.402927
0.429749
0.496507
0.531673
0.391603
0.397563
0.381470
0.342727
0.356436
0.372529
0.561476
0.565648
0.435710
0.285506
0.568628
0.567436
0.532866
0.443459
0.478625
0.400543
0.509620
0.452995
0.606775
0.608563
0.492930
0.657439
0.629425
0.672936
0.721812
0.737906
0.668764
0.842810
0.739694
0.845790
0.746846
0.734925
0.889897
1.108646
1.149774
1.090765
1.114607
1.583695
5.472898
18.572807
66.382885
143.954754
314.762592
481.817722
708.626509
845.161676
932.305455
902.503729
746.966004
582.079887
357.463956
226.518512
111.153722
55.847764
18.046498
8.592606
5.754828
5.174875
5.419850
5.259514
5.134940
5.143881
5.163550
5.610585
6.081462
##ZVALUE=380
0.202656
0.161529
0.207424
0.166893
0.151992
0.359416
0.204444
0.304580
0.171661
0.177622
0.145435
0.142455
0.100732
0.170469
0.209808
0.184774
0.187755
0.098944
0.232458
0.237823
0.234842
0.140667
0.300407
0.269413
0.277758
0.365973
0.255704
0.343919
0.348687
0.278950
0.334978
0.317693
0.474453
0.285506
0.228882
0.378489
0.380874
0.310540
0.194907
0.212789
0.362992
0.381470
0.380874
0.336766
0.500679
0.403523
0.381470
0.426769
0.485778
0.327826
0.438690
0.518560
0.634789
0.464916
0.497699
0.477433
0.366569
0.594854
0.396967
0.496507
0.611544
0.692606
0.573993
0.744462
0.694990
0.914931
0.931621
1.043677
1.121759
1.208782
1.355410
2.732873
10.300875
47.494769
109.330416
252.509713
402.454734
624.294877
780.043602
906.556845
909.850001
788.381696
650.665760
455.441475
306.015015
150.467753
77.673793
27.118921
11.758804
5.561709
4.773736
4.861951
4.580617
4.714727
4.565716
4.697442
##ZVALUE=385
0.531673
0.498891
0.393987
0.511408
0.509620
0.595450
0.500679
0.663996
0.598431
0.713468
0.533462
0.474453
0.522733
0.527501
0.560880
0.611544
0.573993
0.570416
0.645518
0.675917
0.644922
0.575781
0.544786
0.735521
0.600815
0.539422
0.519753
0.695586
0.632405
0.654459
0.634789
0.834465
0.661612
0.580549
0.662804
0.709891
0.668764
0.660419
0.726581
0.450611
0.617504
0.707507
0.656843
0.600815
0.797510
0.843406
0.886917
0.634789
0.655651
0.646710
0.671744
0.733733
0.781417
0.686646
0.903606
0.726581
0.808835
0.779629
0.751615
0.841618
0.817776
0.773668
0.903606
1.159906
1.089573
0.984669
1.035929
0.976920
1.166463
1.435876
1.599789
1.504421
1.655817
2.124906
5.207658
27.369857
69.140792
174.074769
306.190848
529.388785
696.906447
859.839916
899.432898
855.041742
748.285651
548.150539
391.786695
215.233564
121.280551
49.574971
20.507574
6.830692
5.277991
4.821420
4.653931
4.627705
##ZVALUE=390
0.521541
0.595450
0.502467
0.553727
0.563860
0.521541
0.410676
0.425577
0.556707
0.555515
0.582933
0.501871
0.382662
0.577569
0.579953
0.592470
0.364780
0.476837
0.469685
0.464916
0.376701
0.479817
0.555515
0.508428
0.489950
0.617504
0.710487
0.660419
0.640750
0.639558
0.760555
0.789762
0.823736
0.797510
0.553727
0.588894
0.693798
0.842810
0.742674
0.619888
0.608563
0.496507
0.635982
0.652671
0.762939
0.530481
0.740886
0.736713
0.731945
0.863671
0.692606
0.790954
0.735521
0.777841
0.823736
0.734925
0.819564
0.741482
0.810623
0.799894
0.765920
0.800490
0.943542
0.729561
0.912547
0.878572
1.002550
1.163483
1.201630
1.211762
1.280904
1.400709
1.531839
1.432896
1.569986
1.795888
2.626777
14.422536
42.915940
128.683448
239.529610
444.096923
608.279705
794.193745
883.947015
897.725821
827.855468
666.676760
506.278872
291.474462
169.394612
70.006847
33.224821
11.262894
5.827546
4.481673
##ZVALUE=395
0.624657
0.475645
0.621676
0.566840
0.497699
0.623465
0.708699
0.609756
0.586510
0.533462
0.575781
0.368953
0.477433
0.572801
0.480413
0.564456
0.488758
0.537634
0.497699
0.538826
0.548959
0.470877
0.676513
0.570416
0.607967
0.672936
0.635982
0.681877
0.570416
0.661612
0.636578
0.536442
0.533462
0.568628
0.672936
0.662804
0.682473
0.740886
0.736713
0.739694
0.721812
0.726581
0.769496
0.600815
0.562668
0.743866
0.615716
0.935793
0.684857
0.850558
0.754595
0.772476
0.652671
0.814795
0.736713
0.752807
0.599623
0.861883
0.740886
0.753999
0.672936
0.776649
0.934601
0.797510
1.013875
1.053810
0.910759
1.137853
1.165867
1.204610
1.323819
1.267791
1.247525
1.154542
1.197457
1.290441
1.357794
1.528859
1.879930
8.195639
28.026700
94.828010
179.281831
338.887572
498.284698
715.768933
845.538974
923.802853
894.690752
755.051970
590.918660
367.554426
229.139924
100.874901
48.922896
15.953779
##ZVALUE=400
0.544786
0.483990
0.599623
0.488758
0.506639
0.431538
0.420809
0.541806
0.459552
0.555515
0.635982
0.565648
0.517964
0.551939
0.464916
0.461936
0.578761
0.642538
0.532866
0.536442
0.537634
0.484586
0.583529
0.578761
0.499487
0.629425
0.641942
0.553727
0.649691
0.535846
0.888705
0.775456
0.720620
0.667572
0.604987
0.667572
0.560880
0.761747
0.628829
0.642538
0.708699
0.611544
0.692606
0.552535
0.667572
0.737906
0.828505
0.697970
0.594854
0.747442
0.592470
0.538826
0.554919
0.627637
0.795722
0.575781
0.663996
0.560880
0.669956
0.630617
0.736713
0.644922
0.814795
0.800490
0.758767
0.822544
0.949502
1.063943
1.006722
1.115799
1.143813
1.172423
1.125932
1.124740
1.113415
1.196861
1.158714
1.299977
1.266599
1.421571
1.664758
4.374981
14.805794
53.606629
115.681887
256.744623
406.063795
622.029901
762.206912
879.649520
888.930559
782.517791
642.879009
426.001549
281.773806
141.746998
##END
