##TITLE=QP00652
##FORMAT=SPECTACLE-ASCII V-1.2
##DATA TYPE=ULTRAVIOLET SPECTRUM
##SECOND TYPE=ULTRAVIOLET SPECTRUM
##DATE=03/29/18
##TIME=14:02:08
##SPECTROMETER/DATA SYSTEM=SPECTACLE
##XUNITS=NM EM
##YUNITS=ENERGY
##YFACTOR=1
##FIRSTX=220
##LASTX=410
##NPOINTS=96
##3DDATA=Equidistant
##ZUNITS=NM EX
##FIRSTZ=210
##LASTZ=400
##ZPOINTS=39
##XYDATA=(Y..Y)
##ZVALUE=210
2.907515
2.696514
2.879500
3.513694
2.990961
3.233552
3.210902
4.155636
3.196597
3.475547
3.122687
3.852844
3.609657
3.618598
4.115701
3.718734
4.506707
4.943609
4.402995
5.203485
5.714893
5.460978
5.539656
6.385446
7.074475
6.428957
7.696748
6.721616
7.507801
7.296801
7.467866
7.489920
8.523464
7.371902
8.514524
9.510517
9.093881
9.511709
8.869767
9.498596
11.418462
10.600686
9.543896
12.308955
10.768771
11.256933
11.048913
10.407567
11.408925
12.826920
11.870861
12.149811
12.637973
12.627840
12.197495
12.563467
13.264418
14.087558
12.669563
13.721585
14.392734
12.951493
14.390945
15.694499
14.547706
17.369986
16.746521
19.277930
21.382570
25.759935
30.196905
35.242438
44.108629
45.393705
50.187707
53.852797
53.549409
55.375695
54.443479
52.551627
44.041872
42.975545
36.166906
31.997561
25.516748
21.618605
19.270778
16.109943
14.858842
14.579892
12.245774
12.877584
14.882684
13.953447
14.294982
13.694763
##ZVALUE=215
9.235740
10.160804
8.561611
8.312464
5.990863
5.652905
5.547404
6.442666
7.001758
6.039739
5.533695
5.505681
5.033612
4.898906
3.632903
4.692674
4.270673
4.626513
4.449487
5.196929
5.792975
5.768538
5.351901
5.939603
5.556941
7.313490
6.917715
7.346869
7.845759
6.864667
7.109642
8.072853
8.505583
8.515716
8.882880
9.777546
8.518696
9.736419
9.064674
10.265708
10.470748
9.321570
10.854602
11.186600
10.726452
11.230707
12.164712
10.659695
12.156963
10.478497
13.222694
11.371970
12.578964
12.092590
12.377501
13.250709
13.274550
13.028979
13.369918
12.724996
13.521910
13.180971
13.703704
13.360977
13.329983
15.402436
16.291738
17.193556
18.968582
24.333000
29.344559
32.517910
34.093857
42.113662
43.496490
48.805475
47.387481
47.296882
46.553612
43.125749
38.002729
36.106706
30.722618
28.606653
22.872686
20.111799
16.216636
14.240742
13.289452
13.133883
13.305545
12.646914
12.598634
12.678504
11.875629
12.876987
##ZVALUE=220
34.228563
34.930706
36.651492
34.812689
31.986833
23.606420
20.704865
14.927983
12.928843
11.765957
11.446476
13.074875
11.504889
11.584759
10.520816
8.365512
6.152987
6.387830
5.815625
4.698634
5.163550
4.966855
6.001592
6.228685
6.202459
6.713867
6.989837
8.400679
7.971525
8.295774
7.203817
8.034706
7.809997
8.952618
9.703636
9.877682
9.883642
8.703470
9.933710
10.125637
9.699464
9.997487
10.660887
9.847879
11.242628
10.382533
12.138486
10.338426
11.648536
11.706948
11.997819
11.389852
13.738871
11.780858
12.103915
13.402700
12.576580
11.687875
13.097525
12.024641
13.588667
14.512539
14.118552
13.906956
13.995767
15.078783
15.869737
16.061664
19.511580
23.249984
26.146770
31.436682
34.472942
38.932562
41.971803
42.458773
42.610765
44.599771
46.523809
44.090748
40.848851
36.671758
34.198761
29.275417
23.564696
19.225478
18.615723
14.519691
13.621449
13.764501
12.487769
12.220740
12.406707
12.250543
13.293624
13.905764
##ZVALUE=225
63.397884
67.864656
85.018873
106.632710
113.721490
112.060905
95.037818
69.930553
50.947666
37.490726
28.930902
23.371577
24.820566
25.339723
24.408698
24.782419
20.936728
18.795729
14.916658
10.620952
8.697510
8.028746
6.609559
7.411838
7.143617
7.619858
7.571578
7.680655
7.320642
8.359551
8.441806
8.463860
8.354783
10.273457
10.054708
9.600520
10.520816
10.434985
11.074543
10.599494
10.038614
11.417866
11.685491
10.460615
11.398792
10.678768
12.421608
11.198521
11.235476
12.543797
11.246800
12.490749
12.777448
13.737679
13.381839
12.905598
14.495850
14.828444
13.626814
14.382601
13.210773
14.053583
15.432835
14.373660
14.930964
14.241934
16.139746
17.976761
19.920468
21.922588
24.939775
30.738711
33.737421
35.482645
38.164854
38.865805
39.914846
38.862824
39.330721
36.784410
32.781959
29.512644
26.683807
23.397803
19.871593
19.410849
18.284917
16.440749
13.593435
16.386509
15.369654
13.581514
14.787912
14.391541
13.532639
13.721585
##ZVALUE=230
61.792731
66.371560
104.429722
167.037845
207.076669
245.320797
263.138413
258.938670
228.142738
187.393427
120.553970
86.726546
55.484772
45.794845
48.182607
49.699545
51.297545
50.962567
44.193864
35.315752
30.429959
20.230412
15.072823
9.982586
8.862615
7.976890
9.387732
8.754730
8.656979
9.126663
8.590817
8.357763
9.011626
9.347796
8.827448
10.947585
9.799600
10.958910
10.983944
10.971427
12.356639
11.176467
11.293888
12.030602
11.273623
12.295842
11.625886
11.527538
10.637641
13.331771
13.346672
13.136864
13.467669
11.517406
13.708472
13.539791
13.512969
14.376640
14.386773
15.799999
15.443563
16.605854
15.386939
14.278889
16.165972
15.537739
17.911792
18.230677
20.719767
21.827817
25.099516
27.686954
34.517646
33.778548
37.992001
38.249493
35.666823
34.032464
32.396913
31.045675
30.722618
27.628541
24.582744
23.364425
19.686818
20.226836
18.363595
18.742681
16.747713
16.455650
17.043948
15.619993
15.294552
15.687943
15.629530
16.700625
##ZVALUE=235
23.503900
26.885867
57.845712
126.323700
206.509829
312.698483
411.170721
497.029424
531.018972
521.209836
449.257493
359.009504
242.733955
169.653893
111.973882
83.248615
76.290965
80.892444
85.663795
86.841583
75.234771
64.455867
52.324533
38.649440
25.689602
18.187761
13.967752
11.351705
9.122491
9.686947
9.230971
9.201765
10.199547
10.478497
10.318756
10.185838
10.132790
10.896921
10.947585
12.183785
11.238456
11.130571
11.863708
11.498928
10.894537
12.109876
12.064576
12.772679
12.715459
13.696551
12.945533
12.299418
13.675690
13.694763
13.742447
13.733506
14.028549
14.548898
15.136600
15.491843
15.353560
16.557574
15.738606
16.805530
18.300414
20.062923
18.402934
20.710826
22.550821
25.488734
27.652979
32.042861
32.274723
38.699508
37.796497
38.360953
37.286878
38.410425
34.566522
35.389662
32.475591
30.136704
26.437640
24.917722
24.144650
22.204518
20.850897
21.684766
19.852519
20.175576
20.211935
19.639730
19.526482
19.323826
21.300912
19.693971
##ZVALUE=240
2.056956
2.634525
11.177659
27.702451
78.348517
152.030587
295.645595
431.432724
606.272817
722.491741
807.791948
768.196583
706.037879
544.209480
415.630937
259.763598
181.193948
120.499730
96.936822
99.364519
107.118487
114.079714
108.566880
98.665953
79.473853
62.381625
42.789578
32.810569
21.396875
15.859604
11.951923
9.232759
8.776784
10.211468
9.481907
9.573698
9.837747
8.789897
9.736419
9.359717
10.028481
10.513663
10.429621
10.483861
11.257529
11.875629
10.221601
11.068583
10.008812
10.764599
11.978745
10.758638
11.418462
11.658669
12.995601
12.872815
12.625456
12.628436
12.533665
13.343692
14.406443
14.974475
14.495850
14.755726
16.774535
17.309785
17.836690
19.364953
20.970702
22.859573
26.861429
29.422641
30.126572
34.134984
33.891797
38.878918
35.790801
37.516952
33.537745
31.130910
29.986501
28.040409
26.150942
26.501417
23.595691
23.010969
21.284819
21.923780
22.724867
20.781755
21.806955
21.618605
19.958615
21.090508
19.873977
21.198988
##ZVALUE=245
1.543760
1.736879
1.664758
2.382994
4.869699
22.372603
57.010651
151.383877
273.733735
462.553501
642.739534
849.288702
953.755975
980.581641
915.772915
758.440495
614.431500
406.661630
273.874998
162.867904
116.236806
102.850795
110.033751
123.231411
127.731562
122.827888
110.584497
94.284415
69.119930
51.736832
34.978986
23.703575
15.063882
11.292696
10.960698
9.666681
9.396672
9.324551
10.101795
10.108948
9.519458
11.005998
10.042787
10.108948
10.698438
10.346770
11.461973
11.461973
11.687875
10.798573
10.723472
11.143684
10.849833
11.623502
12.983680
12.102723
11.885762
12.804866
12.348890
12.207627
13.352633
12.864470
14.741421
14.526844
14.625788
15.218854
16.216636
17.100573
21.556616
21.546483
23.181438
27.746558
29.967427
31.834841
33.808947
34.038424
34.218431
35.276413
30.751824
31.314492
29.493570
27.099848
26.547909
26.165843
23.898482
23.485422
21.417737
20.959973
21.624565
22.329688
21.259785
21.881461
20.647645
19.590855
21.327734
20.617843
##ZVALUE=250
1.929998
2.124906
2.017617
2.314448
2.212524
2.311468
3.225803
15.404820
44.288635
125.286579
250.371695
421.570539
698.170662
881.713033
1015.861630
1015.861630
1015.861630
1009.115577
803.685784
614.396930
370.915532
239.803791
132.981539
103.906989
105.015635
117.481947
130.190849
136.121511
131.097436
113.848448
99.955797
75.467825
56.486726
36.326647
25.977492
16.011596
11.648536
9.744763
9.921789
9.676814
9.366870
10.186434
9.396672
10.555983
10.379553
10.213852
9.129643
9.861588
9.999871
9.965897
10.279417
10.113716
10.094643
10.695457
11.059642
10.384917
11.018515
11.616945
11.237860
10.669827
11.940598
11.970997
12.438893
12.393594
12.990832
13.799667
14.986992
16.594529
16.726851
19.144416
21.443963
24.086833
25.218725
27.891994
29.819608
30.216575
29.640794
28.927922
28.949976
26.795864
26.235580
24.642944
24.268627
22.623539
22.227764
20.602942
22.700429
20.441413
20.670891
20.413995
20.732880
19.066930
20.146966
18.647909
20.188689
20.337701
##ZVALUE=255
1.545548
1.766682
1.723766
1.892447
1.899600
1.738667
1.948476
2.332926
3.109574
7.087588
35.370588
86.412430
184.593797
395.615697
617.235899
943.308473
1015.861630
1015.861630
1015.861630
1015.861630
1015.861630
886.087418
546.852946
351.437926
180.757642
119.680762
96.310973
103.671551
124.709606
135.510564
144.035816
139.942765
127.836466
104.242563
81.624985
55.328608
39.083958
24.188757
16.524792
11.805892
10.108948
8.966923
9.095669
8.513927
9.632707
9.100437
9.054542
9.628534
9.292960
9.571910
8.543730
9.355545
9.600520
9.783506
9.752512
9.231567
9.723902
10.465980
10.600686
10.151863
9.653568
10.111928
11.016726
11.967421
11.541843
12.716651
12.552738
14.525652
15.601516
17.041564
18.032789
19.438863
22.032857
24.800897
24.421811
25.134683
24.270415
24.770498
23.595691
22.274852
21.432638
20.731688
19.655824
18.676519
19.243956
19.172430
17.845631
18.302798
17.774701
17.686486
17.671585
18.366575
18.984675
18.470883
18.133521
17.825961
##ZVALUE=260
1.562834
1.533628
1.828671
1.805425
1.722574
2.103448
2.016425
1.694560
2.084970
2.416968
2.533793
4.743934
16.617775
63.208938
137.191415
270.374417
544.664860
813.207030
1015.861630
1015.861630
1015.861630
1015.861630
1015.861630
1015.861630
740.515590
501.657724
313.722491
155.392885
103.898644
88.935494
102.210641
128.269792
141.397715
147.316456
143.272877
129.037499
109.901428
80.125928
60.250759
39.138794
26.161671
15.859604
11.472702
9.100437
9.384751
8.171797
8.562803
8.596778
8.234978
8.871555
8.322597
8.251667
9.092689
9.280443
8.378625
9.377599
8.267760
8.867979
9.190440
9.187460
8.899570
8.835793
9.270906
9.816885
10.537505
10.119677
10.945797
11.859536
12.958646
14.358759
15.684962
17.246604
18.631816
20.128489
20.156503
20.976663
21.427870
20.959973
19.542575
19.017458
18.479824
17.007589
17.847419
16.864538
16.059875
16.329885
17.370582
16.351938
16.249418
16.739964
16.113520
16.288757
16.187429
15.736818
16.502738
17.442703
##ZVALUE=265
1.296997
1.458526
1.658797
1.621842
1.717806
1.603961
1.692772
1.768470
1.852512
1.941919
2.078414
2.611876
2.509952
3.342628
8.082986
30.990839
104.922652
223.141909
492.618680
771.673918
1015.861630
1015.861630
1015.861630
1015.861630
1015.861630
1015.861630
1015.861630
683.085918
438.278913
224.458575
132.546425
80.460906
82.812905
110.733509
127.770901
148.557425
152.385831
146.497488
129.987001
105.223656
81.399679
56.609511
38.417578
24.304986
17.765760
10.798573
9.667873
8.641481
8.528829
8.310676
8.987784
8.556843
8.091927
8.371472
8.668900
8.706450
8.551478
8.532405
8.674860
8.664727
9.170771
8.992553
8.720756
9.259582
9.412766
9.879470
10.241866
11.567473
12.573600
13.980865
15.218854
16.426444
16.685724
18.887520
19.369721
19.711852
20.250678
19.057989
18.321872
17.619729
17.726421
16.463995
16.592741
15.573502
14.783740
15.546679
15.206933
14.979839
15.062690
15.238523
15.114546
15.634894
15.308857
15.587807
15.945435
15.287995
##ZVALUE=270
1.554489
1.384616
1.543760
1.674891
1.475811
1.584888
1.786947
1.863837
1.711845
1.903772
1.824498
2.087951
2.460480
2.473593
2.585649
3.482699
3.946424
18.708706
57.099462
183.086991
369.976759
652.260780
1015.861034
1015.861034
1015.861034
1015.861034
1015.861034
1015.861034
1015.861034
1015.861034
794.852972
411.117673
222.144723
94.828606
70.573688
84.949732
107.007623
132.710934
147.485733
154.647827
150.307417
130.101442
110.671520
81.261992
60.451627
35.990477
26.287436
16.380548
11.987686
9.815693
9.351969
8.624792
8.960962
9.104609
8.915663
8.559823
8.804798
9.098649
8.927584
9.174943
8.873940
8.985996
8.908510
9.132624
9.631515
9.742975
9.897947
10.141730
11.999607
13.250709
14.150739
15.756488
16.724467
17.744899
17.193556
17.557740
18.410683
17.909408
16.187429
16.522408
16.041994
14.929771
14.626980
14.394522
13.868809
14.248490
13.362765
14.293790
13.713837
14.382601
13.737679
14.233589
14.198422
13.979673
14.378428
13.728738
##ZVALUE=275
1.447797
1.487732
1.462698
1.327991
1.480579
1.442432
1.625419
1.483560
1.682639
1.513958
1.796484
1.956820
1.999736
2.088547
1.984835
2.262592
2.316833
2.652407
3.207922
8.831620
34.176707
130.023956
273.986459
603.488684
957.368016
1015.861630
1015.861630
1015.861630
1015.861630
1015.861630
1015.861630
1015.861630
944.574475
490.369797
275.982022
117.500424
65.808892
62.278509
78.933835
107.632875
127.121806
147.295594
151.979923
144.534707
130.277872
104.316473
83.127618
58.054924
40.909648
25.098920
17.571449
11.640787
9.375811
8.838773
8.358955
7.784963
8.513927
8.411407
8.427501
8.393526
8.437634
8.427501
8.172989
8.717775
9.491444
9.549856
9.818673
10.411739
11.020899
12.050867
13.187528
14.448762
14.856458
16.402602
17.590523
16.459823
16.285777
16.175508
15.513897
14.853477
14.096498
13.775826
13.890862
13.723969
13.136864
12.882948
12.426972
12.624860
12.730956
13.204813
13.091564
12.602806
12.785792
12.957454
12.274981
12.598634
##ZVALUE=280
1.189709
1.187921
1.298785
1.255870
1.131892
1.448989
1.351833
1.280904
1.204610
1.234412
1.359582
1.552701
1.451969
1.410842
1.639724
1.917481
1.908541
2.289414
2.469420
2.467632
3.155470
3.905892
28.088689
87.070465
260.546803
465.982556
850.531459
1015.740037
1015.740037
1015.740037
1015.740037
1015.740037
1015.740037
1015.740037
1015.740037
663.039684
390.279889
165.435672
81.291795
47.717690
56.541562
80.733895
102.520585
126.288533
143.280625
148.392916
141.467452
126.091838
106.826425
78.788996
59.267879
38.353801
25.356412
15.844703
11.474490
8.402467
7.658601
7.554889
7.830858
7.463694
8.067489
8.219481
7.808805
8.548498
8.311868
8.507967
9.486675
9.600520
10.449886
11.188984
12.046695
13.279915
13.945699
14.584661
15.037656
14.424920
14.691949
13.952851
13.626814
13.123751
12.423992
12.559891
11.986494
11.797547
12.223721
11.277795
11.313558
11.367798
12.344718
11.893511
11.700988
11.703968
12.071729
11.957884
12.227893
11.779666
##ZVALUE=285
1.204610
1.174808
1.288652
1.341701
1.262426
1.305938
1.055598
1.358986
1.346469
1.373887
1.290441
1.563430
1.490712
1.750588
1.560450
1.870990
1.866817
2.103448
2.151728
2.243519
2.584457
2.482533
2.912879
3.426671
12.342930
43.646693
147.659779
298.796892
630.771518
971.074700
1015.861630
1015.861630
1015.861630
1015.861630
1015.861630
1015.861630
1015.861630
966.097713
622.005463
290.244818
142.121911
52.474737
38.961768
54.886937
73.582530
102.872849
120.692849
138.917565
143.281817
140.505433
129.444599
106.254816
85.829496
58.195591
41.226745
24.549961
17.553568
11.376739
8.567572
8.340478
8.294582
7.988811
8.138418
8.541942
8.430481
8.803606
9.052753
9.434819
10.174513
11.658669
11.671782
12.441874
13.459921
13.926625
13.247728
14.053583
13.903975
13.974905
13.095737
12.431741
13.031960
12.176633
11.865497
11.629462
11.810660
11.224747
11.287928
11.744499
11.421442
11.522770
11.381507
11.848807
11.254549
11.700988
11.442900
11.478662
##ZVALUE=290
1.263618
1.205802
0.994802
1.311898
1.224875
1.166463
1.135468
1.458526
1.408458
1.433492
1.487732
1.358986
1.602769
1.558661
1.527667
1.695752
1.688600
1.749992
2.004504
1.826882
1.817942
2.319813
2.420545
2.578497
2.870560
3.230572
4.995465
17.640591
84.599853
191.212893
446.817875
771.828890
1015.861630
1015.861630
1015.861630
1015.861630
1015.861630
1015.861630
1015.861630
1015.861630
842.462778
422.389507
213.178992
68.758726
34.997463
36.630630
48.946738
72.976947
92.508793
117.788911
129.781961
140.920877
138.448477
123.206973
107.541680
79.818964
59.254766
38.653612
26.784539
16.107559
12.076497
9.556413
8.541942
8.038878
8.029938
8.681417
8.466840
9.185672
9.655952
10.473728
10.863543
12.750626
12.919903
12.727976
12.711883
12.316704
12.920499
12.388825
12.362599
11.433959
11.307597
10.933876
11.329651
11.600852
11.135936
10.966659
11.396408
11.026859
11.177659
10.924935
10.800958
10.922551
11.543632
10.670424
11.035800
10.895729
##ZVALUE=295
1.198649
1.253486
1.263618
1.361966
1.484752
1.342893
1.348853
1.301765
1.365542
1.085997
1.330972
1.341701
1.396537
1.654625
1.486540
1.511574
1.547933
1.780987
1.718998
1.982450
2.040863
2.016425
2.242923
2.367496
2.489686
2.755523
2.823472
3.195405
3.552437
7.084608
25.877953
114.206672
263.442993
627.656579
980.916023
1015.972495
1015.972495
1015.972495
1015.972495
1015.972495
1015.972495
1015.972495
1015.972495
595.644712
328.381658
113.398433
48.146844
25.895834
31.913519
48.419833
65.583587
89.364648
108.743906
126.928687
132.279992
130.528808
119.612813
98.329782
79.840422
57.202578
41.134953
25.539994
18.227696
12.085438
10.053515
8.994937
8.777976
9.260774
9.736419
10.186434
10.774732
11.214614
11.984706
12.444854
12.773871
12.602806
12.352467
12.209415
11.655688
11.598468
11.256933
11.268854
11.254549
11.176467
11.115670
11.471510
11.267662
10.930896
10.979772
11.238456
11.080503
10.576844
10.834932
10.677576
10.845661
11.043549
##ZVALUE=300
1.092553
1.163483
1.191497
1.124740
1.132488
1.042485
0.986457
1.087785
1.128912
1.220703
1.341701
1.097918
1.259446
1.317859
1.225471
1.255870
1.384616
1.465678
1.472831
1.532435
1.650453
1.576543
1.762509
1.598597
1.818538
2.280474
2.182722
2.269745
2.539754
2.869964
3.332496
3.869534
17.639995
61.919689
207.246542
402.742028
827.924013
1015.861630
1015.861630
1015.861630
1015.861630
1015.861630
1015.861630
1015.861630
1015.861630
958.575010
512.095690
269.284844
87.125897
33.086538
22.317767
28.820634
44.060946
59.063435
81.364512
101.983547
119.234920
126.735568
126.189590
117.649436
97.664595
80.330968
57.387948
42.072535
26.813745
19.308925
12.880564
10.979772
10.295510
10.237694
11.126995
11.005998
11.932850
12.625456
12.336969
12.544990
12.188554
11.622906
11.686683
11.285543
11.270642
11.313558
10.991693
11.054873
11.308789
10.818839
10.841489
10.948777
10.941625
10.951757
10.331869
10.529757
10.575652
10.779500
10.499954
10.647774
##ZVALUE=305
0.984669
1.162887
0.981688
1.060963
0.954866
1.046658
1.168847
1.197457
1.089573
1.053810
1.070499
1.184940
1.326799
1.248717
1.179576
1.296997
1.170635
1.165867
1.386404
1.318455
1.457930
1.590848
1.585484
1.657605
1.808405
1.750588
2.122521
1.840591
2.407432
2.367496
2.618432
2.765656
3.013611
3.505945
9.239912
34.417510
140.681863
302.988887
675.494671
1003.623009
1015.861630
1015.861630
1015.861630
1015.861630
1015.861630
1015.861630
1015.861630
1015.861630
640.245676
358.336568
135.097504
51.549673
17.920732
18.485785
27.547479
38.727522
59.801936
77.069402
97.981691
110.868812
122.155547
119.769573
109.899640
95.980763
73.516965
57.651997
39.088726
28.031468
18.343925
13.853908
12.189746
11.545420
11.909604
11.927485
11.812449
11.912584
11.452436
11.488795
11.154413
11.561513
10.975599
10.823607
10.991693
10.758638
10.867715
10.839701
11.003613
11.248589
10.718703
10.541677
10.568500
10.345578
10.591745
10.418892
10.240674
10.718703
##ZVALUE=310
1.029968
1.031756
0.976920
0.867844
0.986457
1.062751
0.969768
1.033545
1.146793
1.291633
1.166463
1.302958
1.099706
1.228452
1.255870
1.317859
1.212955
1.310706
1.329780
1.565814
1.424551
1.514554
1.574755
1.582503
1.482964
1.713634
1.907945
2.046824
1.899600
2.163649
2.017617
2.270937
2.507567
2.773404
3.052950
3.645420
4.343987
20.014644
67.116618
222.612619
435.434580
906.372666
1015.861630
1015.861630
1015.861630
1015.861630
1015.861630
1015.861630
1015.861630
1015.861630
941.898823
458.369851
232.804418
73.868632
27.459860
15.387535
17.694831
25.294423
35.415888
52.480698
68.242550
91.103911
103.737712
114.017725
114.226937
106.076002
94.532967
74.197650
57.356954
39.644837
29.010773
20.654798
16.231537
12.930632
12.461543
11.806488
12.068748
11.216998
11.323690
10.947585
11.005998
10.921955
11.146665
11.049509
11.064410
11.137724
11.152625
11.088848
11.227727
10.730624
10.519624
10.688901
10.538697
10.414720
10.336637
10.288954
##ZVALUE=315
0.869632
0.979900
0.890493
0.941753
0.878572
1.015663
0.765920
1.079440
1.053810
1.125932
1.084805
1.087785
0.965595
1.091957
1.019835
1.277924
1.174808
1.305938
1.124740
1.111627
1.341701
1.246929
1.271963
1.411438
1.669526
1.417994
1.605749
1.614690
1.844764
1.709461
1.912713
1.788735
2.007484
2.173781
2.314448
2.416968
2.910495
3.235936
3.893971
8.763671
34.950972
146.562457
327.606797
743.010640
1015.852690
1015.852690
1015.852690
1015.852690
1015.852690
1015.852690
1015.852690
1015.852690
1015.852690
609.826446
329.847932
115.817785
43.082833
14.829636
13.521910
16.544461
22.070408
34.814477
46.962500
65.513849
81.877708
99.615455
107.779503
108.789802
103.296638
88.472962
74.591637
55.785775
42.692423
27.476549
21.262765
15.493631
13.437867
11.556745
11.083484
10.912418
11.014938
10.850430
10.733604
11.173487
10.846853
11.020899
10.896921
10.928512
11.055470
10.864735
10.681748
10.607839
10.489821
10.210872
10.071993
10.486841
##ZVALUE=320
0.963807
0.941753
0.917912
0.939965
0.988841
0.804663
1.076460
0.819564
0.958443
0.988841
1.019835
0.943542
1.018643
1.191497
1.166463
0.959635
1.103878
1.132488
1.101494
1.075864
1.062751
1.171827
1.333952
1.227856
1.473427
1.398921
1.413822
1.550913
1.580715
1.526475
2.038479
1.938939
1.859665
2.034903
2.072453
2.278686
2.277493
2.534986
2.624989
3.281832
3.529787
4.650950
15.340447
87.902546
224.721432
579.620004
950.518847
1015.834808
1015.834808
1015.834808
1015.834808
1015.834808
1015.834808
1015.834808
1015.834808
818.765759
463.506579
188.672543
77.141523
21.522641
12.772679
12.554526
14.777780
21.044612
29.341578
44.961572
59.386492
78.399777
91.673732
102.013946
104.574561
98.697543
88.587999
68.992972
54.914951
38.345456
28.300881
19.228458
15.562773
12.715459
11.630654
10.899901
10.723472
10.915995
11.074543
10.562539
10.807514
10.929704
10.629892
10.545850
10.633469
10.633469
10.146499
10.454655
10.596514
10.399818
##ZVALUE=325
0.911951
0.913739
0.896454
0.825524
0.996590
0.967979
1.011491
1.102686
0.978708
0.993609
1.039505
1.014471
0.879765
1.016855
1.129508
1.117587
1.159906
0.995994
1.126528
1.083612
1.179576
1.267791
1.232624
1.275539
1.235604
1.345873
1.295805
1.373887
1.606941
1.657605
1.634955
1.703501
1.675487
1.804829
1.955628
1.964569
2.051592
1.856685
2.304912
2.425909
2.704859
3.137589
3.324747
4.164577
8.159876
57.191849
156.707764
419.723988
762.348771
1015.862823
1015.862823
1015.862823
1015.862823
1015.862823
1015.862823
1015.862823
1015.862823
984.520912
614.225864
259.712934
117.448568
31.999946
14.111996
11.462569
11.986494
14.772415
20.108819
29.938817
42.585731
60.983896
75.409412
89.789629
97.325444
99.025965
93.349814
79.163909
66.501498
48.858523
37.546754
25.113821
18.780828
14.492869
12.282729
11.132956
11.293888
10.951757
11.011958
10.569692
10.540485
10.556579
10.696650
10.637641
10.665655
10.236502
10.431409
10.182858
##ZVALUE=330
0.932813
0.857711
0.951886
0.970960
0.814795
0.964999
0.996590
0.884533
0.984669
0.967979
0.834465
0.747442
0.967979
1.025796
0.905991
1.081824
0.953674
1.079440
1.094937
0.904799
0.942945
1.118779
1.054406
1.176000
1.065731
1.222491
1.240969
1.244545
1.276731
1.401901
1.582503
1.621842
1.409650
1.698732
1.724958
1.755953
1.838803
1.857877
1.956820
2.008677
2.172589
2.333522
2.617836
2.818704
3.041625
3.820658
4.919767
23.440719
79.595447
272.109509
529.948473
1008.557677
1015.861034
1015.861034
1015.861034
1015.861034
1015.861034
1015.861034
1015.860438
1015.861034
776.669979
353.900790
173.475742
56.178570
20.850897
11.639595
11.096001
12.514591
14.620423
20.946860
28.292537
41.395426
55.853724
73.656440
82.992911
91.859698
92.738867
86.004734
77.289939
60.861707
48.689842
34.277439
25.908947
18.538833
15.135407
12.432933
11.683702
10.799766
10.736585
10.620952
10.300875
10.276437
10.306835
10.026693
10.445714
10.121465
##ZVALUE=335
0.829697
0.843406
0.870824
0.835657
1.000762
0.812411
0.881553
0.826716
0.999570
0.969768
0.973940
0.803471
0.937581
0.947714
1.077652
1.008511
0.990629
1.025796
1.033545
0.869632
1.035929
1.084805
0.910759
1.091957
1.112819
1.123548
1.218915
1.190901
1.194477
1.251698
1.197457
1.308918
1.510978
1.458526
1.541972
1.625419
1.503825
1.607537
1.752973
1.830459
1.956820
2.073646
2.117753
2.204776
2.781749
2.816916
3.175735
3.440976
3.915429
11.397600
44.859648
194.033384
416.928530
923.612714
1015.861630
1015.861630
1015.861630
1015.861630
1015.861630
1015.861630
1015.861630
1015.861630
976.466537
508.374572
263.590813
90.061426
32.349825
12.832880
11.531711
11.773705
12.886524
15.180707
19.784570
29.236674
38.842559
54.716468
66.951513
79.402924
85.288882
86.677670
82.121491
70.494413
59.662461
45.591593
35.354495
25.723577
19.436479
14.467835
12.776852
11.097789
10.514855
10.392666
10.155439
10.242462
9.922981
10.035634
##ZVALUE=340
0.971556
0.711679
0.840425
0.768900
0.867844
0.941753
0.795722
0.766516
0.959635
0.855923
0.936985
0.970960
0.867844
0.886917
1.055598
0.860691
0.955462
0.886917
0.947714
1.012683
1.043677
1.035929
1.002550
0.965595
0.890493
1.065731
1.116991
1.217723
1.182556
1.191497
1.431704
1.407862
1.349449
1.403689
1.445413
1.587868
1.578927
1.439452
1.506805
1.716614
1.869798
1.803637
1.815557
1.964569
2.154708
2.248883
2.598763
2.852678
3.063679
3.348589
3.666878
6.104708
21.651983
113.919973
296.734571
773.720741
1015.844941
1015.844941
1015.844941
1015.844941
1015.844941
1015.844941
1015.844941
1015.844941
1015.844941
719.363689
388.575792
144.117475
51.093698
15.875697
12.813807
12.489557
12.313724
13.043880
15.071630
20.404458
26.581883
38.239956
49.290657
64.714551
74.284673
81.094503
80.615878
76.620579
69.204569
56.639910
46.185851
33.520460
26.017427
18.883944
14.694929
11.766553
10.753870
10.249615
9.954572
10.088682
##ZVALUE=345
0.933409
0.884533
0.980496
0.833869
0.909567
0.828505
0.907779
0.984669
0.884533
0.873804
0.995994
0.883937
0.968575
1.032948
0.834465
0.833869
1.152754
1.098514
0.860691
0.969768
0.878572
1.042485
1.046658
1.034737
1.112819
1.140833
1.208782
1.284480
1.172423
1.140833
1.153946
1.356602
1.197457
1.280904
1.362562
1.379848
1.301765
1.470447
1.563430
1.613498
1.614690
1.847744
1.891851
1.654625
1.830459
1.979470
2.125502
2.237558
2.528429
2.857447
3.196597
3.498793
3.692508
4.502535
10.166764
65.766573
191.100836
522.713661
918.333530
1015.861630
1015.861630
1015.861630
1015.861630
1015.861630
1015.861630
1015.861630
1015.861630
896.698833
504.966974
199.914575
81.114769
23.775697
13.639927
12.252927
11.833906
11.641979
11.854768
13.897419
17.258525
25.228858
33.198595
47.010779
57.687759
67.505836
73.088408
74.903965
72.635412
64.870715
56.292415
43.038726
33.515692
24.160743
18.879771
14.472604
12.051463
10.471940
##ZVALUE=350
0.699759
0.849962
0.903606
0.782609
0.689626
0.866652
1.001954
1.078844
0.992417
0.958443
0.851750
0.792742
0.817776
0.964999
1.108646
0.836849
0.962615
0.823736
0.907779
0.906587
0.963807
0.977516
1.135468
1.041889
0.978708
1.118779
0.903606
1.113415
1.024604
1.099706
0.997782
1.153946
1.107454
1.071692
1.276731
1.218915
1.164675
1.205802
1.214743
1.330972
1.201630
1.414418
1.457930
1.547933
1.589656
1.731515
1.851916
1.867414
1.918674
2.046824
2.314448
2.420545
2.560616
3.018975
3.290772
3.861785
5.397797
30.607581
100.325942
318.554640
615.614653
1015.820503
1015.820503
1015.820503
1015.820503
1015.820503
1015.820503
1015.820503
1015.820503
957.263708
585.656762
260.859728
112.894773
30.246973
14.321804
11.130571
10.742545
9.794831
9.620786
10.479689
12.357831
16.598701
22.025704
30.508637
38.904548
51.237941
59.482455
66.942573
69.016814
66.505671
60.771704
50.972700
42.428970
31.484962
24.589896
17.646551
##ZVALUE=355
0.713468
0.991821
0.818968
0.867844
0.846982
0.947714
0.988841
0.922680
0.929832
0.966787
0.906587
0.788569
0.928640
0.932813
0.944734
1.053810
0.991821
0.821948
1.211762
1.016855
0.916719
1.038909
0.924468
1.088977
1.176596
1.127720
1.131892
1.075864
1.263618
1.146793
1.273751
1.068711
1.250505
1.296997
1.234412
1.248717
1.297593
1.407862
1.466870
1.539588
1.508594
1.470447
1.418591
1.593828
1.590848
1.725554
1.794696
1.832843
1.759529
2.151728
2.100468
2.399683
2.560616
2.579689
2.759695
3.051758
3.230572
3.610849
4.328489
14.507771
55.170655
215.847492
446.079969
932.071805
1015.861630
1015.861630
1015.861630
1015.861630
1015.861630
1015.861630
1015.861630
1015.861630
746.889710
315.419436
145.448446
41.686893
16.344786
10.532737
9.809732
9.560585
9.389520
9.078979
9.633899
11.713505
14.583468
19.589663
25.769472
35.658479
43.852925
53.970814
60.066581
62.896609
61.878562
56.553483
49.524903
39.758682
##ZVALUE=360
0.959635
0.978708
0.915527
0.878572
0.952482
0.963807
0.670552
0.813603
0.970960
0.876784
0.968575
0.974536
0.861883
1.066923
0.938773
1.104474
0.952482
1.061559
1.071692
0.866652
1.031756
1.077652
1.137853
0.990629
1.125932
1.187921
1.221895
1.352429
1.351833
1.204610
1.184940
1.058578
1.170635
1.251698
1.297593
1.331568
1.279712
1.411438
1.346469
1.407862
1.683831
1.400709
1.510978
1.668930
1.565814
1.565814
1.668930
1.805425
1.929998
1.895428
2.106428
2.356768
2.138615
2.340674
2.458692
2.478957
2.783537
2.903938
3.435612
3.953576
4.257560
7.097721
24.743676
116.504431
281.789899
693.424940
1015.861630
1015.861630
1015.861630
1015.861630
1015.861630
1015.861630
1015.861630
1015.861630
988.357663
489.817858
240.255594
79.262853
28.442740
11.709929
10.179877
9.490848
8.912683
8.775592
8.717775
9.138584
9.714961
12.491941
15.524626
21.557808
28.748512
38.145781
45.803785
53.075552
56.034923
56.702495
##ZVALUE=365
0.895858
0.803471
0.915527
0.751615
1.025796
0.934601
0.955462
1.044869
0.952482
0.914931
0.945926
0.994802
0.929832
0.718832
0.997782
0.960827
0.897646
1.022816
1.120567
1.035929
1.004934
1.070499
1.053810
0.884533
1.002550
1.072884
1.092553
1.192689
1.104474
1.183748
1.333952
1.106858
1.223683
1.370907
1.209974
1.343489
1.312494
1.395941
1.386404
1.391768
1.409650
1.540780
1.609921
1.544952
1.534820
1.639724
1.706481
1.781583
1.697540
1.722574
1.916885
1.811981
1.908541
2.181530
2.231598
2.275705
2.176762
2.483726
2.796650
3.065467
3.327727
3.644824
4.092455
4.909635
10.407567
62.785745
172.104836
466.599464
858.014822
1015.861630
1015.861630
1015.861630
1015.861630
1015.861630
1015.861630
1015.861630
1015.861630
673.589706
344.207883
114.216805
41.042566
12.582541
9.443760
8.813739
8.411407
8.174777
7.888675
7.734895
7.857680
8.587837
10.371804
13.902783
17.825961
25.150776
31.821728
40.250421
##ZVALUE=370
0.895858
0.880957
0.900626
0.860691
0.803471
0.776649
0.895858
0.880957
0.796914
0.941753
0.865459
0.886917
0.926852
0.951886
0.871420
0.976920
1.037717
0.957847
1.126528
0.971556
1.058578
1.242757
1.019835
0.833869
0.924468
0.940561
1.008511
1.066923
0.904799
1.114607
1.077652
1.066923
1.159906
1.046658
1.100898
1.238585
1.202822
1.386404
1.361966
1.232624
1.235604
1.209974
1.277924
1.259446
1.303554
1.443624
1.561642
1.302958
1.492500
1.519918
1.487732
1.680851
1.606941
1.822710
1.700521
2.008677
2.046824
2.150536
2.434850
2.472997
2.711415
2.693534
2.847910
3.212690
3.437996
4.073977
6.160736
34.723878
113.565922
352.372527
677.672625
1015.861630
1015.861630
1015.861630
1015.861630
1015.861630
1015.861630
1015.861630
1015.861630
860.959888
476.431847
178.151727
73.710680
19.622445
10.418892
8.386970
8.049607
7.996559
7.419586
7.362962
7.169843
6.909966
7.518530
9.129643
11.663437
16.260743
##ZVALUE=375
0.889897
0.753999
0.831485
0.866652
0.794530
0.817776
0.917912
0.860691
0.930429
0.867844
0.824928
0.768900
0.701547
0.984669
0.883937
0.962615
0.928640
0.906587
0.910759
0.956655
1.046658
0.996590
0.841618
0.926852
0.954866
0.994802
1.150966
1.064539
1.043677
1.076460
0.991821
0.918508
0.892878
1.103878
1.184940
1.236796
1.097918
1.058578
0.994802
1.218915
1.190901
1.213551
1.130700
1.179576
1.276731
1.323819
1.286864
1.375675
1.449585
1.433492
1.354814
1.456738
1.481771
1.488924
1.437664
1.584888
1.643896
1.740456
1.857877
1.889467
2.099872
2.309680
2.340674
2.457500
2.586842
3.094673
3.388524
3.926754
4.627705
16.362667
59.417486
219.622850
479.440689
998.081565
1015.861630
1015.861630
1015.861630
1015.861630
1015.861630
1015.861630
1015.861630
1015.861630
687.862635
325.897932
153.296590
42.087436
14.909506
8.264780
7.791519
7.447600
6.972551
7.068515
6.733537
6.715655
6.747842
7.019639
##ZVALUE=380
0.801682
0.886917
0.752807
0.911951
0.810623
0.899434
0.972748
0.898838
0.823736
0.845790
0.767708
0.749826
0.873804
0.830889
0.852942
0.793934
0.783801
0.788569
0.621676
0.983477
0.931621
0.980496
0.784993
0.956655
0.917912
0.963807
0.988841
0.920892
0.831485
0.925660
0.814795
0.920892
0.982881
0.915527
1.012683
0.925660
0.984669
1.096725
1.020432
1.091957
1.010895
1.053810
1.169443
1.164675
1.164675
1.363754
1.227856
1.124740
1.159906
1.143813
1.207590
1.370907
1.363754
1.229644
1.424551
1.396537
1.546741
1.762509
1.423955
1.548529
1.846552
1.796484
1.901984
2.158880
2.206564
2.439618
2.652407
3.057718
3.454685
4.058480
4.572868
8.471608
34.331679
167.510509
381.428599
879.867673
1015.869975
1015.869975
1015.869975
1015.869975
1015.869975
1015.869975
1015.869975
1015.869975
973.644853
486.009717
243.043900
76.545477
26.653409
9.516478
7.599592
6.967783
6.982684
6.470680
6.361604
5.990863
##ZVALUE=385
0.790954
0.663996
0.664592
0.704527
0.740886
0.739694
0.654459
0.789762
0.719428
0.837445
0.764728
0.758767
0.717640
0.786781
0.790954
0.829697
0.826716
0.713468
0.744462
0.844598
0.836849
0.813603
0.735521
0.703931
0.865459
0.841618
0.760555
0.855923
0.912547
0.891685
0.827909
0.847578
0.824928
0.836849
0.810623
0.862479
0.767708
0.923872
0.903606
0.971556
1.015663
0.913739
0.969768
1.058578
0.956655
1.058578
1.173615
1.145601
1.200438
1.163483
1.317859
1.053810
1.285672
1.166463
1.154542
1.285672
1.343489
1.581907
1.620650
1.406670
1.481771
1.669526
1.656413
1.859665
1.895428
2.092719
2.168417
2.728701
2.805591
2.810955
3.336668
3.751516
4.301667
5.326867
15.327930
89.485049
231.202841
590.903759
982.548594
1015.866995
1015.866995
1015.866995
1015.866995
1015.866995
1015.866995
1015.866995
1015.866399
687.481761
377.098918
145.100951
52.981973
12.207627
7.753968
6.636977
6.445646
6.143451
##ZVALUE=390
0.691414
0.755787
0.578761
0.594854
0.661612
0.710487
0.542998
0.662804
0.611544
0.653863
0.756979
0.676513
0.872612
0.833869
0.808835
0.685453
0.669956
0.568628
0.600815
0.580549
0.551939
0.847578
0.687838
0.723600
0.878572
0.897646
0.712872
0.711679
0.723600
0.777841
0.911951
0.962615
0.849962
0.778437
0.841618
0.957847
0.944734
0.845790
0.981688
0.985861
1.064539
0.895858
0.913739
0.978708
1.000762
1.160502
0.998974
0.968575
1.149774
1.007915
1.113415
1.219511
1.252890
1.089573
1.295805
0.948906
1.261830
1.125932
1.252890
1.317859
1.520514
1.612902
1.612902
1.708865
1.762509
1.937747
2.095699
2.365708
2.655983
2.774596
3.064871
3.239512
3.477931
3.503561
3.915429
4.160404
7.570982
46.199560
150.264502
460.152626
862.842798
1015.859842
1015.859842
1015.859842
1015.859842
1015.859842
1015.859842
1015.859842
1015.859842
946.220756
544.436574
216.076970
95.074773
25.000572
9.369850
6.577969
##ZVALUE=395
0.766516
0.770688
0.740886
0.650883
0.764728
0.825524
0.637770
0.817776
0.582933
0.684857
0.675917
0.642538
0.723600
0.662804
0.769496
0.551939
0.715852
0.552535
0.774860
0.791550
0.546575
0.832677
0.724792
0.754595
0.755787
0.766516
0.829697
0.750422
0.823736
0.775456
0.765920
0.699759
0.785589
0.751615
0.613928
0.982881
0.819564
0.991821
1.067519
0.916719
1.010895
0.972748
0.935793
0.969768
0.919700
1.013875
0.926852
0.981688
1.005530
1.060963
0.988841
1.080632
1.121759
1.017451
1.260638
1.213551
1.130700
1.247525
1.075864
1.350641
1.348853
1.549721
1.522899
1.509786
1.632571
1.852512
1.805425
2.158880
2.385974
2.510548
2.612472
2.914667
2.911687
3.148913
3.048778
3.285408
3.594756
3.745556
4.788637
24.195910
91.904402
327.284932
643.371940
1015.861034
1015.861034
1015.861034
1015.861034
1015.861034
1015.861034
1015.861034
1015.861034
1015.861034
737.577081
335.140824
156.476498
45.561790
##ZVALUE=400
0.613928
0.648499
0.676513
0.553727
0.742674
0.775456
0.723600
0.742674
0.617504
0.658631
0.704527
0.738502
0.662804
0.717640
0.583529
0.666976
0.761747
0.893474
0.809431
0.648499
0.822544
0.613928
0.644922
0.571609
0.791550
0.891685
0.847578
0.875592
0.736713
0.780821
0.773668
0.792742
0.968575
0.881553
0.890493
0.814795
0.909567
1.162887
0.841618
0.997782
1.063943
0.778437
0.969768
1.008511
1.048446
0.997782
1.027584
1.091957
1.225471
1.245737
0.942945
1.264811
1.285672
1.110435
1.117587
1.103878
1.199841
1.227856
1.329780
1.300573
1.294613
1.386404
1.385808
1.490712
1.572967
1.815557
1.898408
2.009869
2.168417
2.402663
2.580881
2.681613
2.723932
2.588630
2.774596
2.669692
2.592802
2.970695
3.325939
3.883839
4.165769
13.362765
50.821900
198.774934
432.812572
946.543813
1015.865803
1015.865803
1015.865803
1015.865803
1015.865803
1015.865803
1015.865803
1015.865803
945.158601
467.910767
##END
