##TITLE=QP00601
##FORMAT=SPECTACLE-ASCII V-1.2
##DATA TYPE=ULTRAVIOLET SPECTRUM
##SECOND TYPE=ULTRAVIOLET SPECTRUM
##DATE=03/29/18
##TIME=14:12:42
##SPECTROMETER/DATA SYSTEM=SPECTACLE
##XUNITS=NM EM
##YUNITS=ENERGY
##YFACTOR=1
##FIRSTX=220
##LASTX=410
##NPOINTS=96
##3DDATA=Equidistant
##ZUNITS=NM EX
##FIRSTZ=210
##LASTZ=400
##ZPOINTS=39
##XYDATA=(Y..Y)
##ZVALUE=210
2.864599
2.809763
2.497435
2.690554
2.917647
2.879500
2.682805
3.128648
3.082752
3.101826
2.760887
2.632737
3.007650
2.809763
3.294945
3.035665
3.687739
3.968477
3.582835
4.935861
4.424453
4.288554
5.069971
3.829598
5.091429
5.538464
4.772544
5.558729
5.107522
5.394816
5.880594
5.942583
6.026626
6.236434
6.542802
6.810427
7.561445
7.122755
6.914735
7.235408
7.867813
7.792711
7.057786
7.777810
7.962584
7.807612
7.838607
8.349419
7.966757
7.950664
8.257627
10.454655
8.889437
8.893609
8.964539
9.323955
9.683967
8.810759
9.276867
9.268522
9.920597
10.066628
10.143518
11.009574
9.923577
10.485649
11.124611
13.049841
13.176799
19.078851
20.586848
25.496483
25.450587
29.830933
32.245517
33.075809
31.906962
31.734705
30.929446
27.882457
24.653673
20.722747
19.718409
15.283823
15.060902
12.628436
12.720823
9.545684
10.063648
9.539723
9.548664
9.405613
10.582805
9.817481
9.639859
10.909438
##ZVALUE=215
8.353591
8.241534
6.981492
5.575418
5.688667
5.136728
4.322529
5.486608
6.015897
6.036758
5.663633
5.105734
4.159808
3.808737
3.644824
3.669858
4.451871
4.173517
3.994703
4.046559
4.528761
5.363822
4.959702
4.862547
5.036592
5.435944
5.637407
5.778670
6.228685
6.334782
7.394552
7.720590
6.787777
6.368756
7.879734
6.873608
8.712411
8.158684
8.422732
8.431673
8.171797
7.955432
8.559823
8.596778
7.797480
8.221865
8.739829
9.727478
8.132458
8.911490
9.281635
9.961724
9.703636
9.982586
11.330843
9.514689
10.215640
10.554790
10.062456
9.565949
11.042953
10.466576
9.784698
10.774732
11.991858
11.309981
11.972785
12.886524
14.693737
18.244982
19.663572
23.478866
26.407838
27.877688
30.835867
30.598640
29.760599
29.495955
29.601455
27.050972
24.733543
22.488832
18.211603
16.735792
13.340712
14.145970
13.773441
12.674928
10.966659
10.908842
11.268854
9.538531
9.440780
10.453463
9.613633
10.163784
##ZVALUE=220
26.992559
27.959943
30.037761
27.469993
25.504827
20.068884
17.227530
11.973977
10.985732
10.617971
11.021495
13.584495
12.085438
12.144446
9.706616
8.113980
7.513762
5.667806
4.648566
4.881620
4.996657
4.764795
5.263686
5.232692
5.755424
5.225539
6.582737
6.139874
6.347895
6.729960
6.513000
7.571578
7.230639
8.232594
8.007884
8.081794
9.406805
7.635951
8.608699
8.367896
9.479523
9.387732
8.073449
9.156466
8.483529
10.370612
9.371638
9.493828
9.312630
10.185838
11.066794
10.298491
10.727644
11.236668
10.372996
10.328889
11.442900
11.386871
10.960698
12.247562
11.421442
11.041760
11.902452
12.077689
13.619661
12.967587
12.204647
13.925433
16.177893
18.800497
18.528700
22.692680
28.353930
28.422475
31.899810
31.017661
31.274557
31.496882
31.903982
27.056932
27.188659
23.772717
20.033717
18.607974
16.441941
15.677810
15.057921
12.693405
12.340546
12.391806
12.202859
12.178421
11.859536
10.373592
11.799932
10.407567
##ZVALUE=225
48.155785
50.466657
64.565539
83.717704
86.096525
87.366700
79.204440
63.122511
47.676563
33.956766
25.433898
23.456812
25.635958
25.293827
26.068687
24.428964
19.462705
17.063618
12.309551
11.061430
7.742643
6.469488
6.446838
5.717874
5.670786
5.630851
6.793737
6.659627
7.246733
7.367730
8.882880
7.531643
7.995963
8.025765
8.480549
9.003878
9.303689
9.451509
8.881688
9.411573
9.035468
9.429455
8.959770
10.465980
10.747910
11.367798
10.699630
11.412501
10.847449
11.123419
11.976957
11.226535
12.272000
12.559891
12.236834
13.578534
13.200641
14.005899
13.968945
15.046000
14.359951
14.814734
14.659762
15.176535
14.754534
14.418960
15.999675
17.275810
19.116998
20.230412
20.474792
24.769902
26.591420
28.678775
31.681657
30.982494
30.596852
30.671954
30.370951
28.338432
25.727749
22.249818
22.743940
19.271970
18.317699
17.309785
16.388893
16.566515
15.568733
14.974475
14.815927
14.400482
15.493631
14.434457
13.914704
14.516711
##ZVALUE=230
44.760704
52.555799
80.886483
135.773420
170.970559
215.135813
229.852796
223.962665
200.652480
163.561702
115.772486
80.970526
53.959489
46.589971
46.344995
47.572851
51.089525
48.938990
46.687722
36.782622
30.583739
19.753575
13.045669
9.935498
8.019805
7.685423
7.330775
6.972551
7.991791
8.170605
8.489490
8.262992
8.318424
8.513927
9.789467
9.705424
9.209514
8.940697
9.620786
9.249449
11.910796
9.383559
10.514855
10.592937
11.239648
10.969639
11.007786
11.570454
12.135506
12.342930
12.097955
12.225509
13.709664
14.122725
14.443994
13.832450
15.853643
15.779734
15.918612
17.697811
18.185973
17.452836
16.579628
17.980933
17.516613
18.667579
18.623471
19.559860
21.528602
25.215745
24.415851
29.429793
32.872558
35.184622
35.972595
35.139918
34.167767
33.858418
32.759905
29.956698
28.685927
27.249455
27.172565
25.015473
25.195479
23.589730
21.731853
21.276474
22.027493
21.324754
21.108985
19.603968
18.980503
21.958947
21.095872
20.781755
##ZVALUE=235
16.308427
20.618439
42.585731
96.315742
156.913996
250.258446
329.761505
411.456823
460.427999
450.935960
402.514935
318.573713
240.000486
152.542591
111.439824
85.612535
73.599815
75.718760
82.894564
81.115961
76.858997
68.146586
47.130585
36.247969
24.475455
18.077493
11.776686
10.661483
9.162426
9.819865
8.363724
8.772612
9.849668
9.470582
10.490417
10.340810
9.702444
9.407997
10.959506
10.513663
10.596514
11.123419
11.031628
11.185408
11.574626
11.981726
12.049675
11.273623
11.828542
11.867881
13.439655
13.778806
14.706850
15.373826
15.573502
15.173554
16.011000
15.857816
17.256737
17.951727
18.572807
17.543435
17.888546
19.252896
19.786954
21.362901
21.636486
23.720860
25.389791
27.735829
30.975938
34.402609
38.143992
39.761662
39.088726
41.584969
43.603778
41.024685
41.219592
38.344860
36.073923
34.218431
32.285452
31.204820
30.717850
28.538704
30.316710
28.701425
29.148459
27.167797
29.532909
26.839972
27.860999
27.608871
25.542974
27.241707
##ZVALUE=240
2.772808
3.060699
7.107854
24.587512
54.334998
133.756995
215.649605
383.371711
509.852767
630.662441
721.711516
750.487447
656.337738
558.486581
394.697785
277.905464
165.268779
124.947429
101.565719
99.022985
111.861825
115.862489
114.417672
95.812678
81.927776
61.641932
47.358871
32.091737
21.164417
15.598536
13.083816
9.433627
9.828806
9.792447
11.085868
10.727644
9.669662
10.575652
10.258555
10.481477
10.769963
11.625886
11.761785
12.331605
11.901855
11.467934
11.814833
12.382865
10.635853
12.325644
13.912916
13.469458
13.743639
13.721585
14.045835
15.623569
14.879704
16.733408
16.901493
17.994642
17.501712
19.604564
18.932819
20.123720
18.596649
20.221472
21.180511
23.211837
26.501417
28.967857
33.158660
35.514832
36.622882
40.752888
40.566921
42.844415
43.315887
44.497848
44.694543
42.240620
40.189624
37.440658
38.501620
36.654472
32.965541
34.219623
34.305453
32.348633
32.476783
32.879710
32.329559
31.522512
31.643510
31.342506
31.434894
31.339526
##ZVALUE=245
2.317429
2.420545
1.790524
2.357960
5.761981
16.678572
55.354834
114.148855
259.090662
396.560431
623.292923
780.268908
883.433819
934.912562
892.412663
737.893581
598.078966
390.430689
270.838737
157.563686
114.725828
99.846721
112.451911
123.725533
128.758550
127.581954
112.771988
94.385743
71.320534
56.759715
40.140748
24.511814
18.870831
11.903644
11.399984
11.234879
9.345412
9.915829
10.663867
9.443760
10.444522
9.647608
10.066628
11.089444
9.853840
10.019541
10.877848
11.768937
12.396574
11.360645
12.074709
12.426972
12.312531
12.515783
12.225509
12.614727
13.624430
13.718605
13.621449
13.914704
16.034842
17.031431
16.841888
17.070770
18.610954
19.297600
19.434690
22.559762
23.979545
26.145577
28.193593
31.456947
34.171939
36.724806
37.933588
39.753914
40.672421
38.337708
38.236976
39.424896
35.756826
35.438538
35.338998
33.115745
34.362674
30.916929
31.742454
33.546686
32.108426
32.234788
31.721592
31.740665
31.914711
30.781627
31.164885
32.543540
##ZVALUE=250
2.125502
2.104640
2.502799
2.433658
2.163649
2.305508
2.659559
13.930798
38.193464
85.659623
216.935873
380.783677
625.115633
811.028481
1005.292535
1015.861630
1015.861630
989.200473
843.515992
581.203699
392.144918
213.494897
137.090683
102.696419
101.837516
121.782422
131.858587
137.338638
135.590434
116.115808
101.090670
75.832605
57.080984
36.322474
24.571419
15.982985
11.808872
10.578632
10.415912
10.326505
10.189414
10.541677
9.975433
9.912848
10.544658
11.185408
10.934472
10.368824
9.967685
10.189414
11.777878
10.532737
11.297464
11.736751
11.193752
11.836886
11.093616
11.443496
12.187958
13.117790
13.043880
12.565851
13.992786
15.366673
16.329885
16.407967
16.769767
18.174648
20.029545
22.871494
24.973750
27.798414
30.369759
32.308698
33.662915
34.286976
34.304857
33.885837
33.297539
33.279657
33.652782
31.308532
31.193495
30.304790
29.511452
29.987693
30.172467
30.294657
29.589534
29.791594
31.295419
30.211806
31.073689
30.931830
29.679537
31.435490
##ZVALUE=255
1.829863
1.631975
1.589656
1.800656
2.345443
2.513528
2.039671
2.238750
3.145933
6.168485
31.042695
75.482726
163.731575
347.965956
542.479753
842.695832
1015.861630
1015.861630
1015.861630
1015.861630
1007.496715
821.958780
514.575839
320.042968
166.351795
111.144781
92.194676
103.563666
125.146508
138.234496
144.997835
139.865875
132.911801
103.656650
85.992813
57.319999
40.223598
23.316741
17.143488
11.661649
9.991527
9.896755
9.756684
9.516478
9.922981
10.599494
9.713769
9.970665
10.220408
10.084510
10.533929
10.997653
10.104775
10.644794
11.247993
10.818839
11.126995
11.358857
11.605620
11.551976
12.106895
12.788773
13.143420
13.045669
13.939738
15.909672
15.788674
17.743707
18.126965
19.988418
21.275878
23.609996
26.632547
27.503967
28.833747
30.047894
28.963685
29.345751
29.747486
28.613806
29.406548
29.037595
27.587414
28.295517
27.666688
28.231740
28.098822
27.285814
27.230978
27.702451
26.953816
28.292537
28.157830
28.435588
28.107762
27.807951
##ZVALUE=260
1.885891
1.864433
1.945496
1.605749
1.819730
1.982450
2.157688
1.937747
2.298951
2.658963
2.665520
3.910661
12.110472
50.594807
117.549896
283.135772
473.287702
781.829953
1006.392837
1015.920639
1015.920639
1015.920639
1015.920639
1005.084515
681.961775
470.042825
259.749889
156.703591
94.402432
88.435411
101.482868
126.336813
140.752792
150.535703
149.478912
132.759809
111.216903
83.040595
61.472654
39.428473
26.771426
17.059445
12.746453
10.255575
9.580851
9.523630
10.615587
9.955764
9.684563
10.115504
10.133982
10.232925
10.201931
10.447502
9.660721
10.256767
10.803938
10.706782
11.106730
11.379719
11.602640
12.674928
11.199713
12.509823
13.385415
14.004707
14.494658
16.047955
16.846657
18.517971
19.435883
21.202564
22.563934
24.733543
25.637746
26.299953
25.887489
26.688576
26.974678
26.169419
25.586486
25.304556
24.509430
24.925470
25.555491
25.800467
25.834441
25.142431
25.971532
26.908517
26.416779
26.039481
26.997924
26.408434
26.177764
26.597977
##ZVALUE=265
1.460910
1.548529
1.560450
1.381636
1.562834
1.641512
1.773834
1.854897
1.990795
2.053976
2.219677
2.109408
2.436638
3.073812
6.701946
33.842921
84.789991
218.585730
394.388437
748.596787
1010.200977
1015.809774
1015.809774
1015.809774
1015.809774
1015.809774
960.394740
653.267503
360.181928
209.210515
127.335787
78.751445
84.843636
111.217499
131.753683
151.913762
158.106685
150.269866
135.936737
110.419989
84.441900
57.887435
40.580630
25.942922
16.774535
12.131929
10.715723
10.440946
10.416508
9.842515
9.830594
9.808540
10.922551
10.379553
10.567904
10.462999
10.378957
10.905862
10.684729
10.660887
11.008978
10.970831
11.752844
11.550784
11.456609
12.544990
12.900829
14.027953
15.166998
16.965866
17.617941
19.760728
20.818710
22.498965
22.680759
23.708940
23.574829
23.077726
23.286939
23.264885
23.214817
23.319721
22.926927
23.174882
22.831559
23.556948
23.997426
24.420619
24.243593
24.142861
23.931861
23.842454
24.820566
23.911595
24.766922
24.807453
##ZVALUE=270
1.352429
1.695752
1.501441
1.448989
1.294613
1.444817
1.588464
1.743436
1.813769
1.775622
1.732707
1.844764
1.878738
2.282858
2.359748
2.688766
3.419518
16.455650
48.664808
154.537559
310.697556
558.103919
973.605514
1015.822887
1015.822887
1015.822887
1015.822887
1015.822887
1015.822887
917.470455
546.075702
322.446823
177.660584
82.632899
67.752600
85.908771
109.390616
138.064623
152.037740
155.973434
153.219700
136.852860
112.543702
83.287954
61.763525
39.720535
27.545691
17.646551
12.823939
10.411739
10.004640
10.391474
9.829998
10.384917
10.478497
10.626912
11.109710
10.853410
11.459589
11.399984
10.599494
11.417866
11.749864
11.887550
12.459755
12.852550
13.958812
14.280677
14.638901
15.947819
17.193556
19.081831
20.353794
20.465851
20.778775
22.419691
21.803975
21.472573
20.822883
21.574497
22.155643
21.211505
21.637678
20.952821
21.585822
22.539496
23.148656
21.609664
22.631884
21.810532
22.705793
23.714900
22.527575
22.232533
23.741722
23.408532
##ZVALUE=275
1.407862
1.430511
1.257658
1.428723
1.372695
1.462698
1.783967
1.556873
1.708865
1.761913
1.613498
2.017617
2.042651
1.907945
2.114773
2.435446
2.396703
2.608895
2.650619
7.468462
29.644966
86.355805
254.621506
481.739640
899.331570
1015.861630
1015.861630
1015.861630
1015.861630
1015.861630
1015.861630
1015.861630
832.497478
432.063937
243.002772
102.621913
63.329935
65.177679
82.108974
110.911727
132.686496
152.003765
154.345632
149.825811
134.573579
107.608438
85.996985
59.633851
42.821765
26.281476
18.509626
13.293624
11.197925
10.356903
10.332465
10.082722
10.985732
11.046529
10.786653
11.230707
11.607409
11.430979
11.748672
12.188554
12.663603
12.813807
13.520718
13.544559
14.485717
16.083717
17.194748
17.415881
19.072890
19.819736
20.058751
21.282434
21.219850
21.506548
20.859838
21.296740
20.504594
20.969510
20.411611
20.425916
21.033883
20.545721
21.763444
21.439791
21.926761
20.889640
21.358728
21.634698
21.173954
21.361709
21.847486
22.784472
##ZVALUE=280
1.429915
1.240969
1.279712
1.236796
1.379848
1.321435
1.229644
1.377463
1.452565
1.584888
1.674891
1.570582
1.728535
1.741648
1.854897
2.024770
2.177954
2.209544
2.260804
2.381802
2.828836
3.963709
22.828579
70.290565
149.188638
405.535698
674.844980
1015.861630
1015.861630
1015.861630
1015.861630
1015.861630
1015.861630
1015.861630
976.685882
568.924546
334.191918
141.410828
72.179437
48.081875
56.864619
83.689690
105.606914
131.011605
145.401955
151.026845
146.303773
128.931999
111.039877
81.219673
61.000586
39.447546
29.601455
17.994642
14.189482
12.036562
11.188984
10.928512
10.969639
11.349916
10.846853
11.683702
11.495948
12.214780
12.398958
13.293624
13.118982
14.563799
15.069842
15.344620
16.880631
17.259717
17.821789
19.572973
19.282699
20.098686
20.077825
20.008683
20.754933
20.031929
19.452572
20.046830
20.069480
20.086765
20.317435
20.539761
19.716620
21.297932
20.500422
20.219684
21.433830
21.031499
21.000504
21.420717
20.942688
20.889640
##ZVALUE=285
1.261830
1.322627
1.279712
1.222491
1.249909
1.365542
1.569986
1.372695
1.436472
1.289845
1.348853
1.549721
1.520514
1.657605
1.582503
1.782775
1.757741
1.969934
1.975894
2.176762
2.253652
2.409816
2.845526
3.254414
9.857416
34.237504
116.842985
249.114037
553.543568
863.254666
1015.861630
1015.861630
1015.861630
1015.861630
1015.861630
1015.861630
1015.861630
788.138509
488.089919
224.449635
110.699534
45.159459
38.873553
57.213902
76.675415
106.030703
124.604702
141.820908
148.537755
143.356919
133.438706
109.810829
87.039471
63.120723
45.074821
28.011799
18.992424
14.174581
12.570620
11.386871
11.772513
11.831522
11.579990
12.384653
12.506843
13.094544
13.987422
14.090538
15.613437
16.471744
16.654730
17.424822
18.080473
18.667579
19.328594
19.405484
19.840598
19.523501
19.512773
19.512773
19.799471
19.453764
19.936562
19.550920
20.104647
19.904971
20.097494
20.321608
20.016432
20.488501
19.965768
20.753741
20.262599
19.904971
19.601583
19.555688
##ZVALUE=290
1.085997
1.148582
1.329780
1.261830
1.201630
1.187921
1.172423
1.232624
1.469851
1.362562
1.439452
1.472831
1.269579
1.467466
1.412630
1.624823
1.719594
1.654625
1.706481
1.737475
2.004504
2.293587
2.261996
2.167821
2.810955
3.159642
4.708767
14.236569
65.441728
160.526037
318.422914
680.063963
1007.953882
1015.866995
1015.866995
1015.866995
1015.866995
1015.866995
1015.866995
1008.325815
696.419477
343.456864
171.113610
61.510801
33.004880
36.723614
50.715804
74.284673
94.698668
120.072961
135.738850
145.720840
144.162774
128.376484
110.024810
83.500743
63.384771
42.105913
29.925704
19.736886
15.883446
13.504624
12.688637
12.316704
12.712479
13.026595
13.442636
14.755726
15.708804
15.730858
16.074777
17.286539
17.828941
18.685460
18.650889
19.396544
19.555688
18.514991
19.185543
19.278526
19.430518
19.757748
19.950867
20.022988
19.830465
20.139813
19.816756
20.137429
20.602942
19.172430
19.717813
19.916892
19.750595
19.912720
19.875765
19.066930
##ZVALUE=295
1.215935
1.299977
1.112819
1.144409
1.120567
0.981688
1.174808
1.287460
1.323819
1.207590
1.207590
1.319647
1.447797
1.611710
1.445413
1.390576
1.451969
1.528859
1.523495
1.539588
1.651645
1.841784
1.960993
2.086759
2.094507
2.438426
2.830625
2.946854
3.718734
6.388426
23.695827
102.497935
234.289765
559.395552
905.749798
1015.864015
1015.864015
1015.864015
1015.864015
1015.864015
1015.864015
1015.864015
892.823935
468.760729
253.007412
87.565780
39.987564
25.278926
31.587481
49.852729
66.766739
93.145967
111.116767
130.112767
138.972998
134.007931
124.518871
102.588534
84.356666
60.169697
44.452548
28.723478
22.053719
16.691685
14.262795
13.541579
13.324618
14.168620
15.249848
15.773773
16.376972
17.626882
18.082857
18.603802
18.872619
19.606948
19.415617
20.064712
19.377470
19.584894
19.732714
19.866824
20.020604
19.986629
19.920468
20.710826
20.557642
20.091534
20.107627
19.661784
20.122528
19.784570
20.183921
19.877553
19.739866
19.832850
##ZVALUE=300
1.221895
1.138449
1.139641
0.987649
1.028776
1.094937
0.997782
1.185536
1.185536
1.437664
1.197457
1.136661
1.094937
1.288652
1.520514
1.358986
1.523495
1.425743
1.483560
1.493692
1.475811
1.573563
1.562834
1.732707
1.994967
2.024770
2.250671
2.531409
2.493858
3.041625
2.934933
3.568530
15.332699
53.414702
184.017420
360.248685
759.931803
1015.862823
1015.862823
1015.862823
1015.862823
1015.862823
1015.862823
1015.862823
1015.862823
722.016692
353.141427
183.273554
63.524842
27.638674
22.247434
29.066801
45.498610
61.332583
85.220933
105.308890
123.793483
131.629705
130.109787
123.474002
102.404952
84.497929
61.744452
46.229959
31.103492
23.069978
17.727613
16.265512
15.118718
15.634894
16.463995
17.061830
18.243790
18.969774
19.260645
19.914508
19.584894
19.703507
20.047426
20.354986
19.968748
19.982457
19.793510
20.744801
21.029711
20.282865
20.784736
20.501614
20.537972
19.935966
19.752979
20.061731
20.254850
20.083785
20.132661
20.393729
##ZVALUE=305
0.972748
1.048446
1.093745
1.017451
1.028776
0.960827
1.094937
1.083612
1.055598
1.264811
1.197457
1.272559
1.168847
1.343489
1.311898
1.321435
1.272559
1.559854
1.450777
1.356602
1.646876
1.476407
1.664758
1.586676
1.777411
1.967549
1.873970
2.065897
2.089739
2.198815
2.494454
2.845526
2.794862
3.116727
8.091927
29.790998
123.792887
270.884633
614.841580
963.665843
1015.861630
1015.861630
1015.861630
1015.861630
1015.861630
1015.861630
1015.861630
956.979394
503.438711
267.322659
95.603466
39.918423
17.743707
19.422770
29.463768
41.195750
63.963532
80.357790
101.628900
115.552545
125.214458
126.122832
115.595460
101.373792
78.906417
63.061714
44.207573
32.898784
23.092628
19.477606
17.758608
17.673969
18.426776
19.040704
19.360781
19.705892
20.037889
19.938946
19.976497
19.982457
20.533800
20.468831
21.131635
20.773411
21.395683
21.424890
21.813512
21.000504
20.962954
20.907521
21.036863
21.190643
20.254850
19.879937
20.210743
20.278692
##ZVALUE=310
0.909567
0.967979
1.044869
1.093745
1.071692
1.023412
1.286864
1.161695
1.169443
1.184940
1.138449
1.099706
1.145601
1.004934
1.198649
1.064539
1.149774
1.205802
1.451969
1.475811
1.394749
1.301765
1.450777
1.448989
1.580715
1.580715
1.673698
2.004504
1.959801
1.924634
1.914501
2.188683
2.248883
2.371669
2.842546
3.228784
3.901720
17.181635
59.021711
201.678872
403.842926
837.501884
1015.861630
1015.861630
1015.861630
1015.861630
1015.861630
1015.861630
1015.861630
1015.861630
765.767694
372.559428
193.365812
62.521696
24.266839
15.562773
18.154979
25.728941
37.226677
55.077672
71.472526
94.453692
108.782649
119.151473
120.701790
112.315416
100.187659
79.676509
63.675642
44.943690
35.091639
27.001500
22.273660
19.853711
19.646883
20.026565
19.716620
20.072460
20.156503
20.047426
20.367503
21.118522
21.160841
21.492839
21.295547
22.390485
21.926761
22.173524
22.078753
21.375418
21.962523
20.944476
20.919442
21.177530
21.143556
20.965934
##ZVALUE=315
0.932813
0.733733
0.788569
0.843406
0.725985
0.965595
0.992417
0.886917
1.012683
0.976920
1.088977
1.007915
1.031756
0.882745
1.018643
0.945926
0.912547
0.988841
1.086593
1.151562
1.136661
1.231432
1.247525
1.448989
1.307726
1.400709
1.420975
1.397729
1.455545
1.504421
1.575947
1.904964
1.804829
2.074838
2.235770
2.567768
2.446771
2.819896
3.425479
7.657409
29.064417
124.552846
274.339914
630.650520
988.132954
1015.736461
1015.736461
1015.736461
1015.736461
1015.736461
1015.736461
1015.736461
996.101499
541.329980
286.726952
100.857615
38.794875
15.651584
14.307499
17.968416
23.496747
36.620498
49.861670
69.779754
86.336732
104.507804
113.746524
114.099979
110.340714
94.178915
80.324411
62.248707
48.273802
35.100579
28.259754
23.656487
21.471977
20.463467
20.385981
20.780563
21.087527
21.186471
21.422505
21.691918
21.218657
21.931529
21.542907
22.356510
21.820664
21.684766
21.573901
21.578670
22.108555
21.555424
21.534562
20.395517
##ZVALUE=320
0.939965
0.863671
0.945926
0.994802
1.003742
1.025796
1.056790
0.847578
1.072884
1.092553
0.974536
1.003742
1.075864
1.047850
0.914931
1.077652
1.115799
1.227856
1.228452
1.278520
1.123548
1.298785
1.242757
1.408458
1.429915
1.408458
1.494884
1.713634
1.420975
1.469851
1.769662
1.709461
1.844764
1.838803
1.729727
2.150536
2.349615
2.234578
2.735853
3.102422
3.420711
4.468560
13.678670
74.479580
188.599229
489.590764
846.372843
1015.861630
1015.861630
1015.861630
1015.861630
1015.861630
1015.861630
1015.861630
1015.861630
717.719793
402.188897
164.954662
69.814920
21.022558
13.674498
14.378428
17.311573
23.694634
31.988621
48.930645
64.467788
84.455609
98.578930
110.113621
112.063885
106.167793
95.480680
76.400638
63.075423
46.726465
36.366582
28.867722
24.498701
22.071600
21.539927
21.310449
22.117496
21.569729
21.953583
21.809936
22.107959
21.720529
22.078753
22.413731
22.258759
22.231936
21.752715
21.544695
21.316409
21.005869
##ZVALUE=325
0.942945
0.912547
0.951886
0.958443
0.999570
0.967979
0.981688
0.997782
0.953674
0.927448
1.012683
0.926852
0.992417
1.036525
1.063943
1.075864
1.056790
1.074672
1.107454
1.095533
1.119971
1.076460
1.265407
1.362562
1.232624
1.335740
1.419783
1.517534
1.372695
1.336932
1.448989
1.467466
1.725554
1.697540
1.821518
1.809597
1.935959
2.150536
2.195835
2.445579
2.507567
2.641678
3.097653
3.589988
7.225871
46.708584
126.607418
339.607596
610.833764
1015.862823
1015.862823
1015.862823
1015.862823
1015.862823
1015.862823
1015.862823
1015.862823
857.495666
513.445735
223.211646
101.680756
29.181838
15.056729
12.810826
14.171600
17.449856
23.189783
33.787489
46.369433
66.832900
81.468821
96.457005
104.617476
106.680989
101.413727
87.905526
75.412989
57.972670
45.959949
34.362674
28.667450
23.995638
22.963881
21.945834
21.638870
22.028685
21.786690
22.141933
22.243857
22.100806
21.524429
21.656752
21.571517
21.695495
21.482706
21.416545
##ZVALUE=330
0.916719
0.882745
0.959635
0.928640
0.948906
1.006722
1.076460
0.884533
0.913739
0.904799
1.003742
0.878572
0.793934
0.905991
1.139641
1.090765
1.103878
0.974536
1.128912
1.020432
1.121759
1.137853
1.139641
1.065731
1.055598
1.182556
1.215935
1.123548
1.247525
1.327991
1.218915
1.282692
1.481771
1.541972
1.427531
1.626611
1.574755
1.767874
1.781583
1.950860
2.205968
2.357960
2.431870
2.592802
2.913475
3.640652
4.342794
20.464659
67.802668
229.445696
452.728868
911.977887
1015.866995
1015.866995
1015.866995
1015.866995
1015.866995
1015.866995
1015.866995
1015.866995
720.693469
327.340961
157.190561
52.066445
20.548701
12.932420
13.249516
14.502406
17.474890
25.107861
32.613873
46.934485
60.696602
79.211593
90.982914
99.889636
100.712776
95.671415
86.117983
69.370866
58.031678
43.964982
36.365986
29.230714
25.773644
23.333430
21.951795
21.501780
21.346807
21.666884
21.499991
21.430850
21.099448
20.622611
20.904541
20.953417
##ZVALUE=335
0.985861
1.052618
1.006722
1.016855
0.856519
0.853539
0.862479
0.876784
0.888705
0.874996
0.796914
0.897646
1.107454
0.978708
0.969768
1.081824
0.930429
1.035929
0.914931
1.075864
1.043677
1.019835
1.140833
1.131892
0.967979
1.152754
1.119971
1.142621
1.124740
1.111627
1.157522
1.289845
1.320839
1.217723
1.448989
1.430511
1.503825
1.572967
1.725554
1.717806
1.737475
1.849532
2.053976
2.164841
2.387762
2.517700
2.779961
3.098845
3.546476
9.420514
35.358667
147.244930
316.696763
709.503889
1015.861630
1015.861630
1015.861630
1015.861630
1015.861630
1015.861630
1015.861630
1015.861630
892.232656
460.077524
235.351920
78.671575
29.888749
14.074445
13.515949
14.139414
15.453696
19.037724
23.720860
34.043789
44.965744
61.295629
73.873997
86.660981
94.392896
95.241666
91.914535
79.369545
68.942904
54.623485
45.762658
34.957528
29.823780
25.256872
23.739934
21.925569
21.361709
20.526648
20.565987
20.285845
20.489693
20.555854
##ZVALUE=340
0.780821
0.875592
0.911951
0.783801
0.805855
0.819564
0.796914
0.938773
0.809431
0.913739
0.904799
0.934601
0.878572
0.976920
0.767708
0.922680
1.018643
0.883937
0.951886
0.856519
0.892878
0.970960
0.835657
1.103878
1.030564
1.045465
0.922680
1.093745
1.116991
1.171827
1.135468
1.227856
1.112819
1.214743
1.306534
1.291633
1.310706
1.454949
1.395941
1.551509
1.552701
1.719594
1.702905
1.681447
2.036691
2.051592
2.138615
2.403855
2.683997
2.975464
3.220439
5.214810
17.353892
91.076493
228.491426
577.276945
956.076980
1015.836000
1015.836000
1015.836000
1015.836000
1015.836000
1015.836000
1015.835404
1015.836000
570.040941
308.280587
118.822455
45.706630
16.328692
13.576746
14.056563
14.720559
15.838742
18.593669
24.757981
31.632781
44.149756
56.231618
71.308613
82.841516
89.558959
90.965629
86.377859
79.037547
66.334605
55.881739
43.911934
35.919547
28.738976
24.880767
21.709800
20.654798
20.043850
20.192862
19.764900
##ZVALUE=345
0.937581
0.854731
0.806451
0.778437
0.829697
0.759959
0.890493
0.871420
0.750422
0.855923
0.895858
0.690818
0.958443
1.030564
0.919700
0.882745
0.768900
0.844598
1.084805
0.942945
0.809431
0.896454
0.961423
1.000762
1.096725
0.900626
0.979900
1.121759
1.236796
1.185536
1.034737
1.214743
1.209974
1.200438
1.305938
1.333952
1.369715
1.359582
1.283884
1.590848
1.659989
1.459718
1.513958
1.536608
1.643896
1.951456
2.036691
2.189875
2.005696
2.489686
2.375841
2.531409
3.112555
3.784895
8.503795
52.985549
150.095820
402.858853
711.542964
1015.861630
1015.861630
1015.861630
1015.861630
1015.861630
1015.861630
1015.861630
1015.861630
762.422681
420.780778
159.440637
68.704486
23.030639
15.085936
13.975501
14.147758
14.440417
15.357733
18.251538
22.118688
30.459762
39.551854
54.446459
64.793825
76.074600
82.409978
84.109902
81.657767
73.436499
64.847469
53.352714
43.380857
33.327937
28.471947
23.890734
21.434426
19.941926
##ZVALUE=350
0.664592
0.702739
0.613928
0.729561
0.726581
0.537634
0.734925
0.723600
0.725985
0.835657
0.668764
0.926852
0.796914
0.828505
0.808835
0.776649
0.698566
0.704527
0.836849
0.965595
0.728965
0.643730
0.812411
0.906587
0.885725
1.067519
0.879765
0.942945
0.994802
0.794530
0.942945
1.126528
1.006722
1.022816
0.982881
1.074672
0.988841
1.171827
1.224875
1.191497
1.128912
1.284480
1.259446
1.498461
1.462698
1.599789
1.696944
1.735687
1.813769
1.897812
1.857877
2.068877
2.311468
2.557635
2.746582
3.278852
4.555583
24.585724
81.299543
257.614851
496.614575
969.137549
1015.734673
1015.734673
1015.734673
1015.734673
1015.734673
1015.734673
1015.734673
910.658836
550.758839
241.584778
105.494857
29.547811
15.410781
13.013482
13.247728
12.785792
13.575554
14.988780
16.889572
22.166967
27.939677
36.978722
46.104789
58.578849
67.127943
75.240731
76.987743
75.493455
70.392489
59.571862
50.496459
40.063858
33.110976
26.616454
##ZVALUE=355
0.858903
0.800490
0.894666
0.876784
0.813603
0.949502
0.925660
0.953674
0.753999
0.737906
0.967979
0.964999
0.930429
0.988841
1.034737
1.025796
0.916719
1.061559
0.953674
0.961423
1.033545
0.944734
1.062751
1.014471
1.051426
1.075864
1.018643
1.051426
1.159906
1.127720
1.179576
1.038909
1.181960
1.220703
1.194477
1.314878
1.173615
1.361966
1.280904
1.329780
1.395941
1.433492
1.538992
1.439452
1.449585
1.511574
1.518726
1.709461
1.918674
1.859665
2.115965
2.293587
2.338886
2.156496
2.425909
2.984405
2.869964
3.491640
3.962517
12.274981
43.698549
179.196596
375.081897
803.135633
1015.861630
1015.861630
1015.861630
1015.861630
1015.861630
1015.861630
1015.861630
1015.861630
742.269754
319.338441
148.838758
43.250918
18.342733
13.051629
12.666583
12.892485
12.778640
13.469458
14.052987
16.181469
18.879771
25.669932
32.089949
42.356849
50.684810
60.501695
66.598654
70.962906
70.079565
64.853430
57.759881
48.125982
##ZVALUE=360
0.918508
0.825524
0.981688
0.806451
0.917912
0.891685
0.932813
0.908971
1.060963
1.060963
0.874996
0.823736
0.874996
0.916719
0.972748
0.854731
0.889897
0.923872
0.868440
0.972748
0.978708
1.049638
0.938773
0.975728
1.097918
1.039505
1.088977
1.001954
1.202822
1.263618
1.100898
1.139641
1.226664
1.241565
1.072884
1.080632
1.142621
1.331568
1.271963
1.365542
1.463890
1.318455
1.414418
1.506805
1.535416
1.476407
1.617670
1.619458
1.746416
1.871586
1.928806
1.662970
2.072453
2.041459
2.204776
2.303720
2.379417
2.682805
2.967715
3.171563
3.765821
5.986691
20.417571
95.544457
229.327679
559.653640
949.302912
1015.861630
1015.861630
1015.861630
1015.861630
1015.861630
1015.861630
1015.861630
860.646963
414.852500
208.787918
69.945455
27.034879
12.753606
11.995435
11.653900
11.848807
11.846423
11.881590
12.978911
13.869405
17.346740
21.008849
27.507544
34.501553
44.765472
52.610636
60.082674
63.755512
63.891411
##ZVALUE=365
0.877976
0.894666
0.909567
0.932813
0.857711
0.964999
0.891685
1.073480
0.749826
0.868440
0.951886
0.876784
0.815988
0.889897
0.870824
0.860691
0.901818
0.950694
0.964999
1.065731
0.966787
0.980496
0.985861
0.803471
0.963807
1.016855
1.063943
1.166463
1.063943
1.009703
1.127720
1.231432
1.143813
0.946522
1.155734
1.139641
1.156926
1.168847
1.197457
1.212955
1.280904
1.219511
1.488924
1.360774
1.302958
1.507998
1.584888
1.405478
1.473427
1.683831
1.670718
1.667738
1.792908
1.926422
1.953840
2.023578
2.302527
2.403855
2.437830
2.524853
2.980828
3.285408
3.478527
4.481673
9.379983
53.385496
146.190524
393.446684
733.425617
1015.861630
1015.861630
1015.861630
1015.861630
1015.861630
1015.861630
1015.861630
1015.861630
601.776838
319.310427
108.077526
40.594935
13.868809
11.506677
10.768771
10.953546
11.031628
11.084676
11.121631
11.578798
12.790561
14.720559
18.694997
22.971630
30.148625
37.130713
46.540499
##ZVALUE=370
0.825524
0.732541
0.871420
0.855923
0.759959
0.800490
0.717640
0.880957
0.835657
0.893474
0.866652
0.900626
0.855923
0.875592
0.835657
0.766516
0.996590
0.918508
0.945926
0.956655
1.026988
0.846982
1.005530
1.065731
1.122952
1.010895
1.128912
0.985861
1.047850
1.043677
1.170635
1.101494
1.212955
1.130700
1.152754
1.157522
1.050830
1.111627
1.196861
1.021624
1.200438
1.057982
1.136661
1.193881
1.312494
1.411438
1.506805
1.400709
1.447797
1.475811
1.676679
1.602769
1.727939
1.582503
1.525879
1.792908
1.859665
1.860857
1.994967
2.079606
2.332926
2.501607
2.585649
2.890825
3.268719
3.774762
5.312562
27.395487
91.232657
291.723013
560.173988
1005.979776
1015.867591
1015.867591
1015.867591
1015.867591
1015.867591
1015.867591
1015.867591
764.190555
435.135961
167.989731
69.848895
19.686818
11.712909
10.405779
10.120869
9.825826
9.803772
9.950995
10.398626
10.801554
11.545420
12.977719
15.635490
20.685792
##ZVALUE=375
0.784993
0.821948
0.759959
1.056790
0.890493
0.744462
0.883937
0.855923
0.851750
0.879765
0.780821
0.810623
0.865459
1.005530
0.813603
0.760555
0.862479
0.942945
1.006722
0.651479
0.713468
0.783801
0.925660
0.836849
0.955462
0.818968
0.877976
0.991821
0.921488
1.050830
0.898838
0.852942
1.010895
0.789762
1.044869
0.948906
0.926852
1.018643
1.046658
1.092553
1.097918
1.243949
1.146793
1.134872
1.067519
1.194477
1.169443
1.217723
1.112819
1.364946
1.386404
1.338720
1.489520
1.344681
1.415610
1.425743
1.554489
1.764894
1.682639
1.766682
1.921654
2.034903
2.046824
2.257824
2.394915
2.648830
2.877712
3.361702
3.996491
13.052821
46.314597
171.181560
382.303596
879.290700
1015.861630
1015.861630
1015.861630
1015.861630
1015.861630
1015.861630
1015.861630
952.741504
606.550574
299.629569
145.434737
41.515827
15.965700
9.782910
9.382963
8.944869
9.309649
9.092689
9.219646
9.616613
10.073781
10.759830
##ZVALUE=380
0.755787
0.635982
0.684857
0.723600
0.804663
0.877976
0.787973
0.812411
0.707507
0.758767
0.783801
0.790954
0.779629
0.672936
0.808835
0.688434
0.868440
0.888705
0.711679
0.769496
0.664592
0.650883
0.833869
0.877976
0.858903
0.895858
0.805855
0.914931
0.771880
0.914931
0.976920
0.992417
0.943542
0.959635
0.956655
1.024604
0.797510
1.002550
0.778437
0.950694
1.011491
1.091957
0.929832
0.966787
1.180768
1.367927
1.116991
1.167655
1.155734
0.971556
1.206994
1.291633
1.129508
1.279712
1.146793
1.335740
1.250505
1.509786
1.551509
1.526475
1.550913
1.715422
1.672506
1.740456
1.931787
2.104640
2.317429
2.452731
2.869964
3.274679
3.789663
6.699562
25.990009
124.707818
288.631916
675.503612
1015.861630
1015.861630
1015.861630
1015.861630
1015.861630
1015.861630
1015.861630
1015.861630
778.175592
380.303860
193.732977
64.014792
24.119616
10.043979
8.624792
8.664727
8.476973
8.525848
8.307695
8.503795
##ZVALUE=385
0.588894
0.739694
0.632405
0.668764
0.714660
0.745654
0.756979
0.762939
0.839829
0.747442
0.835657
0.807643
0.773668
0.694990
0.741482
0.797510
0.794530
0.924468
0.805855
0.873804
0.819564
0.769496
0.826716
0.844598
0.678897
0.738502
0.727773
0.980496
0.825524
0.904799
0.848770
0.855923
0.888705
0.825524
0.719428
0.838637
0.923872
0.948906
0.948906
0.769496
1.001954
0.978708
0.972748
1.037717
1.077652
1.203418
1.038909
1.026988
1.061559
1.093745
1.171827
1.053810
1.174808
1.106858
1.129508
1.185536
1.285672
1.204610
1.331568
1.169443
1.355410
1.450777
1.672506
1.551509
1.667738
1.872778
2.086759
2.207756
2.408624
3.006458
3.111959
3.273487
3.561974
4.485846
12.278557
69.855452
183.349848
471.450686
831.087828
1015.861630
1015.861630
1015.861630
1015.861630
1015.861630
1015.861630
1015.861630
985.955000
555.842519
314.059854
123.431683
46.455860
12.479424
8.636713
8.105636
7.936954
7.799864
##ZVALUE=390
0.737906
0.746846
0.668764
0.842810
0.718832
0.781417
0.765920
0.709891
0.747442
0.701547
0.766516
0.912547
0.809431
0.674725
0.664592
0.733733
0.803471
0.712872
0.609756
0.812411
0.843406
0.961423
0.827909
0.804663
0.790954
0.902414
0.874996
0.779629
0.760555
0.763535
0.957847
0.786781
0.917912
0.834465
0.735521
0.894666
0.773668
0.921488
1.038909
0.996590
0.847578
0.934601
1.066923
1.030564
0.819564
0.875592
0.995994
1.100898
1.052618
1.152754
0.966787
1.096725
1.049638
1.189709
1.224875
1.242757
1.209974
1.172423
1.371503
1.369715
1.413822
1.503825
1.596808
1.506805
1.588464
1.618862
1.673698
2.139807
2.352595
2.720952
2.627969
2.885461
2.963543
3.063679
3.280640
3.690720
6.177425
37.350655
123.078823
380.176902
724.534988
1015.861630
1015.861630
1015.861630
1015.861630
1015.861630
1015.861630
1015.861630
1015.861630
796.456933
450.758934
178.982615
80.578923
22.955537
9.797812
7.876754
##ZVALUE=395
0.685453
0.602603
0.721812
0.667572
0.704527
0.706911
0.530481
0.622869
0.705719
0.650883
0.567436
0.661612
0.649691
0.765920
0.651479
0.767708
0.929832
0.775456
0.778437
0.748634
0.599623
0.603795
0.772476
0.745654
0.779629
0.821948
0.891685
0.736713
0.815988
0.667572
0.926852
0.791550
0.815988
0.806451
0.889897
0.824928
0.695586
0.964999
0.732541
0.990629
0.998974
0.959635
0.945926
0.898838
0.930429
0.924468
0.944734
1.052618
1.148582
1.127720
1.017451
0.969768
1.020432
1.033545
1.061559
1.181960
1.187921
1.294613
1.221895
1.130700
1.300573
1.219511
1.295805
1.494884
1.396537
1.655817
1.801848
1.728535
2.112985
2.347827
2.486706
2.651811
2.619624
2.698898
2.653599
2.867579
3.038645
3.262758
3.989935
19.745827
76.079965
270.070434
536.805391
999.310017
1015.855670
1015.855670
1015.855670
1015.855670
1015.855670
1015.855670
1015.855670
953.732729
598.024726
271.215439
127.008557
38.498640
##ZVALUE=400
0.592470
0.668764
0.577569
0.555515
0.694990
0.749826
0.624657
0.583529
0.639558
0.770688
0.753999
0.665784
0.770688
0.582933
0.732541
0.821948
0.717640
0.707507
0.764728
0.740886
0.763535
0.640750
0.700951
0.742674
0.824928
0.624657
0.690818
0.658631
0.807643
0.809431
0.943542
0.819564
0.912547
0.990629
0.829697
0.909567
0.798702
0.796914
0.920892
0.796914
0.903606
0.877976
1.042485
0.811815
0.949502
1.080632
1.065731
0.813603
1.006722
0.833869
1.007915
1.189709
1.112819
1.001954
1.084805
1.026988
1.033545
1.130700
1.167655
1.082420
1.286864
1.324415
1.396537
1.406670
1.561642
1.555681
1.768470
1.865625
2.023578
2.299547
2.208948
2.609491
2.544522
2.437830
2.235770
2.413988
2.360940
2.824664
2.944469
3.275871
3.910661
10.420680
40.541887
160.195827
360.739827
837.046504
1015.858650
1015.858650
1015.858650
1015.858650
1015.858650
1015.858650
1015.858650
1015.858650
761.657953
368.842483
##END
