##TITLE=QP00602
##FORMAT=SPECTACLE-ASCII V-1.2
##DATA TYPE=ULTRAVIOLET SPECTRUM
##SECOND TYPE=ULTRAVIOLET SPECTRUM
##DATE=03/29/18
##TIME=14:15:54
##SPECTROMETER/DATA SYSTEM=SPECTACLE
##XUNITS=NM EM
##YUNITS=ENERGY
##YFACTOR=1
##FIRSTX=220
##LASTX=410
##NPOINTS=96
##3DDATA=Equidistant
##ZUNITS=NM EX
##FIRSTZ=210
##LASTZ=400
##ZPOINTS=39
##XYDATA=(Y..Y)
##ZVALUE=210
2.961755
3.080964
3.504753
3.397465
2.953410
3.517866
3.253818
3.543496
3.374815
3.753901
3.582835
3.547668
3.415942
3.640652
3.789663
4.407763
4.123449
4.970431
4.949570
5.502701
4.782677
5.123615
6.048679
6.056428
6.489754
7.627606
6.757975
7.099509
7.510781
8.201599
7.600784
8.401871
9.049773
9.364486
9.217858
9.125471
10.321736
9.184480
9.995699
9.244680
11.818409
11.197925
11.905432
10.561943
11.238456
11.631846
12.689829
12.331605
13.169646
13.511777
12.551546
13.140440
13.383627
12.667775
15.505552
14.765859
15.153885
15.101433
14.368892
14.388561
15.538931
14.815927
14.570951
15.776753
16.885996
17.085671
17.113686
19.653440
22.467971
24.246573
33.232570
36.599636
42.059422
46.989918
52.715540
52.439570
56.308508
54.677725
57.354569
53.002834
48.178434
44.368505
35.870671
32.524467
26.037693
21.002889
18.811822
15.866756
15.290976
12.960434
13.198853
14.795661
12.694597
14.837980
14.544725
13.953447
##ZVALUE=215
9.642839
10.212660
9.111762
7.118583
6.095767
6.530881
5.189776
5.365610
6.050467
6.316900
5.394816
6.455779
5.687475
5.121827
4.455447
4.577637
4.401803
5.469918
4.923940
5.442500
5.689859
6.272793
5.944967
7.627606
7.210970
7.673502
7.610917
8.612871
8.027554
8.214712
8.347631
9.542704
9.091496
9.164810
9.100437
9.292960
10.517836
9.748936
9.421706
10.891557
11.011958
10.306835
10.401607
10.584593
12.152791
11.372566
11.106730
11.151433
10.788441
11.847615
12.227893
12.448430
13.528466
12.277961
13.583899
14.683604
13.600588
14.618635
13.521910
13.042688
15.504956
14.814734
14.118552
14.770627
14.879704
15.770793
16.426444
19.083619
20.097494
25.302768
28.705597
36.635995
36.964417
45.860410
46.694875
50.483942
53.382516
53.529739
54.532886
47.085881
45.356750
43.676496
38.035512
29.506683
25.281906
23.035407
18.830895
17.362833
16.268492
13.800859
14.430881
14.117956
13.045669
14.157891
14.740825
14.316440
##ZVALUE=220
38.064718
39.295554
41.352510
40.723681
33.441782
28.352737
21.120906
15.914440
12.658834
12.636781
13.101697
12.831688
13.539791
12.045503
9.510517
9.640455
7.664561
6.700754
5.447865
5.719662
6.020665
6.218553
6.793737
6.930828
7.414818
7.772446
7.332563
6.973743
8.112788
9.018779
9.484887
9.117723
9.787679
9.185672
10.740757
9.838939
10.685921
10.708570
10.493994
10.927916
10.638833
11.246800
11.566877
11.436939
12.369752
10.951757
11.490583
11.578798
12.217760
12.684464
12.914538
12.708902
13.201833
14.299750
13.639927
13.250709
13.898611
14.484525
14.050603
15.368462
15.136600
14.967918
15.577674
15.519857
16.077757
15.838742
16.066432
19.121766
23.020506
22.946596
27.951598
30.001998
37.532449
39.190650
38.799644
43.508410
44.185519
42.407513
39.659739
40.344596
34.856796
32.867789
28.599501
25.370717
20.955801
19.163489
18.991828
16.594529
16.069412
14.599562
15.519857
14.009476
13.425946
14.741421
14.034510
14.332533
##ZVALUE=225
70.145726
71.818829
90.599656
107.588768
119.631886
113.765597
103.326440
77.359676
56.999922
38.443804
29.827952
24.132729
24.233460
24.825931
25.431514
25.234818
22.661686
17.366409
15.052557
11.020899
8.210540
7.649660
6.470680
7.138848
7.077456
7.907748
7.870793
8.439422
8.536577
8.439422
8.477569
9.999871
9.798408
9.250641
9.500980
10.038614
11.043549
10.792613
10.024905
11.398792
11.671782
11.546612
11.470914
12.525916
12.733936
13.107657
12.510419
13.083816
12.486577
12.782812
13.181567
15.039444
14.559627
15.150905
16.688704
15.863776
14.872551
14.772415
16.900897
15.779734
16.654730
17.444491
17.858744
16.068816
16.694665
16.893744
18.415451
19.162893
20.447969
23.640990
25.855899
28.906465
33.579469
34.580827
37.881732
36.550760
37.679672
35.780668
34.869909
31.666756
30.146837
26.193857
26.103854
23.341775
22.688508
20.415783
19.405484
18.633604
15.945435
17.630458
16.572475
16.444921
16.264915
16.410947
17.531514
17.442703
##ZVALUE=230
61.458945
68.260431
106.715560
168.460608
217.778683
259.947777
275.318623
269.104838
236.327648
193.583965
131.273866
88.155866
59.873462
47.027469
43.898821
47.133565
48.597455
50.828457
45.457482
37.512779
30.197501
19.803643
14.205575
9.700656
10.064840
8.188486
8.736849
8.715987
8.610487
9.512901
10.048747
10.536909
10.080934
10.515451
11.632442
10.949969
12.128949
9.983778
11.568666
10.703802
12.223721
11.165738
11.360645
12.660623
13.558865
11.548996
13.506413
13.047457
13.572574
13.361573
15.057921
16.236901
17.194748
17.119646
17.751455
18.217564
19.158721
18.379688
19.038916
19.784570
19.328594
20.916462
19.811988
20.889640
20.305514
21.350980
21.781921
23.483634
26.325583
29.787421
28.712749
34.964681
35.210848
41.181445
41.993856
42.366982
40.647984
40.205717
36.326647
35.665631
34.211874
30.605793
30.451417
29.736757
25.980473
26.120543
24.831891
24.493933
23.803711
21.847486
22.314787
23.507476
21.789670
23.136735
22.069812
23.118854
##ZVALUE=235
20.259619
24.395585
52.815676
129.085779
208.079815
330.351591
425.096750
554.360747
591.298938
588.513613
527.261496
423.950553
281.489491
201.922655
123.827457
91.142654
71.480870
76.223612
80.434680
79.969764
78.035593
65.301657
53.118467
38.144588
27.319789
18.079877
14.177561
11.035800
10.465980
10.346770
9.783506
11.375546
11.485815
10.552406
11.002421
10.949969
11.323690
12.235641
12.390614
12.000799
13.416409
12.690425
13.384819
13.388991
13.648868
12.376904
13.997555
15.332699
13.984442
15.526414
14.139414
17.977953
16.673803
16.254783
16.250610
19.000769
19.991994
20.025969
20.076632
19.416809
19.339919
21.508932
22.678971
21.112561
24.162531
25.754571
24.994612
27.640462
28.783679
33.089519
35.515428
38.959980
42.611957
48.546791
48.225522
49.733520
47.638416
46.868920
46.338439
44.911504
45.641661
40.637851
39.408803
35.757422
34.660697
35.727620
31.252503
30.512810
33.610463
29.520988
30.402541
31.294823
28.932691
30.376911
28.878450
28.180480
##ZVALUE=240
2.924800
3.665686
7.941723
32.461882
68.186522
161.764622
274.374485
456.683636
621.015429
769.065022
887.555480
907.431841
817.755461
690.296888
504.548550
355.226994
195.763707
138.746500
107.385516
101.127625
107.600689
116.469860
114.834905
101.428628
88.277459
60.528517
49.172640
35.118461
22.877455
18.108487
14.696717
12.190938
12.959838
13.237596
13.751984
13.059974
14.279485
14.219880
12.284517
12.443662
14.681816
13.809800
13.939738
14.243722
13.999939
14.090538
15.370846
15.733838
16.068816
16.986728
16.617775
17.584562
18.878579
18.763542
18.955469
18.575788
19.203424
21.954775
21.731853
21.431446
23.533702
23.632646
22.949576
24.806857
26.277900
26.471615
28.845668
32.302737
32.329559
38.715601
41.972995
44.055581
46.730638
50.955415
55.664778
57.660937
54.835677
53.332448
53.783655
51.961541
47.669411
45.556426
45.446754
42.273998
40.579438
39.021969
41.239858
35.890937
37.103891
35.882592
39.571524
38.158894
34.224987
36.154985
35.364628
37.713647
##ZVALUE=245
2.253652
2.499819
2.506971
2.640486
8.243918
21.146536
66.667795
138.538480
310.983658
480.899811
806.288719
1015.862823
1015.862823
1015.862823
1015.862823
1015.862823
1015.862823
838.095546
593.658686
323.445797
196.789503
127.182603
117.133856
131.099820
135.280490
131.741762
115.389824
97.352862
73.098540
55.410862
41.104555
26.632547
21.382570
14.974475
14.131665
13.076663
12.953877
12.401938
14.195442
13.131499
14.783740
13.891459
14.363527
14.391541
14.357567
14.859438
15.229583
14.172792
15.436411
14.407635
16.393661
14.757514
15.885830
16.056895
16.642809
16.333461
16.150475
18.305779
18.267632
17.855763
18.003583
20.001531
19.904971
20.739436
22.024512
22.972822
24.556518
26.666522
27.498603
32.289624
35.476685
39.251447
42.823553
44.862628
49.237609
49.761534
48.092604
48.608780
47.507882
43.957829
43.045878
42.515993
36.892891
37.895441
38.803816
37.218928
36.478639
35.678744
35.621524
35.017729
37.192702
35.821795
37.493706
35.642982
34.046769
36.551952
##ZVALUE=250
1.998544
2.153516
1.971722
2.339482
2.667904
3.066659
4.554987
14.434457
56.127906
123.944879
291.913748
477.198958
705.564618
1003.627777
1015.861630
1015.861630
1015.861630
1015.861630
1015.861630
816.340446
548.112988
347.157717
178.976655
119.854808
110.643506
120.009780
139.692426
143.228769
136.286616
122.774839
107.099414
79.899430
63.095689
38.478971
26.699901
17.006993
13.586879
11.636615
11.310577
11.604428
11.013746
11.382699
11.082888
12.272000
11.828542
12.115836
11.238456
11.321902
12.507439
12.390614
13.509989
12.283921
11.976957
13.038516
13.970733
12.207627
14.707446
13.845563
13.666749
13.866425
14.821887
15.099645
14.793873
16.290545
17.243624
17.908812
19.270778
20.569563
22.487640
24.871826
28.221607
30.385852
31.071901
34.857988
38.024783
38.623810
38.093925
36.706924
36.787987
37.334561
34.515858
36.749840
32.774806
32.308698
29.987693
32.469630
30.915737
31.299591
32.042861
30.493736
32.129884
30.519962
31.742454
31.884909
31.836629
32.995939
##ZVALUE=255
1.895428
1.961589
1.703501
2.158880
2.404451
1.961589
2.271533
2.412796
3.414750
8.019805
39.791465
99.040866
207.458735
417.401791
633.087754
942.377448
1015.861630
1015.861630
1015.861630
1015.861630
1015.861630
874.364972
548.059940
346.827507
178.604722
116.131902
96.736550
104.264617
127.200484
138.918757
145.529509
140.986443
132.999420
102.443695
83.166957
56.245923
40.219426
25.054812
16.502738
12.649894
10.998845
9.991527
9.914637
10.391474
10.502934
10.568500
11.539459
11.102557
11.218786
10.940433
11.041760
11.006594
11.585951
12.909770
11.058450
11.820793
11.207461
12.094975
11.503696
12.175441
12.442470
12.445450
13.116598
14.047623
14.961958
14.792681
16.512871
17.380714
18.984675
23.040771
23.225546
26.201606
27.032495
29.682517
31.614900
30.919909
32.952428
31.495690
31.205416
29.485822
29.600859
29.852986
27.209520
29.273629
28.445721
27.672648
29.512644
28.394461
28.975606
28.755665
27.818680
28.253794
28.930902
28.782487
30.150414
29.472709
##ZVALUE=260
1.569986
1.770854
1.976490
1.861453
1.830459
1.765490
2.222657
2.091527
2.372861
2.256632
2.657771
4.550815
15.121698
64.949989
147.243738
350.281000
569.100976
919.963717
1015.861630
1015.861630
1015.861630
1015.861630
1015.861630
1015.861630
762.058496
510.022044
282.877684
167.994499
97.281933
90.129972
103.615522
127.303600
143.026710
154.998899
151.211619
134.667754
114.910603
84.628463
62.604547
40.027499
27.215481
17.422438
12.702942
11.551976
10.904670
10.389686
10.313988
10.956526
10.584593
10.398626
10.895729
11.542439
10.791421
10.906458
11.807680
11.187792
10.755658
11.991858
11.897683
12.152791
12.245774
12.530684
12.729764
13.170838
13.851523
14.327765
15.424490
16.472936
17.662644
19.891858
20.457506
22.049546
24.567842
25.654435
26.510954
28.228760
27.964711
28.411746
27.342439
27.649999
27.018785
27.303696
27.089715
26.599765
26.414990
27.215481
27.009845
26.573539
26.445985
26.469827
26.898980
27.348995
28.316975
27.576685
27.414560
28.311610
##ZVALUE=265
1.464486
1.633763
1.564622
1.673698
1.603961
2.039671
1.918674
1.889467
2.090931
2.059937
2.173781
2.728701
3.041625
2.923608
10.286570
36.192536
130.254626
264.065862
411.383510
862.040520
1015.861630
1015.861630
1015.861630
1015.861630
1015.861630
1015.861630
1015.861630
673.574805
426.942706
215.111971
126.091838
81.346631
84.823966
113.668442
131.344795
154.469609
159.558654
150.804520
136.001706
109.210610
87.140799
60.298443
41.901469
25.749803
18.361807
13.253689
10.976791
11.114478
11.138916
10.863543
11.002421
11.400580
11.303425
11.280775
11.480451
11.058450
11.016726
11.901855
11.306405
11.835694
11.523962
11.922717
11.567473
12.628436
13.452768
13.448596
13.115406
14.884472
16.367435
17.411709
20.162463
20.975471
23.219585
24.650693
24.668574
24.700761
25.076866
25.095940
24.993420
23.930669
23.690462
24.856925
23.837686
24.299622
23.741722
24.639964
25.206804
25.220513
24.878979
24.596453
24.407506
25.867820
24.990439
25.241971
24.499893
25.484562
##ZVALUE=270
1.406670
1.583695
1.523495
1.404881
1.570582
1.596808
1.677871
1.826882
1.964569
2.007484
1.858473
2.280474
2.272725
2.278686
2.558827
2.815723
3.890991
18.682480
58.314800
191.057920
379.170775
645.941496
1015.862823
1015.862823
1015.862823
1015.862823
1015.862823
1015.862823
1015.862823
968.316793
668.233037
350.954533
193.820596
87.257624
70.467591
87.576509
109.743476
137.100816
152.532458
157.291889
155.172944
139.005780
115.809441
83.818436
63.244700
40.665865
28.044581
18.432736
13.614893
11.380911
10.469556
11.108518
10.598898
10.863543
11.361837
10.739565
11.158586
11.440516
11.593699
11.333823
12.039542
12.800694
11.808872
12.320876
12.382865
13.513565
13.681650
14.721751
15.417933
17.121434
17.552972
18.635988
20.660758
22.569895
22.602677
22.449493
22.754669
22.238493
22.400618
22.649765
21.770000
22.259951
21.965504
22.137761
22.235513
22.134781
22.196770
23.150444
22.549629
23.260713
22.992492
22.807717
23.126602
23.850799
24.378896
23.298860
##ZVALUE=275
1.529455
1.561642
1.436472
1.528859
1.675487
1.802444
1.738667
1.598597
1.618862
1.662970
1.543760
1.702905
1.951456
2.014637
2.251863
2.389550
2.544522
2.752542
3.192425
9.297729
35.530925
107.809901
321.146846
582.387447
997.244716
1015.861630
1015.861630
1015.861630
1015.861630
1015.861630
1015.861630
1015.861630
876.201391
457.403660
260.479450
110.860467
67.142844
63.577890
83.029866
112.567544
134.051442
151.070952
158.403516
151.771903
138.379931
107.678771
88.042617
61.629415
44.752955
27.003884
19.626617
14.015436
11.569858
11.084676
10.575652
10.769963
11.229515
10.976791
11.395812
12.160540
11.752844
12.436509
12.554526
12.452602
12.803674
13.758540
13.306737
14.481544
15.236735
15.988946
17.322898
18.404722
19.288659
21.493435
21.718740
21.868944
22.106767
22.272468
21.853447
21.824837
22.104979
21.452904
21.373630
20.175576
21.092892
21.261573
22.392869
21.771789
22.324920
21.083951
21.722913
21.925569
21.861792
21.974444
21.014810
21.983981
##ZVALUE=280
1.375675
1.295805
1.258850
1.349449
1.484752
1.489520
1.496673
1.629591
1.692772
1.596808
1.818538
1.706481
1.886487
1.914501
1.873970
2.121925
2.143979
2.532601
2.411604
2.926588
2.942681
4.407763
25.155544
87.744594
274.562836
488.266945
878.548622
1015.861630
1015.861630
1015.861630
1015.861630
1015.861630
1015.861630
1015.861630
1012.136936
606.951714
358.383656
157.287717
79.530478
49.776435
58.473945
85.329413
105.911493
132.831931
147.320628
153.741837
147.252679
131.294727
113.225579
82.975626
62.820911
41.250587
28.871894
18.803477
14.321804
11.529922
11.562705
11.450648
11.108518
12.030602
11.806488
12.489557
11.369586
12.528896
13.376474
13.629794
13.753772
14.989972
15.413761
16.223788
17.080903
18.614531
19.710660
19.727945
21.087527
21.475554
20.818710
21.551847
20.531416
20.833611
20.356774
20.613670
20.726919
20.316839
20.518899
20.929575
21.314621
20.578504
20.760894
21.302700
21.312833
20.128489
21.606684
21.225810
20.520687
21.348000
##ZVALUE=285
1.296997
1.073480
1.227856
1.411438
1.524687
1.258850
1.399517
1.588464
1.458526
1.377463
1.496673
1.636744
1.687407
1.771450
1.816750
1.783967
1.785755
2.018809
2.157688
2.158880
2.456903
2.850890
3.298521
3.666878
11.672974
43.417811
152.668953
313.068032
664.321780
998.857021
1015.861630
1015.861630
1015.861630
1015.861630
1015.861630
1015.861630
1015.861630
863.060951
526.780486
247.182846
123.096704
49.404502
41.140914
57.747960
77.686906
107.255578
125.317574
143.745542
147.891641
143.495798
133.562684
110.341907
87.871552
63.346624
45.694709
28.443933
20.136833
15.041828
13.107657
12.317896
11.996627
12.293458
12.309551
12.761950
13.381839
13.524890
14.307499
14.824867
15.416741
16.445518
17.155409
18.754601
19.724965
20.831823
20.141602
20.897985
20.012856
20.988584
20.537972
20.434856
20.144582
20.461679
20.189881
20.071864
20.366907
20.617843
20.422935
20.489693
20.914674
20.431876
20.447969
20.713806
19.995570
20.829439
20.246506
19.997954
##ZVALUE=290
1.170635
1.402497
1.214743
1.220703
1.131892
1.308918
1.280904
1.493692
1.254678
1.411438
1.285672
1.211762
1.332760
1.399517
1.342893
1.587868
1.615882
1.542568
1.652837
1.997948
2.251863
2.076626
2.321601
2.553463
3.020763
3.223419
5.270839
16.014576
80.377460
193.374753
383.646488
794.453025
1015.788913
1015.788913
1015.788913
1015.788913
1015.788913
1015.788913
1015.788913
1015.788913
746.108890
366.194844
188.651681
67.609549
34.797788
38.145781
51.876903
74.888468
95.957518
122.007728
137.475729
145.768523
143.695474
129.992962
111.117959
83.698630
64.340830
42.192936
31.465888
21.298528
15.726686
13.333559
12.746453
12.893677
13.279915
13.724566
14.235973
14.592409
15.691519
16.842484
16.852617
18.135905
18.914938
19.589663
20.320415
20.814538
20.193458
19.934773
19.340515
20.056963
20.395517
20.396709
20.462871
20.561814
20.207763
20.472407
20.652413
20.733476
20.425916
20.009875
20.355582
19.527674
19.592643
19.996762
20.517707
20.041466
##ZVALUE=295
1.001954
0.991821
1.212955
1.002550
1.189709
0.960827
1.090765
1.264811
1.118779
1.067519
0.994802
1.180768
1.321435
1.120567
1.438856
1.279712
1.460910
1.429915
1.275539
1.600981
1.839995
1.750588
1.804829
1.992583
2.100468
2.448559
2.589822
2.794862
3.327727
7.104874
26.546717
118.214488
270.430446
638.000965
989.160538
1015.675664
1015.675664
1015.675664
1015.675664
1015.675664
1015.675664
1015.675664
971.162915
523.594618
281.820893
99.481940
44.122934
26.067495
32.790899
49.013495
66.550970
92.502832
111.340880
132.502913
140.067935
136.208534
127.286911
104.515553
84.768534
60.960650
45.241714
29.579997
22.155643
16.703606
14.239550
13.866425
13.756752
14.670491
15.055537
15.881658
17.264485
17.995834
19.317865
19.806623
20.113587
20.144582
20.150542
20.311475
20.412803
20.284653
20.397902
20.524859
20.401478
20.459890
20.110607
20.753741
20.467639
19.435883
21.135807
20.463467
20.757914
20.204782
20.227432
19.259453
19.421577
19.521713
##ZVALUE=300
1.029968
1.153946
1.245737
1.121759
1.224875
1.052618
1.249909
1.281500
1.117587
1.297593
1.263618
1.326799
1.381636
1.250505
1.446605
1.329780
1.301765
1.582503
1.608729
1.800656
1.697540
1.338720
1.839995
1.849532
1.747608
2.296567
2.349615
2.425909
2.563000
3.047585
3.494620
4.300475
18.061996
64.220428
219.574571
431.183577
904.546976
1015.861630
1015.861630
1015.861630
1015.861630
1015.861630
1015.861630
1015.861630
1015.861630
763.840675
372.712612
195.872784
68.897605
29.440522
22.828579
30.177832
45.631528
62.834620
85.600615
105.029941
125.310421
131.257772
131.190419
121.095777
102.782845
86.383820
61.958432
48.264861
31.298995
24.022460
18.220544
16.108751
16.027689
16.411543
17.876625
18.219948
19.550920
19.671917
20.282865
19.886494
20.193458
20.990968
20.657778
20.935535
20.992756
21.164417
20.892620
21.119714
20.930767
21.253824
20.987988
21.056533
21.587610
21.106601
20.385981
21.024942
20.275712
20.156503
20.210743
20.071864
##ZVALUE=305
1.177788
1.031756
1.189709
1.019835
1.051426
1.061559
1.224875
1.109838
1.162887
1.209974
1.345873
1.332760
1.426935
1.366735
1.493692
1.413822
1.487732
1.471639
1.584888
1.345873
1.444817
1.373887
1.847744
1.594424
1.842976
2.037883
2.322793
2.173781
2.431870
2.392530
2.737641
3.050566
3.295541
4.006624
7.107854
42.716861
124.299526
358.505845
657.320619
1015.861034
1015.861034
1015.861034
1015.861034
1015.861034
1015.861034
1015.861034
1015.861034
952.959061
594.560504
263.009667
125.137568
39.889812
20.297766
20.967722
28.266907
44.018626
60.132742
83.595514
101.860762
117.573738
126.116872
124.807954
117.492676
100.309849
83.782673
61.203837
46.192408
32.234788
25.375485
20.316839
18.491745
18.432736
19.871593
19.834638
20.450950
20.544529
20.199418
20.261407
20.444989
21.064878
21.481514
21.016598
21.103621
22.074580
21.616817
21.684766
21.513700
22.412539
22.414923
21.625757
20.875931
21.344423
21.008849
20.635724
20.329952
20.207763
##ZVALUE=310
1.170635
1.110435
0.975728
1.216531
1.022816
1.007915
1.080632
1.344681
1.128912
1.197457
1.185536
1.186728
1.268983
1.230836
1.447797
1.472831
1.286864
1.398921
1.386404
1.445413
1.452565
1.487732
1.558661
1.428723
1.757741
1.674891
1.987815
2.021790
2.224445
2.183914
2.382994
2.446771
2.640486
3.118515
3.372431
3.746748
4.292727
18.518567
62.989593
217.016935
438.753963
934.876800
1015.864611
1015.864611
1015.864611
1015.864611
1015.864611
1015.864611
1015.864611
1015.864611
888.553858
431.941748
223.698616
72.199702
27.744770
16.533732
18.470883
27.129650
37.136674
55.875778
72.891712
95.521808
109.191537
121.388435
121.227503
113.583803
100.329518
81.672668
65.409541
46.852827
36.690831
27.784705
23.841858
21.217465
20.720959
20.549893
20.756721
20.841956
20.307899
21.168590
21.185875
21.885633
21.741986
21.672845
21.944642
22.209883
22.068620
22.673607
22.598505
21.609664
21.919608
21.986961
21.535754
21.061897
21.441579
20.927787
##ZVALUE=315
1.137853
1.130700
1.021624
1.087785
1.049638
0.983477
1.156926
0.926852
1.121759
1.230836
1.172423
0.924468
1.033545
1.098514
1.303554
1.324415
1.262426
1.460910
1.348853
1.539588
1.431704
1.462698
1.353621
1.540780
1.568794
1.541972
1.501441
1.728535
1.914501
2.007484
1.834631
2.222657
2.235770
2.481937
2.546906
2.880692
3.058910
3.618598
4.030466
8.976460
33.981800
147.252679
327.099562
746.107697
1015.861630
1015.861630
1015.861630
1015.861630
1015.861630
1015.861630
1015.861630
1015.861630
1015.861630
607.319474
320.853591
110.367537
41.459799
16.482472
15.338659
18.806458
24.390817
37.260652
50.565004
70.378780
87.567568
106.562972
114.382505
117.036700
110.590458
95.818639
81.995726
63.252449
50.109625
36.813617
29.228926
24.455786
22.694468
20.678639
21.050572
21.399856
21.683574
21.507740
22.083521
22.380948
22.537708
22.838712
22.533536
22.665858
22.351742
22.182465
22.311807
22.081733
21.715760
21.337867
21.435618
21.628737
##ZVALUE=320
0.996590
1.053810
1.078844
0.884533
1.058578
0.866652
1.034737
0.977516
1.084805
1.167655
1.166463
1.109838
1.323819
1.236796
1.177788
1.116991
1.290441
1.296997
1.038909
1.471639
1.452565
1.321435
1.291633
1.276731
1.441836
1.555681
1.533628
1.689792
1.756549
1.636744
1.882911
1.823902
1.912713
2.141595
2.140999
2.342463
2.343655
2.784729
3.001690
3.549457
3.622770
5.037785
15.875697
88.594556
220.662951
571.918488
959.243774
1015.865803
1015.865803
1015.865803
1015.865803
1015.865803
1015.865803
1015.865803
1015.865803
809.432864
444.243550
168.995857
73.313713
23.135543
14.432669
15.135407
17.862916
24.018884
32.817721
49.552917
64.930916
83.679557
98.483562
109.918714
113.779902
107.949972
96.924901
78.362823
64.232945
47.509670
36.776662
29.030442
25.511980
22.607446
22.161603
21.900535
22.036433
22.575855
22.818446
22.531748
22.732615
22.262931
22.208691
22.068620
22.671819
21.599531
22.045970
21.795630
21.699667
21.736622
##ZVALUE=325
1.068711
1.155734
1.090765
1.132488
1.009703
1.172423
0.920892
1.192689
1.250505
1.313686
1.272559
1.201630
0.902414
1.277924
1.142621
1.103878
1.078844
1.172423
1.274943
1.252890
1.442432
1.288652
1.549721
1.602769
1.558661
1.557469
1.520514
1.455545
1.617670
1.594424
1.795888
1.697540
1.718998
1.920462
1.737475
1.986623
2.242923
2.374649
2.540946
2.703667
2.973676
3.259778
3.625751
4.228950
8.665919
55.109859
147.375464
406.869650
735.057592
1015.923619
1015.923619
1015.923619
1015.923619
1015.923619
1015.923619
1015.923619
1015.923619
982.768536
603.191853
256.526470
117.091537
33.325553
16.563535
14.209747
14.564991
18.688440
24.052858
34.592748
47.054887
67.632794
81.564784
97.662807
104.456544
106.735826
102.511644
89.180470
76.572895
59.607625
47.474504
35.208464
29.586554
24.955869
23.659468
23.079515
22.335649
23.061633
22.471547
22.424459
22.435784
22.232533
22.189617
21.952987
21.846890
21.851659
21.978617
21.860600
##ZVALUE=330
0.814795
0.984669
0.911951
0.783801
0.871420
1.014471
0.979900
1.023412
0.981688
1.032948
1.135468
1.205802
1.013875
1.016855
1.194477
1.234412
1.245737
1.000762
1.110435
1.163483
1.241565
1.091957
1.218915
1.081824
1.339912
1.193881
1.248717
1.326799
1.286864
1.455545
1.498461
1.653433
1.537800
1.770854
1.786947
1.866817
1.921654
1.957417
1.972914
2.143979
2.292991
2.494454
2.639890
3.003478
3.485680
3.903508
5.100965
26.508570
84.767938
270.870924
520.970821
1004.277468
1015.861630
1015.861630
1015.861630
1015.861630
1015.861630
1015.861630
1015.861630
1015.861630
813.799500
360.270739
174.447894
57.453513
22.339821
13.793707
13.522506
15.328526
18.140674
25.029778
33.109784
48.722625
61.145425
81.077814
92.167854
101.400614
103.154778
95.625520
86.343884
71.176887
59.104562
44.425726
36.207438
29.700994
25.800467
23.087859
22.604465
22.231936
21.863580
21.859407
21.554828
21.578670
21.218657
21.316409
21.381974
21.167994
##ZVALUE=335
0.990629
1.049638
0.992417
1.005530
0.990629
0.927448
1.037717
1.000762
0.944734
1.131892
1.215935
1.008511
1.048446
0.885725
1.121759
1.006722
1.161695
1.090765
1.250505
1.106858
0.990629
1.182556
1.087785
1.310706
1.404881
1.232624
1.257658
1.346469
1.275539
1.402497
1.371503
1.475811
1.490712
1.462698
1.668930
1.676679
1.909733
1.666546
1.819730
2.280474
2.125502
2.226830
2.257824
2.482533
2.722740
3.042817
3.448725
3.813505
4.233718
11.465549
42.771697
172.645450
365.902781
836.737752
1015.947461
1015.947461
1015.947461
1015.947461
1015.947461
1015.947461
1015.947461
1015.948057
991.273522
524.531007
266.518593
86.514950
33.815503
15.310645
13.743639
14.827847
16.304851
19.631982
24.079680
35.223961
45.263767
61.916709
75.046420
87.677836
95.159411
95.862746
91.695786
79.891682
69.975853
56.879520
46.578646
36.516786
30.635595
25.530457
23.362637
22.066832
21.683574
21.484494
20.932555
20.884871
20.693541
20.546913
##ZVALUE=340
0.799894
0.770688
0.885725
0.927448
1.035929
1.011491
1.039505
0.968575
1.024604
1.046658
0.970960
0.958443
0.926852
0.970960
0.752807
0.896454
0.994802
0.963807
0.807643
1.088977
1.045465
1.165867
1.138449
1.222491
1.088977
1.280904
1.250505
1.039505
1.283884
1.162887
1.311898
1.234412
1.319647
1.353621
1.390576
1.602769
1.616478
1.692772
1.734495
1.696944
1.806617
1.916885
2.059937
2.080798
2.310872
2.080798
2.600551
2.713799
3.035665
3.526807
3.776550
6.235838
22.194982
111.413002
271.356702
669.978857
1015.861630
1015.861630
1015.861630
1015.861630
1015.861630
1015.861630
1015.861630
1015.861630
1015.861630
685.240626
359.098911
123.789907
48.699975
17.923713
15.079975
15.034676
15.466809
16.996861
19.740462
25.803447
32.431483
44.802427
56.428909
72.705746
82.355738
90.227723
90.581775
85.733533
78.871846
66.170692
56.572556
44.748783
36.610961
28.872490
25.187731
21.796823
20.745993
20.410419
20.152926
20.225644
##ZVALUE=345
0.989437
1.029968
1.075864
0.864863
1.022816
1.036525
1.098514
1.074672
1.109838
0.938773
1.063943
1.087785
1.136661
1.097918
0.964999
1.170635
0.971556
1.157522
1.153946
1.242757
1.255870
1.185536
1.253486
1.211762
1.073480
1.121759
1.140833
1.185536
1.230836
1.188517
1.414418
1.473427
1.411438
1.444817
1.489520
1.522899
1.595616
1.750588
1.614690
1.717806
1.758933
1.831651
1.996756
2.084970
1.836419
2.151728
2.138615
2.597570
2.669692
2.535582
2.997518
3.329515
3.609657
4.465580
9.331703
58.799386
163.898468
441.960692
805.099010
1015.991569
1015.991569
1015.991569
1015.991569
1015.991569
1015.991569
1015.991569
1015.991569
909.218788
497.407913
188.709497
81.275702
26.419759
16.073585
15.056729
15.418530
15.575886
15.785694
18.271804
22.739768
31.364560
39.953589
54.626465
64.756870
75.930953
82.237720
84.975958
82.877874
74.191689
65.650940
54.356456
44.559836
33.530593
28.851628
23.847818
21.521449
20.143986
##ZVALUE=350
1.005530
1.059771
0.914931
0.985861
0.923872
1.068711
1.038909
1.040697
1.155734
1.042485
0.981688
1.057982
1.239777
1.313686
1.140833
1.078844
1.095533
1.131892
1.124740
1.101494
1.139641
1.343489
1.080632
1.052618
1.316667
1.166463
1.332760
1.048446
1.233816
1.258850
1.352429
1.359582
1.276731
1.486540
1.419783
1.424551
1.458526
1.638532
1.501441
1.684427
1.610518
1.701713
1.807809
1.909733
1.771450
2.006888
2.178550
2.254844
2.341866
2.482533
2.517700
2.890825
2.850890
3.240705
3.488660
4.049540
5.647540
32.050610
108.900666
345.879793
646.956563
1015.960574
1015.960574
1015.960574
1015.960574
1015.960574
1015.960574
1015.960574
1015.960574
990.058780
630.452633
278.548598
122.778416
34.048557
17.069578
14.399886
14.311671
13.984442
13.870597
15.728474
17.673969
22.800565
28.152466
37.608743
46.964884
59.583783
67.861676
75.496435
78.251958
75.923800
70.402622
60.002804
51.552653
40.295720
33.135414
27.020574
##ZVALUE=355
0.890493
1.086593
1.021624
1.104474
0.874996
1.065731
1.013875
1.084805
1.021624
1.094937
1.027584
1.035929
0.871420
0.914931
1.033545
1.024604
1.066923
0.963807
1.090765
1.024604
1.095533
1.198649
1.195669
1.139641
1.167655
1.169443
1.209974
1.391768
1.338720
1.201630
1.328588
1.189709
1.278520
1.484752
1.492500
1.357794
1.404881
1.509786
1.491904
1.468658
1.706481
1.621842
1.579523
1.649857
1.860857
1.863837
1.903772
1.961589
1.919866
2.131462
2.192855
2.445579
2.622604
2.796650
2.953410
3.084540
3.423691
3.909469
4.512668
15.244484
57.357550
231.431723
477.420688
966.395736
1015.892029
1015.892029
1015.892029
1015.892029
1015.892029
1015.892029
1015.892029
1015.892029
821.208954
355.503559
166.471004
48.632622
20.111799
13.975501
13.591647
13.283491
13.346672
13.866425
14.561415
16.483665
19.953847
25.799870
31.911731
42.693615
51.216483
61.088800
67.761540
72.378516
70.837736
64.783692
57.464838
48.310757
##ZVALUE=360
0.867844
0.817776
0.997782
1.028776
1.099706
1.015663
0.954866
0.890493
0.992417
0.938773
0.993609
0.926852
0.880957
1.089573
1.013875
0.979900
1.025796
1.158714
1.080632
1.139641
1.062751
1.203418
1.319647
1.114607
1.098514
1.133680
1.057982
1.103878
1.229644
1.312494
1.334548
1.145601
1.315475
1.273751
1.366735
1.327991
1.374483
1.583695
1.512766
1.390576
1.496673
1.739860
1.607537
1.729727
1.700521
1.680851
1.782775
1.872778
1.937747
1.924634
1.926422
2.266765
2.276897
2.495646
2.636909
2.941489
2.788901
3.136992
3.327727
3.821850
4.085898
7.039905
24.314523
112.725496
273.196697
669.044852
1015.861034
1015.861034
1015.861034
1015.861034
1015.861034
1015.861034
1015.861034
1015.860438
1010.282636
520.541668
266.859531
92.226863
32.835603
13.920665
12.624860
12.449622
12.743473
12.651682
12.852550
13.283491
14.857650
17.059445
21.055937
27.946830
34.315586
45.259595
52.669644
60.849786
64.095855
63.813925
##ZVALUE=365
0.872612
0.884533
0.831485
0.930429
0.970960
0.879765
0.865459
1.087785
0.963807
0.940561
1.108646
1.092553
1.101494
0.844598
0.908971
0.861883
1.072884
0.987649
1.168847
1.117587
1.170635
1.204610
1.014471
1.134872
1.011491
1.109838
1.122952
1.174808
1.227856
1.170635
1.198649
1.125932
1.232624
1.191497
1.321435
1.295805
1.342893
1.247525
1.158714
1.391768
1.391768
1.449585
1.495481
1.520514
1.540780
1.601577
1.568794
1.601577
1.834631
1.722574
1.868606
2.012849
2.069473
2.054572
2.109408
2.342463
2.424717
2.505779
3.070831
3.157854
3.355742
3.700852
4.591942
4.675984
41.643977
50.343871
247.998834
424.706936
914.176702
1015.861630
1015.861630
1015.861630
1015.861630
1015.861630
1015.861630
1015.861630
1015.861630
748.577714
188.379884
111.134648
45.330524
14.952421
12.021661
11.487603
11.382699
11.529922
11.180639
11.607409
11.666417
12.864470
14.909506
18.660426
23.461580
31.119585
38.542747
52.557588
##ZVALUE=370
0.894666
0.986457
0.849962
0.958443
0.888705
0.947714
1.002550
1.008511
0.955462
0.857711
0.819564
0.985861
0.949502
0.963807
0.982881
1.042485
0.891685
0.920892
0.925660
0.891685
1.040697
0.972748
1.016855
1.048446
1.038909
1.055598
1.110435
1.146793
1.089573
1.153946
1.229644
1.112819
1.210570
1.168847
1.210570
1.207590
1.216531
1.358986
1.323819
1.345873
1.298785
1.354814
1.411438
1.606941
1.493692
1.532435
1.527667
1.553893
1.601577
1.539588
1.609921
1.625419
1.873970
1.701713
1.918674
1.892447
2.015829
2.097487
2.378821
2.508759
2.588630
2.889633
3.253818
3.510714
3.798604
4.358888
6.138682
29.817820
101.465583
331.739783
647.305846
1015.861630
1015.861630
1015.861630
1015.861630
1015.861630
1015.861630
1015.861630
1015.861630
870.079994
476.381779
178.746581
78.531504
24.148822
12.840629
11.065602
10.690689
10.691881
10.497570
10.539889
10.419488
10.760427
11.528730
13.475418
16.122460
21.372437
##ZVALUE=375
0.812411
0.798702
0.919700
0.944734
0.956655
0.981688
0.900626
0.932813
0.818968
0.821948
0.861883
0.870824
0.874996
0.871420
0.919700
1.042485
1.043677
0.904799
0.856519
0.994802
1.083612
0.942945
0.945926
0.965595
1.009703
1.136661
1.085997
1.021624
1.102686
1.077652
1.070499
1.097918
1.151562
1.123548
1.102686
1.039505
1.096725
1.105666
1.255870
1.187921
1.181960
1.241565
1.240969
1.162887
1.211762
1.267791
1.374483
1.320839
1.343489
1.287460
1.483560
1.329780
1.688600
1.613498
1.492500
1.532435
1.696944
1.743436
1.811981
2.222657
2.002716
2.267957
2.313852
2.537966
2.826452
3.012419
3.276467
4.006624
4.708767
15.212893
55.731535
202.390552
435.020924
956.759453
1015.861630
1015.861630
1015.861630
1015.861630
1015.861630
1015.861630
1015.861630
1015.861630
717.563033
336.135626
160.324574
43.866634
16.888976
10.165572
10.054708
9.593964
9.673834
9.402633
9.651780
9.616613
9.940863
10.662675
##ZVALUE=380
0.814795
0.930429
0.904799
0.680685
0.789762
0.830889
0.956655
0.788569
0.987649
0.848770
0.798702
0.770688
0.848770
0.925660
0.763535
0.750422
0.865459
0.882745
0.801682
0.802875
0.950694
0.874996
0.959635
0.984669
0.782609
0.848770
0.792742
0.886917
0.936985
0.944734
0.881553
1.057982
0.883937
1.038909
0.985861
1.002550
0.974536
1.144409
0.982881
0.902414
1.150966
1.235604
1.242757
1.191497
1.189709
1.147985
1.190901
1.319647
1.332760
1.200438
1.222491
1.224875
1.278520
1.460910
1.492500
1.589656
1.681447
1.626611
1.730919
1.816750
1.794696
1.880527
1.901984
1.973510
2.289414
2.425909
2.591610
3.037453
3.385544
4.015565
4.607439
8.131862
33.233762
155.461431
347.050428
773.243904
1015.862823
1015.862823
1015.862823
1015.862823
1015.862823
1015.862823
1015.862823
1015.862823
961.791873
461.515784
228.383541
73.211789
26.353598
11.036992
9.470582
9.147525
8.954406
8.955598
8.776784
8.934736
##ZVALUE=385
0.709891
0.833869
0.742674
0.780821
0.631809
0.728965
0.695586
0.670552
0.814795
0.808835
0.610948
0.868440
0.788569
0.828505
0.743866
0.769496
0.747442
0.895858
0.697970
0.822544
0.739694
0.785589
0.736713
0.750422
0.884533
0.856519
0.820756
0.908971
0.929832
0.896454
0.847578
1.058578
0.947714
1.040697
0.949502
0.994802
0.928640
1.052618
1.029968
0.932813
0.806451
0.920892
1.046658
0.937581
0.948906
1.104474
1.094937
1.164675
1.222491
1.220703
1.327991
1.110435
1.280904
1.276731
1.448989
1.329780
1.325607
1.403689
1.616478
1.639724
1.563430
1.669526
1.828671
1.913905
1.945496
1.964569
2.304912
2.586842
2.978444
3.033876
3.318787
3.726482
4.111528
4.971623
13.137460
80.210567
212.286711
546.306968
958.060622
1015.861630
1015.861630
1015.861630
1015.861630
1015.861630
1015.861630
1015.861630
1015.861630
697.659850
382.489562
145.811439
52.814484
13.448000
8.941889
8.386970
8.377433
8.135438
##ZVALUE=390
0.804663
0.771880
0.599623
0.629425
0.660419
0.714660
0.878572
0.759959
0.551939
0.836849
0.755787
0.718832
0.849962
0.714660
0.789762
0.802875
0.864863
0.829697
0.828505
0.729561
0.828505
0.896454
0.913739
0.770688
0.773668
0.799894
0.815988
0.802875
0.881553
0.934601
0.840425
0.927448
0.924468
0.870824
0.845790
0.859499
0.863671
0.944734
0.902414
0.833869
1.046658
1.154542
1.106858
0.962615
1.078844
1.105666
1.107454
1.037717
1.041889
1.299977
0.989437
1.230836
1.120567
1.107454
1.239777
1.008511
1.196861
1.332760
1.325607
1.482964
1.379848
1.615882
1.460910
1.682639
1.722574
1.840591
1.993775
2.120733
2.360940
2.814531
2.952814
3.149509
3.354549
3.655553
3.680587
4.241467
6.934404
43.701530
141.655803
427.702665
794.858932
1015.862823
1015.862823
1015.862823
1015.862823
1015.862823
1015.862823
1015.862823
1015.862823
963.401794
560.821891
216.685534
96.060634
25.925636
10.739565
8.153915
##ZVALUE=395
0.685453
0.616908
0.816584
0.765920
0.836849
0.651479
0.798702
0.656843
0.759959
0.781417
0.614524
0.588894
0.772476
0.718832
0.882745
0.822544
0.636578
0.765920
0.766516
0.776649
0.898838
0.840425
0.745654
0.851750
0.864863
0.923872
0.703931
0.886917
0.818968
0.821948
0.751615
0.808835
0.955462
0.850558
0.819564
0.832677
0.929832
0.975728
1.013875
1.014471
1.025796
0.944734
0.957847
0.983477
1.152754
1.050830
1.090765
1.258850
1.188517
1.174808
1.044869
1.164675
1.135468
1.167655
1.280904
1.219511
1.337528
1.388788
1.365542
1.405478
1.367927
1.498461
1.515746
1.448989
1.826882
1.916885
1.972914
2.035499
2.465844
2.641678
2.743602
2.975464
2.947450
3.134608
3.098845
3.325939
3.395677
3.861785
5.009770
24.196506
93.881488
332.167745
631.448627
1015.861630
1015.861630
1015.861630
1015.861630
1015.861630
1015.861630
1015.861630
1015.861630
1015.861630
718.997717
301.626921
135.830641
40.160418
##ZVALUE=400
0.512600
0.539422
0.570416
0.510812
0.755787
0.585914
0.702739
0.595450
0.568628
0.507832
0.488758
0.622869
0.589490
0.658631
0.568628
0.585914
0.435710
0.641942
0.733733
0.718832
0.787973
0.838637
0.786781
0.700951
0.589490
0.630617
0.645518
0.683665
0.861883
0.832677
0.541806
0.861883
0.816584
0.880957
0.774860
0.877976
0.864863
0.702739
0.873804
0.920892
0.811815
0.838637
1.072884
1.063943
0.981688
0.904799
1.024604
0.900626
0.919700
0.892878
1.067519
1.027584
1.073480
1.117587
1.153946
1.091957
1.206994
1.183748
1.205802
1.167655
1.263618
1.164675
1.324415
1.370907
1.521707
1.702905
1.823902
1.945496
2.100468
2.318621
2.429485
2.566576
2.626777
2.777576
2.408624
2.519488
2.695918
2.863407
3.130436
3.416538
3.802776
11.384487
43.037534
168.876648
368.966460
828.016996
1015.750766
1015.750766
1015.750766
1015.750766
1015.750766
1015.750766
1015.750766
1015.750766
904.713869
444.318652
##END
