##TITLE=QP00651
##FORMAT=SPECTACLE-ASCII V-1.2
##DATA TYPE=ULTRAVIOLET SPECTRUM
##SECOND TYPE=ULTRAVIOLET SPECTRUM
##DATE=03/29/18
##TIME=13:58:17
##SPECTROMETER/DATA SYSTEM=SPECTACLE
##XUNITS=NM EM
##YUNITS=ENERGY
##YFACTOR=1
##FIRSTX=220
##LASTX=410
##NPOINTS=96
##3DDATA=Equidistant
##ZUNITS=NM EX
##FIRSTZ=210
##LASTZ=400
##ZPOINTS=39
##XYDATA=(Y..Y)
##ZVALUE=210
3.225803
2.370477
2.426505
2.777576
2.932549
3.404617
3.460646
2.823472
3.209710
3.051758
2.762675
3.103614
3.043413
3.299713
3.095865
3.178716
4.084706
4.820824
4.085898
3.836751
3.907681
4.293919
4.512668
4.576445
5.304813
4.795790
5.631447
5.763769
5.082488
5.689859
5.055666
7.044673
6.882548
6.444454
7.155538
6.732941
7.087588
7.052422
8.327961
7.294416
7.769465
7.487535
8.159876
7.671714
7.629991
7.978678
8.851886
8.204579
8.932948
9.150505
8.938909
9.047985
8.855462
9.661913
9.993911
9.548664
9.610653
10.956526
9.675622
9.824634
9.109974
9.832978
10.198951
10.385513
10.276437
11.021495
11.612773
13.138652
13.845563
17.836690
21.481514
22.337437
28.370619
30.955672
32.988787
33.846498
34.182668
34.141541
30.089617
30.844808
26.668906
24.415851
22.631884
19.332767
15.530586
14.237761
12.539625
9.699464
9.855628
10.272861
9.346604
10.269880
8.998513
9.133816
10.963678
10.463595
##ZVALUE=215
9.328723
10.130405
7.087588
6.720424
5.727410
5.066991
6.159544
4.623532
6.242990
5.882978
5.260706
5.534887
4.240870
4.420877
4.158616
3.336668
3.843904
3.608465
3.305674
4.458427
5.005598
4.631877
5.150437
5.196929
5.956888
5.686879
5.329847
6.204844
6.513596
6.529689
6.753802
6.869435
8.100867
7.643700
7.604957
6.726980
8.331537
9.073615
8.222461
9.158850
7.564425
9.196997
9.162426
8.385777
9.688735
8.592606
8.823872
8.669496
9.931922
10.011792
10.443926
8.918643
10.208488
9.505749
10.078549
9.991527
9.811521
9.598732
10.632873
10.444522
10.074973
9.957552
11.103749
11.335611
11.470914
12.578964
11.965632
13.707876
15.398860
17.672777
19.239783
22.645593
25.395751
28.127432
32.674670
31.933784
35.142899
32.460690
31.948686
29.281974
28.268695
25.623441
22.144914
20.076632
16.844869
13.714433
11.816621
11.379719
10.942817
10.357499
9.294748
8.912683
10.124445
9.868741
11.163950
9.720922
##ZVALUE=220
29.446483
31.636953
32.940507
29.512644
26.203990
20.015836
17.564893
14.494658
11.627674
11.530519
12.568831
12.712479
12.289882
10.760427
10.334849
8.594990
6.498694
5.171895
4.993677
5.076528
4.815459
4.451871
5.152822
5.090833
6.060600
6.325841
5.328655
7.039905
6.822944
7.615685
8.248687
8.204579
8.535981
8.522868
8.751750
8.249879
10.226965
8.199811
9.658933
9.368658
9.434819
10.148883
10.323524
8.856654
9.718537
10.453463
9.780526
11.061430
10.559559
10.232925
9.992719
10.384917
10.348558
10.544658
9.655952
10.996461
10.554790
11.497736
11.052489
10.870695
11.128783
11.513829
10.260940
12.065768
12.107491
11.863708
13.980865
14.588833
15.851855
15.922785
20.450950
23.700595
26.021600
28.431416
31.871796
33.262968
34.357905
33.134818
29.901862
27.577877
26.976466
24.296641
21.115541
20.221472
15.096664
15.040636
11.433959
11.993647
12.118816
11.045933
10.657907
9.714961
10.376573
11.102557
10.557771
10.168552
##ZVALUE=225
59.165955
61.434507
77.979565
94.559789
97.066760
94.471574
87.179542
66.782832
50.095916
42.138696
27.777553
25.690794
23.962855
25.610924
26.867986
23.469925
21.260977
17.727613
13.496876
11.193752
7.053614
6.399751
6.231666
6.332994
6.381869
6.486773
7.196665
7.257462
7.745624
8.876920
8.458495
8.218884
9.203553
10.681748
9.231567
9.409785
9.274483
9.893775
9.690523
10.420680
11.428595
10.709763
11.795759
11.389852
10.306835
10.749698
11.456609
10.817647
11.833906
12.889504
11.314750
11.016726
12.082458
12.408495
10.407567
12.986660
11.844635
12.504458
12.840629
13.807416
12.396574
13.434887
12.437701
13.327599
12.871623
13.810992
15.615821
15.566945
17.295480
20.140409
22.049546
24.527907
27.438998
29.758811
32.468438
29.456615
31.723976
31.032562
28.988719
27.979612
24.703741
22.327900
21.124482
19.787550
17.671585
16.336441
14.304519
13.857484
12.106895
13.685822
12.143850
11.258721
13.218522
11.863708
11.932850
12.672544
##ZVALUE=230
56.253672
61.333776
93.644857
144.073963
190.842748
226.050615
240.047574
234.219432
211.155415
179.099441
123.778582
88.230968
57.396889
46.757460
47.500730
49.030781
50.307512
47.953725
47.766566
37.223697
29.232502
20.687580
13.730526
9.494424
7.460713
6.851554
8.212924
7.782578
9.036660
9.423494
8.949637
9.600520
8.982420
9.366870
9.530783
10.711551
9.614825
10.171533
11.746883
10.843873
9.883642
10.330677
11.423826
11.299849
11.797547
10.617971
11.901855
11.686683
12.194514
12.853742
12.289882
11.770725
12.700558
13.878942
13.757944
12.810826
13.286471
14.121532
13.018847
14.581680
12.695789
14.521480
14.788508
14.858842
16.430616
16.186833
16.709566
18.774867
19.222498
21.928549
25.784969
27.793646
29.244423
30.718446
33.222437
33.659935
34.215450
32.833815
30.508637
28.692484
26.449561
23.491979
21.869540
20.705462
17.671585
17.687678
17.615557
15.577674
15.664697
16.050935
14.616847
16.228557
14.505982
15.068650
15.540719
16.004443
##ZVALUE=235
18.077493
24.425983
46.037436
115.322471
179.075599
275.965929
357.234478
451.912880
493.934751
483.658910
439.502001
332.162976
254.068971
160.792470
115.857720
87.374449
74.246526
76.498985
84.084868
85.291862
74.934959
66.496730
49.770474
37.600994
23.304820
17.754436
12.632608
8.864999
8.340478
9.634495
9.521842
10.060668
9.679794
10.006428
10.604858
10.780692
10.893941
11.242628
11.498928
10.135770
11.081696
11.816621
11.551976
11.657476
10.728836
12.615919
11.292696
12.307763
13.306737
14.198422
13.405681
13.404489
13.113618
14.541745
14.506578
14.985800
14.981627
15.784502
16.179681
14.404655
16.444921
15.574694
16.161799
17.948747
17.143488
18.289685
17.774701
20.506978
20.779967
25.266409
26.401877
30.875802
33.747554
35.061836
35.298467
37.438869
35.458803
36.453605
35.944581
29.763579
30.104518
27.333498
27.109981
24.300814
24.368763
21.527410
20.433664
20.734668
20.549893
20.227432
21.409988
19.305944
19.494891
19.518733
18.481612
19.091964
##ZVALUE=240
2.405643
3.740788
7.905960
30.945539
65.942407
142.190456
239.075422
404.622555
540.242791
656.737685
760.090947
759.745836
671.816468
568.874478
407.370925
284.751654
170.717835
125.174522
100.748539
99.357963
104.849935
115.829706
104.735494
95.077753
80.423951
60.693622
47.129989
29.165745
21.115541
14.366508
11.419654
10.486841
10.535717
10.333657
10.278821
10.183454
10.857582
11.375546
11.072755
11.649728
12.017488
12.399554
11.054873
12.248755
11.347532
11.642575
10.961890
11.971593
12.641549
13.277531
12.202859
14.319420
12.833476
13.306737
13.491511
13.371706
13.551712
13.537407
14.781952
15.117526
15.300512
17.214417
15.209913
17.236471
16.471744
17.801523
18.787980
20.905733
21.285415
24.966598
27.087927
30.907989
33.386946
36.498904
36.089420
37.747622
36.585927
35.764575
33.699870
31.667948
29.316545
27.934909
27.991533
25.853515
24.611950
24.206638
22.866726
22.759438
22.183657
23.248792
21.032691
21.381974
21.857619
20.269752
21.103621
20.222664
##ZVALUE=245
1.993775
1.992583
2.263784
2.350807
6.481409
19.828677
60.293674
121.718645
278.135538
423.776507
645.513535
802.026987
913.192034
965.828896
914.008021
754.309893
607.843995
402.490497
276.107788
158.911943
114.322901
103.149414
111.302733
124.063492
127.913952
118.996501
105.921626
92.121959
68.359971
52.369833
39.619803
23.188591
16.199946
12.247562
10.333657
9.868741
9.994507
10.450482
10.007620
10.970831
10.608435
9.796619
10.272861
10.190606
9.346604
9.726882
10.413527
11.069775
10.659695
10.875463
11.019707
10.734797
11.485815
10.669827
12.282729
11.123419
11.784434
13.321638
12.609959
14.293790
12.602806
12.882948
13.497472
14.162660
15.681982
15.534759
17.141700
17.062426
19.148588
21.193624
23.075938
25.337934
29.012561
29.188991
30.868649
29.559731
32.171607
31.814575
28.734803
28.303862
26.420951
24.853945
24.539828
24.511814
23.127794
21.683574
22.122860
20.385981
20.047426
21.569729
21.188855
21.117926
20.525455
20.068884
18.781424
20.400882
##ZVALUE=250
1.735687
1.836419
1.883507
1.909733
2.268553
2.233982
3.131628
15.383959
39.609671
92.700720
226.444602
385.987759
636.547804
830.051899
1011.512876
1015.861630
1015.861630
997.023582
851.544738
587.703586
401.212573
212.116838
139.051676
101.337433
100.302696
120.020509
129.593611
134.178996
128.781796
113.057494
97.401738
73.174834
55.265427
35.879612
24.464726
16.658902
12.380481
10.205507
10.158420
10.304451
9.963512
10.646582
9.609461
9.376407
9.797812
9.925961
10.455847
9.919405
11.082888
9.817481
9.860992
10.412931
10.076761
10.998845
10.809898
11.192560
10.659695
11.466742
10.327697
11.739731
11.707544
11.561513
12.715459
12.810826
12.923479
14.103651
14.101863
14.919639
17.635822
18.463731
18.721819
23.563504
24.085641
25.336742
26.296973
27.169585
27.896762
25.903583
25.491714
24.080873
24.004579
22.198558
21.208525
21.587610
20.248890
21.198988
18.828511
18.973947
18.892884
19.825697
19.114614
18.940568
20.727515
20.006895
18.382668
20.272732
##ZVALUE=255
1.653433
1.642704
1.609921
1.528859
1.810789
1.947880
1.556873
1.953840
2.713799
6.884933
35.635829
83.076954
166.545510
357.647538
542.382002
848.456025
1015.762687
1015.762687
1015.762687
1015.762687
1015.762687
842.539072
536.971688
335.638523
169.239640
113.791823
93.407631
104.193687
122.426748
136.384964
140.916705
139.457583
127.645731
103.299618
81.401467
56.238770
38.762689
23.818612
16.338825
11.712909
10.464787
10.081530
8.885860
9.331703
9.293556
9.043813
9.162426
9.523630
8.697510
9.563565
8.949637
10.187626
8.888841
9.921789
9.617805
9.129643
9.746552
9.519458
10.205507
9.112954
9.941459
10.380745
9.921789
10.869503
11.152625
12.156963
12.625456
14.070868
14.691949
15.846491
17.556548
19.205809
21.255612
21.077991
23.063421
23.043752
21.855831
22.509694
22.038817
19.889474
18.790960
19.157529
18.531680
18.861890
18.335581
17.155409
17.813444
18.378496
17.609596
17.940998
17.469525
17.493963
17.882586
17.986894
17.467737
17.723441
##ZVALUE=260
1.443624
1.596808
1.408458
1.597404
1.756549
1.878738
1.629591
2.034903
2.210736
1.839995
2.655983
4.423857
13.105869
53.303838
123.785734
292.066932
481.882691
793.269873
1009.410024
1015.854478
1015.854478
1015.854478
1015.854478
996.250510
669.880509
454.195738
251.102448
153.454542
93.206763
84.071755
100.969672
123.724937
139.396787
151.004791
145.137906
129.175782
109.957457
79.195499
61.332583
38.537979
26.514530
15.932918
12.186766
10.476708
9.739995
9.457469
9.156466
9.131432
9.151697
9.293556
9.364486
9.831786
9.618998
8.543730
9.338856
9.312630
9.120703
10.132790
9.396672
9.979606
9.340644
10.000467
10.042787
10.471940
11.133552
11.502504
11.274815
12.884736
13.240576
14.927983
15.384555
16.930699
17.663836
20.281672
20.328760
19.976497
20.065904
19.808412
19.451976
18.262863
19.014478
18.163919
17.315745
16.699433
15.910864
17.101765
16.688704
16.641617
14.809966
15.884638
16.636848
16.500950
16.351938
16.750693
16.971827
17.389655
##ZVALUE=265
1.432896
1.371503
1.314878
1.443624
1.452565
1.484752
1.714826
1.842976
2.034903
2.357960
2.207756
2.207756
2.209544
3.049970
9.148717
31.833649
106.634498
214.751959
376.997590
717.786551
992.740989
1015.861630
1015.861630
1015.861630
1015.861630
1015.861630
937.677622
593.108535
386.469960
195.630789
117.467642
78.441501
84.005594
112.347603
129.981637
148.587823
151.808858
145.505667
133.444667
102.251768
82.190633
55.783987
38.425922
23.041964
16.388893
11.282563
10.090470
8.911490
9.048581
9.133816
8.724928
9.031892
8.687973
9.140968
9.210706
8.962750
8.969903
9.257793
9.282827
9.049773
9.063482
9.195805
9.406805
9.089708
9.434819
10.197759
10.500550
11.141896
12.293458
12.524724
14.327765
15.706420
16.152859
17.414689
17.489791
17.692447
17.519593
17.661452
16.572475
16.226768
14.982820
15.271902
14.701486
14.749765
14.669895
15.301704
14.531612
14.062524
15.668869
14.729500
14.982820
15.549660
15.828609
15.454888
15.317798
15.694499
##ZVALUE=270
1.398921
1.560450
1.451969
1.522899
1.551509
1.558661
1.657605
1.677871
1.732707
1.764894
1.753569
1.872778
2.188683
2.054572
2.513528
2.907515
3.742576
17.750859
54.606795
169.983506
339.720845
578.475595
977.199674
1015.907526
1015.907526
1015.907526
1015.907526
1015.907526
1015.907526
891.335011
607.419610
312.180519
174.866915
81.306696
65.569878
86.962581
107.001662
134.325624
149.562955
153.482556
148.580670
130.487680
108.388662
79.741478
58.271885
36.282539
25.988817
16.299486
12.286901
9.391904
8.978844
8.483529
8.547902
8.587837
8.750558
9.196997
8.873940
9.021759
9.107590
9.104609
9.072423
9.115934
9.200573
9.044409
9.260774
8.979440
10.040998
10.148883
11.397600
12.408495
12.795925
14.371872
14.947653
16.099811
16.070604
16.358495
15.651584
15.855432
14.903545
14.419556
13.799667
13.675690
13.329983
13.040900
13.779998
13.604760
13.219714
12.689829
13.440847
13.389587
13.106465
13.713837
13.535619
14.437437
14.149547
13.998747
##ZVALUE=275
1.354814
1.247525
1.440644
1.339912
1.414418
1.442432
1.379848
1.454949
1.462698
1.407862
1.475811
1.467466
1.736879
1.652837
2.137423
2.091527
2.227426
2.588630
2.702475
7.512569
29.336810
118.193626
249.217749
550.555587
869.659781
1015.861630
1015.861630
1015.861630
1015.861630
1015.861630
1015.861630
1015.861630
801.482797
431.363583
246.485472
104.746819
63.274503
62.524676
80.437660
108.640790
127.011538
146.143436
150.416493
144.883990
130.841732
103.425980
83.211660
55.754781
40.999651
24.606586
16.058683
11.423826
9.903908
8.287430
7.928610
8.811951
8.898973
8.450747
8.655787
8.571744
8.800626
8.488894
9.036660
8.814931
9.247661
9.402633
9.650588
10.312796
10.618567
11.954904
12.500882
13.568997
14.059544
14.909506
15.971661
15.562773
15.145540
14.699697
14.288425
13.948679
13.696551
13.422966
12.446642
12.255907
13.009906
13.027787
12.839437
12.191534
13.324618
12.434721
12.962818
12.977719
12.279749
13.033748
13.023615
13.104677
##ZVALUE=280
1.406670
1.325607
1.295805
1.244545
1.267791
1.209974
1.098514
1.289845
1.398921
1.580715
1.650453
1.580715
1.646876
1.839995
1.737475
1.924634
1.956820
2.185702
2.058744
2.762675
2.818704
3.872514
20.744801
69.326758
219.955444
406.702757
763.569474
1015.861630
1015.861630
1015.861630
1015.861630
1015.861630
1015.861630
1015.861630
982.993841
569.519997
336.666703
141.623616
72.280765
47.994852
56.275725
81.813931
102.987885
128.406882
141.839981
146.906972
141.637921
123.223662
105.717778
77.152848
58.572888
37.572980
26.209950
15.714765
11.263490
9.104609
8.486509
8.643866
8.614659
8.461475
8.537769
8.579493
8.499622
9.326935
9.560585
9.459853
9.686947
10.435581
11.056662
11.312962
12.705922
13.439655
13.955832
14.460683
14.646649
14.757514
14.224648
14.369488
14.067888
13.205409
12.639761
12.454987
12.361407
12.144446
12.847781
12.428761
12.232661
12.537837
12.200475
12.053847
12.268424
12.671947
12.292862
12.423992
12.216568
12.405515
##ZVALUE=285
1.236796
1.110435
1.102686
1.107454
1.244545
1.237988
1.281500
1.180768
1.354814
1.242757
1.436472
1.374483
1.426935
1.419783
1.648664
1.632571
1.619458
1.798868
1.953840
2.199411
2.254844
2.604723
2.881885
3.161430
10.685921
37.970543
129.278898
276.193619
588.765740
904.783010
1015.861630
1015.861630
1015.861630
1015.861630
1015.861630
1015.861630
1015.861630
812.453032
507.709980
237.505436
116.525888
46.768785
38.896799
54.809451
72.992444
101.852417
120.094419
136.972666
143.062472
139.336586
127.645731
105.440617
84.343553
57.498813
40.478706
25.031567
17.510653
11.914968
9.717941
9.173751
8.760691
8.927584
9.362698
8.729696
9.370446
9.163618
9.728670
10.041595
10.403991
11.587739
11.601448
12.884736
13.728738
13.412833
14.052987
13.755560
13.533831
13.442636
13.315678
12.356639
13.017654
12.548566
12.417436
12.585521
12.260675
12.338758
11.988878
12.622476
12.258887
12.023449
12.115836
11.972785
11.792779
11.821985
11.664629
11.736751
##ZVALUE=290
1.173615
1.165867
1.144409
1.368523
1.147985
1.209974
1.148582
1.077652
1.369715
1.177788
1.349449
1.464486
1.354814
1.484752
1.454949
1.594424
1.817942
1.532435
1.713634
1.917481
1.902580
2.128482
2.158880
2.521873
2.575517
3.137589
3.939867
20.662546
63.604712
196.749568
380.288959
776.250958
1015.876532
1015.876532
1015.876532
1015.876532
1015.876532
1015.876532
1015.876532
1009.047627
713.380575
360.922813
188.573003
67.291856
33.822656
36.641955
49.712658
71.734786
92.020631
117.339492
131.911635
140.015483
138.361454
123.442411
105.794668
78.085661
58.040619
38.000941
27.099848
17.070770
12.922883
10.204911
9.807944
9.285808
9.586811
9.888411
9.822845
10.245442
10.966659
11.351705
12.246966
12.768507
13.359785
13.895631
13.467669
13.393760
13.260841
13.096929
12.562871
12.603998
12.395978
11.820793
12.038946
12.066960
11.686683
11.870861
12.119412
11.774898
11.656880
11.656880
11.595488
11.310577
11.524558
11.624694
11.606812
11.716485
##ZVALUE=295
0.988841
0.991821
1.284480
1.072884
1.271963
1.162887
1.137853
1.202822
1.215935
1.227856
1.308918
1.341701
1.345873
1.264811
1.244545
1.403689
1.473427
1.776814
1.616478
1.694560
1.707673
1.881719
1.770854
2.133846
2.174973
2.262592
2.664924
3.247857
3.675818
7.117987
39.590597
115.888715
260.876417
609.216690
961.413980
1015.864015
1015.864015
1015.864015
1015.864015
1015.864015
1015.864015
1015.864015
929.925442
487.750769
276.811719
102.900863
45.564771
25.022626
30.665994
50.167441
65.189600
91.488957
107.667446
125.665665
133.153796
130.354762
117.849708
96.823573
78.795552
55.072904
40.992498
26.354790
18.793941
13.006926
11.020899
9.856820
10.209680
9.986758
10.535717
11.391640
11.911988
12.445450
13.739467
13.296604
13.478994
13.300776
13.130903
13.007522
12.874603
12.512803
12.038946
12.034774
11.964440
11.951923
11.695623
11.787415
12.105703
11.909604
11.533499
11.767745
11.912584
11.745691
11.358857
11.552572
11.681914
11.467934
##ZVALUE=300
0.950694
1.145601
1.012683
0.938773
1.107454
1.090765
1.335740
1.067519
1.182556
1.126528
1.255870
1.234412
1.237988
1.401901
1.233816
1.032948
1.375675
1.422763
1.423955
1.570582
1.575947
1.715422
1.694560
1.726747
1.833439
2.099872
2.035499
2.384782
2.500415
2.651811
3.316998
3.717542
17.082691
61.189532
207.205415
406.695604
834.939480
1015.862823
1015.862823
1015.862823
1015.862823
1015.862823
1015.862823
1015.862823
1015.862823
735.861659
372.357965
202.859640
72.074533
29.450655
21.828413
28.564930
44.131875
60.587525
84.316730
100.127459
119.622946
126.690865
126.124620
116.598606
95.878839
79.954863
56.360960
41.727424
26.694536
19.850731
14.160872
12.158751
10.667443
11.102557
12.003779
12.233853
12.504458
12.815595
12.722611
12.718439
13.237000
12.743473
12.253523
11.985898
12.390614
12.110472
11.823773
11.727810
11.745691
12.164712
12.319684
11.241436
12.099743
11.566877
11.234879
11.259913
11.271834
11.804700
11.115670
10.773540
##ZVALUE=305
1.007915
1.187921
1.164675
1.123548
1.220703
1.092553
1.010895
1.195669
1.162887
1.171827
1.120567
1.151562
1.362562
1.391768
1.509786
1.212955
1.384616
1.425743
1.303554
1.489520
1.536608
1.387596
1.552701
1.735687
1.609921
1.997948
1.918674
2.148747
2.156496
2.392530
2.552867
2.811551
2.919436
3.707409
6.619692
40.271878
114.713907
331.853032
608.314872
1015.934944
1015.934944
1015.934944
1015.934944
1015.934944
1015.934944
1015.934944
1015.934944
874.012709
543.969870
252.720714
122.868419
40.452480
19.724965
20.407438
27.271509
42.625666
58.376789
81.729889
97.258687
113.719702
119.687915
117.737651
110.606551
93.262792
76.134801
54.608583
41.084886
26.864409
20.000935
14.832616
13.045669
12.125969
12.357831
12.831688
12.807846
12.338758
12.220740
12.283921
12.144446
12.001991
11.782646
11.937618
12.170672
11.984706
12.015700
11.685491
11.781454
12.221932
11.582971
11.888742
11.408925
11.146665
11.070967
11.111498
10.790825
11.036992
##ZVALUE=310
0.857711
1.056790
1.164675
1.079440
1.289845
1.107454
1.156926
1.045465
0.977516
1.096725
1.048446
0.883937
0.946522
1.056790
1.019835
1.164675
1.217723
1.296997
1.171827
1.309514
1.228452
1.391768
1.435876
1.412630
1.535416
1.606941
1.611710
1.798868
1.979470
1.744628
2.120733
1.999736
2.295971
2.431870
2.896786
3.259778
3.807545
18.321872
63.574910
209.799409
414.872766
865.558982
1015.861630
1015.861630
1015.861630
1015.861630
1015.861630
1015.861630
1015.861630
1015.861630
753.646493
366.247892
190.067887
65.164566
25.330782
14.958978
17.740726
26.186705
36.041737
53.832531
69.601536
91.372728
104.312897
113.886595
113.997459
105.139613
92.993975
73.970556
57.478547
38.837790
29.267669
20.586848
16.562939
13.700724
13.112426
12.491941
11.983514
11.909604
11.731982
11.565685
11.728406
11.638999
11.423826
11.692643
11.576414
11.892915
11.643767
11.789799
11.641979
11.404753
11.225939
11.502504
11.094809
11.248589
10.874867
11.278987
##ZVALUE=315
0.967979
0.831485
0.959635
0.962615
0.968575
0.847578
0.987649
1.030564
0.981688
1.130700
1.156926
1.198649
1.168847
1.014471
0.992417
1.052618
0.921488
1.024604
1.158714
1.311898
1.105666
1.230836
1.267791
1.352429
1.429915
1.450777
1.617670
1.576543
1.670718
1.795888
1.959801
1.810789
2.130866
2.257824
2.344847
2.351999
2.775788
3.363490
3.608465
8.650422
33.914447
145.659447
319.002867
722.993612
1015.861630
1015.861630
1015.861630
1015.861630
1015.861630
1015.861630
1015.861630
1015.861630
974.326730
515.635014
271.138549
92.055798
35.963655
14.706850
13.777614
17.151833
22.709966
35.273433
48.498511
66.660643
82.883835
99.366903
107.587576
108.527541
101.886988
87.879896
72.212815
54.079890
40.886998
28.207898
21.001697
15.513897
13.836622
11.797547
11.683702
11.517406
11.262894
11.786819
11.646748
11.753440
11.961460
11.287928
12.007952
11.435747
11.397600
11.634827
11.255741
11.283755
10.716915
10.802746
10.751486
10.505915
##ZVALUE=320
0.919700
0.886917
0.972748
0.980496
0.883937
0.880957
0.905991
1.054406
0.934601
0.928640
1.064539
1.041889
0.876784
1.047850
1.039505
1.123548
1.079440
1.179576
1.074672
1.016855
1.270771
1.166463
1.252890
1.257658
1.187921
1.432896
1.346469
1.305938
1.440644
1.523495
1.586676
1.740456
1.711845
1.791716
1.924634
2.037883
2.301931
2.329946
2.775788
3.048778
3.332496
4.582405
14.405847
77.609420
201.638937
536.618829
890.371799
1015.861630
1015.861630
1015.861630
1015.861630
1015.861630
1015.861630
1015.861630
1015.861630
684.101582
383.208990
153.060555
64.394474
19.315481
12.486577
12.898445
15.278459
21.114945
30.043721
45.270920
59.441924
78.087449
90.774894
102.459788
102.735758
96.543431
87.173581
67.627430
54.894686
37.268996
28.350949
19.557476
15.711784
12.975931
11.774898
11.288524
11.290908
11.686683
11.289716
11.538863
11.737943
11.589527
11.173487
11.212826
10.828972
10.905862
10.967851
11.001825
10.833740
11.032820
##ZVALUE=325
0.798702
0.893474
0.821948
0.922680
0.940561
0.884533
0.977516
0.867844
0.956655
0.932813
1.034737
0.918508
1.009703
1.017451
0.916719
0.987649
0.957847
1.107454
1.022816
1.032948
1.026988
1.158714
1.025796
1.190901
1.163483
1.324415
1.315475
1.409650
1.380444
1.399517
1.449585
1.518726
1.557469
1.623631
1.722574
1.903772
1.936555
2.238750
2.357960
2.371669
2.705455
2.948642
3.207922
3.681779
7.763505
50.651431
134.194493
361.773968
656.955838
1015.861630
1015.861630
1015.861630
1015.861630
1015.861630
1015.861630
1015.861630
1015.861630
862.024426
505.389571
215.998888
98.354816
27.746558
13.249516
11.240840
11.775494
15.029907
20.173788
30.290484
42.308569
60.984492
74.787736
89.603662
97.134709
97.469687
92.087984
77.816844
65.077543
47.935843
36.633611
24.718642
18.874407
14.376640
12.780428
11.623502
11.259913
11.135936
11.177659
11.376739
10.860562
11.313558
10.850430
10.698438
10.715723
10.415912
10.501742
10.581613
##ZVALUE=330
0.895858
0.841618
0.857711
0.839829
0.938773
0.900626
0.930429
0.953674
0.965595
0.878572
0.834465
0.891685
0.836849
0.798702
0.931621
0.915527
1.006722
0.976920
0.933409
0.987649
1.166463
1.109838
1.065731
1.143813
1.193881
1.172423
1.261830
1.215935
1.222491
1.266599
1.452565
1.360774
1.479983
1.605749
1.531839
1.678467
1.743436
1.793504
1.875758
2.211928
2.272725
2.345443
2.526641
2.864599
3.039837
3.576875
4.849434
23.403764
75.890422
251.259804
490.669608
972.395539
1015.861630
1015.861630
1015.861630
1015.861630
1015.861630
1015.861630
1015.861630
1015.861630
703.404546
309.678912
150.042772
46.883821
18.120408
11.051893
10.921955
11.987686
14.196634
21.402836
29.477477
42.612553
55.795908
72.838664
83.412528
91.223717
92.090964
85.558891
74.736476
59.299469
46.689510
32.849908
25.505424
18.817782
15.527606
12.715459
12.040734
11.353493
11.016726
10.882616
11.028647
10.871887
11.009574
10.666847
10.634661
10.343790
##ZVALUE=335
0.890493
0.968575
0.993609
0.713468
0.824928
0.776649
0.948906
1.098514
0.948906
0.997782
1.001954
0.954866
0.913739
0.797510
0.977516
1.169443
1.101494
1.127720
1.127720
0.982881
1.029968
1.131892
1.251698
1.106858
1.173615
1.289845
1.250505
1.294613
1.316667
1.387596
1.238585
1.288652
1.342893
1.618862
1.619458
1.469851
1.633763
1.591444
1.645684
1.733899
1.909733
2.012849
2.094507
2.401471
2.536774
2.802610
2.943873
3.400445
3.956556
11.071563
41.323900
168.173909
362.430811
819.302797
1015.943885
1015.943885
1015.943885
1015.943885
1015.943885
1015.943885
1015.943885
1015.943885
901.055932
454.538465
228.951573
72.797537
27.432442
12.668967
11.289716
11.453629
12.797713
15.508533
20.002723
29.429793
39.250851
54.810643
66.791773
79.127550
85.771680
85.663795
79.889894
68.351626
58.098435
44.723749
35.820603
25.017858
19.379854
14.870763
12.793541
11.558533
11.129975
10.771751
10.641813
10.214448
10.548830
10.502934
##ZVALUE=340
0.831485
0.789762
0.744462
0.804663
0.852942
0.743866
0.826716
0.864863
0.762939
0.954866
0.945926
0.901818
0.886917
0.792742
0.768900
0.885725
0.891685
0.933409
1.062751
0.919700
1.109838
0.989437
0.922680
1.048446
1.173615
1.129508
1.292825
1.135468
1.026988
1.086593
0.998974
1.237988
1.308918
1.357794
1.381636
1.402497
1.428723
1.363754
1.332760
1.592636
1.712441
1.710653
1.822710
1.967549
2.026558
2.199411
2.324581
2.396703
3.037453
3.116727
3.277659
5.723834
19.207597
98.946691
242.902637
618.655682
994.812846
1015.861630
1015.861630
1015.861630
1015.861630
1015.861630
1015.861630
1015.861630
1015.861630
596.080422
316.085815
118.561983
43.491721
14.278889
11.897683
11.705756
11.768937
12.780428
14.744997
19.818544
26.706457
38.083792
49.722791
64.952970
73.317885
80.336928
80.951452
75.023770
67.805648
55.747628
45.288801
33.592582
25.854707
19.026995
15.284419
11.986494
10.989904
10.469556
10.157824
9.999871
##ZVALUE=345
0.692606
0.759959
0.742674
0.814795
0.851750
0.873804
0.849962
0.799894
0.700951
0.782609
0.796914
0.820756
0.742674
0.804663
0.826716
0.881553
0.627637
0.786781
0.787973
1.108646
0.910759
0.798702
0.812411
0.889897
0.867844
0.992417
0.934601
1.136661
1.061559
0.977516
1.170635
1.063943
1.158714
1.149774
1.284480
1.248717
1.400709
1.362562
1.386404
1.249909
1.321435
1.455545
1.656413
1.704693
1.657605
1.901984
1.856685
2.046824
2.160668
2.313852
2.467632
2.853870
3.193617
3.789663
8.474588
55.624843
155.014992
417.827964
750.557780
1015.806794
1015.806794
1015.806794
1015.806794
1015.806794
1015.806794
1015.806794
1015.806794
813.565850
442.863703
163.905621
68.557858
21.477938
12.809634
11.936426
11.153817
10.915995
11.124611
13.547540
17.165542
25.431514
34.006834
47.325492
57.041645
67.362785
72.936416
74.945688
72.187781
63.108802
55.044889
43.093562
33.910871
23.784637
18.993616
14.273524
12.072921
10.605454
##ZVALUE=350
0.687838
0.826716
0.763535
0.905991
0.922680
0.821948
0.712872
0.688434
0.857711
0.789762
0.879765
0.892878
0.800490
0.879765
1.018643
0.756979
0.955462
0.810623
0.972748
0.951886
0.980496
1.008511
1.031756
0.998974
1.063943
0.879765
0.977516
1.006722
0.958443
1.011491
1.074672
1.111627
1.216531
1.198649
1.091957
1.314878
1.375675
1.025796
1.308918
1.302958
1.337528
1.349449
1.303554
1.442432
1.594424
1.608729
1.781583
1.875758
2.032518
2.086759
2.120733
2.189875
2.390742
2.707839
3.083944
3.591776
4.942417
27.443767
87.138414
275.543928
528.149009
996.070504
1015.861630
1015.861630
1015.861630
1015.861630
1015.861630
1015.861630
1015.861630
927.099586
552.314520
236.878395
101.424456
26.562810
13.237000
10.660887
10.120869
9.589791
9.726882
10.237694
12.307763
16.896725
21.647811
30.679703
39.012432
51.086545
59.499741
65.887570
68.233609
66.335797
60.499907
50.164461
41.086674
30.609965
24.082661
17.671585
##ZVALUE=355
0.766516
0.812411
0.837445
0.807643
0.852942
1.006722
0.912547
0.816584
0.808835
0.756979
0.978708
0.885725
0.718832
0.985861
0.874996
0.825524
0.929832
1.053810
1.016855
1.048446
0.935793
0.900626
1.148582
1.103878
1.146793
1.025796
0.982881
1.016855
0.991821
1.120567
1.202822
1.138449
1.026988
1.161695
1.320839
1.209974
1.241565
1.241565
1.239777
1.086593
1.098514
1.320839
1.379848
1.258850
1.527667
1.553893
1.635551
1.672506
1.713634
1.874566
2.020597
2.234578
2.129674
2.230406
2.525449
2.679825
3.017783
3.259778
3.963709
12.747645
47.090650
184.656978
377.915502
802.302957
1015.861630
1015.861630
1015.861630
1015.861630
1015.861630
1015.861630
1015.861630
1015.861630
755.985975
316.626430
140.311718
37.966967
15.395880
10.365844
9.775758
9.279847
9.057522
9.329915
9.699464
11.387467
13.922453
20.046830
25.860667
36.381483
44.210553
53.712726
59.672594
62.884688
61.331987
56.071877
49.393773
39.541721
##ZVALUE=360
0.856519
0.735521
0.696778
0.802875
0.788569
0.766516
0.846982
0.799894
0.846982
0.967979
0.894666
0.828505
1.002550
0.926852
0.981688
1.021624
1.072884
1.030564
1.023412
0.918508
0.930429
0.812411
1.198649
1.046658
0.953674
1.023412
1.054406
1.063943
1.127720
1.038909
1.121759
0.979900
1.041889
1.079440
1.248717
1.179576
1.273751
1.250505
1.303554
1.369715
1.291633
1.361966
1.355410
1.492500
1.423955
1.445413
1.710653
1.771450
1.659989
1.946688
1.856685
1.987815
1.967549
1.949668
2.090931
2.398491
2.450943
2.673864
2.942681
3.277659
3.735423
6.494522
21.582842
99.734664
235.613585
579.633713
965.503454
1015.864015
1015.864015
1015.864015
1015.864015
1015.864015
1015.864015
1015.864015
928.123593
432.741642
211.205482
68.480968
24.030805
10.655522
9.520650
9.193420
8.858442
8.293986
8.560419
8.944869
9.735823
12.566447
16.060472
22.564530
28.824806
38.620830
45.264959
52.639842
55.678487
56.347847
##ZVALUE=365
0.780821
0.853539
0.881553
0.917912
0.856519
0.924468
0.926852
0.832677
0.849962
0.730753
0.928640
0.946522
0.900626
0.895858
0.958443
0.865459
0.888705
0.712872
1.002550
1.062751
0.977516
1.016855
1.142621
1.064539
1.081824
1.165867
1.015663
1.107454
1.089573
1.056790
0.977516
1.061559
1.337528
1.048446
1.131892
1.270771
1.269579
1.325607
1.355410
1.349449
1.392961
1.204610
1.319647
1.293421
1.315475
1.608729
1.531839
1.460910
1.538992
1.655817
1.801848
1.685619
1.641512
1.952648
2.077818
2.014637
2.330542
2.400875
2.420545
2.530813
3.049970
3.442764
3.756881
4.567504
9.598732
55.847764
149.229765
404.656529
759.469867
1015.857458
1015.857458
1015.857458
1015.857458
1015.857458
1015.857458
1015.858054
1015.857458
710.184574
381.315947
130.340457
45.737624
12.683868
9.340644
8.808970
8.191466
8.131862
7.981658
7.983446
8.130670
9.004474
10.510683
13.939738
18.535852
26.135445
32.343864
40.704608
##ZVALUE=370
0.816584
0.871420
0.720620
0.789762
0.826716
0.952482
0.821948
0.930429
0.847578
0.872612
1.022816
0.992417
0.925660
0.978708
0.980496
1.009703
1.009703
0.755787
0.769496
0.980496
0.885725
0.898838
1.013875
0.821948
0.878572
0.984669
1.028776
1.031756
0.886917
1.071692
1.193881
0.967979
1.135468
1.076460
1.052618
1.232624
1.171827
1.363754
1.359582
1.205802
1.317859
1.346469
1.433492
1.445413
1.384616
1.140833
1.211762
1.380444
1.495481
1.565814
1.672506
1.382828
1.557469
1.697540
1.684427
1.915693
1.896620
1.989603
2.092719
2.246499
2.386570
2.538562
2.860427
3.092885
3.602505
4.059672
6.018877
30.724406
102.214813
327.988863
614.511967
1015.862823
1015.862823
1015.862823
1015.862823
1015.862823
1015.862823
1015.862823
1015.862823
880.284905
480.263829
173.829794
70.490837
20.032525
10.291934
8.214712
8.224845
7.766485
7.318854
7.205606
7.244945
7.197857
7.856488
9.751916
11.997819
16.656518
##ZVALUE=375
0.667572
0.828505
0.810623
0.676513
0.747442
0.740886
0.855923
0.791550
0.817776
0.723600
0.684857
0.753999
0.713468
0.731945
0.871420
0.804663
0.849962
0.972748
0.822544
0.956655
0.883937
0.790954
0.906587
0.767708
1.016855
0.992417
1.053810
0.911951
1.016855
0.996590
0.874996
0.905991
1.042485
1.033545
1.099706
1.116991
1.126528
1.018643
1.089573
0.932813
0.952482
1.076460
1.203418
1.251698
1.127720
1.318455
1.002550
1.323819
1.295805
1.183748
1.207590
1.344681
1.381636
1.418591
1.513958
1.488924
1.542568
1.775622
1.533628
1.855493
1.831651
2.023578
2.220869
2.148747
2.353787
2.574921
2.942681
3.566742
4.207492
14.906526
55.200458
200.091004
424.184799
921.781659
1015.861630
1015.861630
1015.861630
1015.861630
1015.861630
1015.861630
1015.861630
1006.765962
657.846928
289.933681
134.633780
37.007928
13.749599
8.202791
7.478595
7.033944
6.880760
6.720424
6.548762
6.631613
6.601810
7.192492
##ZVALUE=380
0.671744
0.811815
0.680685
0.789762
0.834465
0.716448
0.782609
0.850558
0.808835
0.841618
0.839829
0.781417
0.799894
0.796914
0.899434
0.840425
0.836849
0.792742
0.791550
0.811815
0.783801
0.744462
0.772476
0.746846
0.654459
0.802875
0.893474
0.725985
0.909567
0.839829
0.953674
0.908971
0.906587
0.925660
0.881553
0.921488
1.081824
0.914931
0.920892
0.978708
1.029968
0.951886
1.009703
1.137853
1.026988
1.177788
1.223683
1.075864
1.083612
1.226664
1.163483
1.269579
1.357794
1.183748
1.355410
1.352429
1.470447
1.361966
1.500845
1.617670
1.628995
1.579523
1.812577
1.931787
1.803637
2.297759
2.448559
2.916455
3.231764
3.656745
4.275441
7.690787
31.083822
146.002769
339.809060
804.305673
1015.861630
1015.861630
1015.861630
1015.861630
1015.861630
1015.861630
1015.861630
1015.861630
919.793844
443.658829
220.476985
69.218874
24.142861
9.215474
7.317662
6.753802
6.558895
6.271601
6.471872
6.178617
##ZVALUE=385
0.766516
0.737906
0.770688
0.777841
0.664592
0.606775
0.688434
0.719428
0.846982
0.835657
0.739694
0.727773
0.674725
0.728965
0.785589
0.799894
0.841618
0.739694
0.838637
0.852942
0.825524
0.737906
0.767708
0.707507
0.785589
0.858903
0.825524
0.819564
0.889897
0.915527
0.965595
0.865459
0.848770
0.969768
0.965595
0.826716
0.900626
0.864863
0.880957
1.029968
0.888705
0.830889
0.837445
1.073480
0.866652
1.047850
1.112819
1.190901
1.129508
1.057982
1.190901
1.105666
1.056790
1.211762
1.200438
1.173615
1.161695
1.456738
1.515746
1.619458
1.506805
1.370907
1.446605
1.724958
1.808405
1.997948
2.061725
2.216697
2.582669
2.796650
3.285408
3.516674
3.947616
4.700422
14.279485
83.342791
217.062831
551.055670
948.070884
1015.861630
1015.861630
1015.861630
1015.861630
1015.861630
1015.861630
1015.861630
1015.861630
683.212876
391.542912
155.716538
57.011843
12.277961
7.263422
6.600618
6.451607
6.024837
##ZVALUE=390
0.686646
0.705719
0.599623
0.636578
0.606775
0.692606
0.736713
0.689626
0.660419
0.573993
0.655651
0.720620
0.702739
0.676513
0.702739
0.676513
0.665784
0.708699
0.693798
0.750422
0.838637
0.898838
0.852942
0.770688
0.734925
0.861883
0.769496
0.785589
0.879765
1.010895
0.726581
0.871420
0.843406
0.742674
0.716448
0.897646
0.762939
0.928640
0.771880
0.972748
0.944734
1.020432
0.703931
0.985861
0.998974
0.893474
1.068711
1.005530
1.138449
1.056790
0.986457
1.079440
1.158714
1.223683
1.190901
1.165867
1.247525
1.351833
1.394749
1.285672
1.401901
1.318455
1.387596
1.520514
1.759529
1.923442
1.984835
1.874566
2.529621
2.518892
2.708435
2.826452
3.087521
3.376603
3.391504
3.742576
7.209778
44.786930
142.845511
430.289507
783.706903
1015.862823
1015.862823
1015.862823
1015.862823
1015.862823
1015.862823
1015.862823
1015.862823
970.442891
589.852929
243.346691
106.263757
24.456978
8.781552
6.417632
##ZVALUE=395
0.719428
0.681877
0.728965
0.642538
0.637770
0.772476
0.786781
0.775456
0.816584
0.921488
0.609756
0.729561
0.700951
0.650883
0.736713
0.722408
0.738502
0.695586
0.715852
0.878572
0.666976
0.656843
0.797510
0.734925
0.865459
0.758767
0.895858
0.759959
0.769496
0.884533
0.827909
0.853539
0.873804
0.820756
0.850558
0.817776
0.898838
1.128912
0.931621
0.890493
0.922680
0.939965
0.967979
0.789762
0.833869
1.050830
0.957847
1.159906
1.166463
0.964999
0.959635
1.003742
1.027584
1.137853
0.985861
1.162887
1.290441
1.165867
1.191497
1.268983
1.412630
1.523495
1.565814
1.623631
1.605749
1.702905
1.892447
2.046824
2.131462
2.416968
2.579689
2.790689
2.846718
2.818704
2.856851
2.959967
3.168583
3.516674
4.627705
25.223494
92.656016
309.723616
578.690767
1009.197831
1015.886664
1015.886664
1015.886664
1015.886664
1015.886664
1015.886664
1015.886664
1015.886664
723.772645
336.816907
155.500770
44.789910
##ZVALUE=400
0.715852
0.673532
0.784993
0.528693
0.735521
0.588894
0.774860
0.667572
0.689626
0.569820
0.743866
0.616908
0.708699
0.612736
0.578761
0.689626
0.759959
0.726581
0.742674
0.821948
0.731945
0.791550
0.626445
0.766516
0.668764
0.649691
0.715852
0.861883
0.694990
0.860691
0.760555
0.759959
0.730753
0.831485
0.891685
0.834465
1.035929
0.955462
0.893474
0.682473
0.914931
0.913739
0.885725
0.953674
0.926852
1.078844
0.873804
1.031756
1.244545
0.887513
1.033545
1.032948
1.092553
0.957847
1.224875
1.070499
0.941753
1.098514
1.194477
1.370907
1.377463
1.239777
1.350641
1.474619
1.437664
1.526475
1.526475
1.866817
2.005696
2.345443
2.220869
2.479553
2.460480
2.536774
2.411604
2.517700
2.531409
2.773404
2.885461
3.579855
3.861785
12.266636
47.754645
189.387798
397.001505
863.421559
1015.861630
1015.861630
1015.861630
1015.861630
1015.861630
1015.861630
1015.861630
1015.861630
888.900757
435.861945
##END
