##TITLE=FAAI0852
##FORMAT=SPECTACLE-ASCII V-1.2
##DATA TYPE=ULTRAVIOLET SPECTRUM
##SECOND TYPE=ULTRAVIOLET SPECTRUM
##DATE=04/30/18
##TIME=12:12:51
##SPECTROMETER/DATA SYSTEM=SPECTACLE
##XUNITS=NM EM
##YUNITS=ENERGY
##YFACTOR=1
##FIRSTX=220
##LASTX=410
##NPOINTS=96
##3DDATA=Equidistant
##ZUNITS=NM EX
##FIRSTZ=210
##LASTZ=400
##ZPOINTS=39
##XYDATA=(Y..Y)
##ZVALUE=210
4.302859
3.653765
3.536940
3.856421
3.844500
3.739595
3.621578
3.397465
3.882647
3.285408
3.145933
2.687573
2.309680
2.147555
2.126694
2.862811
2.665520
2.272725
3.284812
2.772808
3.227592
3.646612
3.062487
3.486872
5.351901
6.239414
7.788539
9.750724
13.097525
15.850663
17.431974
19.817948
23.920536
23.476481
25.660992
25.120974
26.582479
25.122762
23.452640
23.834705
23.140907
21.510720
20.942688
21.078587
18.800497
16.021729
14.228821
14.747977
12.786984
12.683868
11.664629
11.670589
11.111498
8.878708
9.121895
8.795857
7.532835
7.848740
7.738471
7.274747
6.624460
7.339716
6.395578
6.409883
7.561445
6.880760
6.363988
6.931424
7.449985
8.043647
9.640455
11.041760
11.417866
12.322664
13.650656
13.704896
15.601516
13.205409
12.464523
12.797713
11.139512
9.583831
8.098483
7.117987
7.523894
5.908608
5.675554
5.782843
5.473495
4.628897
5.193949
5.659461
6.249547
5.833507
6.015897
7.167459
##ZVALUE=215
13.220906
13.367534
10.822415
10.214448
8.775592
7.878542
7.709861
7.977486
8.067489
7.023811
6.957650
5.717874
6.059408
3.977418
3.504753
2.643466
2.744794
3.489852
3.125668
2.759695
2.906919
3.496408
3.954768
4.475713
5.956888
7.576942
10.586977
14.677644
19.771457
22.857785
28.795600
32.536983
39.580464
39.779544
42.579770
40.115714
40.857792
41.417480
37.091970
39.665699
36.797523
30.590892
32.811761
30.490756
26.378632
24.305582
22.774935
23.335814
20.106435
17.183423
16.702414
15.246868
13.574958
12.945533
13.368726
11.578798
10.303855
10.499954
9.528995
9.137988
8.989573
7.717609
7.855892
8.127689
7.913709
7.169843
7.022619
7.744431
7.867813
9.019971
9.496808
11.608601
11.266470
11.459589
12.118816
12.091994
12.510419
13.794899
12.239814
10.751486
9.229779
8.566976
7.537603
6.528497
6.249547
6.584525
5.623698
4.870892
4.943609
5.115867
4.046559
4.845858
4.917979
4.251599
4.548430
5.020499
##ZVALUE=220
38.015842
36.581755
40.536523
37.495494
33.909678
25.541782
18.485785
16.312599
14.885664
14.486909
14.864802
15.549660
15.930533
13.762712
10.897517
7.821918
5.985498
4.069805
3.360510
3.560781
3.175735
3.180504
4.090667
4.769564
6.317496
8.942485
13.472438
20.352602
27.060509
36.893487
41.663647
50.150752
52.518845
60.235858
60.915947
61.436892
64.782500
63.052773
61.022639
58.881640
55.030584
50.565600
48.713684
44.683814
41.738749
35.053492
33.240914
29.884577
27.602911
23.532510
23.843646
23.138523
21.699667
19.338727
16.082525
14.811754
13.919473
13.984442
11.599660
12.020469
12.473464
11.264682
10.147691
10.094643
8.057952
8.709431
8.771420
9.059906
8.443594
8.100867
9.949803
10.173917
11.156797
11.298656
10.918975
12.370944
12.789965
12.328625
11.039972
10.876656
10.048747
9.117723
8.223653
9.016991
7.793903
6.675720
5.934834
6.415844
5.589724
4.587770
4.928708
4.786849
4.676580
4.206896
4.601479
4.713535
##ZVALUE=225
57.074428
60.981512
72.334409
83.227754
86.776614
82.330704
76.918602
58.456659
46.722889
37.492514
28.856993
26.560426
28.755665
30.289888
28.292537
25.982857
22.572875
19.494891
13.823509
8.293986
6.376505
4.514456
4.280806
6.113648
7.284880
9.789467
14.906526
22.929907
28.968453
35.677552
42.754412
50.604939
54.078698
62.004924
67.024827
67.495704
66.170692
64.993501
59.500933
59.363842
58.521628
52.861571
50.604939
44.754744
42.851567
41.057467
38.908720
33.901930
31.946898
30.444860
27.025938
25.379658
21.154881
20.999908
19.811988
17.304420
18.087626
13.707876
14.624000
13.896823
13.268590
13.547540
11.575818
11.654496
12.395978
10.736585
10.359883
9.627938
10.460615
10.489821
10.804534
10.812879
11.813641
10.970831
12.830496
11.892915
12.310743
12.017488
11.098981
9.798408
10.189414
8.441806
7.994771
7.596612
6.375909
7.523894
6.313920
6.376505
5.467534
5.726814
5.660653
5.320907
5.821586
6.530881
5.517602
5.928874
##ZVALUE=230
44.798851
51.214695
77.763796
117.660761
146.277547
172.266960
187.134743
175.442696
163.242817
132.196546
89.030862
68.256855
52.841902
47.610998
50.382614
50.671697
52.366853
46.874881
44.704676
37.676692
29.219985
18.398762
13.005733
8.429885
7.863641
9.498596
12.280941
15.834570
20.553470
27.011633
32.212734
36.548972
38.872957
43.652654
45.976639
46.428442
50.267577
45.926571
45.701861
44.914484
43.230653
40.588975
39.301515
34.697652
33.396482
30.652881
29.953718
27.742982
24.341941
21.966696
22.595525
21.552444
19.818544
18.097758
15.489459
16.836524
17.305613
14.782548
13.147593
13.758540
11.959672
12.152791
11.671782
11.402965
10.590553
12.520552
11.109710
11.018515
11.416674
10.499954
11.567473
12.228489
13.129711
14.126897
12.875795
13.557673
12.684464
12.311935
13.449788
11.400580
10.546446
9.926558
9.566545
9.474754
8.552670
7.530451
7.782578
7.146597
7.402897
6.598830
6.378889
6.244779
7.674694
6.528497
6.850958
6.878972
##ZVALUE=235
15.102625
18.359423
35.210848
84.081888
128.989816
195.440650
245.903730
311.196446
328.656435
322.468877
285.002589
242.629647
159.141421
117.185712
83.228946
73.025823
74.099898
75.773001
81.059933
79.647899
77.699423
63.574910
49.807429
35.747886
23.748875
16.005635
13.059974
11.737943
12.641549
14.446974
16.075969
19.771457
22.099614
22.679567
22.889972
23.783445
27.241707
25.030971
26.567578
23.625493
25.808811
24.579763
23.311973
22.009611
20.133853
19.223690
18.826723
17.147660
16.946793
16.501546
16.176701
15.288591
14.492869
13.776422
13.841987
12.526512
12.088418
12.408495
12.013912
11.896491
12.050867
11.339784
11.549592
11.309981
10.397434
10.019541
11.472702
11.070967
10.411739
12.786984
13.056993
12.845993
13.785958
14.536977
14.849901
14.898777
15.138984
14.466643
13.614893
12.446642
12.247562
11.276603
11.885762
10.565519
9.430647
8.910894
9.431839
9.668469
8.063912
8.375645
8.770823
7.660985
7.421970
8.206964
9.043813
8.444786
##ZVALUE=240
2.414584
2.186894
7.476807
17.986894
50.061941
89.787841
171.917677
253.447890
367.378592
439.720750
499.206781
499.082804
450.959802
365.656018
286.874771
183.449984
136.336684
98.356605
91.345906
92.887878
105.446577
110.190511
109.100938
98.185539
78.177452
65.952539
47.400594
32.144785
21.752715
17.257929
15.189648
15.416741
16.070604
17.065406
16.941428
19.828677
21.013618
20.288825
19.215941
19.766688
19.386411
19.536614
20.421743
19.738674
18.838644
16.307831
18.628836
16.476512
17.136931
15.732646
14.682412
13.738871
16.585588
12.986660
12.738705
11.920929
12.560487
13.022423
10.787845
11.996627
10.597706
10.098815
10.610819
11.517406
11.119843
10.584593
10.691881
11.153817
11.876822
12.155771
13.240576
13.046861
13.390779
14.223456
14.688969
15.169978
13.600588
14.076829
13.376474
13.677478
12.542605
11.514425
12.462735
10.807514
10.316968
9.596944
9.955764
9.114742
10.695457
10.694861
9.501576
9.109974
9.620786
9.961724
8.405447
8.626580
##ZVALUE=245
1.476407
1.739860
1.631975
1.953840
3.895760
12.363791
40.088892
81.300735
173.098445
261.565447
396.725535
491.191745
555.790663
591.277480
563.109517
469.322801
384.380817
261.757970
187.262893
118.287802
95.613003
94.629526
113.191605
119.058490
123.656988
121.483803
106.036663
93.403459
75.125694
58.434606
46.300888
33.883452
27.802587
23.372769
23.951530
25.308728
25.400519
24.569631
25.498867
25.296807
24.990439
24.128556
23.854971
22.968650
23.072958
22.353530
21.762848
20.472407
18.684864
17.334819
17.011762
16.085505
15.259981
13.683438
14.095902
14.135838
11.568666
11.216998
11.879802
10.882616
12.501478
9.957552
10.247827
10.179877
10.020733
10.029674
10.975599
10.601878
9.969473
9.859800
11.526942
11.363626
12.137890
12.807846
14.632940
13.934970
13.620853
12.633801
12.050867
11.133552
11.365414
10.937452
10.473728
9.989738
9.660721
9.427667
9.979606
8.858442
8.427501
9.859800
9.030700
8.279681
9.057522
8.025765
8.816719
8.543730
##ZVALUE=250
1.479983
1.457930
1.512766
1.640916
1.518726
1.618862
2.194643
7.569790
30.521750
65.148473
154.246688
248.435736
357.306004
511.181951
599.788427
677.302480
666.545630
584.319830
496.416688
345.202684
237.462521
160.684586
104.907751
88.864565
101.983547
116.197467
133.662820
140.502453
136.830807
129.760504
115.284920
96.811652
79.119802
59.646964
50.312877
43.389797
38.952827
36.154985
38.024783
36.739707
35.738945
34.561753
31.938553
30.482411
28.350949
28.333664
24.675727
25.533438
23.681521
23.246408
21.381974
20.185709
18.537641
17.385483
15.109777
15.156865
13.468862
12.300611
13.765693
11.137724
11.151433
11.298656
10.579824
9.716749
9.585619
9.141564
9.516478
10.480881
9.787679
10.950565
9.813905
10.334849
10.966659
11.132956
11.676550
11.186600
11.203885
11.373758
11.114478
10.540485
9.990931
8.884668
9.185672
8.644462
9.459853
8.730888
8.431673
8.860826
7.708669
7.793903
7.644892
8.436441
8.315444
7.588863
7.944703
8.024573
##ZVALUE=255
1.403689
1.351833
1.493692
1.217723
1.512766
1.547933
1.639724
1.550913
2.110600
4.149675
19.072890
47.609806
98.682642
209.313631
328.131914
499.779582
610.679984
725.086927
760.668516
704.546571
618.516803
492.749810
310.572982
205.404758
118.696690
92.856884
91.070533
109.226704
137.055516
153.547525
168.835521
168.927908
165.000558
144.148469
128.319860
98.964572
87.199807
70.765615
60.640574
54.183602
51.458478
49.190521
46.240687
43.208599
41.110516
37.530661
36.808848
32.667518
31.719804
29.119849
27.248859
24.177432
23.159981
20.704865
19.398928
16.886592
16.671419
15.503764
14.246702
12.297630
12.217760
11.499524
11.131763
10.682940
10.049939
8.986592
9.105802
9.730458
8.983612
9.495616
9.669662
10.805726
9.890795
10.070801
10.057688
10.143518
9.729862
9.841919
9.912848
8.370876
8.652806
8.567572
8.169413
8.914471
7.683635
7.650852
7.834435
7.880926
7.962584
7.140636
6.962419
7.016659
7.359982
7.338524
7.565618
7.494688
##ZVALUE=260
1.193881
1.021624
0.942945
1.046658
1.058578
1.174808
1.192689
1.315475
1.544952
1.458526
1.553893
2.313852
9.790659
28.090477
76.778531
151.058435
303.751826
431.538820
613.223910
739.526749
827.113986
825.833678
718.739033
593.415499
398.625731
271.601677
186.059475
117.108822
100.577474
116.440654
137.175918
176.900625
194.775462
211.779475
212.918520
195.444822
179.952979
152.904987
127.727985
102.251768
87.647438
74.578524
66.462755
59.670806
54.545999
49.677491
46.678782
43.365955
39.820671
37.505627
35.036802
29.962659
28.767586
26.054978
22.646785
20.121932
19.436479
17.938614
16.768575
15.102625
13.644695
13.669729
12.386441
11.405945
10.705590
9.632707
9.737611
9.117723
9.642839
9.728670
9.114742
9.121895
9.458661
9.451509
9.901524
8.706450
9.024739
8.837581
8.306503
8.105636
7.758737
8.216500
7.721782
6.993413
6.786585
7.088780
7.099509
7.418990
7.110834
6.785989
7.817745
6.482601
6.500483
6.234646
6.640553
6.615520
##ZVALUE=265
0.923872
0.958443
1.112819
0.937581
1.343489
1.290441
1.184940
1.210570
1.462698
1.229644
1.104474
1.596808
1.590848
1.816750
3.691912
21.498799
49.910545
127.108693
226.205587
416.374803
577.591658
733.917952
881.761909
903.465748
830.331445
719.429851
537.383556
393.384695
239.937901
173.564553
195.051432
128.918886
148.469806
185.922980
211.836696
232.560635
238.284469
227.928758
212.427974
184.191465
159.294009
126.538873
103.995800
84.069967
74.485540
61.624646
56.670904
50.209761
46.795607
43.102503
38.992763
35.143495
33.288598
30.000806
27.660728
24.168491
22.333860
19.559860
18.421412
16.170740
15.514493
13.903975
13.659596
12.246966
11.877418
10.465980
10.119677
10.498762
9.965897
9.435415
9.153485
8.931756
8.942485
9.320974
9.432435
8.941889
8.937716
8.650422
8.348823
7.140636
7.773638
7.383823
6.706715
6.635785
6.706715
6.193519
6.416440
6.240606
6.208420
6.334782
6.729960
5.758405
5.946755
5.927682
5.837679
6.031990
##ZVALUE=270
1.102686
1.293421
1.024604
1.065731
1.081824
1.086593
1.170635
1.094937
1.200438
1.246929
1.214743
1.103878
1.377463
1.412630
1.608729
1.749992
2.364516
10.018945
29.720664
90.784431
177.392960
309.609771
541.158915
717.319846
897.926688
960.505605
949.485898
866.972804
702.108741
541.104674
395.581722
249.087811
180.231929
141.736865
146.338940
169.535875
190.757513
219.169855
228.611827
234.838724
225.531459
201.601982
180.544853
143.362880
117.498636
89.795589
73.468685
58.661699
52.009821
42.668581
39.491653
34.722686
32.341480
29.522777
27.032495
23.931861
21.498799
19.774437
18.264651
16.826987
15.722513
13.810992
12.939572
11.552572
11.637807
10.301471
10.495782
9.578466
9.640455
9.133816
9.296536
9.329915
9.133816
8.850694
8.614659
8.459687
8.165836
8.109808
7.243752
7.762909
7.129908
6.615520
6.597638
6.347895
6.235838
6.222725
5.998611
6.150603
6.010532
6.593466
5.974770
5.569458
5.528927
5.661845
5.350709
5.573630
##ZVALUE=275
0.736713
0.672936
0.993609
0.859499
0.836849
0.851750
0.685453
0.848770
0.925660
0.883937
1.047850
1.083612
1.095533
1.057982
1.304746
1.212955
1.252890
1.503825
1.772642
3.478527
18.731952
54.045916
153.359771
272.154808
430.781841
666.130781
826.240778
977.475643
1016.031504
960.235000
843.649507
633.111596
467.896461
287.676454
197.119713
131.375790
113.198757
121.712685
138.411522
163.174868
177.342892
195.721984
197.865963
189.301968
172.202587
142.161846
118.321776
88.849664
69.348812
48.325658
39.284825
31.043887
25.263429
22.035837
20.957589
17.938614
18.160939
15.778542
14.558434
13.676882
13.403893
11.739731
10.744929
10.539889
9.634495
9.353757
8.736849
8.511543
8.336902
7.989407
7.910728
7.723570
8.209944
8.051991
7.753968
7.768869
7.370710
7.549524
7.045865
6.432533
6.424785
5.700588
6.263852
5.977750
5.790591
5.872846
5.419850
5.446672
5.330443
5.128980
5.321503
5.329847
5.072951
5.160570
4.720688
5.023479
##ZVALUE=280
0.505447
0.631809
0.728965
0.632405
0.511408
0.925660
0.805855
0.753999
0.625849
0.812411
0.769496
0.956655
0.794530
0.890493
1.079440
1.071692
1.228452
1.222491
1.366735
1.439452
1.601577
2.042651
10.618567
35.833716
113.567710
206.527710
381.504893
557.686687
784.602761
920.830965
1007.704735
1008.828878
924.326777
709.780455
534.642935
316.939950
201.680660
104.194880
71.972609
64.935684
74.859858
98.425746
119.595528
142.758489
157.819986
160.974860
155.759454
139.160752
119.363666
90.342760
68.332553
45.816898
32.282472
21.356940
16.216636
12.412667
11.009574
9.663701
9.659529
8.937716
8.299947
8.534789
7.914901
7.619858
7.469654
7.107854
6.843805
6.519556
6.818771
6.619692
6.826520
6.851554
6.652474
7.046461
6.758571
6.897449
6.574988
6.280541
5.997419
5.718470
5.746484
5.389452
5.143881
5.252957
5.009770
5.042553
5.469918
4.891753
4.908442
4.832745
4.744530
4.107952
4.500747
4.685521
4.483461
4.689693
##ZVALUE=285
0.750422
0.783801
0.675917
0.805855
0.745654
0.745654
0.848770
0.738502
0.723600
0.805855
0.855923
1.019835
0.930429
1.037717
0.937581
1.139641
1.055598
0.999570
1.336932
1.212955
1.386404
1.272559
1.427531
1.669526
5.923510
18.348694
62.458515
127.073526
271.252990
432.142615
605.779886
834.801793
967.738032
1016.141772
974.645615
796.494484
629.217625
391.698480
249.606967
120.340586
64.624548
36.354661
37.458539
53.656697
73.038936
101.115704
119.236708
137.791634
143.995881
140.636563
128.040910
105.938911
84.012747
58.482885
41.512847
24.352670
15.618801
9.772778
7.840991
6.712675
6.253719
6.177425
6.387830
5.673766
5.872846
6.419420
6.080866
5.964637
6.032586
6.187558
6.363988
6.227493
6.194711
6.367564
6.244779
6.149411
6.223917
5.784631
5.630851
5.735755
5.283952
5.296469
5.196929
5.147457
4.988909
4.912615
5.131960
4.557967
4.593730
4.693866
4.663467
4.899502
4.605651
4.626513
4.452467
4.301667
##ZVALUE=290
0.701547
0.772476
0.765920
0.662804
0.611544
0.774860
0.734925
0.909567
0.720620
0.854731
0.943542
0.951886
0.803471
0.904799
0.887513
0.887513
1.131892
1.118779
1.186728
0.927448
1.136661
1.195669
1.397729
1.472831
1.368523
1.711845
2.712607
7.386804
34.335852
80.600977
160.124898
331.381559
508.953929
763.882399
919.320583
1016.210914
1016.210914
893.719792
738.122463
497.236848
329.126716
164.869428
87.765455
37.779808
26.113987
33.453703
46.763420
69.242716
89.327693
113.824606
127.690434
138.050914
135.359764
123.013854
106.371641
78.022480
57.925582
36.438704
25.091767
14.365911
10.249615
6.952882
6.369948
5.738735
5.797744
5.357862
5.879998
5.396605
5.939603
6.060600
5.919933
6.361604
6.358624
6.407499
6.342530
6.103516
5.883574
6.083846
5.348921
5.244613
5.180836
5.167723
5.321503
5.202889
5.456805
4.900694
4.771948
5.046725
4.726648
4.431605
4.490614
4.244447
4.484653
4.384518
4.541874
4.525781
##ZVALUE=295
0.372529
0.489950
0.486970
0.512600
0.444651
0.553727
0.560880
0.477433
0.658631
0.511408
0.504851
0.572801
0.549555
0.529885
0.707507
0.869632
0.903606
0.776649
0.835657
0.899434
1.008511
1.112819
0.968575
1.196861
1.053810
1.092553
1.277924
1.298785
1.643896
3.038645
12.051463
50.255656
113.099813
266.347528
427.039862
677.497983
843.613744
1002.229452
1016.029716
966.280699
829.780698
598.307848
415.301919
222.035646
120.441914
45.835972
24.866462
20.649433
28.254986
44.320822
61.456561
86.082816
104.166865
123.435855
128.941536
128.040910
117.089748
96.649528
77.878833
54.053664
39.136410
23.316741
15.053749
9.300709
6.913543
5.984902
5.691648
5.293489
5.360842
5.728602
5.599856
5.991459
5.654693
6.048679
5.984902
6.236434
5.978942
5.375743
5.337000
5.210638
5.061626
4.777908
4.785657
4.761815
5.041957
4.664660
4.737973
4.479885
4.688501
4.554987
4.630685
4.505515
4.257560
4.341602
4.053712
4.396439
##ZVALUE=300
0.400543
0.275970
0.458956
0.469685
0.419617
0.338554
0.272989
0.544786
0.391603
0.549555
0.602603
0.698566
0.684857
0.496507
0.694990
0.661612
0.840425
0.690818
0.772476
0.876784
0.662804
0.779629
0.661612
0.902414
0.902414
1.134872
1.182556
1.136661
1.090765
1.299977
1.591444
1.893640
6.791949
25.576949
87.433457
171.455741
350.066423
531.639457
774.028897
917.629600
1016.031504
1016.031504
892.743468
737.445951
493.603945
325.656533
162.329674
86.004734
31.729937
17.280579
17.203689
24.327636
39.210916
54.813623
78.125596
96.871853
116.983652
123.279691
122.645497
114.858747
95.303655
77.973604
54.937601
39.139986
23.787618
15.723705
9.387732
7.186532
5.713701
5.500913
5.513430
5.426407
5.564690
5.630851
5.427599
5.383492
5.744696
5.386472
5.240440
5.240440
5.016923
4.903674
5.004406
4.656911
4.999638
4.670620
4.380941
4.411936
4.643798
4.535913
4.314780
4.070997
4.130602
4.218817
3.699660
4.174709
##ZVALUE=305
0.476837
0.624657
0.604987
0.510812
0.575781
0.553727
0.536442
0.593662
0.660419
0.599623
0.472665
0.526905
0.405908
0.737906
0.594854
0.748634
0.612736
0.705719
0.756979
0.622869
0.786781
0.907779
0.602603
0.685453
0.890493
0.912547
1.124740
1.155734
1.141429
0.994802
1.282692
1.260638
1.397729
1.736879
2.872944
16.749501
48.459768
139.237642
250.964761
459.025502
641.554594
861.405730
981.492996
1016.084552
963.119864
764.192939
600.763559
378.357768
237.308741
107.405782
53.261518
19.334555
12.736917
15.742779
22.658706
37.756562
53.067803
75.964928
92.034936
110.304952
116.011500
115.248561
108.082891
90.088844
73.669553
50.793886
37.092566
22.448897
14.838576
9.207726
7.471442
5.834699
5.812645
5.322695
5.495548
5.084872
5.157590
5.162954
5.177855
5.078912
4.936457
5.073547
4.904866
4.563928
4.551411
4.796982
4.688501
4.625916
4.617572
4.262924
3.922582
4.179478
4.022717
3.982782
4.082918
3.893971
##ZVALUE=310
0.470877
0.430942
0.361800
0.485778
0.425577
0.499487
0.480413
0.339746
0.614524
0.531673
0.447631
0.519753
0.393987
0.405908
0.529885
0.680685
0.454783
0.533462
0.578761
0.641942
0.774860
0.799894
0.760555
0.473857
0.769496
0.693798
0.755787
0.810623
0.983477
0.897646
1.030564
1.094937
1.155734
1.203418
1.246929
1.435876
1.763701
7.183552
24.926662
83.408952
167.558789
347.421765
521.523952
761.448741
918.322802
1016.028523
1010.048985
886.465907
731.581450
491.720438
325.149894
163.389444
87.005496
31.011701
14.476776
10.614991
13.134480
20.989776
30.565858
48.052669
63.707829
85.037947
98.675489
108.918548
109.917521
100.469589
89.221597
69.822669
52.992702
33.882856
24.217963
14.274716
9.911656
6.687641
5.923510
4.939437
4.877448
4.679561
4.524589
4.404783
4.540682
4.130602
4.594922
4.179478
4.036427
4.246831
4.359484
4.228950
4.282594
3.760457
4.005432
3.939867
3.927946
3.827810
3.653765
3.660917
##ZVALUE=315
0.483990
0.564456
0.608563
0.507832
0.495911
0.550747
0.428557
0.511408
0.631809
0.580549
0.490546
0.587702
0.498891
0.530481
0.510812
0.656843
0.780821
0.688434
0.740886
0.732541
0.787973
0.842810
0.706911
0.755787
0.570416
0.797510
0.684857
0.802875
0.973940
0.844598
0.897646
0.976920
1.093745
1.108646
1.164675
1.282692
1.329780
1.559854
1.517534
3.413558
12.730956
53.015947
119.712949
273.374915
431.861877
683.801770
845.519900
994.545817
1016.160846
951.694846
818.146467
592.038035
417.874455
222.685933
119.283795
45.018792
19.446611
9.275675
9.228587
12.624860
17.856956
29.979944
42.832494
61.351657
76.615810
94.831586
102.232695
104.086995
97.246766
81.717968
68.075657
48.765540
35.527945
21.304488
14.483929
8.532405
6.649494
5.053878
4.654527
4.463792
4.311800
3.962517
4.134774
4.054904
4.082918
4.320741
4.061460
4.090667
4.061460
4.160404
3.956556
3.915429
4.092455
4.053712
3.613830
3.754497
##ZVALUE=320
0.378489
0.394583
0.392795
0.319481
0.451803
0.452995
0.306964
0.434518
0.348687
0.480413
0.400543
0.469685
0.399947
0.291467
0.366569
0.495911
0.375509
0.587702
0.457764
0.448823
0.545979
0.441670
0.565648
0.504851
0.415444
0.548959
0.641942
0.532866
0.624657
0.514984
0.727773
0.818968
0.681877
0.704527
0.770688
0.947714
0.997782
1.030564
1.108646
1.376867
1.241565
1.852512
5.409718
29.621720
75.642467
198.209882
326.542854
544.830561
725.357533
924.927592
1010.025740
995.009542
897.931457
684.554577
501.143932
279.461741
159.799457
67.562461
30.355453
10.631680
7.740855
8.512735
10.662675
16.770959
24.066567
39.718747
53.490996
72.615743
85.764527
95.319748
97.725987
91.561675
80.844760
62.286854
48.190951
31.304955
21.182895
12.911558
9.093881
5.852580
4.796982
4.365444
4.021525
3.892779
3.943443
3.950000
3.532767
3.729463
3.812909
3.576875
3.466606
3.720522
3.617406
3.428459
3.448725
3.705621
##ZVALUE=325
0.312924
0.439882
0.259876
0.302792
0.342727
0.297427
0.447631
0.409484
0.521541
0.313520
0.251532
0.279546
0.411868
0.382662
0.435710
0.254512
0.329614
0.445843
0.594854
0.449419
0.319481
0.529885
0.522733
0.662804
0.505447
0.412464
0.608563
0.658631
0.505447
0.655651
0.626445
0.638962
0.760555
0.817776
0.579953
0.643730
0.878572
0.919700
0.965595
1.103878
1.074672
1.206994
1.305938
1.636744
3.609657
13.870597
55.227876
117.694736
262.444615
424.804688
663.177967
829.300880
975.939035
1003.369689
912.904739
772.444010
528.528690
365.060568
194.148421
106.391907
39.520860
16.636848
7.379651
6.594658
7.862449
9.739995
15.516877
24.065971
39.273500
53.382516
71.385503
81.419945
90.769529
92.465878
85.031986
74.898005
58.395863
43.883920
28.615594
19.638538
11.244416
7.660985
5.511642
4.474521
4.250407
3.758669
3.869534
3.390908
3.647804
3.538728
3.212690
3.200769
3.517866
3.510714
3.579855
3.350973
##ZVALUE=330
0.427961
0.377893
0.498891
0.374913
0.364780
0.390410
0.248551
0.382662
0.365973
0.347495
0.291467
0.405908
0.438690
0.430942
0.401735
0.312924
0.352859
0.360608
0.436902
0.319481
0.297427
0.428557
0.364780
0.477433
0.656843
0.539422
0.572801
0.599623
0.502467
0.617504
0.585914
0.722408
0.609756
0.594854
0.536442
0.623465
0.857711
0.787973
0.741482
0.802875
0.874996
0.937581
1.005530
1.130700
1.307726
1.402497
1.733899
8.219481
26.486516
89.223981
173.239708
344.970822
512.675643
742.311478
887.262821
982.901454
951.075554
802.073479
644.823909
420.098901
269.508958
126.161575
63.276887
22.441745
9.862781
6.153584
6.121993
7.120967
9.298921
15.158653
22.645593
35.376549
48.265457
65.570474
76.330900
84.785819
85.075498
78.862906
68.344474
52.903891
40.489435
26.444793
18.091798
11.976957
8.316636
5.653501
4.467964
3.898740
3.802776
3.668666
3.459454
3.478527
3.401637
3.438592
3.575683
3.242493
##ZVALUE=335
0.185966
0.268817
0.349879
0.264645
0.369549
0.361800
0.315905
0.200868
0.270605
0.456572
0.207424
0.411868
0.302792
0.447631
0.268817
0.493526
0.398755
0.347495
0.290871
0.540614
0.337958
0.375509
0.449419
0.339746
0.464916
0.571609
0.392795
0.359416
0.464916
0.481606
0.522733
0.633597
0.603795
0.489950
0.746846
0.550747
0.693798
0.692606
0.631809
0.633597
0.863671
0.810623
0.733733
0.849962
0.924468
1.176596
1.024604
1.153946
1.480579
3.611445
13.700724
54.693818
116.797686
260.468721
419.920683
653.918982
813.289881
941.169858
955.230594
862.267017
722.222924
495.541692
335.441828
173.880458
91.175437
31.343699
13.300776
6.465912
5.860925
5.988479
6.499887
8.888841
12.702942
23.018718
32.413602
47.513843
59.524775
72.042942
78.567863
78.962445
73.827505
62.266588
51.893592
38.357973
28.658509
18.583536
12.568831
7.754564
5.573630
4.260540
3.762841
3.505945
3.324747
3.286600
3.570914
3.182888
##ZVALUE=340
0.260472
0.256896
0.234842
0.275970
0.251532
0.207424
0.348687
0.228882
0.361800
0.412464
0.187755
0.350475
0.098944
0.364780
0.173450
0.406504
0.434518
0.299811
0.266433
0.337958
0.401735
0.461936
0.353456
0.476837
0.367761
0.402927
0.409484
0.352859
0.443459
0.458956
0.500679
0.565648
0.407696
0.399947
0.689626
0.562668
0.553727
0.550747
0.669956
0.734925
0.641942
0.677705
0.517964
0.689626
0.748634
0.866652
0.830889
0.944734
0.967979
1.279712
1.176000
2.034903
6.873608
33.151507
82.049966
203.635693
340.580940
558.219552
723.453760
886.406898
937.287807
883.902907
770.373940
564.343929
400.676727
216.340423
116.837621
43.590665
18.243790
7.323623
5.708933
5.525947
5.796552
6.467700
8.410811
14.012456
20.318627
31.777620
43.081641
57.354569
66.714883
73.612928
74.102879
69.009662
61.768889
48.821568
39.008856
26.919842
19.498467
12.143850
8.349419
5.162954
4.296899
3.569722
3.239512
3.373623
##ZVALUE=345
0.333786
0.264645
0.136495
0.225902
0.299811
0.220537
0.432730
0.199676
0.322461
0.240803
0.233650
0.320673
0.183582
0.407696
0.267625
0.394583
0.227690
0.343919
0.410676
0.458956
0.313520
0.192523
0.377893
0.174642
0.301600
0.411868
0.221729
0.382662
0.440478
0.242591
0.426769
0.544786
0.609756
0.505447
0.492930
0.368953
0.371933
0.670552
0.462532
0.537634
0.591874
0.689626
0.617504
0.665784
0.627637
0.614524
0.770688
0.841618
0.772476
0.784993
0.876784
1.111627
1.111627
1.420975
2.955794
17.800927
49.938560
136.785507
246.414542
442.014933
607.053638
803.221464
892.003775
904.356837
822.688937
633.139610
470.510721
277.861953
158.145428
62.899590
28.079748
9.918809
6.300807
5.459785
4.998446
5.474687
5.538464
7.489920
11.116862
19.787550
27.560592
40.739775
50.312877
61.068535
67.125559
68.740845
66.552758
57.967901
50.139427
37.837625
28.008819
17.829537
12.462735
7.597804
5.317926
4.075766
##ZVALUE=350
0.268817
0.120997
0.110865
0.122786
0.177622
0.150800
0.250936
0.227690
0.287890
0.253916
0.305772
0.423789
0.225902
0.380874
0.428557
0.407696
0.331998
0.412464
0.260472
0.172853
0.298619
0.436902
0.382662
0.328422
0.427961
0.251532
0.327826
0.274777
0.462532
0.517964
0.483990
0.366569
0.353456
0.488758
0.318885
0.408888
0.405908
0.543594
0.435710
0.441670
0.448823
0.344515
0.547767
0.444651
0.493526
0.612736
0.594854
0.568628
0.815988
0.758767
0.854731
0.775456
0.793934
0.922680
1.155734
1.206994
1.617670
8.645654
29.136539
91.594458
175.876021
352.107882
506.523848
707.390904
828.004479
891.063809
849.294662
701.699853
540.684462
322.811604
197.518468
90.279579
41.462779
12.428761
6.479621
5.240440
4.739761
4.509687
4.473925
5.310774
7.014871
11.484623
16.373992
25.123954
33.362508
45.242906
52.937865
60.777664
62.616467
60.469508
55.348873
44.159889
35.960674
24.862885
18.486977
11.794567
##ZVALUE=355
0.394583
0.302792
0.133514
0.303984
0.265837
0.189543
0.324845
0.217557
0.258684
0.103712
0.099540
0.227690
0.223517
0.272989
0.240803
0.246763
0.247955
0.313520
0.334978
0.359416
0.345707
0.306964
0.274777
0.286698
0.128746
0.451803
0.271797
0.327826
0.322461
0.332594
0.424981
0.419617
0.421405
0.412464
0.464916
0.359416
0.493526
0.449419
0.431538
0.464916
0.536442
0.671744
0.371933
0.398755
0.488758
0.478625
0.549555
0.680685
0.665784
0.711679
0.750422
0.843406
0.912547
0.814795
0.949502
1.079440
0.810623
1.075864
1.459718
2.904534
18.071532
50.141811
134.107471
238.897800
436.058640
594.696999
774.329901
857.744813
846.347809
744.913816
552.182794
401.702523
226.522684
124.796629
49.345493
21.074414
7.377863
5.123615
4.474521
4.405975
4.293919
4.161596
4.590750
5.812645
9.327531
13.396740
21.139979
28.339624
39.401650
47.036409
54.245591
56.237578
55.410862
51.083565
42.374730
35.025477
##ZVALUE=360
0.283718
0.258684
0.310540
0.194907
0.443459
0.043511
0.280738
0.110865
0.160933
0.349879
0.283718
0.421405
0.331998
0.366569
0.371933
0.380874
0.219941
0.283718
0.245571
0.236630
0.436902
0.019670
0.418425
0.311732
0.275970
0.351667
0.413656
0.365973
0.293851
0.393987
0.155568
0.385642
0.463724
0.460744
0.510812
0.478625
0.358820
0.530481
0.318885
0.377893
0.348687
0.381470
0.401735
0.526905
0.498891
0.612736
0.527501
0.537634
0.568628
0.787973
0.579953
0.661612
0.638962
0.609756
0.758767
0.717640
0.851750
0.914931
0.989437
1.139641
1.316667
1.613498
8.039474
25.972724
86.495876
168.831944
331.934690
488.944650
702.553988
808.875561
843.344927
789.113641
637.740493
482.683778
284.353495
171.241760
73.315501
31.684637
9.477735
5.372763
4.538894
4.256964
4.101992
4.071593
3.599524
3.859997
5.225539
7.004738
11.624694
16.495585
25.143623
32.756925
41.676760
47.548413
51.233768
51.280856
##ZVALUE=365
0.321865
0.277758
0.236630
0.147820
0.230670
0.204444
0.312924
0.114441
0.263453
0.160933
0.159740
0.326633
0.367761
0.173450
0.338554
0.179410
0.185966
0.236630
0.162721
0.155568
0.246763
0.300407
0.178814
0.198483
0.341535
0.220537
0.202656
0.218749
0.358820
0.415444
0.309944
0.372529
0.384450
0.376701
0.379682
0.393987
0.401735
0.320673
0.445843
0.382662
0.490546
0.338554
0.475645
0.459552
0.549555
0.532866
0.444651
0.527501
0.527501
0.538826
0.444651
0.511408
0.567436
0.620484
0.651479
0.597835
0.745654
0.630617
0.632405
0.886917
0.750422
1.119971
1.286864
1.518726
2.997518
17.500520
47.781467
127.242804
234.430432
429.188013
583.661795
749.697685
823.432803
797.130466
699.669719
523.283482
372.336507
198.769569
107.382536
38.299561
15.868545
5.494952
4.442930
4.175901
3.915429
3.674626
3.492832
3.419518
3.545880
4.202724
5.736947
9.374619
13.687611
21.111965
27.590990
36.008954
##ZVALUE=370
0.263453
0.274777
0.232458
0.075698
0.262856
0.283718
0.294447
0.195503
0.243783
0.308752
0.231862
0.135899
0.186563
0.308752
0.256896
0.204444
0.312924
0.323653
0.337958
0.270605
0.137687
0.149608
0.373721
0.257492
0.201464
0.027418
0.202656
0.173450
0.234842
0.333786
0.440478
0.212789
0.376701
0.376701
0.405908
0.266433
0.351667
0.409484
0.417829
0.322461
0.357628
0.374913
0.447631
0.440478
0.445843
0.325441
0.442863
0.505447
0.456572
0.526905
0.442863
0.519753
0.431538
0.642538
0.574589
0.648499
0.659823
0.632405
0.726581
0.815988
0.797510
0.706911
0.702739
1.007915
1.067519
1.184940
1.880527
8.746982
29.303432
96.519589
179.020762
342.391729
496.791005
690.986514
787.943602
808.136463
739.482641
577.872992
424.800515
238.039494
134.471655
52.915812
24.243593
8.630753
4.760623
3.997684
3.733635
3.516674
3.200769
3.105998
2.775788
3.193617
3.713965
5.398989
7.613897
12.246966
##ZVALUE=375
0.234842
0.105500
0.128746
0.106692
0.229478
0.227690
0.260472
0.110865
0.354648
0.234842
0.206828
0.014901
0.256896
0.184774
0.203848
0.230670
0.311732
0.328422
0.289679
0.372529
0.205636
0.347495
0.359416
0.253916
0.277758
0.295639
0.510812
0.310540
0.204444
0.323653
0.099540
0.235438
0.323653
0.364780
0.292659
0.359416
0.525713
0.461936
0.254512
0.395775
0.236630
0.403523
0.233650
0.250936
0.306964
0.334978
0.375509
0.381470
0.367761
0.525713
0.509620
0.552535
0.461936
0.390410
0.471473
0.459552
0.557899
0.593662
0.517964
0.627637
0.576973
0.532866
0.540614
0.649691
0.653863
0.754595
0.873804
1.111627
1.207590
4.113913
15.379786
57.169795
122.830868
270.698667
415.516496
616.301894
732.409954
803.000927
782.577991
650.418997
509.852767
313.194990
194.100738
88.822842
44.270754
14.129877
6.117821
3.964901
3.575683
3.074408
3.097653
2.922416
2.987981
2.808571
2.715588
3.104806
##ZVALUE=380
0.265837
0.260472
0.303984
0.114441
0.360608
0.132918
0.210404
0.112653
0.164509
-0.010729
0.169873
0.188947
0.089407
0.146627
0.144839
0.402927
0.380874
0.071526
0.352859
0.217557
0.258684
0.291467
0.204444
0.189543
0.295639
0.121593
0.196695
0.204444
0.404716
0.243783
0.316501
0.355840
0.366569
0.396967
0.514984
0.364780
0.468493
0.380874
0.463724
0.493526
0.467896
0.396967
0.357628
0.324845
0.386834
0.516772
0.446439
0.332594
0.543594
0.315905
0.353456
0.337958
0.420809
0.440478
0.432730
0.481606
0.400543
0.412464
0.531673
0.446439
0.499487
0.411868
0.617504
0.592470
0.455976
0.654459
0.634789
0.862479
0.835657
1.087785
1.272559
2.073646
8.187890
40.231943
92.688799
217.905045
349.202752
541.667938
680.800676
793.550611
795.958638
687.990785
564.727783
389.337540
260.816813
127.046704
65.838695
23.019910
9.423494
4.065633
3.378987
3.210902
3.104806
2.820492
2.737641
2.669692
##ZVALUE=385
0.217557
0.114441
0.257492
0.312924
0.203848
0.190735
0.183582
0.323653
0.096560
0.151992
0.158548
0.164509
0.114441
0.167489
0.147820
0.133514
0.252724
0.159740
0.159740
0.312924
0.198483
0.119805
0.146627
0.211596
0.215769
0.205636
0.324845
0.248551
0.376701
0.514984
0.516772
0.592470
0.673532
0.753999
0.658631
0.543594
0.580549
0.543594
0.513792
0.416636
0.559688
0.518560
0.504851
0.482798
0.475645
0.470877
0.336766
0.523925
0.593662
0.397563
0.374913
0.226498
0.262856
0.634789
0.387430
0.422597
0.475645
0.456572
0.511408
0.278950
0.408888
0.527501
0.476837
0.565648
0.466704
0.546575
0.609756
0.805855
0.797510
0.825524
0.845790
1.014471
1.139641
1.482964
4.087687
22.330880
58.456659
147.673488
260.254741
448.896885
596.517920
742.550492
783.813596
736.023784
643.548965
470.614433
333.662629
182.943940
103.864670
42.484999
17.126799
4.937649
3.282428
2.895594
2.873540
2.807975
##ZVALUE=390
0.133514
0.230670
0.215769
0.147820
0.225902
-0.055432
0.113845
0.077486
0.242591
0.214577
0.278950
0.187755
0.182986
0.154972
0.408888
0.141859
0.161529
0.160933
0.271797
0.189543
0.276566
0.039935
0.422597
0.089407
0.131726
0.122786
0.370741
0.468493
0.598431
0.467896
0.701547
0.823736
0.910759
0.877976
0.867844
0.955462
0.851750
0.876784
0.748634
0.834465
0.794530
0.713468
0.694990
0.640750
0.785589
0.661612
0.615716
0.654459
0.545979
0.417829
0.516772
0.412464
0.429749
0.424981
0.342727
0.515580
0.580549
0.344515
0.427961
0.412464
0.437498
0.453591
0.302792
0.489950
0.516772
0.536442
0.574589
0.662804
0.782609
0.742674
0.855923
0.907779
0.883937
0.908971
0.976920
1.071692
1.787543
11.123419
36.516786
111.093521
209.071636
388.651490
526.556969
682.739019
762.822628
781.552792
716.655850
563.847423
430.918932
259.324908
150.786638
61.337948
27.502775
7.812977
3.920794
2.796650
##ZVALUE=395
0.175834
0.163913
0.153780
0.232458
0.090599
0.145435
0.051856
0.041723
0.141859
0.048876
0.113845
0.150800
0.183582
0.124574
0.169873
0.184774
0.295639
0.216961
0.179410
0.144839
0.136495
0.042915
0.167489
0.194907
0.191927
0.239611
0.497699
0.544786
0.708699
1.013875
1.095533
1.089573
1.002550
1.203418
1.236796
1.301765
1.228452
1.036525
1.124740
1.023412
1.165867
1.082420
1.029968
0.932813
0.771880
0.627637
0.623465
0.664592
0.624657
0.630617
0.545979
0.638962
0.434518
0.469685
0.444651
0.345707
0.307560
0.402927
0.269413
0.378489
0.400543
0.495911
0.358820
0.431538
0.564456
0.505447
0.539422
0.535846
0.552535
0.558496
0.540614
0.633597
0.847578
0.901818
0.870824
0.836849
0.896454
0.980496
1.327991
6.173849
23.374557
80.253482
152.717829
290.692449
428.555012
620.773435
732.901692
799.178481
776.084661
652.817488
508.869886
314.222574
198.255777
92.853904
44.263601
13.966560
##ZVALUE=400
-0.014901
0.010729
0.072718
0.083447
0.250936
-0.042915
0.104904
0.144839
0.000596
0.092983
0.185966
0.008941
0.030994
0.126958
0.207424
0.228882
0.167489
0.041723
0.060797
0.244975
0.119805
0.127554
0.066757
0.190735
0.171661
0.285506
0.286698
0.682473
0.818968
0.865459
0.816584
1.167655
1.219511
1.318455
1.366735
1.448989
1.370907
1.379848
1.479983
1.308918
1.222491
1.119971
1.089573
1.072884
0.952482
0.962615
0.909567
0.844598
0.706911
0.788569
0.593662
0.482798
0.566840
0.573993
0.372529
0.285506
0.496507
0.406504
0.383854
0.447631
0.491738
0.363588
0.466704
0.607967
0.558496
0.451803
0.498891
0.449419
0.642538
0.702739
0.752807
0.610948
0.693798
0.595450
0.642538
0.647902
0.530481
0.759959
0.888705
1.001954
1.125932
3.365874
12.099743
45.795441
98.957419
221.509933
353.010893
542.941689
668.267608
770.086646
779.128671
680.764914
554.260015
366.546512
240.648985
120.594501
##END
