##TITLE=FAAI0851
##FORMAT=SPECTACLE-ASCII V-1.2
##DATA TYPE=ULTRAVIOLET SPECTRUM
##SECOND TYPE=ULTRAVIOLET SPECTRUM
##DATE=04/30/18
##TIME=12:08:41
##SPECTROMETER/DATA SYSTEM=SPECTACLE
##XUNITS=NM EM
##YUNITS=ENERGY
##YFACTOR=1
##FIRSTX=220
##LASTX=410
##NPOINTS=96
##3DDATA=Equidistant
##ZUNITS=NM EX
##FIRSTZ=210
##LASTZ=400
##ZPOINTS=39
##XYDATA=(Y..Y)
##ZVALUE=210
3.424883
4.117489
4.543662
3.563762
4.035830
3.806949
3.793836
3.058910
3.719926
3.436804
2.931952
3.102422
2.165437
2.269745
2.655983
2.611876
2.423525
2.531409
3.198981
3.359914
2.613664
2.974868
3.359914
3.075600
4.075766
4.653931
5.408525
7.356405
9.024739
10.013580
12.473464
13.765693
13.273954
15.151501
16.759634
15.568733
16.188622
17.216802
14.498830
12.918711
15.131831
13.317466
13.094544
11.932850
11.292696
10.227561
10.442734
9.915829
9.092689
9.684563
8.473992
8.137822
7.654428
7.664561
5.967617
7.520914
6.623864
6.903410
7.031560
6.511807
5.608797
5.837679
5.125999
5.401969
6.024837
6.176829
6.028414
6.658435
7.576942
7.638931
8.384585
9.775758
11.049509
11.325479
13.585687
12.818575
13.136864
13.234615
11.358857
12.466908
9.647608
8.956790
8.663535
7.179976
5.881786
5.431771
5.092621
4.674792
4.739761
4.559755
4.791617
4.899502
5.620718
6.259680
6.254911
6.439686
##ZVALUE=215
12.450814
11.869669
9.388924
8.448958
7.993579
7.119775
7.387996
7.906556
7.430911
7.541776
6.523728
6.424785
5.348921
3.872514
3.260970
2.538562
2.756715
2.837777
2.840757
3.068447
3.665686
3.762841
3.371835
4.075766
5.017519
5.850792
7.404685
9.543896
13.037920
14.131665
17.452836
19.959807
20.857453
23.560524
24.816990
24.067760
27.026534
24.356842
23.703575
22.201538
21.395683
19.412637
19.878745
18.220544
16.123652
14.593601
14.722943
13.818741
12.875795
12.830496
11.809468
10.549426
9.739995
9.571910
8.884668
8.482933
7.661581
7.743835
7.010698
7.245541
6.024837
6.857514
7.096529
5.979538
6.179810
7.102489
7.302761
6.728768
6.270409
8.233786
8.974671
9.304881
10.051727
11.654496
11.401772
10.970831
11.647940
10.853410
9.844899
9.971857
9.589791
8.567572
7.665753
6.820560
6.080866
5.747676
6.198883
5.059838
5.257726
5.330443
4.730821
4.323721
5.337000
4.067421
4.906654
5.202889
##ZVALUE=220
34.270883
34.881830
36.487579
34.290552
29.346943
25.124550
21.177530
16.274452
14.217496
14.069676
15.237927
15.170574
14.793873
13.781786
10.542870
8.802414
5.730987
5.038977
4.170537
3.316998
3.502965
2.979636
4.233718
4.651546
5.995631
8.414984
9.589791
13.863444
17.223954
22.129416
23.353696
29.206872
31.209588
35.576820
35.735965
36.797523
37.932992
37.556887
35.083890
34.963489
30.388832
31.706691
29.749870
25.460720
24.792552
22.164583
21.560788
19.137859
19.077659
16.100407
16.288757
15.859604
13.535619
13.299584
11.320710
10.905862
10.892749
9.674430
9.587407
8.122921
8.975863
7.954836
7.891655
7.727742
7.328987
7.191896
7.623434
7.140636
7.235408
8.477569
9.277463
10.113716
10.866523
11.202693
11.697412
11.299849
11.329651
11.462569
11.215806
10.639429
9.776950
8.895993
8.581877
6.548762
6.890893
6.301999
5.167723
5.722642
5.325675
5.985498
5.206466
4.605651
5.437732
4.166961
5.183816
4.547834
##ZVALUE=225
50.941706
54.106712
66.558719
84.880590
91.713667
84.232688
75.059533
56.962967
47.635436
36.837459
28.115511
27.985573
29.059649
31.255484
30.563474
27.738810
21.811724
19.871593
12.195706
8.595586
6.989837
4.368424
4.358888
4.274845
6.074905
7.691979
10.854602
15.691519
18.549562
25.467873
26.501417
31.348467
35.239458
36.098957
37.914515
37.926435
40.452480
38.694739
36.841631
36.188960
36.131740
33.372641
30.684471
29.385686
25.405884
23.232698
23.913980
19.691586
20.321608
17.292500
17.946959
15.764832
15.718937
14.019608
12.777448
12.124777
11.796951
11.483431
11.140704
10.390878
11.369586
9.526610
9.621978
9.017587
8.865595
7.762909
9.324551
9.368658
9.080768
9.615421
9.123683
9.960532
11.206865
12.907982
12.556911
11.999607
12.240410
12.272000
10.951757
10.921955
10.333657
9.908676
8.370876
7.260442
7.352829
5.513430
5.740523
6.455779
7.094741
5.783439
5.330443
5.693436
5.071759
5.791783
5.784631
5.610585
##ZVALUE=230
41.610599
48.749447
73.900819
112.097859
143.255591
168.453455
188.556910
182.670951
172.510743
138.771534
96.511841
69.257617
53.869486
47.914982
45.912862
51.426888
53.599477
50.710440
47.284961
37.548542
28.288960
18.958449
14.307499
9.464622
6.760955
7.686615
9.157658
11.440516
14.617443
19.097924
20.393729
22.628903
25.886893
28.723478
28.058887
30.065775
29.236674
29.414892
30.006766
28.275847
27.436614
25.741458
23.993850
24.705529
22.498965
19.491911
19.000769
17.018914
16.694665
17.416477
15.309453
14.687777
13.290644
14.087558
13.115406
11.081696
12.287498
10.548830
10.333657
9.664893
10.875463
9.538531
9.125471
8.562803
9.411573
9.703636
10.094643
9.720922
9.467602
9.596944
10.005832
11.296868
12.893677
12.515783
12.743473
11.871457
12.450814
11.920929
11.890531
10.410547
10.073781
9.554625
9.787679
8.879900
8.164644
7.553697
7.389784
6.578565
7.171631
7.109642
6.675720
6.240606
6.581545
6.432533
6.358624
6.783605
##ZVALUE=235
13.757944
18.009543
34.893751
78.554749
121.376514
190.926790
243.921876
306.674838
335.595012
326.560736
286.257863
236.519575
159.385800
121.698976
86.488724
71.809888
69.896579
76.008439
80.019832
83.561540
75.987577
61.315894
49.964786
33.092499
24.542809
16.405582
12.150407
11.041760
9.586811
11.279583
13.355613
14.475584
17.133951
16.339421
16.373992
17.155409
18.731952
18.105507
16.813874
16.734600
16.763806
16.705990
16.601682
14.568567
15.449524
14.771819
13.656616
14.347434
13.440847
13.227463
11.299849
11.783838
12.825727
9.757876
10.955930
10.750890
10.029674
10.897517
10.507703
9.833574
10.330677
9.806752
9.652972
9.423494
9.284616
9.934902
9.560585
10.508895
11.543632
11.578798
11.491776
11.686683
12.927651
14.449954
14.530420
14.163852
13.775826
13.793707
12.946725
12.226701
11.393428
11.219978
11.298656
10.942817
9.366870
8.960962
9.365678
7.787943
7.737875
8.074641
8.104444
7.515550
7.476807
7.775426
6.950498
7.955432
##ZVALUE=240
2.151728
2.104640
6.236434
16.643405
46.990514
89.464784
166.952610
252.557993
373.948812
444.918871
495.421886
495.041013
452.963710
366.650820
286.859870
187.454820
131.417513
103.142858
90.445876
100.206733
106.927752
115.070939
110.722780
101.055503
79.024434
63.196421
42.831898
32.710433
20.644665
15.698671
14.214516
11.759996
11.092424
13.708472
13.287663
13.772845
13.645887
14.259815
13.675690
14.028549
13.559461
13.549924
13.332963
13.899803
13.944507
13.457537
14.245510
13.021827
13.024807
12.355447
12.274981
11.825562
11.687875
10.352731
11.414886
11.067986
10.144711
9.825826
10.205507
10.548830
11.238456
10.198951
10.504723
9.896755
9.762645
10.082722
9.743571
10.991693
10.532737
10.748506
12.100935
12.278557
13.126731
12.872815
14.981627
15.220642
14.010668
14.501810
15.208721
12.636781
13.378859
12.311935
10.974407
11.836886
10.924935
9.600520
9.767413
10.294914
9.695888
10.665655
9.578466
10.499954
7.866621
9.164810
7.866621
9.429455
##ZVALUE=245
1.599789
2.012849
1.742840
1.740456
3.356934
14.245510
34.977794
85.292459
157.129765
241.403580
378.803611
488.512516
575.937629
588.050485
559.634566
485.549569
364.578962
271.661878
195.508003
120.888948
97.504854
95.529556
108.925700
123.164654
125.869513
121.251941
111.688972
89.767575
72.251558
52.781701
40.831566
28.408766
20.114779
17.006993
16.466975
16.514659
16.406775
16.725659
17.113686
15.478730
17.314553
17.185807
16.673803
16.154647
16.039610
15.558600
14.809966
13.495684
13.228655
13.094544
11.864901
11.823773
11.805892
10.916591
10.809898
10.331869
10.225773
8.610487
10.021925
9.560585
8.796453
9.278655
8.761883
9.495616
8.890629
8.824468
8.576512
9.204745
8.764863
10.205507
10.938644
10.599494
12.492537
12.782812
12.981892
13.252497
12.881756
13.040900
12.517571
11.697412
10.440946
10.434985
10.512471
10.154843
9.292960
8.675456
9.768605
8.915663
8.802414
7.900596
8.572936
8.694530
8.925796
8.618832
9.017587
8.591413
##ZVALUE=250
1.454949
1.143813
1.185536
1.220703
1.444817
1.605749
1.950860
7.519722
28.446913
63.492656
150.948763
243.164897
356.617570
505.748987
606.552958
688.397884
670.897961
605.247617
506.571531
354.177952
240.305662
162.053704
103.074908
89.344978
100.784898
117.193460
129.207969
136.643648
135.027766
123.280883
108.858943
87.976456
69.946647
48.770905
36.407709
28.379560
24.550557
22.925735
22.160411
22.852421
21.722913
19.627810
20.981431
18.906593
19.239783
18.647909
17.190576
16.548634
15.348792
14.665723
13.892651
13.847947
12.291670
12.431741
11.556745
10.749698
10.639429
10.324717
9.271502
8.343458
8.522868
9.117723
7.810593
8.266568
7.927418
7.923841
7.046461
8.644462
8.104444
9.203553
8.876920
9.409785
10.951757
10.016561
10.773540
10.845661
11.178851
11.128783
10.816455
9.381771
9.316802
8.849502
8.467436
7.623434
7.933974
7.801652
8.434653
7.841587
7.951856
7.776618
7.214546
7.291436
7.641912
7.487535
7.986426
8.165836
##ZVALUE=255
1.166463
1.201630
1.181960
1.356602
1.801848
1.682639
1.614690
1.895428
2.197623
4.232526
18.969774
49.056411
97.177625
211.926699
326.803923
499.364734
617.130995
727.561712
767.682791
714.596510
617.650747
496.852994
313.544869
202.896595
117.723942
90.302825
91.228485
102.346539
129.037499
145.055652
155.289769
153.744817
144.797564
125.008821
103.162527
78.093410
62.156916
46.617985
38.796663
32.861829
29.734969
27.335882
28.401613
26.766658
25.183558
24.143457
23.278594
21.533966
19.983649
18.237829
17.314553
15.705824
15.272498
13.394952
13.108850
11.867881
11.030436
10.537505
10.697842
9.878874
9.328723
8.199811
8.296967
7.765889
8.106828
8.346438
7.868409
7.979870
7.710457
8.467436
8.539557
9.169579
8.814931
9.058714
9.837747
10.095835
9.112954
8.572936
9.148717
8.252859
8.463860
7.635951
7.966757
8.067489
7.571578
6.844997
7.376671
7.835627
7.370710
6.743670
7.407665
7.100701
7.512569
6.987453
6.595850
7.189512
##ZVALUE=260
0.960827
1.155734
1.301765
1.322627
1.212955
1.214743
1.418591
1.493692
1.624823
1.586676
1.756549
2.530813
8.840561
33.974648
73.628426
170.580745
276.503563
458.252430
599.390864
773.155689
837.824941
843.358636
749.387741
611.221790
415.213704
285.845995
166.340470
116.969943
90.077519
93.962550
123.249888
147.142410
168.263912
177.349448
180.561543
163.981915
145.172477
115.635991
95.858574
70.067644
57.962537
44.468641
38.203597
34.394860
33.388734
30.704737
28.559566
26.646852
23.990870
22.583604
20.584464
19.931793
17.148852
16.990900
14.745593
13.413429
13.240576
11.659861
11.191964
10.594726
10.162592
8.854866
9.915829
8.195639
8.205771
8.111000
7.711649
7.344484
7.401705
8.058548
7.625818
7.935762
8.176565
8.274913
8.253455
9.210706
8.800626
8.420944
7.245541
7.506609
7.280707
7.129908
6.661415
6.776452
6.875992
6.229877
7.001758
6.947517
6.600618
6.123781
6.004572
6.606579
6.812811
6.499887
6.520748
6.800890
##ZVALUE=265
1.102686
1.071692
1.066923
1.140833
1.064539
1.196861
1.261830
1.067519
1.214743
1.481771
1.191497
1.446605
1.314878
2.217889
4.182458
21.006465
49.106479
125.996470
223.925710
424.276590
581.152439
731.392503
882.408619
928.109884
848.624706
724.290609
543.890595
386.213660
230.571628
157.676935
106.051564
99.414587
121.256709
144.894719
173.481703
187.548995
195.612907
189.518929
171.515942
149.775743
120.183825
97.156763
73.729753
56.108832
44.373870
39.025545
33.327937
30.869842
28.636456
25.584698
24.497509
21.656752
20.359755
18.170476
17.081499
15.721917
14.037490
12.830496
12.285709
11.305809
10.361671
9.476542
8.995533
8.744597
8.155704
8.037686
7.641912
7.811785
7.945895
6.816983
7.932782
8.231997
7.872581
8.508563
7.974505
7.736683
7.282495
7.137656
7.285476
7.222891
7.020831
6.613731
6.199479
6.274581
6.024837
6.165504
5.959868
5.823970
6.016493
6.157756
6.310940
5.519986
5.945563
6.117821
5.535483
5.746484
##ZVALUE=270
0.984669
1.053810
1.253486
0.872612
1.015663
1.014471
0.857711
1.135468
1.343489
1.072884
1.101494
1.283884
1.342893
1.567602
1.668930
1.821518
2.672672
8.210540
24.706721
82.374811
167.202950
345.109701
514.498949
747.481585
888.493657
984.306931
967.769623
851.595998
719.790459
498.805642
358.606577
207.016468
141.279697
105.191469
106.579661
129.527450
151.475668
174.626708
189.399719
195.060968
188.410878
166.769624
144.789815
113.834739
92.386603
63.296556
47.847629
35.904646
30.301809
26.559830
23.766756
20.663738
19.295812
17.817616
15.875697
15.513897
13.799667
12.427568
12.134910
11.420846
9.648800
9.749532
8.723736
7.990599
7.637739
7.607937
7.190704
7.401705
7.304549
7.119775
7.030964
7.282495
7.043481
6.945729
7.737875
7.423759
7.202625
6.323457
6.680489
6.526709
6.089807
6.090999
5.860925
5.344748
5.542636
5.741715
5.438924
5.534887
5.366802
5.254745
5.405545
5.408525
5.102754
5.082488
5.039573
5.333424
##ZVALUE=275
1.108646
1.053810
1.343489
1.248717
1.011491
1.030564
1.069903
1.132488
1.258850
1.307726
1.422763
1.378655
1.336932
1.342893
1.421571
1.556873
1.541972
1.700521
1.854897
4.846454
17.000437
48.215985
142.183900
256.415606
481.238961
654.564500
847.960711
973.838568
1016.244888
972.559452
860.875845
649.021864
470.869541
269.415975
172.157884
98.525882
83.245635
91.771483
106.951594
134.557486
153.178573
171.720982
173.672438
167.271495
153.247714
122.454762
99.179745
72.236657
57.367682
36.554933
27.365685
19.759536
16.860962
14.693737
13.551712
12.044907
11.803508
10.930896
9.412766
9.481907
9.107590
8.160472
7.882714
7.478595
7.312894
6.955862
7.285476
6.708503
6.470680
6.887913
6.547570
6.792545
6.965995
6.834865
7.212758
6.611943
6.714463
6.454587
6.496906
6.122589
6.289482
5.653501
5.369782
5.932450
5.461574
5.517602
5.045533
5.145669
5.189776
4.858971
5.122423
5.374551
5.338788
4.536510
5.094409
5.055666
##ZVALUE=280
0.733733
0.653863
0.722408
0.638962
0.973940
0.808835
0.705719
0.793934
0.942945
0.858903
0.964999
0.944734
0.984669
0.880957
1.190901
1.165867
1.388788
1.227856
1.473427
1.605749
1.758933
2.311468
9.505749
42.690635
98.897815
226.987600
363.505483
586.535931
758.116841
947.797894
1016.031504
1007.452607
918.003917
711.106658
531.045794
312.553644
192.061663
93.200803
60.451627
53.035617
64.047575
89.502931
109.918714
133.681893
145.894885
153.523684
149.212480
130.918622
111.231804
84.161758
64.205527
41.016936
28.234720
17.340779
13.250709
9.313822
8.344650
7.117987
6.945729
6.699562
6.596446
6.027818
6.214976
5.761981
5.737543
6.117821
5.428791
5.599856
5.513430
5.235672
5.474687
6.284714
5.940795
6.188750
6.069541
6.058812
5.975962
5.791783
5.849600
5.460978
5.657673
5.118847
4.946589
4.495978
4.655719
5.076528
4.752874
4.731417
4.627705
4.816651
4.408956
4.314780
4.363656
4.170537
4.468560
4.543662
##ZVALUE=285
0.614524
0.666976
0.614524
0.805855
0.621676
0.662804
0.652671
0.796914
0.777841
0.849962
0.985861
0.947714
0.979900
0.875592
0.846982
0.979900
0.743866
0.978708
1.098514
0.997782
1.415610
1.517534
1.460910
1.881719
5.097985
18.079877
63.042641
129.940510
279.344916
434.288979
664.356947
845.249891
985.094905
1016.032696
997.802019
824.432969
645.577908
404.174924
252.521634
121.955872
66.272616
34.081936
34.948587
54.839849
71.857572
100.189447
116.553903
135.874748
142.265558
138.584971
127.140880
102.049708
83.297491
57.522655
39.528608
23.503900
14.377832
8.575916
6.516576
5.514622
5.225539
5.017519
4.805923
4.792809
4.882812
4.907846
4.830956
5.326867
4.692674
5.253553
5.316734
5.395412
5.571842
5.806684
5.777478
5.548596
5.277991
5.337000
5.048513
5.059838
5.037785
4.967451
4.740953
4.417896
4.538894
4.422665
4.571676
4.444718
4.272461
4.333854
4.545450
4.081726
4.258752
3.978610
4.184842
4.530549
##ZVALUE=290
0.579953
0.428557
0.539422
0.581741
0.605583
0.564456
0.637770
0.672936
0.790954
0.825524
0.695586
0.827909
0.677705
0.720620
0.834465
1.072884
0.934601
0.922680
0.983477
1.013875
1.064539
1.202822
1.197457
1.347661
1.516938
2.036691
2.305508
7.175803
32.895803
78.510642
159.209967
329.737663
508.605838
769.354701
929.762721
1016.031504
1016.031504
916.836858
755.040646
508.435965
337.965488
169.133544
88.732839
37.293434
23.999810
32.494664
45.501590
69.888830
87.704659
114.472508
128.799677
137.197971
134.491920
120.096803
103.137493
76.508522
57.056546
36.882758
24.990439
13.467669
8.875728
5.785823
4.903674
4.420877
4.537702
4.466772
4.694462
4.628897
4.890561
4.931688
5.038977
5.270839
5.221963
5.258918
5.152822
5.515814
5.152822
4.849434
5.258918
4.667640
4.404783
4.567504
4.744530
4.715919
4.540682
4.687905
4.599690
4.419684
4.189610
4.245639
4.437566
4.034638
4.156828
4.002452
4.117489
3.788471
##ZVALUE=295
0.614524
0.576973
0.444651
0.720620
0.754595
0.702739
0.648499
0.542998
0.632405
0.580549
0.775456
0.794530
0.824928
0.706911
0.629425
0.726581
0.930429
0.635982
0.808835
0.741482
0.882745
0.856519
1.017451
0.943542
1.217723
1.293421
1.416802
1.658797
1.777411
3.175735
11.337996
49.364567
111.825466
262.630582
423.132777
676.679611
846.762657
1008.558869
1016.037464
978.583694
844.119787
604.798794
422.906876
224.474669
123.524666
47.037601
24.830699
20.670891
26.775599
43.275952
60.793757
85.442662
102.640986
123.508573
128.838420
127.157569
117.383003
96.211433
77.654719
52.617788
37.046671
21.441579
14.431477
8.811951
6.561875
5.054474
4.745722
4.435778
4.487634
4.775524
4.766583
4.898906
5.192757
4.962683
5.568862
5.061626
4.761815
4.889965
4.554987
4.503727
4.413724
4.296899
4.241467
4.214644
4.158616
4.240870
3.757477
4.156828
4.254580
4.561543
3.906488
3.698468
3.894567
4.089475
4.116893
3.743768
##ZVALUE=300
0.561476
0.517964
0.477433
0.617504
0.560880
0.616908
0.604987
0.551939
0.668764
0.558496
0.588894
0.554919
0.716448
0.699759
0.685453
0.678897
0.560880
0.725985
0.674725
0.738502
0.770688
0.759959
0.916719
0.689626
1.068711
0.979900
1.139641
1.222491
1.291633
1.352429
1.652837
1.952648
7.670522
25.580525
87.228417
169.842839
348.078012
522.698760
770.149827
921.611786
1016.032696
1016.032696
904.275775
746.554732
497.428775
325.612426
162.905455
88.346004
33.305883
18.009543
17.111897
24.673939
40.092468
54.142475
78.426003
96.353889
115.822554
123.268962
121.027827
111.144781
94.477534
77.171922
53.158998
37.774444
22.554994
14.761686
8.641481
5.928874
4.953742
4.730821
4.813671
4.715919
4.759431
4.836917
4.944801
4.776716
4.901886
4.723668
4.804730
4.467964
4.470944
4.585981
4.542470
4.264712
4.226565
4.306436
4.399419
4.414916
3.884435
4.013777
3.807545
3.805757
3.863573
3.761649
3.870726
3.555417
##ZVALUE=305
0.572801
0.529885
0.569820
0.594854
0.627637
0.465512
0.493526
0.522733
0.510812
0.573993
0.617504
0.617504
0.592470
0.678897
0.705719
0.481606
0.635982
0.626445
0.680685
0.823736
0.747442
0.729561
0.785589
0.816584
0.898838
0.935793
0.933409
0.985861
0.960827
0.903606
1.020432
1.339912
1.398921
1.676679
2.918839
16.749501
46.469569
135.336518
244.082808
454.269052
635.476708
864.704847
997.883677
1016.031504
979.059935
783.450007
610.544682
387.855768
242.856741
109.981894
54.150820
19.370914
12.066960
15.487671
22.384524
38.087964
52.568913
74.021816
91.352463
109.643936
115.848780
115.176439
106.374621
88.854432
72.293878
50.234795
35.595894
21.208525
13.671517
7.990599
6.182790
4.890561
4.859567
4.700422
4.757643
4.363656
4.186630
4.581809
4.222989
4.064441
4.336834
4.285574
4.173517
4.304647
4.287958
4.060864
3.938675
3.979802
4.164577
3.774762
3.818870
3.929734
3.911853
3.709793
3.636479
3.609657
##ZVALUE=310
0.449419
0.413656
0.428557
0.359416
0.479817
0.570416
0.487566
0.515580
0.513792
0.419617
0.450611
0.596642
0.685453
0.639558
0.589490
0.540614
0.671744
0.560880
0.457764
0.556707
0.555515
0.651479
0.610948
0.614524
0.759959
0.801682
0.800490
0.859499
1.012683
0.873804
1.089573
1.030564
1.288652
1.170635
1.522899
1.414418
1.932979
5.887747
30.070543
72.447658
179.249644
309.545994
540.601015
728.922486
933.910608
1016.031504
1011.963487
922.017694
717.242956
530.580878
303.499699
180.806518
76.894760
35.481453
13.051629
9.663701
13.711452
19.665956
32.068491
45.240521
65.783858
81.253648
99.151731
106.996894
109.860897
102.490783
87.132454
71.972609
48.934817
34.705997
21.368861
14.113784
9.151697
6.455779
4.977584
4.474521
4.228950
4.112720
3.768802
4.001856
4.013777
3.896952
3.824830
3.942847
3.935695
3.862977
3.652573
4.005432
3.671646
3.862977
3.644824
3.743768
3.420711
3.602505
3.483891
3.922582
##ZVALUE=315
0.304580
0.379682
0.548959
0.305772
0.300407
0.441670
0.502467
0.450611
0.487566
0.479817
0.414848
0.496507
0.350475
0.333786
0.378489
0.446439
0.560880
0.715852
0.576973
0.668764
0.734925
0.799894
0.738502
0.637770
0.648499
0.798702
0.623465
0.838637
0.667572
0.968575
1.066923
0.883937
0.977516
0.796914
0.879765
1.299977
1.356602
1.183748
1.607537
3.519654
12.938976
52.831769
114.493966
259.753466
425.343513
682.277679
845.480561
999.012589
1016.031504
970.965624
836.450458
602.067709
427.081585
226.572752
123.209953
44.439435
19.137859
8.702874
9.157658
12.747645
17.691851
30.127764
42.854548
61.343908
76.786876
95.904469
102.007985
103.313923
96.302629
81.206560
66.807866
48.689842
34.817457
20.333529
13.487935
8.128881
6.001592
4.816651
4.230738
4.001856
3.787875
3.626943
3.720522
3.587604
3.844500
3.628731
3.599524
3.789663
3.852844
3.716946
3.692508
3.758669
3.585815
3.642440
3.338456
3.519654
##ZVALUE=320
0.438690
0.317693
0.493526
0.373721
0.404716
0.393987
0.385642
0.389814
0.549555
0.417829
0.319481
0.610948
0.316501
0.469685
0.530481
0.453591
0.472665
0.576973
0.463724
0.577569
0.477433
0.569820
0.570416
0.599623
0.456572
0.594854
0.627637
0.587702
0.703931
0.602603
0.632405
0.772476
0.851750
0.915527
0.955462
0.961423
0.997782
1.019835
1.122952
1.404881
1.479983
1.826882
7.269979
24.423599
84.021688
168.980956
343.769789
518.379807
769.429803
928.432941
1016.031504
1016.031504
913.210511
755.824447
504.821539
326.752663
151.496530
78.972578
28.218627
12.723804
7.444620
7.826686
10.870695
15.661716
26.313663
37.434697
55.876970
70.045590
88.377595
96.530914
97.552538
92.638731
77.683926
64.024925
46.439767
33.505559
20.300746
13.534427
7.764697
5.838871
4.852414
4.017949
3.989935
3.770590
3.651977
3.563762
3.611445
3.546476
3.721714
3.404617
3.488660
3.556609
3.556609
3.548861
3.363490
3.567934
##ZVALUE=325
0.356436
0.450611
0.434518
0.498891
0.407696
0.387430
0.503659
0.345707
0.391603
0.510812
0.372529
0.425577
0.378489
0.422597
0.582933
0.578761
0.426769
0.371933
0.192523
0.399947
0.427961
0.536442
0.519753
0.587702
0.530481
0.676513
0.900626
0.628829
0.689626
0.810623
0.792742
0.610948
0.687838
0.754595
0.848770
0.940561
0.980496
0.952482
1.056790
1.138449
1.156926
1.306534
1.380444
1.787543
3.965497
14.303923
55.187941
119.320750
277.645588
458.833575
763.456821
989.787579
1016.031504
1016.031504
1016.031504
993.307829
671.647787
450.235009
226.187706
117.943883
41.437745
17.812848
8.153915
6.976724
7.908940
10.221601
16.349554
23.799539
39.813519
53.088665
71.857572
83.846450
90.915561
92.173815
84.563494
75.248480
58.072805
44.677854
28.702617
19.730926
11.522770
8.036494
5.565882
4.530549
3.820658
3.925562
3.833771
3.742576
3.483891
3.484488
3.647804
3.438592
3.456473
3.472567
3.036857
3.313422
##ZVALUE=330
0.390410
0.325441
0.595450
0.398755
0.420809
0.384450
0.533462
0.488758
0.523925
0.469685
0.606775
0.560880
0.566840
0.451803
0.417829
0.497699
0.520945
0.527501
0.475645
0.457764
0.380874
0.541806
0.551939
0.629425
0.501871
0.506639
0.594854
0.659823
0.677705
0.729561
0.530481
0.761747
0.669956
0.700951
0.828505
0.909567
0.891685
0.872612
0.899434
0.871420
1.037717
1.067519
1.124740
1.224875
1.430511
1.453757
1.991987
7.844567
26.017427
88.282824
171.445012
348.991752
526.954532
789.322853
964.835882
1016.104817
1016.104817
905.022025
719.158649
459.368825
294.098854
133.487582
67.607760
23.633838
10.084510
6.560683
6.222725
7.294416
9.156466
15.715957
22.586584
35.704970
49.404502
66.074729
76.562762
83.984733
84.956884
78.897476
68.818927
52.831769
40.569901
26.438832
18.944740
11.895895
8.203983
5.421638
4.614592
4.024506
3.699660
3.636479
3.497601
3.421903
3.161430
3.086925
3.175735
3.238916
##ZVALUE=335
0.250936
0.390410
0.365973
0.348687
0.373721
0.425577
0.291467
0.287890
0.196695
0.423789
0.440478
0.471473
0.432730
0.520945
0.390410
0.330806
0.378489
0.369549
0.502467
0.495911
0.441670
0.162721
0.395775
0.310540
0.470877
0.406504
0.703931
0.426769
0.599623
0.606775
0.501871
0.519753
0.582933
0.657439
0.648499
0.770688
0.639558
0.570416
0.740886
0.794530
0.562668
0.777841
0.743866
0.943542
0.977516
1.156926
1.121759
1.327991
1.517534
3.622770
13.386607
53.423643
114.672780
258.517861
419.262648
672.089458
847.877860
994.709730
1014.328003
914.357901
769.536495
525.189638
355.088711
101.708770
80.792904
14.192462
11.088848
6.941557
5.823970
6.000996
8.804798
9.836555
13.729930
31.969547
34.293532
44.972897
69.825649
71.393847
79.450607
79.911947
73.545575
62.419772
52.869916
39.285421
23.625493
18.772483
11.455417
8.050799
4.418492
4.060864
3.610849
3.298521
3.133416
2.991557
3.092885
3.139973
##ZVALUE=340
0.382662
0.349879
0.381470
0.343919
0.288486
0.333786
0.304580
0.363588
0.296831
0.275970
0.241995
0.340939
0.274777
0.475645
0.461936
0.387430
0.361800
0.396967
0.464916
0.424981
0.380874
0.378489
0.459552
0.477433
0.377893
0.522733
0.467896
0.469685
0.503659
0.534654
0.371933
0.527501
0.452995
0.592470
0.571609
0.512600
0.653863
0.619888
0.624657
0.626445
0.659823
0.633597
0.669956
0.715852
1.028776
0.807643
1.006722
0.850558
1.371503
1.144409
1.504421
2.109408
6.355643
33.303499
81.040859
203.334689
342.033505
567.135811
744.521618
931.896567
993.786454
944.688916
820.306540
602.481961
424.108505
227.675438
122.272968
44.991970
18.451810
7.483959
6.083846
5.682707
5.460978
6.524920
8.677840
13.820529
20.478964
31.948686
43.026805
57.558417
67.061782
73.230863
73.236823
67.931414
60.609579
48.355460
38.465858
27.059913
19.315481
11.706948
7.894635
5.334616
4.022717
3.656745
3.339648
3.343821
##ZVALUE=345
0.431538
0.481606
0.537634
0.467896
0.277758
0.437498
0.434518
0.494719
0.533462
0.445843
0.389814
0.526905
0.474453
0.379682
0.470877
0.438690
0.578761
0.566840
0.549555
0.442863
0.466704
0.436902
0.486970
0.453591
0.522733
0.504851
0.450611
0.630617
0.634789
0.512600
0.530481
0.671744
0.642538
0.774860
0.803471
0.732541
0.829697
0.773668
0.707507
0.722408
0.806451
0.735521
0.774860
0.695586
0.892878
0.819564
0.749826
0.849962
1.089573
1.235604
1.271963
1.362562
1.331568
1.626611
3.313422
17.827749
51.377416
143.116713
254.565477
466.763973
658.318996
901.025534
1016.176939
1016.176939
962.119699
735.465884
541.706681
310.465693
170.861483
66.188574
29.120445
10.585785
6.734729
6.075501
5.530715
5.557537
5.768538
7.765889
11.497736
19.751787
28.093457
41.356683
50.489902
60.771704
66.702962
68.804622
65.744519
57.637691
49.187541
37.312508
28.040409
17.898679
12.491941
7.703900
5.755424
4.256964
##ZVALUE=350
0.387430
0.427961
0.480413
0.384450
0.515580
0.608563
0.476837
0.424981
0.442863
0.470877
0.397563
0.350475
0.441670
0.402927
0.300407
0.392795
0.616908
0.553727
0.536442
0.611544
0.519753
0.435710
0.595450
0.500679
0.499487
0.554919
0.354648
0.465512
0.592470
0.618696
0.666976
0.615716
0.557899
0.685453
0.639558
0.831485
0.520945
0.597835
0.703931
0.691414
0.629425
0.650883
0.758767
0.880957
0.784993
0.720620
0.782609
0.879765
0.988841
0.951886
1.025796
0.928640
0.977516
1.230836
1.207590
1.615882
1.985431
9.173751
28.468966
91.704726
177.797675
369.949937
553.724766
814.882517
991.927981
1016.159654
1016.159654
859.242678
646.837950
371.441841
220.444798
97.417831
43.748617
13.098717
6.854534
5.500913
5.291700
5.002618
4.904866
5.643964
7.213950
11.691451
16.311407
24.901628
33.362508
45.570731
53.661466
60.897470
63.389540
60.370564
54.949522
44.767857
36.081672
25.529861
18.226504
11.845827
##ZVALUE=355
0.602603
0.593662
0.473857
0.642538
0.758767
0.617504
0.506639
0.567436
0.566840
0.596642
0.686646
0.612736
0.672936
0.620484
0.561476
0.763535
0.741482
0.486970
0.681877
0.644922
0.647902
0.619888
0.737906
0.608563
0.661612
0.756979
0.633597
0.781417
0.692606
0.561476
0.804663
0.744462
0.725985
0.676513
0.767708
1.029968
0.830889
0.759959
0.639558
0.750422
0.711679
0.890493
0.896454
0.733733
0.885725
0.863671
0.981688
0.975728
0.958443
1.146793
1.078844
0.929832
1.123548
1.142621
1.331568
1.238585
1.586676
1.513958
1.870990
3.584623
18.160939
49.617887
134.407878
241.719484
453.700423
632.866621
847.586989
955.376625
959.353447
850.617886
624.222755
449.557900
247.033834
133.375525
50.774813
22.035837
7.677674
5.631447
5.081892
4.871488
4.551411
4.700422
5.230904
6.479621
9.553432
13.980865
21.650791
29.274821
40.103793
47.041774
54.190755
56.999922
55.377483
51.164627
42.582750
34.820437
##ZVALUE=360
0.334978
0.292659
0.245571
0.238419
0.262856
0.243783
0.168681
0.419617
0.258684
0.283718
0.196695
0.487566
0.325441
0.300407
0.388622
0.345707
0.386834
0.193715
0.341535
0.376701
0.311732
0.259876
0.424981
0.201464
0.382662
0.251532
0.530481
0.383854
0.426769
0.415444
0.464916
0.389814
0.447631
0.549555
0.394583
0.433922
0.379682
0.463724
0.535846
0.420809
0.495911
0.461936
0.440478
0.442863
0.636578
0.596642
0.506639
0.674725
0.719428
0.762939
0.716448
0.807643
0.745654
0.662804
0.916719
0.826716
0.918508
0.927448
1.042485
1.290441
1.289845
2.254844
6.630421
30.973554
75.605512
192.736983
331.522822
573.372841
791.442990
1012.087464
1016.030908
1013.011932
862.707496
561.808944
359.912515
163.516998
80.762506
29.108524
11.362433
5.445480
4.871488
4.548430
4.383922
4.001856
3.902912
4.395843
5.304813
7.914901
11.083484
17.092824
24.044514
34.109950
40.302873
47.629476
50.976872
50.782561
##ZVALUE=365
0.172853
0.237823
0.340939
0.449419
0.182986
0.307560
0.206828
0.202656
0.262856
0.223517
0.312924
0.310540
0.364780
0.245571
0.334978
0.275970
0.220537
0.292659
0.313520
0.463724
0.227690
0.187755
0.321865
0.373721
0.330806
0.311732
0.229478
0.287890
0.298619
0.422597
0.479817
0.243783
0.436902
0.429749
0.462532
0.355840
0.445843
0.367761
0.414848
0.364780
0.415444
0.462532
0.500679
0.471473
0.464916
0.513792
0.500679
0.462532
0.659823
0.525713
0.618696
0.679493
0.731945
0.726581
0.851750
0.931621
0.788569
0.815988
0.978708
0.845790
0.896454
1.134872
1.211762
1.481771
3.061891
16.502738
46.101809
123.726726
231.331587
436.442494
603.984594
800.264478
899.474621
893.541574
787.018538
570.467710
401.423573
215.062499
114.289522
41.106939
16.126633
5.778670
4.570484
4.033446
3.769994
3.713965
3.448725
3.534555
3.321767
4.475713
5.787611
9.495616
13.640523
21.081567
27.829409
35.820603
##ZVALUE=370
0.348687
0.223517
0.307560
0.323653
0.245571
0.335574
0.184774
0.310540
0.347495
0.435710
0.314713
0.320673
0.367761
0.253916
0.225902
0.366569
0.362992
0.449419
0.402927
0.460744
0.429749
0.407696
0.285506
0.548959
0.389814
0.440478
0.302792
0.282526
0.319481
0.423789
0.351667
0.357628
0.455976
0.355840
0.498891
0.433922
0.591874
0.505447
0.626445
0.552535
0.560880
0.505447
0.492930
0.556707
0.355840
0.531673
0.507832
0.649691
0.484586
0.564456
0.651479
0.459552
0.616908
0.667572
0.645518
0.716448
0.651479
0.847578
0.743866
0.721812
0.972748
1.026988
0.939965
1.029968
1.154542
1.378655
1.944900
8.500814
28.413534
92.498660
175.547004
335.635543
493.615866
698.562860
800.943971
839.312673
773.722529
610.384941
447.660685
247.806907
138.289928
54.639578
25.052428
8.713603
4.748702
3.857613
3.636479
3.510714
3.298521
3.157854
3.055930
3.254414
3.766418
5.538464
7.797480
12.303591
##ZVALUE=375
0.243783
0.174642
0.203848
0.312924
0.326633
0.366569
0.155568
0.202656
0.246763
0.286698
0.114441
0.313520
0.141859
0.323653
0.298619
0.298619
0.292659
0.242591
0.081658
0.219941
0.358820
0.281930
0.468493
0.276566
0.283718
0.259876
0.330806
0.287890
0.334978
0.298619
0.262856
0.303984
0.380874
0.300407
0.407696
0.340939
0.406504
0.294447
0.344515
0.490546
0.314713
0.205636
0.550747
0.292659
0.415444
0.313520
0.298619
0.273585
0.329614
0.431538
0.499487
0.462532
0.457764
0.546575
0.391603
0.589490
0.480413
0.445843
0.776649
0.646710
0.722408
0.698566
0.743866
0.677705
0.901818
0.959635
1.191497
1.005530
1.481771
3.716946
20.007491
50.816536
134.077668
240.680575
426.488519
573.389530
737.022758
804.013610
772.482753
670.771599
479.359627
340.437889
189.642906
105.473995
41.674972
17.520785
5.720854
3.924966
3.699660
3.444552
3.132820
3.037453
2.977848
2.574921
2.916455
3.256798
##ZVALUE=380
0.196695
0.107884
0.142455
0.059605
0.292659
0.334978
0.284910
0.265837
0.146627
0.236630
0.127554
0.231862
0.183582
0.260472
0.235438
0.090599
0.248551
0.345707
0.310540
0.365973
0.198483
0.259876
0.250936
0.245571
0.297427
0.336766
0.272989
0.368953
0.262856
0.281930
0.403523
0.331998
0.405908
0.448823
0.401735
0.317693
0.320673
0.196695
0.524521
0.407696
0.497699
0.489950
0.396967
0.477433
0.318885
0.507832
0.386834
0.493526
0.467896
0.456572
0.461936
0.355840
0.307560
0.567436
0.468493
0.318885
0.527501
0.412464
0.460744
0.433922
0.408888
0.747442
0.508428
0.593662
0.598431
0.686646
0.708699
0.729561
1.064539
1.179576
1.103878
2.386570
7.998943
37.928820
89.100003
209.682584
337.642431
529.602766
668.164492
788.714886
793.601871
693.019032
570.348501
396.247506
266.855955
130.956769
67.106485
23.370981
9.301901
4.120469
3.490448
3.232956
3.193617
2.889633
2.778769
2.540946
##ZVALUE=385
0.198483
0.261664
0.133514
0.177622
0.281930
0.191927
0.275970
0.268817
0.275970
0.172853
0.199676
0.058413
0.144839
0.271797
0.349879
0.205636
0.103712
0.220537
0.258684
0.317693
0.306964
0.258684
0.180602
0.191927
0.145435
0.440478
0.314713
0.222921
0.365973
0.344515
0.383854
0.388622
0.376701
0.546575
0.400543
0.601411
0.428557
0.480413
0.342727
0.363588
0.455976
0.333786
0.432730
0.329614
0.438690
0.457764
0.415444
0.627637
0.401735
0.630617
0.439882
0.426769
0.325441
0.292659
0.412464
0.556707
0.606775
0.433922
0.341535
0.464916
0.502467
0.617504
0.539422
0.525713
0.594854
0.718832
0.696778
0.691414
0.778437
0.862479
0.917912
1.083612
1.107454
1.373887
4.457831
15.992522
58.838725
129.085779
275.277495
420.705676
616.547465
720.973015
780.239701
756.402016
635.579824
506.742597
321.391821
205.010772
92.555881
45.507550
15.164614
5.956888
3.346801
3.289580
3.076792
2.881885
##ZVALUE=390
0.228882
0.185966
0.128746
0.224710
0.159740
0.052452
0.227690
0.186563
0.167489
0.307560
0.252724
0.193715
0.306964
0.319481
0.344515
0.218749
0.186563
0.272989
0.200868
0.164509
0.181794
0.136495
0.347495
0.387430
0.287890
0.243783
0.380874
0.510812
0.397563
0.533462
0.426769
0.465512
0.618696
0.695586
0.721812
0.597835
0.501871
0.738502
0.700951
0.617504
0.583529
0.575781
0.514984
0.515580
0.572801
0.321865
0.403523
0.576973
0.467896
0.559688
0.375509
0.482798
0.410676
0.424981
0.418425
0.380874
0.476837
0.524521
0.523925
0.728965
0.583529
0.570416
0.466704
0.560880
0.619888
0.597835
0.550747
0.541806
0.743866
0.871420
0.951886
0.972748
0.890493
0.949502
1.008511
1.049638
1.929998
11.126995
34.612417
104.200840
197.587609
372.407436
515.093803
681.433678
760.206580
777.332783
715.655684
569.248796
434.130430
263.056755
151.520967
62.971711
28.966665
9.006858
4.110932
3.096461
##ZVALUE=395
0.210404
0.161529
0.074506
0.158548
0.288486
0.264645
0.119805
0.104904
0.260472
0.179410
0.102520
0.145435
0.194907
0.211596
0.265837
0.122786
0.088811
0.141859
0.314713
0.465512
0.201464
0.163913
0.120997
0.269413
0.257492
0.266433
0.283718
0.299811
0.456572
0.572801
0.740886
0.657439
0.811815
0.880957
0.842810
0.765920
0.785589
0.812411
0.715852
0.849962
0.801682
0.797510
0.623465
0.708699
0.576973
0.704527
0.499487
0.424981
0.502467
0.505447
0.327826
0.572801
0.471473
0.595450
0.630617
0.543594
0.483990
0.447631
0.445843
0.415444
0.392795
0.412464
0.394583
0.363588
0.532866
0.458956
0.583529
0.658631
0.776649
0.781417
0.734925
0.853539
0.656843
0.943542
0.742674
0.845790
1.032948
1.026988
1.371503
6.277561
22.419691
78.436732
149.002671
284.919739
422.371626
611.968637
727.016926
801.571012
778.306723
660.758615
515.667796
321.857929
200.067759
87.209940
41.347742
13.363957
##ZVALUE=400
0.333786
0.522733
0.360608
0.354648
0.238419
0.361800
0.341535
0.269413
0.253916
0.257492
0.285506
0.294447
0.305772
0.327826
0.296831
0.239611
0.406504
0.282526
0.323653
0.266433
0.282526
0.335574
0.280738
0.391603
0.481606
0.526905
0.487566
0.709891
0.647902
0.829697
0.960827
1.062751
0.920892
0.950694
0.956655
1.125932
1.102686
0.967979
0.971556
0.924468
1.080632
0.929832
0.992417
0.913739
0.912547
0.767708
0.705719
0.697970
0.563860
0.646710
0.585914
0.664592
0.522733
0.660419
0.573993
0.525713
0.586510
0.693798
0.472665
0.551939
0.651479
0.575781
0.713468
0.663996
0.596642
0.629425
0.811815
0.634789
0.855923
0.795722
0.908971
0.930429
0.869632
1.045465
0.871420
0.903606
0.911951
1.009703
1.046658
1.076460
1.266599
3.371835
11.818409
43.710470
94.507933
213.994980
341.114998
528.082848
654.274821
757.381916
770.759583
679.805875
558.162928
370.059609
244.848728
123.408437
##END
