##TITLE=FKDZ0101
##FORMAT=SPECTACLE-ASCII V-1.2
##DATA TYPE=ULTRAVIOLET SPECTRUM
##SECOND TYPE=ULTRAVIOLET SPECTRUM
##DATE=04/30/18
##TIME=12:55:09
##SPECTROMETER/DATA SYSTEM=SPECTACLE
##XUNITS=NM EM
##YUNITS=ENERGY
##YFACTOR=1
##FIRSTX=220
##LASTX=410
##NPOINTS=96
##3DDATA=Equidistant
##ZUNITS=NM EX
##FIRSTZ=210
##LASTZ=400
##ZPOINTS=39
##XYDATA=(Y..Y)
##ZVALUE=210
2.724528
3.131628
3.205538
2.608895
2.560616
2.450943
3.213882
2.696514
2.665520
2.629757
2.497435
2.355576
2.112985
1.978874
2.550483
2.163649
2.520680
2.688766
2.626777
2.190471
2.526641
2.936721
2.708435
3.456473
4.171729
4.397631
6.093979
6.368756
7.134676
7.951856
8.431673
9.524822
10.472536
10.788441
12.421608
11.344552
10.879636
10.813475
10.990500
10.865927
10.206699
10.290742
10.768771
10.297894
9.453893
8.450747
9.033680
7.760525
7.363558
7.640719
7.206798
6.671548
6.322861
6.699562
5.856752
6.269813
5.524755
5.427599
5.102754
5.926490
5.259514
5.044937
4.601479
4.719496
4.796982
6.116629
5.316734
5.159974
6.385446
8.213520
8.379817
9.503961
10.282993
11.027455
11.622906
12.392998
11.422634
11.484623
11.735559
9.810925
9.682775
8.972883
8.634925
7.025599
6.888509
6.853938
6.145835
5.272627
4.484653
3.688931
4.240870
4.227757
4.412532
3.965497
5.529523
5.572438
##ZVALUE=215
8.702874
10.051727
8.914471
6.736517
7.342696
5.111694
5.862713
5.624890
5.601645
5.660653
5.176663
5.257726
3.991723
3.731847
3.125668
2.990961
2.721548
2.748966
2.552867
2.923608
3.330708
3.414750
3.294945
3.150702
4.108548
5.286932
7.031560
8.768439
10.717511
13.757944
14.268756
16.040802
18.681884
17.386675
18.382668
19.252896
19.214749
19.827485
18.082857
19.126534
18.164515
16.316772
16.093850
14.785528
14.452934
12.391806
11.498928
11.455417
11.930466
11.542439
10.089874
9.378791
9.500980
8.366704
7.302761
8.942485
7.370710
7.122755
7.309914
6.854534
6.753802
7.068515
6.088614
6.998777
5.707741
6.336570
6.274581
6.156564
6.869435
8.502603
7.933974
8.729696
9.461641
10.800958
12.185574
12.623668
12.388825
11.643767
11.203885
11.762977
9.969473
9.555817
8.597970
6.985664
6.478429
5.355477
5.307794
5.227923
4.228950
4.792809
5.051494
3.925562
4.633665
4.661679
4.315972
4.991889
##ZVALUE=220
28.775930
30.961633
29.581785
26.998520
25.537610
20.210743
17.257929
13.622642
10.656714
12.626648
12.338758
12.051463
12.322664
10.983944
9.490848
7.412434
5.164742
4.908442
3.461838
3.442764
3.280640
2.946854
3.647804
3.864765
4.836917
6.870627
7.576942
11.966825
14.328957
18.471479
20.839572
23.398995
27.020574
27.872920
30.398965
32.181740
29.675961
30.894876
30.272603
28.490424
28.521419
24.535656
23.558736
22.461414
22.982955
20.476580
19.219518
16.918778
16.473532
14.620423
14.296770
12.938976
12.390614
11.665821
11.467934
10.377765
10.857582
9.383559
9.224415
8.953810
8.894801
8.615851
7.924438
8.940697
8.339882
7.353425
7.526875
6.448627
7.775426
9.466410
9.309649
9.713769
10.933876
11.876822
10.348558
12.342930
13.883710
12.227893
11.176467
11.462569
11.209846
10.168552
8.916855
7.742643
7.124543
6.803870
6.074905
5.974770
5.168915
4.999638
5.097985
5.521774
4.793406
4.413724
5.271435
5.600452
##ZVALUE=225
44.719577
44.754744
54.389834
70.988536
74.373484
74.810982
65.370798
49.635768
38.063526
32.883883
25.220513
24.386644
25.089979
26.649833
27.446747
25.996566
20.462871
17.369986
12.776852
8.279681
5.370975
3.868937
3.819466
4.027486
5.773902
7.666945
9.238720
13.854504
17.413497
19.498467
23.274422
27.184486
31.674504
32.083988
36.473870
35.868883
36.136508
34.357905
34.388900
35.423636
34.448504
31.630993
29.850602
28.048754
26.765466
24.919510
23.416877
20.579696
19.482970
17.052889
18.627644
15.054941
16.849637
14.308691
13.920665
13.042688
11.588931
11.812449
11.480451
11.177659
11.142492
10.328889
8.456707
8.754730
8.830428
9.904504
8.376837
9.515882
9.719729
9.764433
9.702444
11.075735
11.587739
12.791753
13.613701
13.791919
12.458563
13.040900
13.369918
10.621548
11.431575
9.463429
10.389686
9.374619
8.420944
7.694960
7.668734
7.799864
7.349849
7.128716
7.358789
6.900430
6.201863
6.621480
7.585883
7.515550
##ZVALUE=230
35.393834
37.774444
64.681768
93.722939
129.040480
147.780776
166.320801
162.121654
142.417550
117.897987
81.183910
62.008500
47.957897
42.850971
44.414997
51.201582
50.949454
50.491691
45.460463
36.168694
27.539730
19.456744
12.077689
8.373857
6.677508
7.714629
8.920431
10.009408
13.078451
16.194582
17.886758
22.218823
24.774671
25.959611
27.251840
27.753711
29.781461
28.718710
30.263662
27.056932
27.246475
23.483634
24.011731
22.592545
21.432638
18.812418
19.878745
17.221570
18.092990
15.180707
16.038418
15.434623
14.562607
13.458729
13.072491
13.038516
11.466742
11.648536
11.102557
11.091828
11.988878
10.347962
10.716915
10.023713
9.723902
9.713769
10.127425
10.930896
11.399984
10.969639
11.505485
12.669563
12.215972
14.342666
13.701916
14.936924
13.743639
14.200807
13.489723
13.127923
14.291406
11.973977
10.578632
10.928512
10.429621
10.283589
9.805560
10.741949
10.172725
9.223819
9.457469
9.927750
8.801818
8.692741
8.419752
10.113716
##ZVALUE=235
12.275577
12.997985
36.498904
61.931610
110.553503
166.806579
228.551626
278.664827
296.098590
300.390720
258.405805
216.334462
163.062811
109.036565
86.831450
69.437623
69.075823
75.843930
80.726743
78.716874
75.676441
64.521432
50.005913
36.084652
22.933483
15.012622
11.075735
10.223985
10.129809
10.718703
11.506677
13.450980
13.673902
16.478896
16.921759
15.976429
17.070770
17.424822
17.668605
17.676950
17.774701
16.348958
16.225576
17.454624
15.144944
13.485551
13.970733
14.835596
12.824535
12.357831
12.993813
12.293458
13.291836
12.732744
11.795759
11.872649
11.014938
12.152791
9.900928
11.368990
9.933710
10.551810
10.446906
11.691451
11.083484
11.386871
11.019707
12.113452
12.025833
12.778640
12.449622
12.953877
15.360713
14.938712
16.920567
17.465949
16.429424
17.564893
16.820431
16.164780
15.448928
14.405847
13.527870
13.683438
13.478994
12.563467
12.952685
13.185740
12.932420
13.068914
11.688471
12.805462
11.553764
11.575818
12.464523
11.817813
##ZVALUE=240
1.500845
1.890659
5.460978
15.717745
41.075945
77.976584
154.067874
225.363970
342.239738
400.417447
457.881689
464.281440
423.447490
335.263014
266.288519
176.343918
127.271414
93.373656
89.660883
94.750524
107.909441
107.283592
105.955601
97.346902
75.117946
64.548850
47.854781
33.806562
19.947886
14.491677
13.668537
10.427833
12.229681
12.214780
13.362765
13.845563
12.992620
14.029741
15.046597
16.092658
14.336705
14.938712
13.908744
14.042854
13.571978
13.484955
14.050603
12.703538
12.837648
11.544824
12.556911
12.681484
12.082458
11.392832
11.586547
9.697676
10.730624
11.277795
11.680722
11.358857
11.381507
10.127425
11.347532
11.866689
12.194514
11.663437
11.240840
12.162924
13.033748
15.014410
15.092492
15.141964
16.113520
17.277598
16.391873
17.962456
18.232465
17.258525
18.226504
15.551448
16.527772
16.278625
16.544461
16.854405
16.157627
16.081929
16.338825
13.784766
13.439655
14.569759
14.361739
14.835596
15.661716
14.525652
14.299750
13.807416
##ZVALUE=245
1.263618
1.548529
1.660585
1.777411
3.305674
12.694597
27.207732
77.555776
138.920546
223.668814
352.353454
452.937484
543.581843
571.401715
531.226993
464.080572
342.288017
258.080959
184.473991
115.202665
95.685720
94.500780
107.423663
124.017000
125.459433
120.197535
109.572411
93.408823
73.101521
54.133534
39.648414
26.427507
21.161437
17.067790
15.438795
15.715957
15.755892
16.100407
16.848445
15.760660
16.923547
15.117526
16.135573
15.012622
15.028715
15.146732
13.689995
14.236569
13.639927
14.209747
13.037920
12.185574
13.119578
10.879636
12.621880
11.442900
11.566877
10.638833
10.713935
11.454821
11.029840
10.868907
10.096431
11.110902
11.236668
10.377765
11.165738
11.355877
11.657476
11.829734
12.655854
14.279485
15.338659
16.586781
15.898943
16.675591
15.676618
15.330911
15.185475
16.326904
16.690493
14.774799
15.589595
14.510751
15.345812
14.421940
14.631748
13.962984
13.302565
14.761686
15.512705
14.744997
13.240576
14.743805
15.055537
13.921857
##ZVALUE=250
1.056790
1.219511
1.101494
1.118779
1.399517
2.088547
1.893640
7.663965
21.649599
64.438581
120.421648
238.208771
336.256623
484.943986
569.519997
634.066463
629.279613
569.745898
476.579666
329.340696
229.769945
142.105818
103.807449
88.754892
99.568963
115.887523
130.869746
136.427879
136.633515
126.098990
107.675791
87.822676
67.494512
50.264001
37.570596
30.004978
25.474429
24.304986
23.639798
23.195744
22.119880
22.852421
20.722747
21.587610
20.277500
20.017624
18.322468
17.777681
15.947819
16.324520
15.936494
15.050769
14.919639
13.936758
13.110638
11.968613
12.277961
12.172461
11.562705
11.835694
11.417866
11.188984
10.905862
10.650754
10.485649
10.169744
10.820627
11.570454
10.607839
11.682510
12.626648
13.144612
13.077855
14.772415
15.219450
14.677644
15.227795
14.480948
15.062690
14.564991
14.112592
14.380813
13.927817
13.548732
13.756752
13.149977
13.271570
13.476610
13.569593
13.095737
12.751818
13.003945
13.900995
12.467504
13.796687
13.494492
##ZVALUE=255
0.996590
1.194477
1.210570
1.043677
1.318455
1.058578
1.378655
1.545548
1.969934
3.554821
18.721819
44.088960
92.325807
196.309686
305.307508
465.623736
579.785705
686.179996
711.475611
666.201711
584.766865
473.307967
293.580890
194.589496
113.489628
89.178681
89.186430
105.232596
130.966902
149.324536
154.585838
157.418847
145.201683
125.322938
104.676485
80.241561
64.338446
47.606826
40.449500
35.285950
33.943653
32.002926
30.718446
29.441714
28.404593
26.822686
25.685430
23.783445
23.068786
21.724701
21.115541
19.674897
17.817616
17.308593
15.554428
15.048981
15.050769
13.444424
12.197495
11.635423
11.739731
11.400580
11.314750
11.171699
11.257529
10.825992
9.843707
10.768771
11.303425
10.759830
11.806488
12.433529
11.772513
12.727976
13.350844
13.742447
13.592839
13.859868
13.399720
12.981892
11.413693
12.532473
12.406707
13.759732
13.309717
11.748672
11.773705
12.447834
12.888908
12.034774
12.585521
12.679696
12.218952
12.443662
12.942553
12.491941
##ZVALUE=260
1.135468
0.874996
0.960827
1.173615
1.080632
0.905991
1.466870
1.295805
1.455545
1.345873
1.393557
2.341866
6.852746
27.900934
64.192414
156.289935
253.134966
419.641733
554.523468
711.733699
785.202980
791.298747
702.542663
570.926666
389.614701
270.210505
157.014728
110.252500
88.533759
96.465945
120.078921
155.250430
170.245767
183.547735
183.489919
168.081522
151.754618
122.036934
102.912784
76.949000
62.755942
50.411820
45.713782
39.977431
38.112998
35.040975
32.960773
31.192899
29.947758
26.721954
25.375485
23.677945
21.565557
20.461679
19.743443
18.100739
17.082691
15.955567
14.506578
14.079809
13.305545
12.841821
13.149977
12.476444
11.460781
11.258721
11.449456
11.019707
10.858774
12.120605
11.682510
11.555552
11.280775
12.141466
12.641549
12.323856
11.939406
12.230873
12.105703
12.096763
12.011528
12.361407
11.463761
11.493564
11.889935
11.484623
11.628866
11.538863
12.402534
11.967421
11.544824
12.160540
11.255741
11.673570
11.286736
11.708736
##ZVALUE=265
0.740886
0.884533
0.776649
0.914931
0.893474
0.905991
0.941753
0.703931
1.065731
1.142621
0.987649
1.104474
1.416802
1.459718
3.690720
18.273592
47.022700
118.696690
211.478472
384.937525
544.406772
690.534711
833.846927
861.420631
788.554549
684.762001
504.495502
367.439985
221.526623
150.299668
111.519694
102.047920
120.247602
154.404640
175.999999
194.220543
204.985738
195.558667
182.792544
156.500936
131.633878
101.628900
82.915425
63.592792
54.325461
44.042468
42.264462
36.805868
35.780668
32.136440
30.236840
27.667880
27.060509
23.535490
22.198558
21.274686
19.491911
17.544627
16.387701
16.251802
14.418960
13.171434
12.787580
12.035966
11.992455
10.800958
12.045503
11.284947
11.700988
11.127591
12.103915
11.727810
12.176633
11.975765
12.051463
12.235641
11.805892
11.867881
12.054443
11.557937
11.552572
10.923743
11.258721
10.839701
10.737777
10.646582
11.290908
11.165738
10.792613
10.838509
11.288524
10.125637
10.809898
10.661483
11.160970
10.879636
##ZVALUE=270
0.820756
0.719428
0.773668
0.695586
0.699759
0.771880
1.003742
0.866652
1.113415
0.871420
1.019835
0.959635
1.029968
1.227856
1.290441
1.510978
1.913905
8.628964
26.602745
84.808469
164.039731
290.019512
503.326654
668.902993
845.160484
903.701782
892.270803
817.439556
646.687746
501.743555
355.754495
212.760568
147.878528
109.370947
110.072494
135.512948
157.207847
186.774731
202.843547
206.901431
200.521946
176.226497
155.214667
124.347806
99.464655
71.874857
59.535503
45.753717
40.673614
34.591556
32.208562
28.389692
26.598573
24.405718
23.053885
21.699667
20.255446
18.173456
17.145872
16.236901
15.755892
14.560819
14.129877
13.091564
12.560487
12.633801
11.723638
11.861920
12.017488
11.758804
11.737943
12.181997
11.850595
11.947751
11.455417
11.447668
11.523962
11.555552
11.820793
10.765791
11.316538
10.690689
10.844469
10.822415
10.480881
10.256767
10.260940
10.656714
10.441542
10.552406
11.162758
10.680556
10.848641
10.126829
10.622740
10.333657
##ZVALUE=275
0.796914
0.868440
1.000762
0.944734
0.933409
1.081824
0.760555
0.942945
1.013875
1.030564
1.037717
1.110435
1.021624
0.988841
1.200438
1.369715
1.370907
1.543760
1.865625
4.522800
16.321540
45.842528
131.966472
241.243839
452.622771
606.570840
794.294477
907.720923
962.404013
911.327600
830.364823
607.582927
445.832610
257.762671
168.210864
103.944540
89.353919
97.526908
117.832422
144.427419
165.130496
180.788636
185.668468
178.234577
162.950754
136.874914
111.987591
82.539916
64.884424
46.038628
36.587715
28.140545
24.545789
21.098852
20.571947
18.614531
17.938614
17.310977
15.959740
14.814734
14.967918
13.459921
13.398528
12.358427
11.618733
11.523962
12.151599
11.488795
11.525750
11.073947
10.964870
11.501908
11.332631
11.049509
11.513829
11.157990
11.916757
11.200905
11.111498
11.473894
10.464787
10.338426
10.296702
10.815859
9.999871
10.270476
10.272861
10.085702
10.413527
10.269880
10.838509
9.515882
10.281801
10.243654
10.235906
9.945631
##ZVALUE=280
0.688434
0.619888
0.462532
0.529885
0.650883
0.792742
0.688434
0.589490
0.832677
0.738502
0.900626
0.908971
0.971556
0.856519
0.932813
0.909567
0.842810
0.683665
1.115799
1.177788
1.379848
2.228618
8.172989
39.265752
93.535781
214.465857
341.706872
553.274751
712.117553
882.399678
961.439610
946.884751
860.241652
656.886697
499.505997
299.936533
184.158683
96.029639
65.915585
60.337782
72.164536
98.740458
117.892623
143.205523
156.612992
161.207914
156.847835
138.828754
118.494630
91.500878
70.678592
47.698617
33.739805
22.937655
18.290877
14.620423
13.162494
12.533665
11.939406
12.122989
11.563897
11.649728
11.423826
10.857582
10.465980
10.303855
10.097623
10.431409
10.273457
10.263920
10.437965
10.455847
10.166764
10.547638
11.142492
10.294914
11.049509
10.547638
10.629892
10.641813
10.839701
10.141730
10.617971
10.049939
9.956956
10.040998
9.746552
9.908676
10.162592
10.515451
9.854436
9.779930
9.586811
9.950995
9.272695
9.886622
##ZVALUE=285
0.510812
0.701547
0.579953
0.755787
0.699759
0.526905
0.597835
0.487566
0.576973
0.678897
0.629425
0.782609
0.734925
0.978708
0.926852
0.848770
0.937581
0.953674
0.961423
1.037717
1.116991
1.163483
1.327991
1.505613
4.522800
16.898513
58.024526
121.283531
261.209011
402.676463
620.033741
778.791904
908.779502
975.754857
928.095579
766.927004
607.659817
379.878879
241.850615
118.517876
65.384507
38.119555
39.620996
57.622790
76.040626
104.941726
122.137666
141.458511
147.122741
142.457485
130.547881
109.637976
88.670850
62.080622
44.195652
27.120709
18.800497
12.918711
10.878444
9.464622
9.298921
9.264946
8.891821
8.665919
8.784533
9.732842
9.607673
9.028912
9.146929
9.657741
9.759665
9.931922
10.114908
10.191798
10.072589
10.129809
10.235906
10.277629
10.319948
10.288954
10.258555
9.960532
10.072589
10.293722
9.777546
9.694695
9.976625
9.846687
9.654760
9.535551
9.679794
10.416508
9.629726
9.985566
10.101795
9.460449
##ZVALUE=290
0.455976
0.498891
0.483990
0.407696
0.631809
0.704527
0.488758
0.581741
0.637770
0.661612
0.652671
0.625849
0.632405
0.537634
0.694990
0.688434
0.980496
0.608563
0.803471
0.877976
0.865459
0.953674
1.389980
1.140833
1.104474
1.484752
2.249479
7.073879
34.297705
77.742934
180.356503
311.816931
477.307439
718.584657
862.592459
972.785950
965.219736
842.346549
697.968602
472.216010
317.925811
160.756707
86.194873
37.453771
27.285814
34.824610
49.054623
71.190596
92.114806
116.117001
129.314661
138.835907
136.978626
123.490691
107.295513
79.387426
60.134530
39.439797
27.042627
15.850663
11.757612
9.331703
8.104444
8.316636
8.423924
8.507967
8.011460
8.353591
8.616447
9.128451
9.279847
9.526610
9.434819
9.968877
9.603500
9.961724
9.673834
9.606481
10.027885
9.865761
9.967685
9.722710
9.842515
9.723902
10.127425
9.692907
10.042787
10.063648
9.872913
10.149479
9.834766
9.731650
10.042787
9.674430
9.643435
9.555817
##ZVALUE=295
0.504851
0.293851
0.539422
0.378489
0.513792
0.455976
0.354648
0.552535
0.520945
0.471473
0.524521
0.569820
0.557899
0.568628
0.594854
0.619888
0.749826
0.661612
0.768900
0.622869
0.750422
0.713468
0.915527
0.858903
0.968575
1.150966
1.210570
1.460910
1.710653
3.122687
10.663867
46.870708
106.052756
246.711969
400.495529
637.005568
799.858570
951.145887
984.440446
905.368924
781.543851
559.839010
388.899446
210.506916
115.886927
45.925975
24.732947
21.126866
29.232502
44.318438
62.490702
87.950826
105.077624
123.883486
132.057667
130.177736
117.886662
97.380877
78.089833
55.235624
39.754510
24.059415
17.008781
11.240840
8.509755
7.650852
7.255673
7.680655
7.554889
7.910728
8.472800
8.942485
8.955598
9.129643
9.512901
9.542704
9.658933
9.284616
9.873509
9.961724
9.884834
9.852648
9.767413
9.939671
10.237694
10.246634
9.934902
9.929538
9.794831
10.193586
9.794831
9.762645
9.577870
9.673834
9.666681
9.692907
##ZVALUE=300
0.423789
0.363588
0.581741
0.566840
0.441670
0.425577
0.454783
0.491738
0.415444
0.297427
0.423789
0.334978
0.518560
0.582933
0.506639
0.544786
0.556707
0.724792
0.745654
0.526905
0.830889
0.753999
0.705719
0.720620
0.921488
0.883937
0.929832
1.029968
1.181960
1.424551
1.315475
1.673698
6.479621
23.831725
81.369877
158.319473
328.198671
496.898890
729.138851
867.380500
973.498821
965.997577
843.890905
691.374540
462.215543
303.012729
154.353976
81.612468
30.986667
17.604828
17.593503
25.083423
40.274858
56.044459
79.837441
97.535849
117.059946
123.849511
124.056935
114.519000
95.617771
78.583956
54.882765
39.205551
24.598837
16.347766
10.638833
8.814931
7.705688
7.426739
7.878542
8.192658
8.130670
8.240938
8.613467
8.902550
8.931756
9.212494
9.470582
9.245872
9.416938
9.382963
9.380579
9.657741
9.839535
9.618998
10.095835
10.034442
9.779930
10.234714
9.779930
9.968877
9.782910
9.451509
9.503961
9.645820
##ZVALUE=305
0.458956
0.448823
0.338554
0.342727
0.348687
0.292659
0.536442
0.327826
0.377893
0.460744
0.425577
0.652671
0.531673
0.676513
0.466704
0.394583
0.750422
0.470877
0.465512
0.588894
0.385642
0.592470
0.599623
0.678897
0.848770
0.698566
0.772476
0.845790
0.868440
1.132488
1.116991
1.305938
1.296997
1.449585
2.638698
16.408563
45.658946
129.978657
234.516859
427.497625
603.303909
814.684033
931.707025
974.507928
912.101865
727.933645
564.700961
355.744958
223.468542
101.928711
50.063729
19.129515
12.914538
15.913844
22.427440
38.345456
53.592920
75.073838
92.495680
109.662414
117.490888
116.844773
108.025670
90.942979
75.014830
53.141713
38.756728
24.234653
16.746521
11.084676
8.946657
8.362532
8.202791
8.107424
8.475780
8.820891
8.751750
8.904934
9.274483
9.449720
9.463429
9.607673
9.632707
9.425879
10.010600
9.754896
10.090470
9.830594
9.784698
9.993911
9.530783
10.089874
9.786487
10.008812
9.639859
9.652972
##ZVALUE=310
0.279546
0.421405
0.364780
0.371933
0.471473
0.462532
0.262856
0.469685
0.245571
0.449419
0.467896
0.334978
0.470877
0.410676
0.523925
0.397563
0.538826
0.536442
0.551939
0.522733
0.529885
0.519753
0.648499
0.503659
0.753999
0.442863
0.671744
0.786781
0.914931
0.610948
0.953674
0.900626
1.118779
1.303554
1.187921
1.580715
1.622438
6.602407
23.119450
77.447891
153.132677
315.790772
485.022664
716.596842
862.200856
966.522694
955.429673
832.725763
688.627958
468.098521
310.924649
156.859756
83.315969
30.641556
13.767481
10.398626
13.649464
22.440553
31.592846
49.973726
65.389872
87.838769
99.962950
109.903812
111.155510
102.486610
91.851950
70.357919
55.404902
36.816597
26.052594
16.576648
12.061596
9.801984
8.929968
8.563995
8.692741
8.638501
8.996725
8.853674
9.172559
8.981824
9.167790
9.743571
9.683967
9.906888
9.717941
9.965897
9.802580
9.911656
9.388924
9.715557
9.880662
9.586811
9.438992
9.387732
##ZVALUE=315
0.291467
0.382662
0.349879
0.332594
0.389814
0.287890
0.272989
0.276566
0.405908
0.408888
0.412464
0.430942
0.202656
0.492930
0.391603
0.316501
0.518560
0.516772
0.565648
0.526905
0.180602
0.361800
0.540614
0.451803
0.600815
0.638962
0.641942
0.725985
0.592470
0.655651
0.696778
0.737906
0.749826
0.850558
1.002550
0.969768
1.184940
1.439452
1.387000
3.112555
11.417866
48.591495
108.248591
242.766738
396.152735
637.674928
788.835883
928.773880
965.081453
893.681645
770.999789
553.545952
394.295454
209.671855
114.044547
42.367578
18.917918
9.229779
8.933544
12.564659
18.792748
30.920506
43.495893
62.556863
78.908801
96.874833
105.198622
105.132461
98.692775
83.561540
70.125461
50.945878
37.890673
23.879409
17.632842
12.114644
10.249615
8.883476
8.834600
8.930564
8.896589
9.105802
8.944869
9.417534
9.057522
9.411573
9.616613
9.468794
9.658933
9.531975
9.450912
9.473562
9.230971
9.630919
9.264946
9.358525
##ZVALUE=320
0.287890
0.390410
0.345707
0.394583
0.481606
0.360608
0.294447
0.420809
0.423789
0.164509
0.287890
0.299811
0.239611
0.379682
0.276566
0.518560
0.483990
0.394583
0.556707
0.443459
0.315905
0.525713
0.398755
0.623465
0.485778
0.514984
0.467896
0.531673
0.670552
0.624657
0.255704
0.773668
0.831485
0.827909
0.757575
0.717640
0.801682
0.954866
0.877976
1.160502
1.325607
1.801848
5.252957
27.902722
71.070790
181.822777
302.852988
504.320860
673.120022
860.840678
940.404534
927.194953
843.083858
650.312901
479.186773
268.864632
154.989958
65.489411
30.206442
10.744929
7.974505
9.042621
11.077523
17.697811
25.780797
42.154789
56.492686
75.058937
88.109970
98.623633
100.704432
93.627572
82.696676
64.114928
50.412416
33.877492
25.202632
17.249584
12.692809
9.979606
9.083748
9.196997
9.089708
9.225607
9.097457
9.225607
9.598732
9.494424
9.321570
9.269714
9.431839
9.252429
9.330511
9.008646
9.336472
9.427667
##ZVALUE=325
0.174642
0.294447
0.189543
0.345707
0.332594
0.206828
0.287890
0.270605
0.382662
0.351667
0.228882
0.386834
0.410676
0.331998
0.316501
0.210404
0.326633
0.358820
0.188947
0.342727
0.475645
0.421405
0.545979
0.629425
0.581741
0.557899
0.499487
0.627637
0.670552
0.581741
0.701547
0.622869
0.693798
0.781417
0.767708
0.843406
0.923872
0.727773
0.804663
1.003742
1.025796
1.033545
1.335740
1.437664
2.922416
17.834902
47.148466
125.227571
224.014521
418.120623
584.461689
785.769820
892.810822
931.954980
872.947574
692.017674
526.861548
321.039557
195.329785
86.783767
42.391419
14.564991
8.532405
7.415414
8.365512
11.114478
16.086698
26.703477
38.757920
56.577921
70.437789
84.807873
93.105435
94.295740
88.468790
75.326562
61.806440
45.905709
34.333467
22.545457
16.383529
11.995435
10.318756
9.515882
9.310842
9.127855
9.378791
9.186864
9.459853
8.848906
8.840561
8.972883
9.050965
9.005666
9.186864
8.937716
##ZVALUE=330
0.122786
0.274777
0.181794
0.281930
0.289679
0.132918
0.144839
0.054836
0.197887
0.178814
0.063777
0.160933
0.085831
0.113845
0.210404
0.163913
0.287890
0.325441
0.243783
0.352859
0.454783
0.054836
0.332594
0.248551
0.297427
0.391603
0.400543
0.468493
0.340939
0.546575
0.458956
0.520945
0.372529
0.521541
0.345707
0.435710
0.525713
0.564456
0.710487
0.775456
0.848770
0.821948
0.681877
0.820756
1.113415
1.166463
1.721978
5.866885
30.025840
73.432922
182.186961
302.201509
511.720777
668.568611
843.572617
914.160609
877.201557
779.923797
585.348606
429.261923
237.746835
136.943460
56.424737
25.547743
9.379983
6.957650
7.116795
7.925630
11.598468
16.419888
26.777983
37.283897
54.071546
66.489577
80.414414
88.019967
88.528991
83.999634
70.992708
58.617592
42.768717
32.747984
22.681952
17.257929
12.814999
11.151433
9.388924
9.073615
8.788705
8.516908
8.690953
8.587837
8.307695
8.477569
8.946657
8.646846
##ZVALUE=335
0.041723
0.070930
0.048876
0.041723
0.061989
0.092983
0.056624
0.290871
-0.030994
0.155568
0.163913
0.212789
0.256896
0.050664
-0.092983
0.158548
0.121593
0.163913
0.337958
0.235438
0.209808
0.090599
0.269413
0.253916
0.321865
0.043511
0.344515
0.178814
0.377893
0.345707
0.251532
0.305772
0.357628
0.427961
0.491738
0.438690
0.305772
0.507832
0.447631
0.430942
0.478625
0.613928
0.614524
0.757575
0.808835
0.726581
0.857711
0.886917
1.129508
3.260970
12.761950
51.077008
108.306408
240.534544
385.842919
606.993437
754.263997
879.468918
894.367695
805.061460
677.890778
463.945866
315.558910
162.713528
85.292459
30.278563
13.411641
7.315874
6.731749
7.007718
7.891655
10.566711
14.724731
24.861693
34.840703
51.132441
62.733889
75.682998
81.734657
82.567930
77.333450
66.227913
55.753589
42.801499
33.888817
22.589564
17.315745
12.755990
10.387897
9.234548
8.635521
8.530617
7.897615
8.088946
8.222461
8.413792
##ZVALUE=340
0.175834
0.232458
0.238419
0.186563
0.181794
0.266433
0.291467
0.170469
0.302792
0.241995
0.175834
0.371933
0.151992
0.315905
0.310540
0.407696
0.308752
0.331998
0.214577
0.325441
0.334978
0.302792
0.364780
0.290871
0.400543
0.334978
0.391603
0.169873
0.320673
0.454783
0.392795
0.432730
0.515580
0.336766
0.449419
0.557899
0.588894
0.472665
0.596642
0.466704
0.469685
0.406504
0.607967
0.735521
0.579953
0.784993
0.881553
0.957847
0.895858
1.078844
1.100898
1.982450
6.430745
30.906796
77.166557
189.824700
317.124724
517.909527
669.162869
823.576450
872.730613
827.808976
721.374750
532.283783
375.149846
199.083686
110.059977
44.586658
18.771887
7.641912
7.109642
6.664991
6.882548
8.364916
10.474920
15.757680
22.658706
34.654737
46.138763
60.681701
70.859790
77.858567
77.945590
72.476864
65.537691
52.804947
42.760968
30.320883
23.556948
16.569495
12.705922
9.794831
8.658767
8.257627
8.210540
7.978678
##ZVALUE=345
0.204444
0.263453
0.224710
0.123978
0.192523
0.242591
0.085831
0.215769
0.109673
0.076890
0.192523
0.265837
0.288486
0.276566
0.235438
0.347495
0.271797
0.218749
0.208616
0.258684
0.125766
0.094771
0.151992
0.125766
0.199676
0.261664
0.278950
0.184774
0.248551
0.334978
0.060797
0.451803
0.499487
0.492930
0.425577
0.407696
0.377893
0.432730
0.320673
0.421405
0.438690
0.488758
0.522733
0.542998
0.560880
0.509620
0.449419
0.760555
0.737906
0.644922
0.665784
0.991821
1.006722
1.088977
2.727509
16.951561
48.046708
128.642917
227.839947
412.892699
565.791726
749.687552
834.072828
842.203498
771.826506
596.513748
444.069505
260.768533
148.348808
59.592724
27.726889
10.493994
7.130504
6.483793
6.754994
6.600618
7.359982
10.021925
13.742447
22.081733
30.763745
44.250488
53.508878
64.421892
69.894791
72.014928
69.288611
61.449409
53.324699
41.242838
31.704903
21.766424
16.310811
11.608601
9.919405
8.187890
##ZVALUE=350
0.080466
0.153780
0.135899
0.016689
0.142455
0.067949
0.149608
0.145435
0.170469
0.235438
0.128746
0.119805
0.253916
0.002980
0.132918
0.159740
0.126958
0.134706
0.117421
0.135899
0.234842
0.182986
0.312924
0.252724
0.045896
0.261664
0.194907
0.379682
0.161529
0.255704
0.419617
0.262856
0.237823
0.347495
0.355840
0.273585
0.251532
0.396967
0.335574
0.403523
0.447631
0.424981
0.340939
0.398755
0.411868
0.666976
0.577569
0.610948
0.775456
0.601411
0.656843
0.636578
0.779629
0.798702
0.840425
1.098514
1.476407
8.435845
27.386546
86.688995
163.688660
326.721668
471.826792
661.450624
775.490999
834.410787
792.512894
654.997826
504.770875
304.314494
186.927915
86.526871
40.170550
12.917519
7.173419
6.212592
5.966425
6.042719
6.338954
7.156730
9.282827
14.117956
18.869638
28.466582
36.174655
48.872828
57.275891
63.990951
65.303445
63.146949
57.916641
47.902465
40.454865
29.590726
22.640824
15.578866
##ZVALUE=355
0.208616
0.239611
0.192523
0.165701
0.199676
0.246763
0.339746
0.335574
0.357628
0.294447
0.332594
0.317693
0.407696
0.333786
0.425577
0.262856
0.180602
0.242591
0.484586
0.300407
0.238419
0.413656
0.314713
0.431538
0.423789
0.393987
0.392795
0.466704
0.382662
0.427961
0.466704
0.290871
0.572801
0.258684
0.223517
0.556707
0.296831
0.562668
0.510812
0.449419
0.489950
0.560880
0.514984
0.529885
0.526905
0.640750
0.484586
0.473857
0.640750
0.763535
0.552535
0.775456
0.809431
0.821948
0.823736
0.945926
0.919700
1.096725
1.422763
4.091859
14.755726
57.039857
116.233826
244.417787
381.643772
583.010912
708.448887
804.928541
799.641609
685.293674
555.235744
371.295810
233.519673
104.990602
50.925612
16.472936
8.382797
6.259680
5.804896
5.877614
5.618930
6.151795
6.928444
8.548498
10.968447
16.909838
23.586750
33.384562
41.787624
51.009655
56.007504
59.482455
58.467984
52.933693
46.332479
37.036538
##ZVALUE=360
0.187755
0.234842
0.368953
0.393987
0.252724
0.186563
0.134706
0.298619
0.385642
0.282526
0.239611
0.267625
0.341535
0.252724
0.136495
0.391603
0.214577
0.166893
0.340939
0.255704
0.334978
0.414848
0.326633
0.255704
0.325441
0.384450
0.209808
0.347495
0.293851
0.283718
0.369549
0.231862
0.327826
0.437498
0.418425
0.351667
0.510812
0.309944
0.586510
0.498891
0.353456
0.438690
0.442863
0.540614
0.587702
0.591874
0.431538
0.596642
0.713468
0.647902
0.547767
0.685453
0.704527
0.740886
0.645518
0.739694
0.810623
1.031756
0.975728
1.116991
1.241565
2.072453
6.475449
29.435754
72.068572
176.512599
291.642547
475.247502
617.647767
754.805803
784.346461
729.803443
619.412661
425.338745
285.232663
140.686631
74.437857
27.910471
11.571646
5.995631
5.445480
5.214810
5.316734
5.159974
5.532503
5.903840
7.067919
9.631515
13.069510
19.387603
26.551485
36.718845
43.270588
51.680803
53.939819
54.107904
##ZVALUE=365
0.202656
0.256896
0.176430
0.195503
0.383854
0.398755
0.092983
0.345707
0.231862
0.224710
0.168681
0.111461
0.103712
0.166893
0.141859
0.246763
0.356436
0.135899
0.183582
0.290871
0.112653
0.024438
0.187755
0.202656
0.246763
0.234842
0.301600
0.236630
0.338554
0.295639
0.245571
0.201464
0.300407
0.323653
0.321865
0.323653
0.536442
0.293851
0.247955
0.434518
0.455976
0.497699
0.197887
0.359416
0.424981
0.319481
0.441670
0.484586
0.370741
0.656843
0.526905
0.457764
0.644922
0.631809
0.478625
0.504851
0.745654
0.550747
0.949502
0.920892
0.856519
0.977516
1.254678
1.304746
3.253818
12.405515
49.388409
106.282830
241.752863
379.526615
565.912724
678.700805
763.964653
752.852559
647.514462
520.053506
340.088010
208.709836
93.315840
44.658780
13.888478
7.195473
5.284548
5.218983
5.116463
4.844666
4.673600
4.937649
5.227923
5.897880
8.197427
10.995865
16.529560
22.169948
30.926466
37.330985
##ZVALUE=370
0.306964
0.258684
0.155568
0.301600
0.224710
0.260472
0.211596
0.266433
0.211596
0.139475
0.107884
0.230670
0.234842
0.242591
0.138879
0.169873
0.133514
0.220537
0.136495
0.249743
0.173450
0.253916
0.386834
0.243783
0.334978
0.178814
0.219941
0.215769
0.429749
0.386834
0.285506
0.323653
0.375509
0.459552
0.391603
0.277758
0.285506
0.175834
0.314713
0.300407
0.309944
0.356436
0.475645
0.337958
0.360608
0.369549
0.461936
0.448823
0.328422
0.318885
0.539422
0.543594
0.577569
0.403523
0.542998
0.537634
0.492930
0.554919
0.488758
0.650883
0.516772
0.782609
0.819564
0.953674
0.806451
1.153946
1.691580
8.193851
27.469993
89.408755
166.036487
315.803885
460.521579
637.975931
726.500750
750.588775
693.556666
544.127822
405.439734
228.970647
130.302906
53.150654
24.746656
9.089708
5.549788
4.695654
4.514456
4.333854
4.343987
4.182458
4.251599
4.633665
5.211830
7.009506
9.448528
13.962984
##ZVALUE=375
0.176430
0.153780
0.101924
0.171661
0.250936
0.212789
0.088811
0.110865
0.219941
0.178814
0.177622
0.171661
0.157952
0.333786
0.312924
0.210404
0.192523
-0.002980
0.265837
0.201464
0.167489
0.127554
0.151992
0.121593
0.201464
0.322461
0.214577
0.265837
0.334978
0.272989
0.180602
0.213981
0.238419
0.393987
0.321865
0.306964
0.337958
0.460744
0.400543
0.291467
0.223517
0.286698
0.442863
0.399947
0.319481
0.460744
0.471473
0.368953
0.446439
0.336766
0.414848
0.506639
0.340939
0.460744
0.500679
0.319481
0.343919
0.493526
0.409484
0.437498
0.476837
0.524521
0.531673
0.559688
0.635982
0.917912
0.734925
1.115799
1.207590
4.055500
14.516711
53.258538
114.770532
253.168941
388.766527
574.832559
684.357882
747.922659
723.627806
598.547459
466.691852
287.422538
184.309483
90.457797
44.931769
14.906526
6.376505
4.454851
4.156828
4.156828
4.129410
3.947616
3.900528
3.920794
4.125834
4.691482
##ZVALUE=380
0.186563
0.163913
0.199676
0.109673
0.173450
0.218749
0.150800
0.214577
0.205636
0.143647
0.186563
0.124574
0.301600
0.209808
0.179410
0.201464
0.193715
0.173450
0.214577
0.162721
0.130534
0.268817
0.158548
0.063777
0.316501
0.265837
0.460744
0.174642
0.430942
0.153780
0.269413
0.268817
0.368953
0.267625
0.302792
0.155568
0.463724
0.182986
0.380874
0.388622
0.250936
0.216961
0.185966
0.286698
0.221729
0.329614
0.306964
0.348687
0.517964
0.382662
0.372529
0.450611
0.324845
0.449419
0.465512
0.247955
0.366569
0.440478
0.395775
0.356436
0.299811
0.494719
0.442863
0.404716
0.493526
0.678897
0.654459
0.718832
0.741482
0.925660
1.134872
2.242923
7.956624
38.150549
87.028742
202.591419
324.796438
503.656864
632.607937
739.129782
745.654702
652.483702
534.288883
360.609889
243.274570
120.744705
62.481761
22.195578
9.443760
4.746914
4.096627
3.821850
3.769994
3.537536
3.573895
3.520846
##ZVALUE=385
0.034571
0.073910
0.150800
0.159740
0.219941
0.142455
0.283718
0.054836
0.160933
0.106692
0.189543
0.113845
0.241995
0.160933
0.288486
0.110865
0.042915
0.180602
0.219941
0.187755
0.216961
0.024438
0.207424
0.216961
0.202656
0.231862
0.136495
0.231862
0.440478
0.251532
0.342727
0.417829
0.280738
0.322461
0.323653
0.342727
0.310540
0.303984
0.312924
0.355840
0.335574
0.381470
0.427961
0.284910
0.237823
0.321865
0.508428
0.291467
0.179410
0.361800
0.570416
0.253916
0.312924
0.342727
0.310540
0.460744
0.387430
0.339746
0.471473
0.314713
0.436902
0.293851
0.271797
0.408888
0.453591
0.366569
0.528693
0.571609
0.811815
0.719428
0.947714
0.943542
1.130700
1.210570
3.669858
21.180511
54.332614
138.193965
245.402455
426.209569
562.455654
693.525672
729.679465
693.334937
608.741641
447.328687
317.728519
175.126791
99.480748
40.294528
16.453862
5.409718
3.831983
3.551841
3.481507
3.568530
##ZVALUE=390
0.121593
0.112653
-0.007749
0.193715
0.106692
0.249743
0.066757
0.052452
0.204444
0.162721
0.308752
0.078678
0.234842
0.309944
0.410676
0.121593
0.189543
0.173450
0.149608
0.209808
0.242591
0.037551
0.180602
0.260472
0.086427
0.347495
0.267625
0.330806
0.280738
0.297427
0.041723
0.243783
0.376701
0.442863
0.433922
0.358820
0.548959
0.410676
0.444651
0.351667
0.394583
0.376701
0.443459
0.375509
0.232458
0.483990
0.322461
0.315905
0.354648
0.359416
0.371933
0.381470
0.377893
0.366569
0.382662
0.196695
0.467896
0.337958
0.303984
0.339746
0.389814
0.481606
0.295639
0.355840
0.525713
0.440478
0.501871
0.649691
0.623465
0.904799
0.688434
0.697970
0.763535
0.856519
0.789762
0.960827
1.908541
10.914803
34.731627
105.553865
196.678638
364.409685
491.828918
636.037588
710.399747
729.141831
676.090717
531.395674
403.303504
245.341659
143.255591
58.521628
26.666522
7.802844
4.388690
3.455877
##ZVALUE=395
0.087619
0.129938
0.179410
0.047684
0.205636
0.062585
0.097752
0.121593
0.145435
0.092983
-0.043511
0.019670
0.101924
0.140667
0.013709
0.248551
0.139475
0.052452
0.116825
0.077486
0.095963
0.041723
0.152588
0.175834
0.209808
0.042915
0.242591
0.242591
0.280738
0.388622
0.395775
0.353456
0.418425
0.370741
0.506639
0.459552
0.513792
0.466704
0.469685
0.602603
0.501871
0.508428
0.484586
0.352859
0.437498
0.414848
0.474453
0.409484
0.298619
0.224710
0.250936
0.342727
0.336766
0.379682
0.276566
0.389814
0.490546
0.371933
0.360608
0.190735
0.410676
0.361800
0.367761
0.426769
0.319481
0.426769
0.398755
0.595450
0.540614
0.639558
0.629425
0.687838
0.763535
0.686646
0.749826
0.858903
0.676513
1.017451
1.092553
5.946755
22.271872
75.597763
143.589973
274.568796
404.107571
578.066707
682.546496
743.338466
718.647838
608.217716
475.795865
297.662616
185.022950
82.086921
39.326549
12.989640
##ZVALUE=400
0.052452
0.123978
-0.019670
0.034571
0.076890
0.032783
0.069737
0.137687
0.213981
0.301600
0.312924
0.157952
0.120997
0.122786
0.182986
0.094771
0.024438
0.119805
0.065565
0.053644
-0.025630
0.186563
0.158548
0.203848
0.153780
0.175834
0.462532
0.275970
0.464916
0.218749
0.334978
0.541806
0.460744
0.621676
0.673532
0.620484
0.724792
0.545979
0.545979
0.459552
0.488758
0.476837
0.434518
0.388622
0.522733
0.439882
0.327826
0.421405
0.347495
0.548959
0.470877
0.364780
0.448823
0.255704
0.201464
0.329614
0.455976
0.281930
0.427961
0.269413
0.425577
0.444651
0.327826
0.410676
0.316501
0.470877
0.451803
0.631809
0.515580
0.758767
0.689626
0.740886
0.738502
0.836849
0.442863
0.795722
0.696778
0.665784
0.698566
1.096725
1.041889
3.065467
11.550784
43.081641
94.374418
208.555460
328.755975
504.075885
620.734692
713.917613
725.068450
638.700724
525.432825
348.488688
229.494572
116.467476
##END
